Data from mixed_try1_USB4F045381__20__00168.txt Node

Date: Thu Apr 03 20:11:43 EDT 2025
User: mmckonesweet
Spectrometer: USB4F04538
Trigger mode: 4
Integration Time (sec): 2.700000E-3
Scans to average: 1
Electric dark correction enabled: true
Nonlinearity correction enabled: true
Boxcar width: 0
XAxis mode: Wavelengths
Number of Pixels in Spectrum: 3648
>>>>>Begin Spectral Data<<<<<
345.52	18.61609
345.736	18.61609
345.952	18.61609
346.168	-19.31659
346.384	-10.88778
346.6	-10.88778
346.816	5.97099
347.032	39.69314
347.248	50.23254
347.464	-2.45859
347.68	-8.78052
347.896	-53.02787
348.112	-44.60065
348.328	10.18593
348.544	22.83131
348.76	1.75615
348.975	-10.88778
349.191	-23.53085
349.407	-0.35123
349.623	43.90883
349.839	18.61609
350.055	39.69314
350.27	31.26204
350.486	-4.56592
350.702	-61.45468
350.918	41.80097
351.133	-8.78052
351.349	16.50851
351.565	29.15432
351.781	-69.8811
351.996	10.18593
352.212	5.97099
352.428	29.15432
352.644	-19.31659
352.859	8.07845
353.075	5.97099
353.291	1.75615
353.506	-15.10224
353.722	-6.67324
353.938	35.47754
354.153	52.34049
354.369	-15.10224
354.584	10.18593
354.8	1.75615
355.016	-2.45859
355.231	3.86356
355.447	14.40096
355.662	5.97099
355.878	29.15432
356.093	31.26204
356.309	27.04663
356.524	27.04663
356.74	-2.45859
356.955	39.69314
357.171	14.40096
357.386	50.23254
357.602	-44.60065
357.817	-0.35123
358.033	48.12461
358.248	-40.38689
358.464	-27.74501
358.679	10.18593
358.895	-29.85205
359.11	1.75615
359.325	3.86356
359.541	14.40096
359.756	5.97099
359.972	-36.17303
360.187	8.07845
360.402	22.83131
360.618	81.85419
360.833	60.77252
361.048	27.04663
361.264	16.50851
361.479	-36.17303
361.694	-23.53085
361.909	-12.99502
362.125	-59.34802
362.34	-10.88778
362.555	-4.56592
362.77	33.36978
362.986	35.47754
363.201	1.75615
363.416	8.07845
363.631	-25.63794
363.847	14.40096
364.062	50.23254
364.277	33.36978
364.492	64.98867
364.707	5.97099
364.922	-53.02787
365.138	31.26204
365.353	-4.56592
365.568	-40.38689
365.783	67.09678
365.998	-2.45859
366.213	33.36978
366.428	37.58533
366.643	67.09678
366.858	79.74592
367.073	31.26204
367.288	8.07845
367.503	1.75615
367.718	1.75615
367.933	39.69314
368.148	-8.78052
368.363	22.83131
368.578	-6.67324
368.793	18.61609
369.008	58.66448
369.223	-15.10224
369.438	71.31307
369.653	22.83131
369.868	-36.17303
370.083	27.04663
370.298	-19.31659
370.513	-19.31659
370.728	5.97099
370.943	31.26204
371.157	-38.27997
371.372	50.23254
371.587	73.42125
371.802	-12.99502
372.017	-23.53085
372.232	48.12461
372.446	5.97099
372.661	-34.06606
372.876	39.69314
373.091	8.07845
373.306	41.80097
373.52	-2.45859
373.735	-8.78052
373.95	-6.67324
374.165	-97.26409
374.379	-2.45859
374.594	24.93896
374.809	-6.67324
375.023	-25.63794
375.238	5.97099
375.453	73.42125
375.667	-36.17303
375.882	8.07845
376.097	64.98867
376.311	27.04663
376.526	73.42125
376.741	-19.31659
376.955	-0.35123
377.17	-31.95906
377.384	67.09678
377.599	-44.60065
377.813	-46.70749
378.028	60.77252
378.242	-12.99502
378.457	-27.74501
378.672	5.97099
378.886	-50.9211
379.101	-44.60065
379.315	39.69314
379.53	56.55646
379.744	8.07845
379.958	-44.60065
380.173	-15.10224
380.387	56.55646
380.602	8.07845
380.816	29.15432
381.031	-2.45859
381.245	5.97099
381.459	-36.17303
381.674	8.07845
381.888	24.93896
382.103	33.36978
382.317	-2.45859
382.531	22.83131
382.746	12.29343
382.96	31.26204
383.174	31.26204
383.388	-17.20943
383.603	-44.60065
383.817	41.80097
384.031	-40.38689
384.246	31.26204
384.46	86.0708
384.674	73.42125
384.888	90.28749
385.103	5.97099
385.317	-2.45859
385.531	-40.38689
385.745	56.55646
385.959	98.72115
386.174	22.83131
386.388	16.50851
386.602	10.18593
386.816	-10.88778
387.03	-44.60065
387.244	-19.31659
387.458	12.29343
387.672	-27.74501
387.887	31.26204
388.101	48.12461
388.315	-2.45859
388.529	27.04663
388.743	18.61609
388.957	-8.78052
389.171	-42.49378
389.385	-6.67324
389.599	-4.56592
389.813	39.69314
390.027	-42.49378
390.241	39.69314
390.455	24.93896
390.669	-44.60065
390.883	90.28749
391.097	33.36978
391.311	-15.10224
391.525	56.55646
391.738	27.04663
391.952	50.23254
392.166	27.04663
392.38	-23.53085
392.594	18.61609
392.808	-59.34802
393.022	-19.31659
393.236	48.12461
393.449	52.34049
393.663	67.09678
393.877	-76.20064
394.091	43.90883
394.305	20.72369
394.518	-80.41353
394.732	-8.78052
394.946	43.90883
395.16	-10.88778
395.373	39.69314
395.587	-6.67324
395.801	1.75615
396.015	58.66448
396.228	24.93896
396.442	-53.02787
396.656	1.75615
396.869	-0.35123
397.083	86.0708
397.297	5.97099
397.51	5.97099
397.724	3.86356
397.938	54.44846
398.151	-69.8811
398.365	-25.63794
398.578	-15.10224
398.792	48.12461
399.005	35.47754
399.219	10.18593
399.433	-40.38689
399.646	-48.81431
399.86	83.96248
400.073	20.72369
400.287	-55.13461
400.5	-6.67324
400.714	48.12461
400.927	20.72369
401.141	-27.74501
401.354	35.47754
401.567	-0.35123
401.781	-36.17303
401.994	-23.53085
402.208	64.98867
402.421	-34.06606
402.635	83.96248
402.848	-15.10224
403.061	64.98867
403.275	33.36978
403.488	-50.9211
403.701	-19.31659
403.915	3.86356
404.128	-2.45859
404.341	-31.95906
404.555	27.04663
404.768	27.04663
404.981	-23.53085
405.195	1.75615
405.408	-23.53085
405.621	31.26204
405.834	41.80097
406.048	-25.63794
406.261	5.97099
406.474	22.83131
406.687	64.98867
406.9	33.36978
407.114	41.80097
407.327	33.36978
407.54	-2.45859
407.753	-50.9211
407.966	52.34049
408.179	33.36978
408.392	22.83131
408.605	-27.74501
408.819	-12.99502
409.032	-17.20943
409.245	31.26204
409.458	39.69314
409.671	29.15432
409.884	71.31307
410.097	-48.81431
410.31	67.09678
410.523	5.97099
410.736	-42.49378
410.949	79.74592
411.162	31.26204
411.375	-2.45859
411.588	31.26204
411.801	52.34049
412.014	5.97099
412.227	-6.67324
412.44	8.07845
412.653	27.04663
412.865	14.40096
413.078	-10.88778
413.291	-15.10224
413.504	-0.35123
413.717	18.61609
413.93	77.63768
414.143	41.80097
414.356	41.80097
414.568	-90.94533
414.781	35.47754
414.994	107.15516
415.207	8.07845
415.42	-23.53085
415.632	54.44846
415.845	50.23254
416.058	3.86356
416.271	1.75615
416.483	14.40096
416.696	16.50851
416.909	83.96248
417.121	10.18593
417.334	52.34049
417.547	18.61609
417.759	31.26204
417.972	43.90883
418.185	27.04663
418.397	64.98867
418.61	41.80097
418.823	14.40096
419.035	-10.88778
419.248	10.18593
419.46	18.61609
419.673	1.75615
419.885	-25.63794
420.098	48.12461
420.311	-34.06606
420.523	56.55646
420.736	-0.35123
420.948	58.66448
421.161	-21.42373
421.373	24.93896
421.586	5.97099
421.798	5.97099
422.01	81.85419
422.223	-36.17303
422.435	31.26204
422.648	14.40096
422.86	27.04663
423.073	86.0708
423.285	-10.88778
423.497	39.69314
423.71	-25.63794
423.922	31.26204
424.134	31.26204
424.347	-19.31659
424.559	-23.53085
424.771	-10.88778
424.984	-17.20943
425.196	33.36978
425.408	39.69314
425.621	50.23254
425.833	37.58533
426.045	22.83131
426.257	81.85419
426.47	5.97099
426.682	5.97099
426.894	37.58533
427.106	8.07845
427.318	-48.81431
427.531	-23.53085
427.743	27.04663
427.955	-19.31659
428.167	50.23254
428.379	-17.20943
428.591	16.50851
428.804	-10.88778
429.016	-36.17303
429.228	-2.45859
429.44	-42.49378
429.652	107.15516
429.864	-19.31659
430.076	16.50851
430.288	31.26204
430.5	-2.45859
430.712	-17.20943
430.924	-17.20943
431.136	73.42125
431.348	8.07845
431.56	22.83131
431.772	-19.31659
431.984	16.50851
432.196	-6.67324
432.408	-10.88778
432.62	119.80683
432.832	18.61609
433.044	90.28749
433.256	39.69314
433.468	64.98867
433.679	73.42125
433.891	-6.67324
434.103	33.36978
434.315	48.12461
434.527	-31.95906
434.739	12.29343
434.95	-2.45859
435.162	35.47754
435.374	27.04663
435.586	60.77252
435.798	22.83131
436.009	-6.67324
436.221	22.83131
436.433	1.75615
436.645	12.29343
436.856	22.83131
437.068	41.80097
437.28	22.83131
437.491	60.77252
437.703	41.80097
437.915	60.77252
438.126	1.75615
438.338	64.98867
438.55	-6.67324
438.761	50.23254
438.973	69.20492
439.184	75.52945
439.396	56.55646
439.608	100.82962
439.819	64.98867
440.031	75.52945
440.242	-27.74501
440.454	33.36978
440.665	41.80097
440.877	43.90883
441.088	48.12461
441.3	-8.78052
441.511	33.36978
441.723	39.69314
441.934	-10.88778
442.146	22.83131
442.357	10.18593
442.569	67.09678
442.78	92.39587
442.991	18.61609
443.203	-44.60065
443.414	12.29343
443.626	56.55646
443.837	20.72369
444.048	39.69314
444.26	39.69314
444.471	-8.78052
444.682	29.15432
444.894	48.12461
445.105	39.69314
445.316	-48.81431
445.528	75.52945
445.739	24.93896
445.95	136.67694
446.161	96.6127
446.373	-19.31659
446.584	43.90883
446.795	52.34049
447.006	-17.20943
447.217	22.83131
447.429	3.86356
447.64	48.12461
447.851	81.85419
448.062	73.42125
448.273	41.80097
448.484	58.66448
448.695	48.12461
448.907	94.50427
449.118	41.80097
449.329	18.61609
449.54	46.01671
449.751	39.69314
449.962	83.96248
450.173	-21.42373
450.384	77.63768
450.595	50.23254
450.806	83.96248
451.017	77.63768
451.228	12.29343
451.439	64.98867
451.65	1.75615
451.861	41.80097
452.072	41.80097
452.283	56.55646
452.494	-25.63794
452.705	-44.60065
452.915	-6.67324
453.126	48.12461
453.337	56.55646
453.548	41.80097
453.759	75.52945
453.97	60.77252
454.181	83.96248
454.391	107.15516
454.602	-53.02787
454.813	64.98867
455.024	39.69314
455.235	39.69314
455.445	-2.45859
455.656	22.83131
455.867	-19.31659
456.078	22.83131
456.288	50.23254
456.499	54.44846
456.71	39.69314
456.921	52.34049
457.131	52.34049
457.342	16.50851
457.553	56.55646
457.763	41.80097
457.974	12.29343
458.184	58.66448
458.395	-27.74501
458.606	90.28749
458.816	16.50851
459.027	147.22146
459.237	58.66448
459.448	64.98867
459.659	48.12461
459.869	31.26204
460.08	90.28749
460.29	81.85419
460.501	43.90883
460.711	115.58952
460.922	43.90883
461.132	94.50427
461.343	14.40096
461.553	115.58952
461.764	43.90883
461.974	79.74592
462.184	14.40096
462.395	75.52945
462.605	39.69314
462.816	105.04662
463.026	64.98867
463.236	1.75615
463.447	52.34049
463.657	60.77252
463.867	24.93896
464.078	48.12461
464.288	117.69816
464.498	58.66448
464.709	81.85419
464.919	48.12461
465.129	46.01671
465.339	39.69314
465.55	43.90883
465.76	52.34049
465.97	5.97099
466.18	86.0708
466.391	100.82962
466.601	50.23254
466.811	111.37229
467.021	124.02423
467.231	100.82962
467.441	94.50427
467.651	48.12461
467.862	86.0708
468.072	81.85419
468.282	187.2954
468.492	140.89469
468.702	35.47754
468.912	52.34049
469.122	62.88058
469.332	143.00359
469.542	31.26204
469.752	128.24171
469.962	132.45929
470.172	96.6127
470.382	98.72115
470.592	90.28749
470.802	107.15516
471.012	115.58952
471.222	115.58952
471.432	124.02423
471.642	119.80683
471.852	155.65745
472.062	161.98467
472.272	100.82962
472.482	178.85816
472.691	166.20292
472.901	113.4809
473.111	90.28749
473.321	124.02423
473.531	140.89469
473.741	166.20292
473.95	98.72115
474.16	90.28749
474.37	166.20292
474.58	149.33043
474.79	134.5681
474.999	166.20292
475.209	183.07674
475.419	202.06136
475.628	235.81579
475.838	143.00359
476.048	233.70599
476.258	275.90563
476.467	210.49949
476.677	187.2954
476.886	343.44047
477.096	309.67074
477.306	259.02486
477.515	216.8283
477.725	250.58493
477.935	246.36508
478.144	278.01581
478.354	235.81579
478.563	280.12601
478.773	322.33385
478.982	301.22902
479.192	301.22902
479.401	275.90563
479.611	242.1453
479.82	406.7706
480.03	406.7706
480.239	425.77255
480.449	328.66565
480.658	360.32701
480.868	389.88109
481.077	402.54813
481.287	301.22902
481.496	436.32974
481.705	470.11538
481.915	440.55273
482.124	351.8836
482.333	406.7706
482.543	446.88733
482.752	605.29508
482.961	537.6981
483.171	455.33367
483.38	546.14697
483.589	529.24946
483.799	567.2701
484.008	556.70836
484.217	691.92262
484.426	622.19641
484.636	565.15772
484.845	605.29508
485.054	626.42187
485.263	668.67912
485.472	723.62049
485.682	696.14886
485.891	672.90511
486.1	698.262
486.309	808.15966
486.518	854.66273
486.727	894.82784
486.936	869.46005
487.146	753.20736
487.355	869.46005
487.564	918.08266
487.773	937.11002
487.982	858.89049
488.191	892.71381
488.4	975.1665
488.609	1002.65311
488.818	886.37178
489.027	968.8236
489.236	1121.0683
489.445	1137.98605
489.654	1036.48424
489.863	1114.72421
490.072	1070.31686
490.281	1341.01625
490.49	1125.29771
490.698	1222.57865
490.907	1247.95749
491.116	1459.45851
491.325	1076.66063
491.534	1296.60134
491.743	1307.17624
491.952	1391.77694
492.16	1273.33673
492.369	1560.98041
492.578	1349.47632
492.787	1364.28149
492.996	1548.29029
493.204	1510.21968
493.413	1459.45851
493.622	1599.05046
493.831	1421.38758
494.039	1711.14153
494.248	1556.75038
494.457	1654.03943
494.665	1683.64819
494.874	1791.50337
495.083	1664.61404
495.291	1700.56723
495.5	1647.69462
495.709	1918.37775
495.917	1717.48608
496.126	1780.92976
496.335	1692.10773
496.543	1937.4073
496.752	1755.55269
496.96	1996.60726
497.169	1859.1719
497.377	2053.68816
497.586	2034.66174
497.794	2017.7489
498.003	1916.26333
498.211	2127.67423
498.42	2169.94776
498.628	2123.4467
498.837	2034.66174
499.045	2178.40207
499.254	2123.4467
499.462	2288.29561
499.671	2095.96703
499.879	2396.05123
500.087	2231.23848
500.296	2326.32992
500.504	2288.29561
500.713	2505.89194
500.921	2512.22799
501.129	2457.31218
501.338	2254.48478
501.546	2529.12363
501.754	2406.6141
501.962	2651.59435
502.171	2482.65887
502.379	2619.9248
502.587	2535.4593
502.795	2611.47912
503.004	2442.52587
503.212	2676.92796
503.42	2643.14941
503.628	2824.66976
503.837	2634.70427
504.045	2828.88998
504.253	2736.03251
504.461	2727.58963
504.669	2748.69643
504.877	2940.70508
505.085	2774.02283
505.294	2961.79769
505.502	2858.42995
505.71	3122.05176
505.918	2824.66976
506.126	2913.28249
506.334	2904.84427
506.542	3039.82727
506.75	2786.6853
506.958	3081.99666
507.166	3039.82727
507.374	3086.21326
507.582	3092.53803
507.79	3296.96043
507.998	3172.63942
508.206	3486.48738
508.414	3166.31647
508.622	3071.4549
508.83	3229.53929
509.037	3423.32764
509.245	3237.96787
509.453	3284.32028
509.661	3370.68227
509.869	3425.43322
510.077	3301.17367
510.285	3518.06116
510.492	3385.42408
510.7	3633.79616
510.908	3296.96043
511.116	3494.90746
511.324	3465.43593
511.531	3513.85156
511.739	3395.95342
511.947	3699.00355
512.155	3741.06307
512.362	3717.93129
512.57	3629.5886
512.778	3690.59073
512.985	3469.64637
513.193	3677.97091
513.401	3741.06307
513.608	3789.42192
513.816	3696.90037
514.024	3890.3112
514.231	3566.46627
514.439	3833.5666
514.646	3812.54641
514.854	4007.95695
515.061	3753.67942
515.269	3949.14203
515.477	3806.23997
515.684	4024.75827
515.892	3923.93075
516.099	3928.13283
516.307	3947.0412
516.514	4175.91043
516.722	4144.42933
516.929	4301.7871
517.136	4091.95034
517.344	4326.95318
517.551	4133.93458
517.759	4171.71323
517.966	4295.49509
518.173	4350.01936
518.381	4163.31856
518.588	4519.7891
518.796	4236.7604
519.003	4186.40308
519.21	4343.72884
519.418	4452.73676
519.625	4488.36112
519.832	4597.29013
520.039	4452.73676
520.247	4528.16906
520.454	4530.26399
520.661	4739.64465
520.868	4521.88413
521.076	4871.43863
521.283	4687.32051
521.49	4580.53573
521.697	4637.07611
521.904	4691.50696
522.112	4647.54476
522.319	4946.70879
522.526	4620.3251
522.733	5026.12831
522.94	4620.3251
523.147	4925.80339
523.354	4704.06577
523.561	5065.82557
523.768	4850.52498
523.975	4978.06258
524.183	4653.82568
524.39	5057.46895
524.597	4913.25905
524.804	4942.5279
525.011	5021.94917
525.218	5141.01849
525.425	4948.79921
525.632	5330.9549
525.838	5245.40309
526.045	5308.00584
526.252	5207.83135
526.459	5314.26495
526.666	5182.77932
526.873	5322.61011
527.08	5297.57351
527.287	5360.1587
527.494	5249.57726
527.701	5504.02446
527.907	5353.90113
528.114	5556.12209
528.321	5497.77175
528.528	5443.57277
528.735	5447.74249
528.941	5606.12196
529.148	5397.69968
529.355	5685.26064
529.562	5468.58966
529.768	5830.95323
529.975	5566.53985
530.182	5872.55844
530.388	5324.69635
530.595	5541.53623
530.802	5422.72278
531.008	6130.30028
531.215	6022.25909
531.422	6009.7887
531.628	5739.38853
531.835	5941.18641
532.042	5714.40841
532.248	6097.06361
532.455	5766.4465
532.661	6086.67592
532.868	5980.68784
533.074	6416.71743
533.281	5922.47224
533.487	6327.51927
533.694	6059.66516
533.9	6414.64354
534.107	6121.99168
534.313	6248.65705
534.52	6250.73281
534.726	6462.33704
534.933	6433.30768
535.139	6317.1446
535.345	6306.76933
535.552	6572.19269
535.758	6329.59414
535.965	6308.84443
536.171	6420.86513
536.377	6644.70326
536.584	6536.96306
536.79	6478.9232
536.996	6623.98884
537.203	6675.77058
537.409	6478.9232
537.615	6580.48104
537.821	6553.54254
538.028	6913.78223
538.234	6630.20341
538.44	6771.01147
538.646	6806.19694
538.853	6955.14486
539.059	6917.9189
539.265	6955.14486
539.471	6942.73702
539.677	6907.57705
539.883	6897.23464
540.09	6969.61964
540.296	6901.37168
540.502	7041.97701
540.708	6835.16826
540.914	7035.77603
541.12	7008.90278
541.326	7095.71041
541.532	7015.10463
541.738	7440.48702
541.944	7149.4287
542.15	7409.54405
542.356	7170.08557
542.562	7450.80025
542.768	7316.68575
542.974	7562.14885
543.18	7475.54982
543.386	7527.10143
543.592	7405.41795
543.798	7578.63961
544.004	7199.00146
544.21	7636.34652
544.415	7271.27223
544.621	7836.13162
544.827	7506.4824
545.033	7597.19008
545.239	7611.61703
545.445	7984.29909
545.651	7630.16444
545.856	7963.72664
546.062	7848.483
546.268	7862.89199
546.474	7852.59996
546.679	7669.31441
546.885	7811.42663
547.091	7632.22515
547.297	7605.43418
547.502	7677.55554
547.708	7817.60316
547.914	7957.55451
548.119	7998.69858
548.325	8037.77791
548.531	7663.13335
548.736	7788.77774
548.942	7702.27689
549.147	7869.06697
549.353	8093.2991
549.559	8228.95602
549.764	8239.22953
549.97	7971.95587
550.175	7941.09459
550.381	8313.18427
550.586	8187.85703
550.792	8362.47335
550.997	8169.35989
551.203	8479.49025
551.408	8272.10144
551.614	8502.06529
551.819	8409.69823
552.025	8604.65023
552.23	8247.44798
552.435	8561.5703
552.641	8748.19068
552.846	8647.72191
553.052	8744.09078
553.257	8762.53976
553.462	8516.43003
553.668	8748.19068
553.873	8715.38942
554.078	8877.30034
554.283	8783.03689
554.489	8922.36942
554.694	8701.03738
554.899	8774.83825
555.105	8707.18837
555.31	8865.00727
555.515	9090.27886
555.72	9045.24153
555.925	8791.23523
556.131	9166.00464
556.336	8981.76552
556.541	9317.38655
556.746	9123.02803
556.951	9262.16326
557.156	8963.33384
557.361	9080.04384
557.567	9231.47839
557.772	8996.10028
557.977	8897.78735
558.182	9364.41908
558.387	9100.51345
558.592	9456.41421
558.797	9378.73161
559.002	9501.37768
559.207	9466.63386
559.412	9298.98014
559.617	9161.91196
559.822	9337.83655
560.027	9151.67994
560.232	9425.75282
560.437	9343.97123
560.642	9515.68261
560.847	9593.32439
561.051	9562.67904
561.256	9288.75377
561.461	9693.40802
561.666	9511.59556
561.871	9670.94351
562.076	9660.73175
562.281	9811.82674
562.485	9485.02822
562.69	9636.22194
562.895	9534.07352
563.1	9807.74418
563.305	9574.93761
563.509	9877.13953
563.714	9740.37328
563.919	9738.33148
564.123	9617.83812
564.328	9762.83208
564.533	9630.09414
564.737	9646.43463
564.942	9775.08156
565.147	9895.50602
565.351	9589.23855
565.556	9977.12051
565.761	10040.35581
565.965	10095.42056
566.17	9756.70713
566.374	9909.79025
566.579	9773.04001
566.784	10115.8123
566.988	9860.81276
567.193	10221.82694
567.397	10134.16367
567.602	10327.80467
567.806	10048.5142
568.011	10101.53823
568.215	10268.7062
568.42	10500.96046
568.624	10319.65383
568.828	10189.21103
569.033	10209.59638
569.237	10492.81405
569.442	10291.12419
569.646	10105.6166
569.85	10144.35839
570.055	10268.7062
570.259	10331.88001
570.463	10517.25268
570.668	10160.66921
570.872	10456.15266
571.076	10395.04105
571.281	10395.04105
571.485	10401.15274
571.689	10431.70942
571.893	10358.36844
572.098	10657.73969
572.302	10344.10572
572.506	10710.66161
572.71	10584.44952
572.914	10608.88136
573.119	10405.22713
573.323	10617.0249
573.527	10486.70411
573.731	10899.8934
573.935	10844.96556
574.139	10956.8468
574.343	10425.59832
574.547	10877.51641
574.751	10820.55048
574.955	10936.50732
575.159	10918.20082
575.364	10999.55606
575.568	10861.24135
575.772	11389.82119
575.976	10836.82739
576.18	11028.02617
576.383	11064.62743
576.587	11166.27919
576.791	10999.55606
576.995	11298.38709
577.199	11178.47561
577.403	11143.91809
577.607	11251.64621
577.811	11184.57367
578.015	10804.27283
578.219	11080.89352
578.422	11113.42362
578.626	11298.38709
578.83	11028.02617
579.034	11030.05967
579.238	11265.87227
579.442	11454.82883
579.645	11080.89352
579.849	11513.73346
580.053	11190.67165
580.257	11292.29076
580.46	11588.87611
580.664	11692.4305
580.868	11361.37719
581.071	11716.79285
581.275	11582.78394
581.479	11698.52121
581.682	11389.82119
581.886	11536.0745
582.09	11387.78954
582.293	11830.46718
582.497	11592.93752
582.7	11984.69723
582.904	11771.6035
583.107	11824.37816
583.311	11501.54695
583.515	11716.79285
583.718	11670.09723
583.922	12025.2763
584.125	11739.12388
584.329	11966.4356
584.532	12004.98716
584.735	11970.4938
584.939	11927.88114
585.142	11958.31912
585.346	11877.14709
585.549	11893.38255
585.753	12155.10844
585.956	12122.65333
586.159	12000.92924
586.363	12226.09734
586.566	11911.64681
586.769	12128.73881
586.973	11869.02917
587.176	12108.45362
587.379	12441.03913
587.582	12230.15358
587.786	12128.73881
587.989	12619.42454
588.192	12443.06651
588.395	12357.91048
588.599	12483.61288
588.802	12554.5628
589.005	12558.61684
589.208	12507.93945
589.411	12822.0781
589.615	12771.42012
589.818	12501.85789
590.021	12872.73264
590.224	12514.02095
590.427	12546.45463
590.63	12536.31928
590.833	12538.34636
591.036	12659.95995
591.239	13071.26679
591.442	12720.75859
591.645	12820.05185
591.848	12858.54971
592.051	12830.18306
592.254	12469.42195
592.457	12797.7627
592.66	12718.73205
592.863	12992.26416
593.066	12878.81095
593.269	13093.54825
593.472	12848.41888
593.675	13194.8204
593.878	13136.08397
594.081	13158.36376
594.284	12876.78485
594.486	13516.79432
594.689	13202.92168
594.892	13127.98208
595.095	13154.31293
595.298	13202.92168
595.5	13243.427
595.703	13283.93057
595.906	13152.28751
596.109	13324.43244
596.311	13103.67599
596.514	13162.41457
596.717	13263.679
596.92	13703.05012
597.122	13407.45611
597.325	13555.2626
597.528	13328.48253
597.73	13287.98083
597.933	13417.58049
598.136	13672.68427
598.338	13500.59676
598.541	13433.77929
598.743	13587.65594
598.946	13530.967
599.148	13591.70504
599.351	13506.67087
599.554	13784.02226
599.756	13599.80321
599.959	13792.1192
600.161	13838.67573
600.363	13490.47317
600.566	13836.65156
600.768	14075.48464
600.971	13862.96549
601.173	13972.26455
601.376	14020.83949
601.578	14047.15033
601.78	13960.12058
601.983	13879.15844
602.185	13678.7575
602.388	13852.8448
602.59	14158.46116
602.792	14162.5087
602.995	14178.69879
603.197	13919.64004
603.399	14186.79378
603.601	14257.62362
603.804	14132.15193
604.006	14164.53247
604.208	14032.98301
604.41	13996.5522
604.613	14030.95909
604.815	13790.09497
605.017	14316.30946
605.219	14012.74376
605.421	14219.17343
605.623	14016.79163
605.826	14453.91208
606.028	14077.5085
606.23	14372.97025
606.432	14140.24711
606.634	14668.39757
606.836	13972.26455
607.038	14441.77096
607.24	14336.54561
607.442	14393.20594
607.644	14198.93621
607.846	14348.68722
608.048	14269.76564
608.25	14439.74744
608.452	14294.04949
608.654	14478.19417
608.856	14423.55918
609.058	14516.64041
609.26	14198.93621
609.462	14496.40561
609.664	14300.12041
609.866	14623.88279
610.067	14205.0074
610.269	14391.18238
610.471	14275.83663
610.673	14751.35571
610.875	14686.60802
611.077	14575.32061
611.278	14518.66388
611.48	14508.5465
611.682	14429.62979
611.884	14698.74828
612.085	14488.31165
612.287	14472.12367
612.489	14546.99237
612.69	14820.14922
612.892	14860.61562
613.094	14526.75776
613.295	14532.82816
613.497	14607.69547
613.699	14611.7423
613.9	14769.56584
614.102	14836.33581
614.304	14688.6314
614.505	14542.94546
614.707	14799.91592
614.908	14646.14024
615.11	14965.82725
615.311	14619.83596
615.513	14698.74828
615.714	14615.78914
615.916	14911.1983
616.117	14658.28062
616.319	14644.11684
616.52	14769.56584
616.722	14844.42909
616.923	14781.70589
617.124	14979.99026
617.326	14905.1284
617.527	15226.82976
617.729	14901.08179
617.93	15046.75855
618.131	15214.69013
618.333	14988.08341
618.534	14975.94369
618.735	15022.47921
618.937	15046.75855
619.138	15170.17817
619.339	14973.9204
619.54	15089.24732
619.742	14791.82258
619.943	14840.38245
620.144	14996.17654
620.345	15073.06113
620.546	15243.01594
620.748	15160.06182
620.949	14996.17654
621.15	15319.90047
621.351	14884.89535
621.552	15194.45742
621.753	14901.08179
621.954	15105.4335
622.155	14935.47787
622.356	15327.9936
622.558	15145.89892
622.759	15506.04405
622.96	15273.36506
623.161	15162.08509
623.362	15093.29386
623.563	15433.20479
623.764	15234.92285
623.965	15623.39792
624.166	15595.0709
624.366	15348.22644
624.567	14933.45458
624.768	15149.94546
624.969	14727.07543
625.17	15293.59783
625.371	15131.73603
625.572	15206.59704
625.773	14884.89535
625.973	15380.59906
626.174	15360.36616
626.375	15255.15559
626.576	15238.9694
626.777	15497.95076
626.977	15022.47921
627.178	15352.27301
627.379	15178.27125
627.58	15232.89958
627.78	15463.55439
627.981	15497.95076
628.182	15548.53397
628.382	15514.13734
628.583	15613.28111
628.784	15918.81945
628.984	15540.44063
629.185	15501.9974
629.386	15038.66544
629.586	15953.21943
629.787	15346.20316
629.987	15160.06182
630.188	15370.48261
630.388	15595.0709
630.589	15427.13488
630.79	15487.83416
630.99	15141.85238
631.191	15419.04168
631.391	15645.65498
631.591	15301.69095
631.792	15560.674
631.992	16094.87065
632.193	15283.48144
632.393	15449.39123
632.594	15558.65066
632.794	15765.03559
632.994	15706.35657
633.195	15728.61403
633.395	15321.92375
633.595	15692.19279
633.796	15595.0709
633.996	15615.30447
634.196	15354.2963
634.397	16274.98113
634.597	15615.30447
634.797	15993.6905
634.997	15627.44465
635.198	15995.71406
635.398	15698.26298
635.598	15795.38715
635.798	16038.20931
635.998	15748.84819
636.199	16015.94982
636.399	15852.04405
636.599	15783.2465
636.799	15754.91846
636.999	15835.85627
637.199	15688.14601
637.399	15690.1694
637.599	15817.64511
637.799	15586.97749
637.999	16036.18572
638.199	15888.46683
638.399	15732.66086
638.599	15805.50439
638.799	16171.77014
638.999	16054.39815
639.199	15971.43134
639.399	15918.81945
639.599	15971.43134
639.799	16013.92624
639.999	15961.3136
640.199	16088.79974
640.399	15937.03115
640.599	15255.15559
640.799	16556.30649
640.998	16289.1477
641.198	16457.12981
641.398	16285.1001
641.598	16505.70551
641.798	16430.81847
641.997	16345.81488
642.197	16283.0763
642.397	16416.65096
642.597	16384.26846
642.796	16657.51255
642.996	16291.1715
643.196	16489.51348
643.395	16145.46216
643.595	16133.32011
643.795	16096.89429
643.994	16177.84125
644.194	16279.02871
644.394	16513.80158
644.593	16262.83842
644.793	16750.62719
644.992	16349.8626
645.192	16258.79087
645.392	16123.20177
645.591	16274.98113
645.791	16252.71955
645.99	16440.93818
646.19	16424.74667
646.389	16655.48837
646.589	16521.89768
646.788	16477.36954
646.987	16163.67535
647.187	16637.27089
647.386	16493.56147
647.586	16590.71592
647.785	16264.8622
647.984	16590.71592
648.184	16497.60948
648.383	17082.64412
648.582	16671.68185
648.782	17019.8794
648.981	16602.86058
649.18	16608.93294
649.38	16673.70604
649.579	16924.72492
649.778	16799.21075
649.977	16938.89649
650.177	16995.58408
650.376	16805.28379
650.575	16469.27362
650.774	16764.79725
650.973	16746.57862
651.173	16689.89969
651.372	16582.61953
651.571	16770.87017
651.77	16655.48837
651.969	16671.68185
652.168	16780.99175
652.367	16957.11727
652.566	16710.14195
652.765	17084.66883
652.964	17169.70929
653.163	17360.05645
653.362	17179.83349
653.561	16785.0404
653.76	16746.57862
653.959	17017.85477
654.158	17135.28755
654.357	16916.62693
654.556	16835.64934
654.755	16924.72492
654.954	16748.6029
655.153	16726.33593
655.352	16967.24002
655.551	16902.45556
655.749	17021.90402
655.948	17240.58019
656.147	17001.65787
656.346	17248.67995
656.545	16928.77392
656.743	16995.58408
656.942	16949.01912
657.141	17034.05185
657.34	16999.63327
657.538	17449.16426
657.737	17252.72985
657.936	17329.68014
658.135	17208.18162
658.333	17115.03985
658.532	17165.65963
658.731	17398.53409
658.929	16687.87547
659.128	17003.68247
659.326	16833.62496
659.525	17179.83349
659.724	17023.92865
659.922	17398.53409
660.121	17445.11378
660.319	17287.15444
660.518	17038.10114
660.716	17173.75896
660.915	17042.15045
661.113	17341.83058
661.312	17165.65963
661.51	17325.63002
661.709	16946.99459
661.907	17347.90584
662.105	16991.53489
662.304	17406.63479
662.502	17599.04112
662.701	17522.07515
662.899	17356.00623
663.097	17266.90458
663.296	17321.5799
663.494	17763.11596
663.692	17303.35455
663.891	17465.36633
664.089	17518.02443
664.287	17511.94839
664.485	17437.01284
664.684	17755.01299
664.882	17038.10114
665.08	17315.50476
665.278	17117.06461
665.476	17242.60513
665.675	17315.50476
665.873	17133.26277
666.071	17019.8794
666.269	17141.36192
666.467	17025.95329
666.665	17552.4559
666.863	17027.97792
667.061	17266.90458
667.259	17323.60496
667.457	17489.6698
667.655	17011.78091
667.853	17378.28256
668.051	17335.75535
668.249	17301.32953
668.447	17147.43631
668.645	17639.55141
668.843	17416.76073
669.041	17673.98619
669.239	17485.61919
669.437	17481.56859
669.635	17836.04519
669.833	17260.82967
670.031	17333.73027
670.229	17501.82171
670.426	17495.74574
670.624	17329.68014
670.822	17515.99908
671.02	17829.96758
671.218	17501.82171
671.415	17483.59389
671.613	17194.00749
671.811	17287.15444
672.009	17258.80471
672.206	17637.52586
672.404	17489.6698
672.602	17451.18951
672.799	17564.6084
672.997	17430.93718
673.195	17360.05645
673.392	17410.68515
673.59	17036.07649
673.788	17238.55526
673.985	17021.90402
674.183	17497.77106
674.38	17187.9329
674.578	17345.88075
674.775	17356.00623
674.973	17457.26527
675.17	17714.49892
675.368	17420.81113
675.565	17467.3916
675.763	17163.63481
675.96	17256.77975
676.158	17378.28256
676.355	17299.30451
676.553	17550.43049
676.75	17384.35799
676.947	17817.81247
677.145	17256.77975
677.342	17765.14171
677.539	17404.60961
677.737	17469.41688
677.934	17469.41688
678.131	17631.44925
678.329	17619.2961
678.526	17819.83831
678.723	17759.06447
678.92	18125.78092
679.118	17384.35799
679.315	17578.78647
679.512	17568.65926
679.709	17617.27059
679.906	17479.5433
680.104	17303.35455
680.301	17183.88319
680.498	17319.55485
680.695	17078.5947
680.892	17406.63479
681.089	17360.05645
681.286	17564.6084
681.483	17076.57
681.68	17388.40829
681.877	17309.42964
682.075	17076.57
682.272	17272.97951
682.469	17430.93718
682.665	17177.80864
682.862	17264.87961
683.059	16922.70042
683.256	16892.33323
683.453	17015.83015
683.65	16900.43109
683.847	17198.05723
684.044	16955.09273
684.241	16764.79725
684.438	17125.16367
684.635	17092.76771
684.831	17317.52981
685.028	17017.85477
685.225	17038.10114
685.422	17250.7049
685.619	17092.76771
685.815	16930.79843
686.012	17196.03235
686.209	17025.95329
686.405	17226.40573
686.602	17092.76771
686.799	16740.50579
686.996	16898.40662
687.192	16910.55347
687.389	16799.21075
687.586	16803.25944
687.782	16874.11319
687.979	16959.14182
688.175	16580.59544
688.372	16861.96661
688.568	16821.47868
688.765	16951.04365
688.962	16918.65142
689.158	16938.89649
689.355	17141.36192
689.551	16908.52899
689.748	16803.25944
689.944	17127.18844
690.14	16821.47868
690.337	16768.84586
690.533	16795.16206
690.73	17011.78091
690.926	17058.34778
691.123	16495.58547
691.319	16469.27362
691.515	17048.22443
691.712	16574.52317
691.908	16783.01607
692.104	16499.63348
692.301	16831.60057
692.497	16655.48837
692.693	17025.95329
692.889	16799.21075
693.086	16811.35686
693.282	16501.65749
693.478	16578.57134
693.674	16420.69881
693.87	16768.84586
694.067	16880.18651
694.263	16938.89649
694.459	16687.87547
694.655	17048.22443
694.851	16845.77132
695.047	16868.03989
695.243	16904.48003
695.439	17007.73169
695.635	16971.28914
695.831	16874.11319
696.027	16673.70604
696.224	16602.86058
696.42	16584.64362
696.615	16760.74865
696.811	16505.70551
697.007	16768.84586
697.203	16550.2343
697.399	16323.5526
697.595	16250.69578
697.791	16404.50747
697.987	16343.79103
698.183	16813.38122
698.379	16349.8626
698.575	16447.01002
698.77	16455.10585
698.966	16665.60928
699.162	16562.37869
699.358	16847.79572
699.554	16534.04189
699.749	16534.04189
699.945	16505.70551
700.141	16584.64362
700.337	16803.25944
700.532	16523.92171
700.728	16795.16206
700.924	16578.57134
701.119	16653.4642
701.315	16643.34336
701.511	16536.06594
701.706	16194.03095
701.902	16260.81464
702.097	16339.74333
702.293	16372.12515
702.489	16177.84125
702.684	16327.60027
702.88	16627.15014
703.075	16408.55529
703.271	16234.50569
703.466	16351.88645
703.662	16505.70551
703.857	16268.90977
704.053	16558.33055
704.248	16303.31436
704.443	16612.98119
704.639	16258.79087
704.834	16291.1715
705.03	16457.12981
705.225	16376.17291
705.42	16153.55689
705.616	16404.50747
705.811	16293.1953
706.006	16374.14903
706.202	16465.22568
706.397	16434.86634
706.592	16339.74333
706.787	16396.41184
706.983	16465.22568
707.178	16706.09348
707.373	16451.05793
707.568	16382.24457
707.763	16076.65795
707.959	16833.62496
708.154	16521.89768
708.349	16586.66772
708.544	16497.60948
708.739	16534.04189
708.934	16368.07739
709.129	16291.1715
709.324	16315.45728
709.519	16266.88598
709.714	16238.5532
709.909	16596.78824
710.104	16046.30372
710.299	16285.1001
710.494	16198.0784
710.689	16230.45819
710.884	16289.1477
711.079	16139.39113
711.274	15912.7489
711.469	16408.55529
711.664	15993.6905
711.859	16457.12981
712.054	16266.88598
712.249	16177.84125
712.443	15997.73763
712.638	16074.63432
712.833	15669.93552
713.028	15746.82477
713.223	15665.88875
713.417	15943.10175
713.612	16096.89429
713.807	16210.22077
714.002	15837.87974
714.196	16228.43444
714.391	15850.02057
714.586	16111.05983
714.78	15983.57268
714.975	16127.2491
715.17	15843.95015
715.364	16408.55529
715.559	16092.84701
715.754	16036.18572
715.948	15722.54381
716.143	15700.28638
716.337	15327.9936
716.532	15641.60823
716.726	15542.46396
716.921	15728.61403
717.115	15437.2514
717.31	15603.16432
717.504	15906.67836
717.699	16030.11493
717.893	15831.80934
718.088	15932.9841
718.282	15797.41059
718.476	15821.69203
718.671	16074.63432
718.865	15882.39634
719.059	15410.94848
719.254	15400.832
719.448	15370.48261
719.642	15637.56149
719.837	15657.79523
720.031	15615.30447
720.225	15528.30064
720.419	15633.51475
720.614	15417.01838
720.808	15692.19279
721.002	15255.15559
721.196	15661.84199
721.39	15516.16067
721.585	15330.01688
721.779	15568.76737
721.973	15595.0709
722.167	15198.50396
722.361	15457.48446
722.555	15289.55128
722.749	15151.96873
722.943	15285.50472
723.137	15317.87719
723.331	15206.59704
723.525	15433.20479
723.719	14915.2449
723.913	15437.2514
724.107	15489.85748
724.301	15336.08673
724.495	15251.10904
724.689	15279.43489
724.883	15178.27125
725.077	15184.34106
725.271	15046.75855
725.465	15103.41023
725.659	15113.52658
725.853	15323.94703
726.046	15350.24973
726.24	15394.76211
726.434	14737.19223
726.628	14984.03684
726.822	15016.40936
727.015	14947.61763
727.209	15066.9913
727.403	15097.34041
727.596	15077.10768
727.79	15489.85748
727.984	15238.9694
728.177	15613.28111
728.371	15301.69095
728.565	15285.50472
728.758	15093.29386
728.952	15052.82837
729.146	15160.06182
729.339	15218.73667
729.533	15069.01458
729.726	15073.06113
729.92	15216.7134
730.113	15566.74403
730.307	15344.17987
730.5	15330.01688
730.694	15309.78407
730.887	15449.39123
731.081	15469.62433
731.274	15192.43415
731.468	14943.57105
731.661	15141.85238
731.854	15305.73751
732.048	15257.17886
732.241	14951.66422
732.435	15101.38695
732.628	15125.66621
732.821	15206.59704
733.014	15028.54904
733.208	15188.3876
733.401	15277.41161
733.594	15000.22311
733.788	15255.15559
733.981	15056.87493
734.174	15613.28111
734.367	15607.21103
734.56	15473.67096
734.754	15315.85391
734.947	15449.39123
735.14	15789.31682
735.333	15190.41087
735.526	15522.23065
735.719	14973.9204
735.912	15125.66621
736.105	15105.4335
736.298	15145.89892
736.491	15135.78257
736.684	15180.29452
736.877	15354.2963
737.07	15315.85391
737.263	15014.38608
737.456	15139.82911
737.649	14959.75738
737.842	15105.4335
738.035	15368.45932
738.228	14903.10509
738.421	14850.49905
738.614	15012.3628
738.807	15099.36368
739	14969.87383
739.192	14546.99237
739.385	14988.08341
739.578	15024.50248
739.771	14876.80212
739.964	14880.84873
740.156	14888.94196
740.349	14872.7555
740.542	14941.54776
740.735	14654.23383
740.927	14739.21559
741.12	14581.39092
741.313	14818.1259
741.505	15093.29386
741.698	15008.31624
741.891	14979.99026
742.083	14937.50117
742.276	15044.73527
742.468	15129.71276
742.661	14757.42576
742.854	14474.14717
743.046	14403.32373
743.239	14640.07004
743.431	14733.14551
743.624	14642.09344
743.816	14939.52446
744.009	15010.33952
744.201	14761.47246
744.393	14723.02871
744.586	14714.93525
744.778	14826.2192
744.971	14907.1517
745.163	14886.91866
745.355	14650.18704
745.548	14664.35079
745.74	14433.67685
745.932	14692.67816
746.125	14737.19223
746.317	14684.58464
746.509	14557.10962
746.702	14716.95861
746.894	14686.60802
747.086	14969.87383
747.278	14482.24117
747.471	14636.02323
747.663	14534.85162
747.855	14834.31249
748.047	14516.64041
748.239	14575.32061
748.431	14486.28816
748.623	14387.13525
748.815	14332.49839
749.008	14559.13307
749.2	14557.10962
749.392	14897.03518
749.584	14340.59282
749.776	14540.922
749.968	14383.08812
750.16	14243.45784
750.352	14150.36605
750.544	14316.30946
750.736	14439.74744
750.928	14354.758
751.12	14694.70153
751.311	14569.25029
751.503	14399.27662
751.695	14496.40561
751.887	14294.04949
752.079	14263.69464
752.271	13962.14458
752.463	14213.10229
752.654	13954.04857
752.846	14012.74376
753.038	14207.03112
753.23	14522.71082
753.421	14544.96891
753.613	14342.61642
753.805	14180.72254
753.997	14346.66362
754.188	14182.74629
754.38	14117.98527
754.572	13976.31251
754.763	13958.09658
754.955	13903.44753
755.146	13945.95251
755.338	14178.69879
755.53	14192.865
755.721	14196.91248
755.913	14061.31754
756.104	14037.03083
756.296	14429.62979
756.487	14277.86029
756.679	14063.34142
756.87	13832.60323
757.062	13986.43239
757.253	13917.61599
757.445	13709.1232
757.636	14105.84233
757.827	13901.42345
758.019	14107.86616
758.21	13781.99801
758.401	13767.82822
758.593	13836.65156
758.784	13294.05619
758.975	13283.93057
759.167	13680.7819
759.358	14026.91126
759.549	13636.24428
759.74	13579.55769
759.932	13330.50757
760.123	13012.52196
760.314	13150.26208
760.505	13263.679
760.696	13462.1266
760.888	13336.58267
761.079	13506.67087
761.27	13553.23798
761.461	13571.45938
761.652	13587.65594
761.843	13506.67087
762.034	13652.43997
762.225	13354.80774
762.416	13316.3322
762.607	13354.80774
762.798	13401.38144
762.989	13352.78275
763.18	13397.33163
763.371	13500.59676
763.562	13296.08131
763.753	13168.49075
763.944	13494.52262
764.135	13387.20706
764.326	13640.29322
764.517	13741.5125
764.708	13247.47743
764.899	12953.77293
765.089	13166.46536
765.28	13132.03303
765.471	13211.02288
765.662	13075.31801
765.853	13225.19982
766.043	12858.54971
766.234	13166.46536
766.425	12864.62814
766.615	12969.97999
766.806	12951.74702
766.997	13158.36376
767.187	12775.47288
767.378	12789.65739
767.569	12706.57271
767.759	12886.9153
767.95	12856.52356
768.141	12947.6952
768.331	12651.85306
768.522	12878.81095
768.712	12420.76489
768.903	12643.74608
769.093	12297.07735
769.284	12501.85789
769.474	12376.1592
769.665	12617.39771
769.855	12611.31717
770.046	12872.73264
770.236	12518.07525
770.426	12542.40051
770.617	12655.90652
770.807	12418.73743
770.998	12668.06674
771.188	12828.15683
771.378	12576.85974
771.569	12445.09389
771.759	12307.21664
771.949	12374.13159
772.139	12333.57798
772.33	12404.54502
772.52	12333.57798
772.71	12325.46692
772.9	12293.02158
773.09	12404.54502
773.281	12355.88281
773.471	12655.90652
773.661	12284.90997
773.851	12220.01293
774.041	12447.12127
774.231	12479.55836
774.421	12059.76604
774.611	12151.05165
774.802	11897.44133
774.992	12266.65842
775.182	11726.94345
775.372	11757.39394
775.562	11871.05866
775.752	12274.77029
775.942	11946.14415
776.131	11988.75528
776.321	11684.30944
776.511	11982.66819
776.701	11773.6334
776.891	12013.10291
777.081	11871.05866
777.271	11864.97015
777.461	11860.9111
777.651	11917.73475
777.84	11733.03371
778.03	11775.66329
778.22	11994.84229
778.41	11869.02917
778.599	11617.30516
778.789	11828.43751
778.979	11838.58574
779.169	11954.26083
779.358	11450.76614
779.548	11856.85202
779.738	11560.44526
779.927	11757.39394
780.117	11471.07918
780.307	11475.14168
780.496	11592.93752
780.686	11822.34848
780.875	11391.85283
781.065	11698.52121
781.254	11424.35774
781.444	11548.26005
781.633	11625.42742
781.823	11649.79331
782.012	11308.54744
782.202	11288.22649
782.391	11188.639
782.581	11300.41918
782.77	11578.72245
782.96	11659.94538
783.149	11339.02697
783.338	11379.66284
783.528	11519.82658
783.717	11351.21815
783.906	11229.28995
784.096	11023.95914
784.285	11101.22516
784.474	11357.31361
784.663	11113.42362
784.853	11013.79138
785.042	10930.40526
785.231	11015.82496
785.42	10903.9618
785.61	11093.09263
785.799	10924.30309
785.988	10873.44771
786.177	10517.25268
786.366	11007.6906
786.555	10792.06409
786.744	10844.96556
786.933	11015.82496
787.122	11194.73691
787.312	10794.09891
787.501	10916.16671
787.69	11066.66073
787.879	10895.82496
788.068	10490.77742
788.257	10641.45437
788.445	10472.44713
788.634	10824.61978
788.823	10588.52162
789.012	10500.96046
789.201	10578.34128
789.39	10441.89433
789.579	10466.3368
789.768	10472.44713
789.957	10478.55734
790.145	10576.30517
790.334	10519.28915
790.523	10458.18952
790.712	10610.91726
790.9	10790.02926
791.089	10674.02424
791.278	10853.10355
791.467	10505.03359
791.655	10816.48114
791.844	10456.15266
792.033	10527.4349
792.221	10132.12468
792.41	10197.36533
792.599	10274.82036
792.787	10227.94204
792.976	10160.66921
793.164	10409.30147
793.353	10179.01783
793.541	10262.59192
793.73	10172.90175
793.918	10299.27578
794.107	10075.02741
794.295	10333.91766
794.484	10425.59832
794.672	10164.74678
794.861	10313.54055
795.049	10162.708
795.238	10111.73406
795.426	10193.28821
795.614	10136.20264
795.803	10093.3813
795.991	9938.35654
796.179	10238.13359
796.368	10046.47462
796.556	9899.5873
796.744	9638.26451
796.932	9701.57648
797.121	9707.70265
797.309	9583.10967
797.497	9711.7867
797.685	9697.49228
797.874	9619.88083
798.062	9679.11264
798.25	9417.57584
798.438	9954.67885
798.626	9828.15637
798.814	9973.04034
799.002	9713.8287
799.19	9956.71907
799.378	9454.37023
799.566	9875.09874
799.755	9654.60451
799.943	9919.99282
800.131	9630.09414
800.318	10054.63285
800.506	9732.20599
800.694	9754.66546
800.882	9521.81306
801.07	9781.20609
801.258	9672.98581
801.446	9879.18031
801.634	9568.8084
801.822	9672.98581
802.01	9746.49859
802.197	10170.86303
802.385	9746.49859
802.573	9707.70265
802.761	9630.09414
802.949	9893.46536
803.136	9636.22194
803.324	9675.0281
803.512	9621.92352
803.699	9740.37328
803.887	9762.83208
804.075	9793.45476
804.262	9758.7488
804.45	9840.40296
804.638	9372.59777
804.825	9644.39213
805.013	9458.45817
805.201	9695.45016
805.388	9626.00886
805.576	10007.71996
805.763	9681.15488
805.951	9711.7867
806.138	9887.34329
806.326	9844.48504
806.513	9736.28967
806.701	9658.68935
806.888	9728.12226
807.075	9868.97627
807.263	9552.46314
807.45	9695.45016
807.638	9523.85651
807.825	9868.97627
808.012	9593.32439
808.2	9668.90119
808.387	9815.90923
808.574	9938.35654
808.761	9630.09414
808.949	9981.20062
809.136	9838.3619
809.323	9797.53752
809.51	9873.05793
809.698	9697.49228
809.885	9760.79045
810.072	10021.99859
810.259	9979.16057
810.446	10209.59638
810.633	9677.07038
810.82	9695.45016
811.008	9503.42129
811.195	9601.49588
811.382	9556.54955
811.569	9650.5196
811.756	9868.97627
811.943	10201.44241
812.13	9548.37667
812.317	9932.23543
812.504	9785.28904
812.691	9930.19503
812.878	9732.20599
813.064	9936.31618
813.251	9832.23862
813.438	10291.12419
813.625	9948.55809
813.812	9922.03329
813.999	9877.13953
814.186	9926.11419
814.372	9711.7867
814.559	9952.63861
814.746	9476.85311
814.933	9689.3237
815.12	9593.32439
815.306	9760.79045
815.493	9358.2849
815.68	9507.50846
815.866	9566.76529
816.053	9560.63589
816.24	9662.77413
816.426	9777.12308
816.613	9738.33148
816.799	9599.45303
816.986	9748.54033
817.173	9828.15637
817.359	9570.85148
817.546	9585.15264
817.732	9527.94336
817.919	9854.68998
818.105	9687.28152
818.292	9826.11521
818.478	9826.11521
818.665	9803.66156
818.851	9754.66546
819.037	9846.52606
819.224	9630.09414
819.41	9797.53752
819.597	9752.62376
819.783	9834.27973
819.969	9581.06667
820.156	9638.26451
820.342	9713.8287
820.528	9877.13953
820.714	9529.98676
820.901	9634.17936
821.087	9448.23819
821.273	9726.08036
821.459	9585.15264
821.646	9564.72218
821.832	9446.19415
822.018	9768.95689
822.204	9157.8192
822.39	9474.80929
822.576	9188.5132
822.762	9180.32851
822.948	9315.34146
823.134	9237.61567
823.32	9421.66436
823.507	9613.75265
823.693	9329.65675
823.879	9605.58154
824.065	9108.70081
824.25	9276.48158
824.436	9217.15749
824.622	9206.92777
824.808	9204.88177
824.994	9413.48725
825.18	9208.97375
825.366	9294.88964
825.552	9264.20879
825.738	9583.10967
825.923	9284.66311
826.109	9615.79539
826.295	9354.19536
826.481	9638.26451
826.667	9286.70845
826.852	9450.28222
827.038	9104.60716
827.224	9462.54605
827.409	9260.11772
827.595	9219.20338
827.781	8975.62178
827.966	9286.70845
828.152	8787.13609
828.338	9198.74369
828.523	8885.49536
828.709	9067.76124
828.894	8887.54407
829.08	8914.17568
829.266	8772.78855
829.451	8930.56287
829.637	8787.13609
829.822	8709.23866
830.008	8698.98702
830.193	8633.3656
830.378	8171.41521
830.564	8577.98268
830.749	8405.59212
830.935	8475.38545
831.12	8454.8603
831.305	8762.53976
831.491	8169.35989
831.676	8614.90614
831.861	8485.64731
832.047	8432.28043
832.232	8319.34602
832.417	8296.75208
832.602	8181.69149
832.788	8294.69797
832.973	8510.27383
833.158	8458.96549
833.343	8518.48206
833.528	8327.56141
833.714	8278.26437
833.899	8676.4318
834.084	8528.74192
834.269	8594.39386
834.454	8265.93834
834.639	8557.46702
834.824	8502.06529
835.009	8590.29118
835.194	8372.7405
835.379	8586.18842
835.564	8224.84647
835.749	8539.00131
835.934	8512.32592
836.119	8274.15577
836.304	8027.49459
836.489	8280.31864
836.674	8027.49459
836.859	8411.75125
837.044	8027.49459
837.228	8304.96833
837.413	8157.02757
837.598	8311.13032
837.783	8346.0449
837.968	8177.58104
838.152	7792.89591
838.337	8004.86949
838.522	8037.77791
838.707	8224.84647
838.891	7661.07295
839.076	7877.29997
839.261	7722.87569
839.445	7809.36774
839.63	7856.71683
839.815	7716.69627
839.999	7372.40603
840.184	7768.18566
840.368	7780.54116
840.553	7770.24496
840.737	7745.53194
840.922	7704.33686
841.106	7751.71048
841.291	7891.70694
841.475	7535.34844
841.66	7932.86414
841.844	7405.41795
842.029	7702.27689
842.213	7415.73303
842.397	7675.49529
842.582	7434.29881
842.766	7850.54149
842.951	7584.82329
843.135	7817.60316
843.319	7586.88448
843.504	7405.41795
843.688	7498.23419
843.872	7537.41014
844.056	7609.5561
844.241	7901.99701
844.425	7308.42954
844.609	7708.45675
844.793	7500.29627
844.977	7679.61577
845.161	7035.77603
845.346	7293.98032
845.53	7046.11089
845.714	7395.10233
845.898	6982.02572
846.082	7079.17867
846.266	7215.52288
846.45	7306.36543
846.634	7145.29706
846.818	7186.60947
847.002	7103.97574
847.186	7384.78616
847.37	7101.90944
847.554	7329.06942
847.738	7025.44061
847.922	7207.26235
848.106	7201.06672
848.29	7248.56147
848.473	6982.02572
848.657	7103.97574
848.841	6862.0662
849.025	6888.96031
849.209	6684.05432
849.392	6835.16826
849.576	6797.9186
849.76	6870.34172
849.944	6851.7213
850.127	6982.02572
850.311	6646.77458
850.495	6996.49845
850.678	6897.23464
850.862	7176.2822
851.046	6893.09752
851.229	6936.53279
851.413	6557.68718
851.596	7025.44061
851.78	6690.26689
851.964	6731.67872
852.147	6458.19026
852.331	6713.04453
852.514	6439.52864
852.698	6429.16026
852.881	6244.50547
853.065	6621.91727
853.248	6277.71549
853.431	6607.41564
853.615	6333.7438
853.798	6456.11684
853.982	6416.71743
854.165	6605.34389
854.348	6524.52748
854.532	6601.20031
854.715	6153.147
854.898	6350.34151
855.081	6113.6827
855.265	6350.34151
855.448	6445.74939
855.631	6387.6809
855.814	6254.88425
855.997	6414.64354
856.181	6175.99088
856.364	6178.06745
856.547	6080.44302
856.73	6188.44998
856.913	6232.05017
857.096	6273.56456
857.279	6196.75557
857.462	5980.68784
857.645	6092.9086
857.828	6256.95993
858.011	6225.82221
858.194	6213.36564
858.377	6013.94559
858.56	6366.93773
858.743	6319.21958
858.926	6300.54389
859.109	5966.13567
859.292	5991.08153
859.475	5797.66227
859.658	5899.59677
859.841	5860.07787
860.023	5866.31826
860.206	5722.7355
860.389	5909.99507
860.572	5685.26064
860.755	5905.83582
860.937	5664.43798
861.12	5905.83582
861.303	5828.87272
861.486	5772.69008
861.668	5731.06221
861.851	5862.15803
862.034	5570.70679
862.216	5974.45133
862.399	5257.92532
862.581	5551.95482
862.764	5397.69968
862.947	5289.22722
863.129	5512.36107
863.312	5362.24451
863.494	5372.6732
863.677	5445.65764
863.859	5397.69968
864.042	5699.83511
864.224	5364.33029
864.406	5639.44766
864.589	5324.69635
864.771	5422.72278
864.954	5339.29931
865.136	5312.17861
865.318	4959.25093
865.501	5186.95489
865.683	5180.6915
865.865	5212.00636
866.048	5274.62033
866.23	4982.24269
866.412	4982.24269
866.594	5151.45957
866.777	5191.13037
866.959	5199.48105
867.141	4988.51269
867.323	5397.69968
867.505	4896.53198
867.687	5082.53771
867.869	5021.94917
868.052	5289.22722
868.234	5024.03875
868.416	5191.13037
868.598	5063.73645
868.78	5212.00636
868.962	5011.5009
869.144	5130.57683
869.326	4829.60906
869.508	5072.0928
869.69	5013.5906
869.872	5143.10675
870.054	4729.18095
870.236	4906.98657
870.417	4647.54476
870.599	4687.32051
870.781	4634.98231
870.963	4756.38539
871.145	4620.3251
871.327	4760.57035
871.508	4752.20034
871.69	4869.34737
871.872	4913.25905
872.054	5113.86896
872.235	4771.03235
872.417	4842.15889
872.599	4611.94906
872.78	4944.61836
872.962	4704.06577
873.144	4879.80345
873.325	4494.64712
873.507	4714.53082
873.689	4620.3251
873.87	5030.30736
874.052	4549.11739
874.233	4630.79465
874.415	4681.04067
874.596	4863.07344
874.778	4544.9279
874.959	4796.13883
875.141	4519.7891
875.322	4796.13883
875.503	4731.27373
875.685	5038.66519
875.866	4691.50696
876.048	4819.15024
876.229	4582.63011
876.41	4557.49611
876.592	4586.8188
876.773	4934.16583
876.954	4779.40154
877.136	5013.5906
877.317	4722.90246
877.498	4955.07031
877.679	4662.19993
877.86	4800.32293
878.042	4630.79465
878.223	4871.43863
878.404	4829.60906
878.585	4775.21699
878.766	4794.04675
878.947	5011.5009
879.128	4595.19591
879.309	4697.78647
879.49	4584.72447
879.672	4917.44059
879.853	4561.68533
880.034	4879.80345
880.215	4923.71273
880.396	5103.42579
880.576	5021.94917
880.757	4946.70879
880.938	4720.80958
881.119	5092.98204
881.3	4681.04067
881.481	4980.15265
881.662	4655.91928
881.843	5099.24836
882.023	4823.33383
882.204	4973.88237
882.385	4823.33383
882.566	4791.95465
882.747	4505.12333
882.927	4848.43349
883.108	4756.38539
883.289	4904.8957
883.469	4561.68533
883.65	4808.69085
883.831	4605.6668
884.011	4775.21699
884.192	4764.75521
884.373	4840.0673
884.553	4875.62108
884.734	5141.01849
884.914	4771.03235
885.095	5172.33999
885.275	5017.76993
885.456	5237.05447
885.636	5051.20124
885.817	5207.83135
885.997	5138.9302
886.178	5061.64731
886.358	4975.97249
886.538	4854.70789
886.719	4595.19591
886.899	4915.34984
887.08	4741.73732
887.26	4921.62204
887.44	4758.47788
887.621	5105.51447
887.801	4883.98572
887.981	5015.68028
888.161	4879.80345
888.342	5009.41118
888.522	4984.33271
888.702	4946.70879
888.882	4733.3665
889.062	4840.0673
889.242	4645.45107
889.423	4645.45107
889.603	4620.3251
889.783	4762.66279
889.963	4574.25247
890.143	4833.79242
890.323	4666.38692
890.503	4932.07526
890.683	4662.19993
890.863	4735.45924
891.043	4796.13883
891.223	5120.13459
891.403	4837.9757
891.583	5076.27083
891.763	4658.01285
891.943	4975.97249
892.122	4714.53082
892.302	4936.25638
892.482	4762.66279
892.662	4856.79932
892.842	4768.93999
893.022	4929.98466
893.201	4645.45107
893.381	4867.25608
893.561	4580.53573
893.741	4831.70075
893.92	4718.71669
894.1	4890.25895
894.28	4823.33383
894.459	4639.16988
894.639	4658.01285
894.819	5030.30736
894.998	4628.70078
895.178	4796.13883
895.357	4402.43274
895.537	4463.21517
895.716	4274.52034
895.896	4607.76091
896.075	4324.85613
896.255	4565.87446
896.434	4295.49509
896.614	4557.49611
896.793	4356.30968
896.973	4345.8257
897.152	4169.61459
897.331	4630.79465
897.511	4362.59981
897.69	4540.73833
897.87	4461.11953
898.049	4791.95465
898.228	4301.7871
898.407	4586.8188
898.587	4240.95629
898.766	4331.14723
898.945	4100.34786
899.124	4031.05843
899.304	4165.41726
899.483	4297.59245
899.662	4070.9551
899.841	4308.07891
900.02	3921.82968
900.199	4133.93458
900.378	3839.87227
900.557	4079.35345
900.737	3932.33483
900.916	3705.31297
901.095	3823.05675
901.274	3772.60262
901.453	3555.94425
901.632	3570.67495
901.811	3402.27081
901.989	3699.00355
902.168	3537.00345
902.347	4037.3584
902.526	3604.34169
902.705	3730.54891
902.884	3650.62562
903.063	3640.10735
903.242	3629.5886
903.42	3646.41837
903.599	3494.90746
903.778	3414.90512
903.957	3294.85378
904.135	3406.48232
904.314	3246.39619
904.493	3410.69376
904.672	3379.10627
904.85	3482.27724
905.029	3347.51483
905.207	3381.21222
905.386	3122.05176
905.565	3275.89318
905.743	3197.92973
905.922	3166.31647
906.1	3044.04449
906.279	3284.32028
906.457	3039.82727
906.636	3181.06978
906.814	2966.01603
906.993	2906.95385
907.171	2803.56784
907.35	2957.57929
907.528	2584.02931
907.707	2989.21585
907.885	2558.68921
908.063	2980.77976
908.242	2710.70323
908.42	2645.26067
908.598	2465.76125
908.777	2683.26107
908.955	2628.37029
909.133	2689.59407
909.311	2491.10742
909.49	2780.35413
909.668	2237.57849
909.846	2685.37209
910.024	2292.5218
910.202	2512.22799
910.38	2512.22799
910.559	2626.25894
910.737	2457.31218
910.915	2641.03815
911.093	2668.48362
911.271	2752.91763
911.449	2676.92796
911.627	2752.91763
911.805	2541.79487
911.983	2930.15822
912.161	2710.70323
912.339	2761.35987
912.517	2689.59407
912.695	2858.42995
912.872	2543.90671
913.05	2765.58091
913.228	2586.1409
913.406	2868.97927
913.584	2657.92792
913.762	2704.37062
913.939	2573.47114
914.117	2879.52823
914.295	2721.25733
914.473	2837.33025
914.65	2469.98572
914.828	2628.37029
915.006	2668.48362
915.184	2788.79567
915.361	2495.33162
915.539	2698.03789
915.716	2360.13556
915.894	2638.92687
916.072	2571.35947
916.249	2522.78785
916.427	2474.21015
916.604	2687.48309
916.782	2575.5828
916.959	2609.36767
917.137	2474.21015
917.314	2603.03324
917.492	2355.90999
917.669	2421.40167
917.847	2269.27731
918.024	2698.03789
918.201	2410.83917
918.379	2467.87349
918.556	2290.40871
918.733	2546.01853
918.911	2339.00733
919.088	2341.1202
919.265	2091.73927
919.442	2313.65216
919.62	2144.58402
919.797	2469.98572
919.974	2205.87767
920.151	2296.74795
920.328	2047.34608
920.506	2243.91842
920.683	1979.69348
920.86	2076.9419
921.037	1952.20774
921.214	2079.05583
921.391	2076.9419
921.568	2136.12919
921.745	2117.10535
921.922	2203.76422
922.099	2034.66174
922.276	2144.58402
922.453	2047.34608
922.63	2330.55577
922.807	2038.88988
922.984	2172.06135
923.161	1973.35071
923.338	2214.33142
923.514	2051.57414
923.691	2076.9419
923.868	1844.36982
924.045	2028.31948
924.222	1848.59901
924.399	2021.97715
924.575	1816.87961
924.752	2119.21914
924.929	1675.1886
925.105	1899.34776
925.282	1641.3498
925.459	1835.91138
925.635	1685.76308
925.812	1734.40471
925.989	1679.4184
926.165	1939.52167
926.342	1806.30626
926.518	1876.08828
926.695	1603.28043
926.871	1780.92976
927.048	1592.70549
927.224	1759.78224
927.401	1290.25642
927.577	1575.78549
927.754	1332.55621
927.93	1569.44047
928.107	1353.70636
928.283	1550.40531
928.459	1345.24629
928.636	1480.60903
928.812	1319.8662
928.988	1408.6973
929.165	1237.38293
929.341	1539.83018
929.517	1319.8662
929.693	1355.82139
929.87	1121.0683
930.046	1421.38758
930.222	1353.70636
930.398	1404.4672
930.574	1357.93641
930.751	1389.6619
930.927	1150.67455
931.103	1292.37139
931.279	1097.80687
931.455	1171.82237
931.631	1108.38017
931.807	1150.67455
931.983	979.39514
932.159	1108.38017
932.335	1036.48424
932.511	1144.33028
932.687	1066.0877
932.863	1146.44503
933.039	1028.02631
933.215	1140.10079
933.391	1040.71324
933.566	1142.21553
933.742	945.56682
933.918	989.96684
934.094	987.85249
934.27	901.16997
934.445	666.56615
934.621	825.06936
934.797	658.11436
934.973	717.28072
935.148	634.87293
935.324	702.4883
935.5	588.39456
935.675	613.74564
935.851	647.5499
936.027	708.82785
936.202	423.66115
936.378	596.84472
936.553	503.90488
936.729	622.19641
936.904	434.21827
937.08	512.35284
937.255	440.55273
937.431	512.35284
937.606	381.43673
937.782	461.6686
937.957	269.5752
938.133	381.43673
938.308	343.44047
938.483	337.1083
938.659	303.33942
938.834	349.77279
939.009	206.28038
939.185	275.90563
939.36	259.02486
939.535	294.89792
939.71	206.28038
939.886	261.13489
940.061	202.06136
940.236	157.7665
940.411	237.92561
940.586	191.51415
940.761	132.45929
940.937	297.00827
941.112	202.06136
941.287	208.38993
941.462	180.96744
941.637	197.84241
941.812	216.8283
941.987	223.15728
942.162	193.62355
942.337	136.67694
942.512	132.45929
942.687	96.6127
942.862	216.8283
943.037	172.53045
943.212	98.72115
943.386	166.20292
943.561	166.20292
943.736	134.5681
943.911	140.89469
944.086	107.15516
944.26	132.45929
944.435	54.44846
944.61	75.52945
944.785	206.28038
944.959	111.37229
945.134	229.48645
945.309	140.89469
945.483	86.0708
945.658	64.98867
945.833	105.04662
946.007	176.7489
946.182	140.89469
946.357	147.22146
946.531	145.11251
946.706	140.89469
946.88	128.24171
947.055	124.02423
947.229	132.45929
947.404	164.09378
947.578	143.00359
947.752	73.42125
947.927	161.98467
948.101	187.2954
948.276	124.02423
948.45	183.07674
948.624	161.98467
948.799	159.87558
948.973	140.89469
949.147	143.00359
949.321	140.89469
949.496	155.65745
949.67	102.93811
949.844	174.63967
950.018	136.67694
950.193	83.96248
950.367	174.63967
950.541	202.06136
950.715	197.84241
950.889	130.35049
951.063	128.24171
951.237	191.51415
951.411	193.62355
951.585	130.35049
951.759	183.07674
951.933	170.42125
952.107	107.15516
952.281	242.1453
952.455	242.1453
952.629	237.92561
952.803	180.96744
952.977	166.20292
953.151	208.38993
953.325	83.96248
953.499	166.20292
953.672	212.60907
953.846	256.91485
954.02	227.37671
954.194	168.31207
954.368	164.09378
954.541	138.7858
954.715	140.89469
954.889	157.7665
955.062	183.07674
955.236	199.95188
955.41	149.33043
955.583	212.60907
955.757	221.0476
955.93	166.20292
956.104	75.52945
956.278	208.38993
956.451	199.95188
956.625	124.02423
956.798	216.8283
956.972	153.54842
957.145	176.7489
957.319	130.35049
957.492	176.7489
957.665	124.02423
957.839	210.49949
958.012	134.5681
958.185	109.26371
958.359	183.07674
958.532	151.43941
958.705	159.87558
958.879	98.72115
959.052	197.84241
959.225	157.7665
959.398	109.26371
959.572	168.31207
959.745	193.62355
959.918	168.31207
960.091	128.24171
960.264	149.33043
960.438	170.42125
960.611	140.89469
960.784	86.0708
960.957	88.17913
961.13	235.81579
961.303	126.13296
961.476	132.45929
961.649	136.67694
961.822	174.63967
961.995	155.65745
962.168	161.98467
962.341	151.43941
962.514	218.93794
962.686	27.04663
962.859	115.58952
963.032	155.65745
963.205	250.58493
963.378	119.80683
963.551	197.84241
963.723	73.42125
963.896	191.51415
964.069	193.62355
964.242	140.89469
964.414	168.31207
964.587	149.33043
964.76	132.45929
964.932	199.95188
965.105	136.67694
965.278	191.51415
965.45	81.85419
965.623	98.72115
965.795	208.38993
965.968	102.93811
966.14	244.25518
966.313	149.33043
966.485	94.50427
966.658	134.5681
966.83	119.80683
967.003	149.33043
967.175	157.7665
967.348	98.72115
967.52	124.02423
967.692	153.54842
967.865	153.54842
968.037	92.39587
968.209	151.43941
968.382	134.5681
968.554	39.69314
968.726	102.93811
968.898	109.26371
969.071	227.37671
969.243	86.0708
969.415	136.67694
969.587	119.80683
969.759	143.00359
969.932	75.52945
970.104	107.15516
970.276	136.67694
970.448	94.50427
970.62	149.33043
970.792	117.69816
970.964	151.43941
971.136	39.69314
971.308	48.12461
971.48	149.33043
971.652	111.37229
971.824	124.02423
971.996	115.58952
972.168	58.66448
972.339	187.2954
972.511	79.74592
972.683	107.15516
972.855	46.01671
973.027	90.28749
973.199	60.77252
973.37	81.85419
973.542	100.82962
973.714	90.28749
973.886	77.63768
974.057	90.28749
974.229	183.07674
974.401	90.28749
974.572	98.72115
974.744	119.80683
974.915	111.37229
975.087	18.61609
975.259	168.31207
975.43	138.7858
975.602	117.69816
975.773	48.12461
975.945	117.69816
976.116	111.37229
976.288	115.58952
976.459	69.20492
976.63	69.20492
976.802	98.72115
976.973	81.85419
977.145	149.33043
977.316	71.31307
977.487	92.39587
977.659	43.90883
977.83	62.88058
978.001	67.09678
978.172	81.85419
978.344	43.90883
978.515	83.96248
978.686	56.55646
978.857	81.85419
979.028	73.42125
979.2	67.09678
979.371	174.63967
979.542	75.52945
979.713	67.09678
979.884	73.42125
980.055	151.43941
980.226	39.69314
980.397	27.04663
980.568	92.39587
980.739	77.63768
980.91	64.98867
981.081	52.34049
981.252	102.93811
981.423	107.15516
981.594	107.15516
981.765	35.47754
981.936	73.42125
982.106	140.89469
982.277	-0.35123
982.448	31.26204
982.619	75.52945
982.79	14.40096
982.96	31.26204
983.131	90.28749
983.302	39.69314
983.472	117.69816
983.643	58.66448
983.814	41.80097
983.984	124.02423
984.155	67.09678
984.326	48.12461
984.496	67.09678
984.667	27.04663
984.837	64.98867
985.008	39.69314
985.178	52.34049
985.349	37.58533
985.519	56.55646
985.69	60.77252
985.86	77.63768
986.031	41.80097
986.201	100.82962
986.371	109.26371
986.542	77.63768
986.712	60.77252
986.882	58.66448
987.053	33.36978
987.223	54.44846
987.393	138.7858
987.563	56.55646
987.734	79.74592
987.904	48.12461
988.074	102.93811
988.244	10.18593
988.414	48.12461
988.585	81.85419
988.755	27.04663
988.925	64.98867
989.095	73.42125
989.265	-27.74501
989.435	64.98867
989.605	58.66448
989.775	60.77252
989.945	29.15432
990.115	77.63768
990.285	81.85419
990.455	5.97099
990.625	83.96248
990.795	39.69314
990.965	-0.35123
991.134	35.47754
991.304	39.69314
991.474	67.09678
991.644	48.12461
991.814	60.77252
991.984	71.31307
992.153	41.80097
992.323	10.18593
992.493	64.98867
992.662	60.77252
992.832	43.90883
993.002	31.26204
993.171	52.34049
993.341	33.36978
993.511	100.82962
993.68	98.72115
993.85	92.39587
994.019	52.34049
994.189	71.31307
994.358	12.29343
994.528	62.88058
994.697	41.80097
994.867	100.82962
995.036	5.97099
995.206	22.83131
995.375	56.55646
995.544	39.69314
995.714	29.15432
995.883	-2.45859
996.052	-21.42373
996.222	41.80097
996.391	56.55646
996.56	22.83131
996.73	75.52945
996.899	3.86356
997.068	35.47754
997.237	75.52945
997.406	90.28749
997.576	86.0708
997.745	18.61609
997.914	16.50851
998.083	100.82962
998.252	22.83131
998.421	14.40096
998.59	-27.74501
998.759	41.80097
998.928	48.12461
999.097	52.34049
999.266	-10.88778
999.435	43.90883
999.604	54.44846
999.773	102.93811
999.942	16.50851
1000.111	52.34049
1000.28	-6.67324
1000.448	31.26204
1000.617	58.66448
1000.786	64.98867
1000.955	90.28749
1001.124	-10.88778
1001.292	98.72115
1001.461	-40.38689
1001.63	-46.70749
1001.798	33.36978
1001.967	8.07845
1002.136	126.13296
1002.304	81.85419
1002.473	39.69314
1002.642	-15.10224
1002.81	35.47754
1002.979	81.85419
1003.147	16.50851
1003.316	5.97099
1003.484	52.34049
1003.653	-48.81431
1003.821	94.50427
1003.99	52.34049
1004.158	-10.88778
1004.327	8.07845
1004.495	-48.81431
1004.663	39.69314
1004.832	-10.88778
1005	-2.45859
1005.168	46.01671
1005.337	81.85419
1005.505	-8.78052
1005.673	-0.35123
1005.842	-15.10224
1006.01	22.83131
1006.178	35.47754
1006.346	50.23254
1006.514	-8.78052
1006.683	22.83131
1006.851	27.04663
1007.019	8.07845
1007.187	18.61609
1007.355	-50.9211
1007.523	83.96248
1007.691	-2.45859
1007.859	64.98867
1008.027	64.98867
1008.195	67.09678
1008.363	73.42125
1008.531	-19.31659
1008.699	-36.17303
1008.867	33.36978
1009.035	18.61609
1009.203	14.40096
1009.37	16.50851
1009.538	22.83131
1009.706	-27.74501
1009.874	-15.10224
1010.042	-17.20943
1010.209	-4.56592
1010.377	54.44846
1010.545	35.47754
1010.713	60.77252
1010.88	18.61609
1011.048	22.83131
1011.216	39.69314
1011.383	-10.88778
1011.551	73.42125
1011.718	90.28749
1011.886	41.80097
1012.054	83.96248
1012.221	35.47754
1012.389	-19.31659
1012.556	111.37229
1012.724	73.42125
1012.891	14.40096
1013.058	79.74592
1013.226	58.66448
1013.393	-27.74501
1013.561	22.83131
1013.728	-0.35123
1013.895	56.55646
1014.063	98.72115
1014.23	-27.74501
1014.397	22.83131
1014.565	-34.06606
1014.732	81.85419
1014.899	29.15432
1015.066	64.98867
1015.233	-69.8811
1015.401	-34.06606
1015.568	33.36978
1015.735	18.61609
1015.902	29.15432
1016.069	-74.09415
1016.236	73.42125
1016.403	22.83131
1016.57	-57.24133
1016.737	-50.9211
1016.904	69.20492
1017.071	14.40096
1017.238	31.26204
1017.405	39.69314
1017.572	16.50851
1017.739	75.52945
1017.906	69.20492
1018.073	27.04663
1018.24	8.07845
1018.407	-10.88778
1018.573	60.77252
1018.74	-44.60065
1018.907	73.42125
1019.074	43.90883
1019.241	-25.63794
1019.407	8.07845
1019.574	22.83131
1019.741	5.97099
1019.907	8.07845
1020.074	16.50851
1020.241	-0.35123
1020.407	83.96248
1020.574	18.61609
1020.74	64.98867
1020.907	54.44846
1021.073	96.6127
1021.24	-31.95906
1021.406	-27.74501
1021.573	1.75615
1021.739	58.66448
1021.906	46.01671
1022.072	-36.17303
1022.239	29.15432
1022.405	52.34049
1022.571	5.97099
1022.738	52.34049
1022.904	5.97099
1023.07	-0.35123
1023.237	90.28749
1023.403	14.40096
1023.569	-2.45859
1023.735	-74.09415
1023.902	-10.88778
1024.068	56.55646
1024.234	-0.35123
1024.4	48.12461
1024.566	22.83131
1024.732	5.97099
1024.898	5.97099
1025.065	8.07845
1025.231	-46.70749
1025.397	48.12461
1025.563	22.83131
1025.729	5.97099
1025.895	56.55646
1026.061	33.36978
1026.227	8.07845
1026.392	35.47754
1026.558	48.12461
1026.724	-57.24133
1026.89	18.61609
1027.056	16.50851
1027.222	-4.56592
1027.388	48.12461
1027.553	-0.35123
1027.719	24.93896
1027.885	-27.74501
1028.051	-19.31659
1028.216	90.28749
1028.382	52.34049
1028.548	77.63768
1028.713	60.77252
1028.879	54.44846
1029.045	111.37229
1029.21	-44.60065
1029.376	8.07845
1029.541	50.23254
1029.707	58.66448
1029.873	69.20492
1030.038	-4.56592
1030.204	58.66448
1030.369	35.47754
1030.534	18.61609
1030.7	43.90883
1030.865	-27.74501
1031.031	-23.53085
1031.196	31.26204
1031.361	67.09678
1031.527	5.97099
1031.692	73.42125
1031.857	33.36978
1032.023	24.93896
1032.188	39.69314
1032.353	107.15516
1032.518	62.88058
1032.684	-27.74501
1032.849	-34.06606
1033.014	-61.45468
1033.179	67.09678
1033.344	43.90883
1033.509	-19.31659
1033.674	29.15432
1033.839	48.12461
1034.004	18.61609
1034.17	73.42125
1034.335	31.26204
1034.5	24.93896
1034.664	-40.38689
1034.829	31.26204
1034.994	31.26204
1035.159	73.42125
1035.324	27.04663
1035.489	56.55646
1035.654	105.04662
1035.819	46.01671
1035.984	67.09678
1036.148	-76.20064
1036.313	48.12461
1036.478	-17.20943
1036.643	18.61609
1036.807	12.29343
1036.972	43.90883
1037.137	41.80097
1037.301	92.39587
1037.466	27.04663
1037.631	48.12461
1037.795	5.97099
1037.96	56.55646
1038.124	1.75615
1038.289	52.34049
1038.454	-27.74501
1038.618	10.18593
1038.783	-19.31659
1038.947	39.69314
1039.111	8.07845
1039.276	-23.53085
1039.44	1.75615
1039.605	50.23254
1039.769	-15.10224
1039.933	-8.78052
1040.098	71.31307
1040.262	5.97099
1040.426	41.80097
1040.591	-36.17303
1040.755	14.40096
1040.919	39.69314
1041.083	-12.99502
1041.248	56.55646
1041.412	1.75615
1041.576	37.58533
1041.74	-4.56592
1041.904	-6.67324
1042.068	33.36978
1042.232	-31.95906
1042.397	14.40096
1042.561	14.40096
1042.725	41.80097
1042.889	39.69314
1043.053	39.69314
1043.217	60.77252
1043.381	50.23254
1043.544	-42.49378
1043.708	77.63768
1043.872	-2.45859
1044.036	-44.60065
1044.2	10.18593
1044.364	69.20492
1044.528	-23.53085
1044.691	73.42125
1044.855	-57.24133
1045.019	-19.31659
1045.183	-8.78052
1045.346	56.55646
1045.51	75.52945
1045.674	16.50851
1045.837	-0.35123
1046.001	50.23254
1046.165	16.50851
1046.328	-10.88778
1046.492	-42.49378
1046.655	14.40096
1046.819	14.40096
1046.983	10.18593
1047.146	88.17913
1047.31	-42.49378
1047.473	83.96248
1047.636	-40.38689
1047.8	22.83131
1047.963	52.34049
1048.127	-17.20943
1048.29	14.40096
