Data from mixed_try1_USB4F045381__17__00165.txt Node

Date: Thu Apr 03 20:10:00 EDT 2025
User: mmckonesweet
Spectrometer: USB4F04538
Trigger mode: 4
Integration Time (sec): 2.700000E-3
Scans to average: 1
Electric dark correction enabled: true
Nonlinearity correction enabled: true
Boxcar width: 0
XAxis mode: Wavelengths
Number of Pixels in Spectrum: 3648
>>>>>Begin Spectral Data<<<<<
345.52	-42.31821
345.736	-42.31821
345.952	-42.31821
346.168	-31.78348
346.384	33.54542
346.6	27.22227
346.816	-2.28298
347.032	-65.49239
347.248	44.08449
347.464	-29.67646
347.68	48.30027
347.896	16.68414
348.112	-12.81942
348.328	35.65319
348.544	-23.35526
348.76	-67.59898
348.975	29.32996
349.191	69.38059
349.407	-29.67646
349.623	-54.95905
349.839	20.89932
350.055	48.30027
350.27	10.36155
350.486	-0.17561
350.702	10.36155
350.918	-90.7698
351.133	-35.99745
351.349	18.79172
351.565	63.05626
351.781	18.79172
351.996	-69.70555
352.212	-6.49763
352.428	-0.17561
352.644	18.79172
352.859	-46.53192
353.075	-27.56942
353.291	1.93177
353.506	-29.67646
353.722	6.14661
353.938	54.62413
354.153	60.94819
354.369	-29.67646
354.584	29.32996
354.8	-27.56942
355.016	-82.34441
355.231	-6.49763
355.447	-31.78348
355.662	33.54542
355.878	10.36155
356.093	44.08449
356.309	-29.67646
356.524	63.05626
356.74	-57.06577
356.955	-35.99745
357.171	18.79172
357.386	-14.92664
357.602	-12.81942
357.817	-97.08857
358.033	1.93177
358.248	46.19237
358.464	27.22227
358.679	39.86879
358.895	23.00695
359.11	-67.59898
359.325	18.79172
359.541	16.68414
359.756	10.36155
359.972	-12.81942
360.187	-29.67646
360.402	41.97663
360.618	18.79172
360.833	-50.74553
361.048	-0.17561
361.264	-10.71218
361.479	-10.71218
361.694	-19.141
361.909	-27.56942
362.125	-4.39031
362.34	-23.35526
362.555	-10.71218
362.77	25.11459
362.986	31.43768
363.201	-35.99745
363.416	52.51615
363.631	-42.31821
363.847	14.57659
364.062	-21.24814
364.277	-2.28298
364.492	-2.28298
364.707	31.43768
364.922	-12.81942
365.138	-38.10439
365.353	39.86879
365.568	-44.42508
365.783	-52.8523
365.998	16.68414
366.213	-48.63874
366.428	-6.49763
366.643	-14.92664
366.858	-2.28298
367.073	-54.95905
367.288	-10.71218
367.503	-10.71218
367.718	35.65319
367.933	-14.92664
368.148	65.16435
368.363	10.36155
368.578	-2.28298
368.793	63.05626
369.008	4.03918
369.223	-40.21131
369.438	-35.99745
369.653	-21.24814
369.868	-10.71218
370.083	-50.74553
370.298	-14.92664
370.513	1.93177
370.728	-23.35526
370.943	-12.81942
371.157	35.65319
371.372	-6.49763
371.587	-8.60492
371.802	-21.24814
372.017	-40.21131
372.232	8.25407
372.446	35.65319
372.661	27.22227
372.876	-33.89048
373.091	-31.78348
373.306	8.25407
373.52	1.93177
373.735	10.36155
373.95	46.19237
374.165	63.05626
374.379	77.81336
374.594	-14.92664
374.809	39.86879
375.023	20.89932
375.238	-21.24814
375.453	-19.141
375.667	-6.49763
375.882	-65.49239
376.097	-65.49239
376.311	-12.81942
376.526	-10.71218
376.741	18.79172
376.955	-23.35526
377.17	50.4082
377.384	-10.71218
377.599	-19.141
377.813	-19.141
378.028	29.32996
378.242	-48.63874
378.457	14.57659
378.672	73.59693
378.886	48.30027
379.101	23.00695
379.315	-57.06577
379.53	69.38059
379.744	35.65319
379.958	10.36155
380.173	37.76098
380.387	37.76098
380.602	-12.81942
380.816	-19.141
381.031	6.14661
381.245	23.00695
381.459	90.46319
381.674	1.93177
381.888	14.57659
382.103	-63.38577
382.317	-61.27913
382.531	27.22227
382.746	23.00695
382.96	25.11459
383.174	44.08449
383.388	-14.92664
383.603	31.43768
383.817	-12.81942
384.031	33.54542
384.246	-23.35526
384.46	10.36155
384.674	-38.10439
384.888	-27.56942
385.103	-10.71218
385.317	52.51615
385.531	-21.24814
385.745	-12.81942
385.959	27.22227
386.174	-14.92664
386.388	-6.49763
386.602	14.57659
386.816	-17.03383
387.03	8.25407
387.244	39.86879
387.458	60.94819
387.672	48.30027
387.887	-10.71218
388.101	4.03918
388.315	35.65319
388.529	-8.60492
388.743	-38.10439
388.957	-10.71218
389.171	41.97663
389.385	12.46906
389.599	-10.71218
389.813	-35.99745
390.027	-10.71218
390.241	60.94819
390.455	14.57659
390.669	-40.21131
390.883	-12.81942
391.097	-17.03383
391.311	-54.95905
391.525	-2.28298
391.738	35.65319
391.952	35.65319
392.166	-57.06577
392.38	14.57659
392.594	27.22227
392.808	-31.78348
393.022	-4.39031
393.236	69.38059
393.449	-19.141
393.663	77.81336
393.877	27.22227
394.091	14.57659
394.305	1.93177
394.518	-12.81942
394.732	1.93177
394.946	-4.39031
395.16	4.03918
395.373	14.57659
395.587	-12.81942
395.801	-19.141
396.015	10.36155
396.228	-42.31821
396.442	67.27246
396.656	4.03918
396.869	37.76098
397.083	27.22227
397.297	20.89932
397.51	-82.34441
397.724	10.36155
397.938	-38.10439
398.151	-29.67646
398.365	73.59693
398.578	4.03918
398.792	44.08449
399.005	10.36155
399.219	6.14661
399.433	-29.67646
399.646	14.57659
399.86	-4.39031
400.073	-57.06577
400.287	20.89932
400.5	-6.49763
400.714	20.89932
400.927	54.62413
401.141	12.46906
401.354	12.46906
401.567	1.93177
401.781	31.43768
401.994	-63.38577
402.208	10.36155
402.421	-23.35526
402.635	27.22227
402.848	-14.92664
403.061	-8.60492
403.275	-14.92664
403.488	27.22227
403.701	88.35483
403.915	10.36155
404.128	-31.78348
404.341	-40.21131
404.555	-6.49763
404.768	6.14661
404.981	56.73213
405.195	27.22227
405.408	-54.95905
405.621	4.03918
405.834	-44.42508
406.048	-4.39031
406.261	56.73213
406.474	82.02988
406.687	60.94819
406.9	18.79172
407.114	35.65319
407.327	27.22227
407.54	4.03918
407.753	10.36155
407.966	39.86879
408.179	6.14661
408.392	4.03918
408.605	-6.49763
408.819	-40.21131
409.032	-4.39031
409.245	-21.24814
409.458	-31.78348
409.671	48.30027
409.884	8.25407
410.097	-6.49763
410.31	-90.7698
410.523	-21.24814
410.736	-23.35526
410.949	25.11459
411.162	-14.92664
411.375	-23.35526
411.588	10.36155
411.801	71.48875
412.014	-63.38577
412.227	58.84015
412.44	79.92161
412.653	33.54542
412.865	-23.35526
413.078	33.54542
413.291	27.22227
413.504	-29.67646
413.717	1.93177
413.93	-6.49763
414.143	18.79172
414.356	-6.49763
414.568	56.73213
414.781	27.22227
414.994	-17.03383
415.207	44.08449
415.42	20.89932
415.632	14.57659
415.845	-14.92664
416.058	-63.38577
416.271	16.68414
416.483	88.35483
416.696	77.81336
416.909	-38.10439
417.121	-6.49763
417.334	14.57659
417.547	-14.92664
417.759	6.14661
417.972	-44.42508
418.185	50.4082
418.397	29.32996
418.61	35.65319
418.823	-6.49763
419.035	-52.8523
419.248	46.19237
419.46	60.94819
419.673	29.32996
419.885	-12.81942
420.098	27.22227
420.311	4.03918
420.523	-69.70555
420.736	27.22227
420.948	27.22227
421.161	-38.10439
421.373	-46.53192
421.586	-8.60492
421.798	35.65319
422.01	90.46319
422.223	-38.10439
422.435	54.62413
422.648	-71.81209
422.86	-69.70555
423.073	-31.78348
423.285	-69.70555
423.497	14.57659
423.71	-8.60492
423.922	54.62413
424.134	33.54542
424.347	27.22227
424.559	63.05626
424.771	-48.63874
424.984	8.25407
425.196	1.93177
425.408	1.93177
425.621	63.05626
425.833	46.19237
426.045	-0.17561
426.257	10.36155
426.47	37.76098
426.682	46.19237
426.894	10.36155
427.106	31.43768
427.318	27.22227
427.531	18.79172
427.743	31.43768
427.955	14.57659
428.167	10.36155
428.379	-14.92664
428.591	20.89932
428.804	10.36155
429.016	-38.10439
429.228	-31.78348
429.44	56.73213
429.652	39.86879
429.864	52.51615
430.076	-14.92664
430.288	-12.81942
430.5	10.36155
430.712	-6.49763
430.924	23.00695
431.136	-2.28298
431.348	-4.39031
431.56	-29.67646
431.772	-2.28298
431.984	52.51615
432.196	90.46319
432.408	-21.24814
432.62	-10.71218
432.832	18.79172
433.044	-2.28298
433.256	77.81336
433.468	33.54542
433.679	-2.28298
433.891	8.25407
434.103	-6.49763
434.315	1.93177
434.527	18.79172
434.739	-29.67646
434.95	-17.03383
435.162	77.81336
435.374	14.57659
435.586	4.03918
435.798	-29.67646
436.009	-46.53192
436.221	-23.35526
436.433	44.08449
436.645	65.16435
436.856	37.76098
437.068	35.65319
437.28	-86.55716
437.491	-6.49763
437.703	-6.49763
437.915	-38.10439
438.126	27.22227
438.338	25.11459
438.55	6.14661
438.761	8.25407
438.973	20.89932
439.184	1.93177
439.396	-6.49763
439.608	-2.28298
439.819	-21.24814
440.031	-33.89048
440.242	-4.39031
440.454	12.46906
440.665	35.65319
440.877	14.57659
441.088	39.86879
441.3	35.65319
441.511	71.48875
441.723	79.92161
441.934	-14.92664
442.146	27.22227
442.357	4.03918
442.569	69.38059
442.78	60.94819
442.991	23.00695
443.203	-63.38577
443.414	-23.35526
443.626	44.08449
443.837	44.08449
444.048	-23.35526
444.26	-19.141
444.471	-31.78348
444.682	56.73213
444.894	27.22227
445.105	20.89932
445.316	-4.39031
445.528	-12.81942
445.739	-0.17561
445.95	31.43768
446.161	10.36155
446.373	58.84015
446.584	-52.8523
446.795	10.36155
447.006	-10.71218
447.217	1.93177
447.429	10.36155
447.64	12.46906
447.851	-38.10439
448.062	12.46906
448.273	23.00695
448.484	-6.49763
448.695	14.57659
448.907	-103.40711
449.118	-69.70555
449.329	-8.60492
449.54	1.93177
449.751	10.36155
449.962	65.16435
450.173	73.59693
450.384	4.03918
450.595	65.16435
450.806	31.43768
451.017	-40.21131
451.228	52.51615
451.439	44.08449
451.65	-31.78348
451.861	-54.95905
452.072	-6.49763
452.283	39.86879
452.494	50.4082
452.705	39.86879
452.915	20.89932
453.126	71.48875
453.337	23.00695
453.548	90.46319
453.759	10.36155
453.97	14.57659
454.181	44.08449
454.391	60.94819
454.602	-23.35526
454.813	-14.92664
455.024	-31.78348
455.235	-27.56942
455.445	12.46906
455.656	18.79172
455.867	31.43768
456.078	-12.81942
456.288	105.22233
456.499	1.93177
456.71	23.00695
456.921	1.93177
457.131	-12.81942
457.342	77.81336
457.553	-40.21131
457.763	-35.99745
457.974	52.51615
458.184	12.46906
458.395	-4.39031
458.606	111.54801
458.816	-2.28298
459.027	96.7884
459.237	18.79172
459.448	10.36155
459.659	50.4082
459.869	119.98255
460.08	-10.71218
460.29	20.89932
460.501	1.93177
460.711	6.14661
460.922	54.62413
461.132	27.22227
461.343	37.76098
461.553	35.65319
461.764	82.02988
461.974	18.79172
462.184	52.51615
462.395	73.59693
462.605	35.65319
462.816	94.67998
463.026	6.14661
463.236	18.79172
463.447	37.76098
463.657	52.51615
463.867	94.67998
464.078	63.05626
464.288	52.51615
464.498	35.65319
464.709	75.70514
464.919	-4.39031
465.129	65.16435
465.339	77.81336
465.55	6.14661
465.76	-40.21131
465.97	41.97663
466.18	27.22227
466.391	27.22227
466.601	103.11382
466.811	4.03918
467.021	31.43768
467.231	12.46906
467.441	25.11459
467.651	37.76098
467.862	46.19237
468.072	35.65319
468.282	113.65661
468.492	-27.56942
468.702	14.57659
468.912	88.35483
469.122	10.36155
469.332	18.79172
469.542	18.79172
469.752	18.79172
469.962	60.94819
470.172	10.36155
470.382	128.41744
470.592	37.76098
470.802	4.03918
471.012	-44.42508
471.222	46.19237
471.432	46.19237
471.642	44.08449
471.852	48.30027
472.062	29.32996
472.272	67.27246
472.482	50.4082
472.691	-29.67646
472.901	69.38059
473.111	39.86879
473.321	37.76098
473.531	-6.49763
473.741	88.35483
473.95	-48.63874
474.16	103.11382
474.37	96.7884
474.58	41.97663
474.79	86.24649
474.999	56.73213
475.209	37.76098
475.419	67.27246
475.628	31.43768
475.838	79.92161
476.048	-12.81942
476.258	46.19237
476.467	-4.39031
476.677	37.76098
476.886	65.16435
477.096	31.43768
477.306	56.73213
477.515	58.84015
477.725	82.02988
477.935	10.36155
478.144	124.19996
478.354	54.62413
478.563	54.62413
478.773	105.22233
478.982	27.22227
479.192	75.70514
479.401	96.7884
479.611	52.51615
479.82	73.59693
480.03	117.87389
480.239	73.59693
480.449	107.33087
480.658	111.54801
480.868	111.54801
481.077	136.85268
481.287	128.41744
481.496	79.92161
481.705	79.92161
481.915	86.24649
482.124	103.11382
482.333	113.65661
482.543	48.30027
482.752	48.30027
482.961	128.41744
483.171	103.11382
483.38	217.0041
483.589	98.89685
483.799	162.16043
484.008	52.51615
484.217	86.24649
484.426	46.19237
484.636	113.65661
484.845	122.09124
485.054	107.33087
485.263	187.47118
485.472	122.09124
485.682	212.78487
485.891	105.22233
486.1	145.28826
486.309	164.26954
486.518	157.94226
486.727	166.37868
486.936	162.16043
487.146	145.28826
487.355	94.67998
487.564	195.90876
487.773	214.89448
487.982	60.94819
488.191	225.4428
488.4	208.56572
488.609	252.87071
488.818	227.55252
489.027	271.86117
489.236	208.56572
489.445	276.08147
489.654	174.81543
489.863	212.78487
490.072	271.86117
490.281	233.8818
490.49	238.10143
490.698	179.03394
490.907	322.50973
491.116	330.95217
491.325	204.34665
491.534	314.06758
491.743	271.86117
491.952	297.18413
492.16	229.66226
492.369	368.94661
492.578	276.08147
492.787	341.50562
492.996	307.73615
493.204	297.18413
493.413	297.18413
493.622	324.62032
493.831	254.98069
494.039	352.0595
494.248	284.52232
494.457	314.06758
494.665	411.16909
494.874	358.39204
495.083	349.94869
495.291	417.50302
495.5	364.72473
495.709	423.8371
495.917	394.2793
496.126	415.39169
496.335	373.16856
496.543	318.28862
496.752	322.50973
496.96	516.75291
497.169	385.8348
497.377	383.72372
497.586	459.73291
497.794	525.20123
498.003	457.62127
498.211	440.72869
498.42	390.05702
498.628	466.06793
498.837	432.28277
499.045	550.54751
499.254	529.42547
499.462	529.42547
499.671	436.5057
499.879	626.59793
500.087	558.99671
500.296	567.44613
500.504	546.32299
500.713	601.24592
500.921	643.50026
501.129	493.52124
501.338	578.0082
501.546	611.80904
501.754	413.28038
501.962	675.19421
502.171	586.4581
502.379	630.82344
502.587	702.6644
502.795	605.47113
503.004	609.69639
503.212	736.47644
503.42	649.83884
503.628	766.06419
503.837	681.53331
504.045	681.53331
504.253	673.0812
504.461	810.44948
504.669	808.3358
504.877	734.3631
505.085	734.3631
505.294	875.97805
505.502	757.61034
505.71	842.15579
505.918	713.23036
506.126	888.66195
506.334	753.38348
506.542	852.72501
506.75	831.58679
506.958	888.66195
507.166	808.3358
507.374	897.11805
507.582	869.63621
507.79	939.40039
507.998	897.11805
508.206	901.34614
508.414	918.25884
508.622	977.45701
508.83	966.8855
509.037	1104.32706
509.245	941.51459
509.453	897.11805
509.661	888.66195
509.869	1157.19508
510.077	897.11805
510.285	994.37177
510.492	1023.97359
510.7	1110.67107
510.908	871.75015
511.116	1040.88944
511.324	873.8641
511.531	1070.49307
511.739	949.97145
511.947	1100.09774
512.155	1110.67107
512.362	1049.34751
512.57	1066.26392
512.778	1167.76901
512.985	1074.72225
513.193	1214.29538
513.401	1087.4099
513.608	1275.62793
513.816	1362.34271
514.024	1163.53942
514.231	1201.6062
514.439	1193.14681
514.646	1144.50651
514.854	1256.59344
515.061	1265.05319
515.269	1385.60808
515.477	1330.61746
515.684	1345.42254
515.892	1320.04245
516.099	1218.52513
516.307	1286.20273
516.514	1430.02404
516.722	1315.81245
516.929	1489.24548
517.136	1343.30752
517.344	1260.82331
517.551	1284.08777
517.759	1440.5993
517.966	1451.17456
518.173	1552.69659
518.381	1353.88261
518.588	1485.01538
518.796	1485.01538
519.003	1649.9858
519.21	1523.08617
519.418	1491.36052
519.625	1639.4111
519.832	1620.37648
520.039	1493.47557
520.247	1616.14654
520.454	1700.74347
520.661	1757.8437
520.868	1633.06625
521.076	1709.20292
521.283	1685.93932
521.49	1778.99126
521.697	1734.58094
521.904	1762.07324
522.112	1607.68664
522.319	1939.69786
522.526	1768.41752
522.733	1888.95155
522.94	1755.72892
523.147	1872.03543
523.354	1762.07324
523.561	2100.37091
523.768	1802.25311
523.975	1914.32511
524.183	1798.02372
524.39	1937.5835
524.597	1969.29835
524.804	1973.52689
525.011	1715.54747
525.218	2032.72383
525.425	1916.43953
525.632	2030.60975
525.838	1861.46268
526.045	2062.32033
526.252	1869.92089
526.459	2191.25942
526.666	1981.98391
526.873	2229.30125
527.08	2055.97834
527.287	2195.48643
527.494	1956.61257
527.701	2292.69789
527.907	2140.53276
528.114	2290.5848
528.321	2106.71244
528.528	2307.48924
528.735	2231.4146
528.941	2178.5782
529.148	2140.53276
529.355	2165.89668
529.562	2282.13235
529.768	2364.53715
529.975	2127.85038
530.182	2434.25236
530.388	2241.98122
530.595	2419.46523
530.802	2267.34022
531.008	2396.22728
531.215	2309.60225
531.422	2468.04951
531.628	2383.5515
531.835	2514.51598
532.042	2455.3759
532.248	2753.09351
532.455	2489.17131
532.661	2706.65741
532.868	2548.30632
533.074	2704.54653
533.281	2622.21214
533.487	2837.50609
533.694	2613.76651
533.9	2805.85395
534.107	2539.85902
534.313	2731.98699
534.52	2691.88096
534.726	2896.58162
534.933	2736.2084
535.139	2791.08188
535.345	2643.32535
535.552	2784.75079
535.758	2791.08188
535.965	2867.04525
536.171	2725.65477
536.377	2867.04525
536.584	2774.1987
536.79	2978.84646
536.996	2850.16607
537.203	2959.86426
537.409	2750.98292
537.615	2995.7185
537.821	2854.38595
538.028	3069.5222
538.234	2850.16607
538.44	3170.70742
538.646	3052.65445
538.853	3143.30673
539.059	3002.04527
539.265	3322.41441
539.471	3164.38443
539.677	3330.84
539.883	3052.65445
540.09	3372.9638
540.296	3212.85693
540.502	3459.29559
540.708	3170.70742
540.914	3444.55813
541.12	3457.19029
541.326	3495.08287
541.532	3448.76892
541.738	3358.22126
541.944	3307.66896
542.15	3381.38772
542.356	3501.39773
542.562	3560.32848
542.768	3276.06875
542.974	3511.92213
543.18	3406.6578
543.386	3562.43288
543.592	3692.86923
543.798	3593.99669
544.004	3692.86923
544.21	3770.67533
544.415	3419.29188
544.621	3589.78842
544.827	3408.76352
545.033	3644.49002
545.239	3673.93944
545.445	3827.43591
545.651	3554.01516
545.856	3718.10654
546.062	3705.48823
546.268	3753.85464
546.474	3617.14081
546.679	3646.59367
546.885	3596.10079
547.091	3776.98277
547.297	3566.64163
547.502	3783.29003
547.708	3785.39241
547.914	3776.98277
548.119	3772.77783
548.325	4069.03043
548.531	3793.80174
548.736	3964.02231
548.942	3888.38493
549.147	3982.92755
549.353	3945.11542
549.559	4039.63334
549.764	4010.23221
549.97	4188.67641
550.175	4018.63294
550.381	4182.38096
550.586	3882.08063
550.792	4341.8067
550.997	4052.23259
551.203	4283.08529
551.408	3987.1285
551.614	4069.03043
551.819	4163.49345
552.025	4371.16106
552.23	4037.53339
552.435	4268.4023
552.641	4148.80199
552.846	4379.54723
553.052	4427.76099
553.257	4465.48542
553.462	4299.86456
553.668	4503.20273
553.873	4396.31854
554.078	4543.00769
554.283	4467.58101
554.489	4607.93542
554.694	4545.10247
554.899	4524.15371
555.105	4448.71988
555.31	4513.6785
555.515	4463.38981
555.72	4664.46789
555.925	4381.64372
556.131	4802.58928
556.336	4603.74718
556.541	4804.68127
556.746	4624.68748
556.951	4754.46725
557.156	4595.37043
557.361	4787.94471
557.567	4729.35535
557.772	4902.97905
557.977	4633.06298
558.182	4909.25166
558.387	4725.16972
558.592	4921.79626
558.797	4817.23273
559.002	5059.73224
559.207	4892.52424
559.412	5026.30244
559.617	4739.81904
559.822	4917.61482
560.027	4633.06298
560.232	4917.61482
560.437	5082.71178
560.642	5130.75086
560.847	4978.23675
561.051	5088.97845
561.256	5001.22621
561.461	5235.14119
561.666	5118.22011
561.871	5253.92526
562.076	4783.76035
562.281	5155.80985
562.485	4867.43036
562.69	5228.87941
562.895	5038.83931
563.1	5159.98602
563.305	4994.95664
563.509	5147.45723
563.714	5026.30244
563.919	5182.95331
564.123	4792.12899
564.328	5306.09329
564.533	5084.80069
564.737	5289.40111
564.942	5185.0411
565.147	5564.62997
565.351	5032.57098
565.556	5268.53378
565.761	5343.64521
565.965	5404.12955
566.17	5331.12875
566.374	5256.01226
566.579	5541.70988
566.784	5370.76132
566.988	5520.87097
567.193	5527.12289
567.397	5287.31448
567.602	5472.93253
567.806	5339.47315
568.011	5783.26899
568.215	5472.93253
568.42	5693.76256
568.624	5483.35498
568.828	5716.6637
569.033	5602.12941
569.237	5752.05077
569.442	5562.54644
569.646	5618.79338
569.85	5435.4068
570.055	5835.28755
570.259	5595.88004
570.463	5947.59731
570.668	5745.80649
570.872	5716.6637
571.076	5581.29733
571.281	5731.23567
571.485	5568.79695
571.689	5851.93037
571.893	5710.41822
572.098	5997.49069
572.302	5587.5472
572.506	5837.36798
572.71	5831.12661
572.914	5995.41207
573.119	5814.48189
573.323	6051.52653
573.527	5962.15095
573.731	6095.15925
573.935	5991.25476
574.139	6012.04036
574.343	5891.45103
574.547	6128.39626
574.751	5968.38787
574.955	6130.47337
575.159	6028.66715
575.364	6082.69381
575.568	5933.04252
575.772	5987.09735
575.976	5939.28043
576.18	6180.31705
576.383	6005.80493
576.587	6452.14272
576.791	5970.46679
576.995	6277.88844
577.199	6072.30531
577.403	6304.86714
577.607	6205.23382
577.811	6354.66359
578.015	6111.7785
578.219	6456.28963
578.422	6186.54656
578.626	6300.71683
578.83	6093.08173
579.034	6109.70118
579.238	6163.70399
579.442	6439.70144
579.645	6217.69093
579.849	6479.09596
580.053	6408.59457
580.257	6593.08554
580.46	6298.64163
580.664	6615.87506
580.868	6483.24226
581.071	6329.76704
581.275	6387.85375
581.479	6702.86396
581.682	6528.84548
581.886	6785.67289
582.09	6506.04528
582.293	6851.89371
582.497	6574.43749
582.7	6831.20221
582.904	6723.56963
583.107	6781.53331
583.311	6495.68062
583.515	6717.35817
583.718	6684.2269
583.922	6874.65174
584.125	6483.24226
584.329	6657.30341
584.532	6425.18555
584.735	6986.3332
584.939	6700.79327
585.142	6973.9274
585.346	6649.01847
585.549	6990.46828
585.753	6868.44528
585.956	7195.043
586.159	6947.04539
586.363	7250.79826
586.566	7042.14926
586.769	6971.85969
586.973	6903.61253
587.176	7219.8251
587.379	6934.63702
587.582	7256.99229
587.786	6856.03174
587.989	7145.46921
588.192	7073.15111
588.395	7376.70478
588.599	7269.37977
588.802	7248.73354
589.005	6814.64737
589.208	7378.76814
589.411	7223.95514
589.615	7384.9581
589.818	7318.92175
590.021	7384.9581
590.224	7374.64139
590.427	7292.08808
590.63	7157.86386
590.833	7574.68882
591.036	7486.03307
591.239	7576.75011
591.442	7591.17855
591.645	7778.65356
591.848	7692.14837
592.051	7673.60671
592.254	7401.46369
592.457	7753.94157
592.66	7378.76814
592.863	7640.63952
593.066	7351.94272
593.269	7500.46811
593.472	7442.7216
593.675	7519.0259
593.878	7826.0098
594.081	7566.44345
594.284	7673.60671
594.486	7914.51591
594.689	7869.23849
594.892	7735.4056
595.095	7622.09309
595.298	7743.64402
595.5	7624.15389
595.703	7928.92026
595.906	7646.82128
596.109	8015.32533
596.311	7885.70416
596.514	8029.72268
596.717	7823.95106
596.92	8220.90809
597.122	7869.23849
597.325	7986.52765
597.528	7632.39688
597.73	8099.63855
597.933	7867.18019
598.136	7854.82994
598.338	7762.17924
598.541	8109.91833
598.743	7764.2386
598.946	7867.18019
599.148	7797.18558
599.351	7920.68932
599.554	8062.62717
599.756	7996.81299
599.959	8052.34508
600.161	8307.19351
600.363	8210.6337
600.566	8340.05505
600.768	8268.16393
600.971	8290.76087
601.173	8251.7283
601.376	8188.02829
601.578	8044.11904
601.78	8340.05505
601.983	8319.51718
602.185	8245.56461
602.388	8518.65306
602.59	8354.43041
602.792	8251.7283
602.995	8323.62491
603.197	8118.14179
603.399	8506.34061
603.601	8239.40075
603.804	8352.37685
604.006	8393.44444
604.208	8333.8939
604.41	8134.58775
604.613	8418.08128
604.815	8391.39124
605.017	8387.2848
605.219	8282.54407
605.421	8372.91161
605.623	8325.67875
605.826	8721.71086
606.028	8243.51001
606.23	8606.87239
606.432	8594.5648
606.634	8856.98228
606.836	8438.60987
607.038	8815.99929
607.24	8448.87344
607.442	8756.56108
607.644	8348.26966
607.846	8748.36151
608.048	8693.00669
608.25	8660.19748
608.452	8701.20825
608.654	8697.1075
608.856	8565.84448
609.058	8791.40603
609.26	8777.05875
609.462	8695.0571
609.664	8606.87239
609.866	8910.24942
610.067	8713.51004
610.269	8571.99914
610.471	8629.43454
610.673	8861.08018
610.875	8600.71868
611.077	8910.24942
611.278	8608.92358
611.48	8875.42227
611.682	8571.99914
611.884	9010.60482
612.085	8801.65354
612.287	8914.34639
612.489	8729.91139
612.69	9155.94334
612.892	8797.55459
613.094	8916.39485
613.295	8877.47107
613.497	8889.76349
613.699	8826.24571
613.9	9160.03612
614.102	9053.60137
614.304	9188.68371
614.505	8936.87846
614.707	9237.78615
614.908	8832.39335
615.11	8811.90059
615.311	8955.3122
615.513	9045.41214
615.714	9006.50951
615.916	9090.44944
616.117	9074.07321
616.319	9168.22149
616.52	8815.99929
616.722	8979.88828
616.923	9241.87758
617.124	9170.26779
617.326	8914.34639
617.527	9035.17522
617.729	8998.31868
617.93	9440.23226
618.131	9233.69465
618.333	9049.50679
618.534	9178.45281
618.735	9151.85048
618.937	9153.89692
619.138	9427.96738
619.339	9086.35549
619.54	9430.01157
619.742	9221.41975
619.943	9321.64711
620.144	8902.05526
620.345	9016.74766
620.546	8955.3122
620.748	9395.25816
620.949	9162.08249
621.15	9243.92327
621.351	9366.63417
621.552	9196.86813
621.753	9180.49903
621.954	9380.94657
622.155	9102.73089
622.356	9454.54056
622.558	9119.10518
622.759	9352.32097
622.96	9307.33136
623.161	9358.4553
623.362	9207.09827
623.563	9276.65203
623.764	9348.23134
623.965	9546.50368
624.166	9642.51981
624.366	9376.85739
624.567	9323.69215
624.768	9497.46071
624.969	9139.57151
625.17	9495.41706
625.371	9131.38518
625.572	9542.41712
625.773	9203.00626
625.973	9205.05227
626.174	9290.96952
626.375	9630.26436
626.576	9260.28818
626.777	9472.93578
626.977	9219.37387
627.178	9556.71981
627.379	9217.32798
627.58	9423.87895
627.78	9276.65203
627.981	9577.1509
628.182	9630.26436
628.382	9548.54694
628.583	9468.84806
628.784	9466.80418
628.984	9309.37652
629.185	9699.70456
629.386	9153.89692
629.586	9470.89193
629.787	9618.00835
629.987	9605.75177
630.188	9734.41799
630.388	9742.58522
630.589	9399.34704
630.79	9797.70764
630.99	9652.73227
631.191	9603.70895
631.391	9487.24227
631.591	9673.15601
631.792	9536.28715
631.992	9795.66626
632.193	9791.58347
632.393	9458.6285
632.594	9642.51981
632.794	9824.24415
632.994	9650.68981
633.195	9687.4517
633.395	9654.77471
633.595	9932.40546
633.796	9879.35038
633.996	9924.24379
634.196	9822.20297
634.397	10009.92979
634.597	9973.21034
634.797	10022.16857
634.997	9795.66626
635.198	9693.5782
635.398	9879.35038
635.598	10132.2946
635.798	9971.17024
635.998	9969.13012
636.199	9879.35038
636.399	10087.43341
636.599	9767.08543
636.799	9863.02373
636.999	9611.88013
637.199	9856.901
637.399	9785.45916
637.599	9691.53605
637.799	9536.28715
637.999	10026.24805
638.199	9850.77813
638.399	9816.07934
638.599	9628.22173
638.799	9916.08188
638.999	9944.64754
639.199	10069.07914
639.399	10001.77032
639.599	10362.61318
639.799	10022.16857
639.999	10038.48615
640.199	9932.40546
640.399	10287.21814
640.599	9928.32465
640.799	10558.14936
640.998	10295.36984
641.198	10209.76626
641.398	10132.2946
641.598	10221.99681
641.798	10146.5672
641.997	10126.17756
642.197	10120.0604
642.397	10189.38091
642.597	10077.23673
642.796	10354.46324
642.996	10115.98222
643.196	10175.11035
643.395	9977.29051
643.595	10319.82364
643.795	10293.33194
643.994	10417.61976
644.194	10185.30368
644.394	10454.28554
644.593	10305.55916
644.793	10712.86652
644.992	10307.59698
645.192	10228.1119
645.392	10338.16273
645.591	10613.12281
645.791	10523.53175
645.99	10352.42572
646.19	10238.30344
646.389	10517.42238
646.589	10344.27552
646.788	10442.06408
646.987	10621.26626
647.187	10613.12281
647.386	10556.11313
647.586	10727.11324
647.785	10346.31309
647.984	10580.54705
648.184	10698.6192
648.383	10643.65972
648.582	10185.30368
648.782	10694.54844
648.981	10472.61686
649.18	10492.98377
649.38	10423.73101
649.579	10482.80047
649.778	10564.25797
649.977	10629.40951
650.177	10802.40763
650.376	10751.53482
650.575	10378.91242
650.774	10584.61919
650.973	10694.54844
651.173	10668.08725
651.372	10279.06623
651.571	10568.33031
651.77	10252.57104
651.969	10633.48106
652.168	10232.18856
652.367	10877.68593
652.566	10588.69129
652.765	10613.12281
652.964	10672.15834
653.163	10912.26796
653.362	10647.7311
653.561	10824.78933
653.76	10594.79933
653.959	10706.7606
654.158	10735.25396
654.357	10739.32425
654.556	10350.38819
654.755	10751.53482
654.954	10444.10102
655.153	10906.16549
655.352	10767.81493
655.551	10999.72553
655.749	10806.47714
655.948	10824.78933
656.147	10873.61724
656.346	11001.75918
656.545	10688.44219
656.743	10908.19966
656.942	10688.44219
657.141	11066.83017
657.34	10780.02451
657.538	11176.61229
657.737	10499.0936
657.936	10900.06292
658.135	10647.7311
658.333	10869.5485
658.532	10806.47714
658.731	10989.55711
658.929	10898.0287
659.128	10824.78933
659.326	10839.0315
659.525	11201.00411
659.724	10767.81493
659.922	11101.39458
660.121	10820.72004
660.319	10965.15177
660.518	10889.89173
660.716	10816.65069
660.915	10952.94849
661.113	11408.2749
661.312	11018.02798
661.51	11048.53009
661.709	10916.33622
661.907	11072.93
662.105	10875.65159
662.304	11060.73024
662.502	11101.39458
662.701	11266.04162
662.899	11087.16256
663.097	11072.93
663.296	11060.73024
663.494	11528.11987
663.692	10967.18561
663.891	11361.54651
664.089	11089.19573
664.287	11142.05461
664.485	11152.21895
664.684	11207.10182
664.882	10914.3021
665.08	10997.69187
665.278	10995.65819
665.476	11377.80045
665.675	11207.10182
665.873	11131.89001
666.071	11079.02973
666.269	11162.38303
666.467	10853.27309
666.665	10922.43852
666.863	10865.47972
667.061	11194.90629
667.259	11152.21895
667.457	11257.91251
667.655	11085.12937
667.853	11331.06864
668.051	10857.34201
668.249	11316.84487
668.447	11264.00936
668.645	11166.44858
668.843	11168.48135
669.041	11087.16256
669.239	10796.30328
669.437	11247.75089
669.635	11184.74306
669.833	11160.35023
670.031	10906.16549
670.229	10936.67682
670.426	11060.73024
670.624	11288.39583
670.822	10936.67682
671.02	11402.18019
671.218	10928.54072
671.415	11284.33152
671.613	11054.63021
671.811	11058.69691
672.009	11290.42797
672.206	11404.21177
672.404	11314.81286
672.602	11184.74306
672.799	11261.97709
672.997	11324.9728
673.195	11414.36952
673.392	11294.49222
673.59	11123.75813
673.788	11373.73703
673.985	11095.29521
674.183	11272.13835
674.38	11160.35023
674.578	11251.81557
674.775	11064.79687
674.973	11209.13438
675.17	10946.8467
675.368	11318.87687
675.565	11052.59685
675.763	11156.28461
675.96	11296.52433
676.158	11353.4193
676.355	11097.32834
676.553	11477.34218
676.75	11223.36195
676.947	11454.9981
677.145	10847.16962
677.342	11188.80839
677.539	11190.84103
677.737	11264.00936
677.934	11229.45932
678.131	11491.56053
678.329	11107.49386
678.526	11463.12336
678.723	11373.73703
678.92	11294.49222
679.118	11190.84103
679.315	10971.25325
679.512	10934.64281
679.709	11379.83215
679.906	10954.9824
680.104	11288.39583
680.301	11036.32954
680.498	10893.96024
680.695	10977.35464
680.892	11274.17057
681.089	10944.81274
681.286	11081.06295
681.483	10727.11324
681.68	11192.87367
681.877	10893.96024
682.075	10999.72553
682.272	11076.9965
682.469	11331.06864
682.665	11011.92726
682.862	10938.71082
683.059	11076.9965
683.256	11097.32834
683.453	10490.94714
683.65	10912.26796
683.847	11036.32954
684.044	11085.12937
684.241	10873.61724
684.438	11420.46406
684.635	10881.75458
684.831	11024.1286
685.028	10946.8467
685.225	11038.363
685.422	10696.58383
685.619	11054.63021
685.815	10641.62401
686.012	10895.99448
686.209	10680.30036
686.405	10999.72553
686.602	10891.92599
686.799	10912.26796
686.996	10808.51187
687.192	11117.65911
687.389	10930.57476
687.586	10950.91457
687.782	10771.88483
687.979	10987.52339
688.175	10755.60492
688.372	11101.39458
688.568	10869.5485
688.765	11266.04162
688.962	11103.42769
689.158	11123.75813
689.355	11011.92726
689.551	11166.44858
689.748	10942.77878
689.944	10796.30328
690.14	10981.42217
690.337	10959.05018
690.533	11011.92726
690.73	10784.09427
690.926	10808.51187
691.123	10761.70998
691.319	10633.48106
691.515	11005.82645
691.712	10515.3859
691.908	10855.30756
692.104	10820.72004
692.301	11005.82645
692.497	10684.3713
692.693	10950.91457
692.889	10708.79592
693.086	10871.58288
693.282	10851.23861
693.478	11046.49669
693.674	10513.34941
693.87	10802.40763
694.067	10727.11324
694.263	10782.05939
694.459	10702.68993
694.655	11089.19573
694.851	11054.63021
695.047	10922.43852
695.243	11060.73024
695.439	10965.15177
695.635	10930.57476
695.831	10761.70998
696.027	10916.33622
696.224	10934.64281
696.42	10631.44529
696.615	10790.19883
696.811	10755.60492
697.007	10826.82396
697.203	10517.42238
697.399	10971.25325
697.595	10490.94714
697.791	10482.80047
697.987	10745.42959
698.183	11166.44858
698.379	10712.86652
698.575	11022.09507
698.77	10672.15834
698.966	10737.28911
699.162	10771.88483
699.358	11068.86346
699.554	10875.65159
699.749	11007.86006
699.945	10759.67497
700.141	10975.32085
700.337	10617.19456
700.532	10664.01612
700.728	10790.19883
700.924	10796.30328
701.119	10786.12914
701.315	10777.98961
701.511	10547.96809
701.706	10780.02451
701.902	10256.64737
702.097	10704.72527
702.293	10517.42238
702.489	10429.84215
702.684	10403.35971
702.88	10729.14844
703.075	10482.80047
703.271	10556.11313
703.466	10421.69394
703.662	10718.97233
703.857	10645.69541
704.053	10808.51187
704.248	10582.58312
704.443	11129.85705
704.639	10580.54705
704.834	10826.82396
705.03	10763.74497
705.225	10796.30328
705.42	10385.02442
705.616	10588.69129
705.811	10543.89549
706.006	10315.74814
706.202	10230.15023
706.397	10387.06173
706.592	10354.46324
706.787	10482.80047
706.983	10499.0936
707.178	10712.86652
707.373	10281.10423
707.568	10482.80047
707.763	10582.58312
707.959	10873.61724
708.154	10307.59698
708.349	10596.83533
708.544	10741.35937
708.739	10641.62401
708.934	10399.28529
709.129	10639.58829
709.324	10323.89909
709.519	10824.78933
709.714	10497.057
709.909	10786.12914
710.104	10423.73101
710.299	10448.17486
710.494	10156.76149
710.689	10446.13795
710.884	10486.87383
711.079	10389.09902
711.274	10521.49531
711.469	10550.00436
711.664	10501.13018
711.859	10621.26626
712.054	10818.68537
712.249	10843.10058
712.443	10590.72731
712.638	10407.43407
712.833	10279.06623
713.028	10484.83716
713.223	10260.72365
713.417	10389.09902
713.612	10405.3969
713.807	10431.87917
714.002	10148.60608
714.196	10503.16675
714.391	10140.45045
714.586	10256.64737
714.78	10173.07164
714.975	10254.60921
715.17	10020.12881
715.364	10452.24866
715.559	10393.17357
715.754	10503.16675
715.948	10224.03518
716.143	10352.42572
716.337	10130.2556
716.532	10535.75015
716.726	10336.12511
716.921	10712.86652
717.115	10246.45643
717.31	10450.21177
717.504	10442.06408
717.699	10743.39449
717.893	10211.80472
718.088	10303.52132
718.282	10295.36984
718.476	10175.11035
718.671	10050.72373
718.865	10323.89909
719.059	9869.14634
719.254	10185.30368
719.448	9975.25044
719.642	10336.12511
719.837	10062.9608
720.031	10160.83911
720.225	9693.5782
720.419	10226.07355
720.614	9932.40546
720.808	10270.91411
721.002	10067.03971
721.196	10360.57571
721.39	9854.86006
721.585	10085.3941
721.779	9979.33058
721.973	10246.45643
722.167	9536.28715
722.361	10093.55124
722.555	10093.55124
722.749	9854.86006
722.943	9832.40872
723.137	9834.44982
723.331	9860.98284
723.525	10071.11856
723.719	10101.70816
723.913	10309.63479
724.107	9801.79034
724.301	10152.68381
724.495	9977.29051
724.689	10148.60608
724.883	9860.98284
725.077	10079.2761
725.271	9979.33058
725.465	10089.4727
725.659	9993.61061
725.853	9954.84887
726.046	9750.7522
726.24	9701.74665
726.434	9675.19829
726.628	9848.73714
726.822	9675.19829
727.015	10046.64459
727.209	9546.50368
727.403	9973.21034
727.596	10050.72373
727.79	10187.3423
727.984	9860.98284
728.177	10138.41151
728.371	9989.53067
728.565	10014.00944
728.758	9967.08998
728.952	10175.11035
729.146	9628.22173
729.339	10011.96962
729.533	9950.76838
729.726	9946.68783
729.92	9775.25168
730.113	9969.13012
730.307	9885.47263
730.5	10016.04925
730.694	9942.60723
730.887	10001.77032
731.081	9799.749
731.274	9875.26881
731.468	9734.41799
731.661	10103.74735
731.854	9865.06462
732.048	9928.32465
732.241	9858.94192
732.435	10128.21659
732.628	9997.69049
732.821	9740.54343
733.014	9816.07934
733.208	9671.1137
733.401	9826.28531
733.594	10071.11856
733.788	10091.51198
733.981	10009.92979
734.174	9932.40546
734.367	10003.81021
734.56	10091.51198
734.754	10030.32747
734.947	10087.43341
735.14	10103.74735
735.333	10193.45809
735.526	10191.41951
735.719	10034.40684
735.912	9883.43189
736.105	9564.89244
736.298	9644.56234
736.491	9483.15478
736.684	9767.08543
736.877	9748.71047
737.07	9865.06462
737.263	9509.72232
737.456	9581.23692
737.649	9662.94433
737.842	9965.04983
738.035	9852.8191
738.228	9797.70764
738.421	9787.50061
738.614	9701.74665
738.807	9873.228
739	9846.69614
739.192	9709.91485
739.385	9758.91894
739.578	9912.00083
739.771	9626.17908
739.964	9879.35038
740.156	10054.80281
740.349	9846.69614
740.542	9914.04136
740.735	9540.37381
740.927	9532.20043
741.12	9534.2438
741.313	9571.02174
741.505	9634.34957
741.698	9840.57305
741.891	9863.02373
742.083	9726.25052
742.276	9830.3676
742.468	9468.84806
742.661	9556.71981
742.854	9472.93578
743.046	9297.10533
743.239	9434.09989
743.431	9734.41799
743.624	9912.00083
743.816	9773.21014
744.009	9869.14634
744.201	9707.87282
744.393	9701.74665
744.586	9499.50435
744.778	9760.96058
744.971	9675.19829
745.163	9799.749
745.355	9803.83167
745.548	9664.98669
745.74	9699.70456
745.932	9691.53605
746.125	9769.12702
746.317	9650.68981
746.509	9634.34957
746.702	9679.28283
746.894	9419.79046
747.086	9397.30261
747.278	9491.3297
747.471	9605.75177
747.663	9311.42166
747.855	9421.83472
748.047	9548.54694
748.239	9515.8529
748.431	9630.26436
748.623	9863.02373
748.815	9534.2438
749.008	9585.32289
749.2	9675.19829
749.392	9403.43586
749.584	9385.03568
749.776	9364.58948
749.968	9340.05187
750.16	9307.33136
750.352	9335.96204
750.544	9309.37652
750.736	9421.83472
750.928	9585.32289
751.12	9513.80939
751.311	9319.60205
751.503	9427.96738
751.695	9603.70895
751.887	9305.28619
752.079	9415.70191
752.271	9299.15057
752.463	9262.33372
752.654	9217.32798
752.846	9346.18649
753.038	9346.18649
753.23	9605.75177
753.421	9587.36585
753.613	9409.56896
753.805	9519.93988
753.997	9241.87758
754.188	9211.1902
754.38	9305.28619
754.572	9254.15147
754.763	9094.54333
754.955	8922.54012
755.146	8959.40839
755.338	8945.07141
755.53	9123.19859
755.721	9055.64863
755.913	9352.32097
756.104	8953.26407
756.296	8965.55254
756.487	9135.47838
756.679	9250.06024
756.87	9102.73089
757.062	9004.46183
757.253	9335.96204
757.445	9327.78218
757.636	8988.07975
757.827	9078.16737
758.019	9225.51145
758.21	8932.78188
758.401	9129.33856
758.593	9515.8529
758.784	8965.55254
758.975	8920.49171
759.167	8906.15237
759.358	8967.60056
759.549	8811.90059
759.74	8807.80183
759.932	8754.51122
760.123	8824.19647
760.314	8413.97534
760.505	8619.1793
760.696	8703.25859
760.888	8979.88828
761.079	8736.06159
761.27	8881.56861
761.461	8668.40023
761.652	8949.16778
761.843	8820.09791
762.034	9080.21443
762.225	8754.51122
762.416	8885.66609
762.607	8645.84197
762.798	8569.94761
762.989	8405.76321
763.18	8729.91139
763.371	8569.94761
763.562	8465.29416
763.753	8561.74127
763.944	8762.71057
764.135	8676.60268
764.326	8842.63905
764.517	8906.15237
764.708	8643.7911
764.899	8541.22412
765.089	8662.2482
765.28	8643.7911
765.471	8641.74022
765.662	8551.48293
765.853	8557.63799
766.043	8610.97476
766.234	8465.29416
766.425	8177.75231
766.615	8333.8939
766.806	8403.71013
766.997	8352.37685
767.187	8455.03135
767.378	8491.97522
767.569	8430.39867
767.759	8387.2848
767.95	8372.91161
768.141	8518.65306
768.331	8130.47638
768.522	8366.75139
768.712	8167.47583
768.903	8350.32326
769.093	8235.29141
769.284	8413.97534
769.474	8262.00071
769.665	8171.58648
769.855	8159.25429
770.046	8473.50406
770.236	8243.51001
770.426	8046.17558
770.617	8286.65251
770.807	8161.3097
770.998	8066.73987
771.188	8239.40075
771.378	7908.3423
771.569	8033.83603
771.759	8011.21162
771.949	8235.29141
772.139	8153.08792
772.33	7854.82994
772.52	7928.92026
772.71	8122.2534
772.9	7879.52969
773.09	7937.15087
773.281	7813.65706
773.471	8021.49575
773.661	7928.92026
773.851	7708.62841
774.041	7727.16684
774.231	7830.12721
774.421	7922.74709
774.611	7714.80808
774.802	7677.72723
774.992	8000.92699
775.182	7665.36542
775.372	7745.70357
775.562	7758.06045
775.752	7895.99453
775.942	7613.84968
776.131	7928.92026
776.321	7494.28179
776.511	7861.00516
776.701	7541.70527
776.891	7591.17855
777.081	7714.80808
777.271	7945.38115
777.461	7873.35503
777.651	7861.00516
777.84	7850.71303
778.03	7974.18456
778.22	7607.6669
778.41	7525.21144
778.599	7477.784
778.789	7739.52485
778.979	7372.57799
779.169	7756.00102
779.358	7473.65934
779.548	7815.7159
779.738	7453.03472
779.927	7584.99506
780.117	7570.56618
780.307	7387.02137
780.496	7314.79373
780.686	7356.06995
780.875	7706.56848
781.065	7675.66698
781.254	7254.92764
781.444	7576.75011
781.633	7519.0259
781.823	7314.79373
782.012	7108.28046
782.202	7516.96401
782.391	7426.21948
782.581	7337.49674
782.77	7254.92764
782.96	7510.77821
783.149	7033.88125
783.338	7444.78426
783.528	7203.30405
783.717	7481.90858
783.906	7161.99523
784.096	7186.78159
784.285	6916.02294
784.474	7064.88444
784.663	7087.61692
784.853	6940.8413
785.042	7029.74711
785.231	7207.43445
785.42	7335.43294
785.61	7430.34514
785.799	7176.45433
785.988	7170.2577
786.177	6975.99509
786.366	7170.2577
786.555	7000.8056
786.744	6905.68099
786.933	6874.65174
787.122	7116.54525
787.312	6916.02294
787.501	7197.1083
787.69	6922.22783
787.879	6897.40702
788.068	6735.99193
788.257	6690.43946
788.445	6545.42569
788.634	6818.78622
788.823	6918.09126
789.012	6934.63702
789.201	6649.01847
789.39	6847.7556
789.579	6682.156
789.768	6593.08554
789.957	6543.35324
790.145	6798.09107
790.334	6744.273
790.523	6827.06364
790.712	6709.0759
790.9	6847.7556
791.089	6634.51896
791.278	6878.78927
791.467	6700.79327
791.655	6872.58294
791.844	6936.70514
792.033	6856.03174
792.221	6694.58105
792.41	6887.06405
792.599	6499.82655
792.787	6532.99067
792.976	6644.87587
793.164	6690.43946
793.353	6611.73172
793.541	6849.82467
793.73	6611.73172
793.918	6649.01847
794.107	6352.589
794.295	6760.83405
794.484	6499.82655
794.672	6586.86973
794.861	6595.15743
795.049	6694.58105
795.238	6408.59457
795.426	6628.30453
795.614	6331.84188
795.803	6524.7002
795.991	6398.22445
796.179	6495.68062
796.368	6392.0021
796.556	6344.29044
796.744	5989.17607
796.932	6277.88844
797.121	6118.01034
797.309	6369.18502
797.497	6113.85581
797.685	6309.01736
797.874	6066.07192
798.062	6095.15925
798.25	5816.56257
798.438	6074.38305
798.626	5997.49069
798.814	6483.24226
799.002	6352.589
799.19	6429.33307
799.378	6041.13626
799.566	6221.84312
799.755	6076.46078
799.943	6369.18502
800.131	6319.39249
800.318	6464.58317
800.506	6194.85224
800.694	6354.66359
800.882	6369.18502
801.07	6192.77585
801.258	6238.45092
801.446	6186.54656
801.634	6126.31912
801.822	6219.76704
802.01	6192.77585
802.197	6458.36305
802.385	6244.67846
802.573	6313.16748
802.761	6084.77144
802.949	6329.76704
803.136	6199.00494
803.324	6425.18555
803.512	6182.39357
803.699	6130.47337
803.887	6313.16748
804.075	6333.9167
804.262	6184.47008
804.45	6209.38628
804.638	6045.29244
804.825	6188.62301
805.013	5908.08876
805.201	6271.66202
805.388	6209.38628
805.576	6196.9286
805.763	6124.24196
805.951	6192.77585
806.138	6323.54238
806.326	6516.40935
806.513	6182.39357
806.701	6309.01736
806.888	6109.70118
807.075	6184.47008
807.263	6066.07192
807.45	6277.88844
807.638	6159.55049
807.825	6321.46745
808.012	5953.83472
808.2	6290.34064
808.387	6078.53848
808.574	6009.96191
808.761	6076.46078
808.949	6161.62725
809.136	6228.07122
809.323	6242.60263
809.51	5939.28043
809.698	6203.15755
809.885	6113.85581
810.072	6267.51096
810.259	6250.90579
810.446	6101.39164
810.633	6267.51096
810.82	6327.69218
811.008	6063.99408
811.195	6327.69218
811.382	6039.05813
811.569	6406.5206
811.756	5968.38787
811.943	6435.55416
812.13	5793.67388
812.317	6240.52679
812.504	6176.16392
812.691	6644.87587
812.878	6084.77144
813.064	6404.4466
813.251	6257.1329
813.438	6375.40814
813.625	6284.11464
813.812	6402.37257
813.999	6250.90579
814.186	6093.08173
814.372	6176.16392
814.559	6344.29044
814.746	5918.48657
814.933	5989.17607
815.12	6261.2842
815.306	6265.4354
815.493	5978.78226
815.68	6263.35981
815.866	6232.22317
816.053	6209.38628
816.24	6028.66715
816.426	6147.08943
816.613	6145.01251
816.799	6435.55416
816.986	6051.52653
817.173	6230.14721
817.359	6211.46248
817.546	6381.63105
817.732	6138.78159
817.919	6145.01251
818.105	6095.15925
818.292	6250.90579
818.478	6275.81299
818.665	6416.89025
818.851	6084.77144
819.037	6018.27559
819.224	6095.15925
819.41	6248.83003
819.597	6209.38628
819.783	6443.84863
819.969	6172.01071
820.156	6362.96169
820.342	6178.2405
820.528	6217.69093
820.714	6036.97998
820.901	6279.96386
821.087	6078.53848
821.273	6217.69093
821.459	6259.20856
821.646	6263.35981
821.832	6213.53865
822.018	6284.11464
822.204	6053.60451
822.39	6315.24251
822.576	5949.67647
822.762	6028.66715
822.948	5801.99737
823.134	6041.13626
823.32	5922.64553
823.507	5945.51812
823.693	5747.88794
823.879	5974.62457
824.065	5652.11679
824.25	6165.78071
824.436	5810.32048
824.622	5862.33137
824.808	5843.60915
824.994	5976.70343
825.18	5889.37121
825.366	6057.76041
825.552	5839.4484
825.738	5860.25122
825.923	5714.5819
826.109	6174.08733
826.295	5722.90898
826.481	6138.78159
826.667	5908.08876
826.852	6034.90181
827.038	5887.29136
827.224	6026.58889
827.409	5870.65174
827.595	5818.64321
827.781	5722.90898
827.966	6105.54646
828.152	5652.11679
828.338	5862.33137
828.523	5525.03894
828.709	5704.17252
828.894	5620.87627
829.08	5764.53869
829.266	5604.21249
829.451	5454.17062
829.637	5260.18619
829.822	5545.87738
830.008	5260.18619
830.193	5585.46394
830.378	5431.23681
830.564	5597.96319
830.749	5404.12955
830.935	5456.25537
831.12	5185.0411
831.305	5502.11393
831.491	5404.12955
831.676	5489.60818
831.861	5228.87941
832.047	5477.10158
832.232	5256.01226
832.417	5489.60818
832.602	5228.87941
832.788	5477.10158
832.973	5193.39205
833.158	5320.69772
833.343	5329.04259
833.528	5443.74651
833.714	5308.17971
833.899	5489.60818
834.084	5022.1233
834.269	5445.83138
834.454	5262.27313
834.639	5454.17062
834.824	5235.14119
835.009	5441.66162
835.194	5306.09329
835.379	5520.87097
835.564	5068.08876
835.749	5410.38542
835.934	5289.40111
836.119	5475.01706
836.304	5024.21288
836.489	5345.73121
836.674	5105.68853
836.859	5287.31448
837.044	5038.83931
837.228	5222.61743
837.413	5126.57404
837.598	5489.60818
837.783	4978.23675
837.968	5086.88958
838.152	4796.31317
838.337	4951.06379
838.522	4764.92958
838.707	5103.59985
838.891	4601.65302
839.076	4754.46725
839.261	4708.42628
839.445	4813.049
839.63	4882.06885
839.815	4921.79626
839.999	4969.87626
840.184	4988.68685
840.368	4691.6814
840.553	4808.86518
840.737	4674.93507
840.922	5070.17783
841.106	4677.02844
841.291	4842.33318
841.475	4526.24868
841.66	5061.8214
841.844	4549.29195
842.029	4628.87527
842.213	4551.38666
842.397	4729.35535
842.582	4398.41486
842.766	4664.46789
842.951	4582.80464
843.135	4603.74718
843.319	4499.01227
843.504	4578.61587
843.688	4490.63109
843.872	4917.61482
844.056	4697.9609
844.241	4951.06379
844.425	4566.04901
844.609	4630.96914
844.793	4465.48542
844.977	4683.30841
845.161	4612.12357
845.346	4526.24868
845.53	4465.48542
845.714	4578.61587
845.898	4442.43244
846.082	4448.71988
846.266	4280.98779
846.45	4413.08846
846.634	4241.13112
846.818	4509.48826
847.002	4155.09846
847.186	4440.33659
847.37	4318.73959
847.554	4543.00769
847.738	4356.48441
847.922	4446.62409
848.106	4280.98779
848.29	4513.6785
848.473	4276.79271
848.657	4236.93523
848.841	4211.75812
849.025	4322.93381
849.209	4173.98672
849.392	4318.73959
849.576	4073.22969
849.76	4031.23343
849.944	4213.85633
850.127	4257.91381
850.311	4138.30746
850.495	4337.61288
850.678	4123.61423
850.862	4540.91289
851.046	3974.52543
851.229	4197.07006
851.413	4066.93077
851.596	4180.28243
851.78	3945.11542
851.964	4039.63334
852.147	3816.92578
852.331	4058.53194
852.514	3816.92578
852.698	4027.03335
852.881	3755.95729
853.065	3982.92755
853.248	3856.86167
853.431	4180.28243
853.615	3806.41515
853.798	4117.31682
853.982	3745.44382
854.165	4060.63168
854.348	3829.53788
854.532	4163.49345
854.715	3739.13551
854.898	3964.02231
855.081	3755.95729
855.265	3926.20689
855.448	3631.8677
855.631	3892.58769
855.814	3686.55947
855.997	3919.90368
856.181	3711.79747
856.364	3894.68904
856.547	3810.61946
856.73	3793.80174
856.913	3532.96957
857.096	3699.17882
857.279	3446.66354
857.462	3663.42221
857.645	3554.01516
857.828	3919.90368
858.011	3549.80619
858.194	3869.47151
858.377	3474.03216
858.56	3867.36992
858.743	3617.14081
858.926	3627.66011
859.109	3459.29559
859.292	3686.55947
859.475	3518.23656
859.658	3591.89257
859.841	3330.84
860.023	3408.76352
860.206	3347.69035
860.389	3650.80092
860.572	3431.92533
860.755	3520.34133
860.937	3349.79657
861.12	3269.74825
861.303	3431.92533
861.486	3389.81136
861.668	3280.28233
861.851	3356.11511
862.034	3307.66896
862.216	3341.3716
862.399	3130.65934
862.581	3410.86923
862.764	3191.783
862.947	3153.84578
863.129	2985.17359
863.312	3191.783
863.494	3088.49722
863.677	3250.78583
863.859	2883.92352
864.042	3316.09503
864.224	3128.55139
864.406	3276.06875
864.589	2774.1987
864.771	3189.67551
864.954	2687.659
865.136	3027.35097
865.318	3090.60548
865.501	2807.96419
865.683	2915.5678
865.865	3016.80719
866.048	2778.41958
866.23	2959.86426
866.412	2879.70404
866.594	2928.22459
866.777	2879.70404
866.959	2972.5192
867.141	2799.52314
867.323	2926.11516
867.505	2742.54041
867.687	2843.83614
867.869	2624.32352
868.052	2875.4845
868.234	2753.09351
868.416	2987.2826
868.598	2664.43731
868.78	2902.91048
868.962	2860.71566
869.144	3008.3719
869.326	2829.06582
869.508	2917.6773
869.69	2782.6404
869.872	3018.91598
870.054	2837.50609
870.236	2833.28599
870.417	2632.7689
870.599	2772.08824
870.781	2630.65757
870.963	2727.76552
871.145	2704.54653
871.327	2818.51518
871.508	2552.52991
871.69	2723.544
871.872	2573.64711
872.054	2755.20409
872.235	2573.64711
872.417	2683.43699
872.599	2586.31687
872.78	2767.86729
872.962	2546.19451
873.144	2829.06582
873.325	2487.05918
873.507	2776.30915
873.689	2366.6499
873.87	2579.98204
874.052	2347.63481
874.233	2539.85902
874.415	2438.47715
874.596	2679.21493
874.778	2413.12774
874.959	2639.10281
875.141	2601.0977
875.322	2655.99268
875.503	2837.50609
875.685	2759.42521
875.866	2446.92661
876.048	2594.76313
876.229	2364.53715
876.41	2404.67759
876.592	2461.71276
876.773	2731.98699
876.954	2537.74716
877.136	2820.62534
877.317	2579.98204
877.498	2738.31908
877.679	2558.86519
877.86	2584.20527
878.042	2489.17131
878.223	2803.74369
878.404	2506.06794
878.585	2510.29198
878.766	2440.58953
878.947	2843.83614
879.128	2470.16174
879.309	2579.98204
879.49	2470.16174
879.672	2552.52991
879.853	2501.84385
880.034	2653.88149
880.215	2544.08269
880.396	2698.2138
880.576	2607.43216
880.757	2942.99019
880.938	2611.65507
881.119	2869.15508
881.3	2601.0977
881.481	2774.1987
881.662	2577.87041
881.843	2717.21163
882.023	2503.9559
882.204	2917.6773
882.385	2622.21214
882.566	2693.99192
882.747	2474.38617
882.927	2710.87914
883.108	2533.52341
883.289	2734.0977
883.469	2573.64711
883.65	2848.05611
883.831	2742.54041
884.011	2911.34875
884.192	2776.30915
884.373	2976.73739
884.553	2683.43699
884.734	2860.71566
884.914	2550.41812
885.095	2753.09351
885.275	2548.30632
885.456	2976.73739
885.636	2702.43563
885.817	2949.31808
885.997	2826.95572
886.178	2940.88086
886.358	2717.21163
886.538	2892.36231
886.719	2632.7689
886.899	2824.84561
887.08	2786.86117
887.26	2993.60955
887.44	2742.54041
887.621	2877.59428
887.801	2529.29962
887.981	2892.36231
888.161	2683.43699
888.342	2881.81379
888.522	2807.96419
888.702	2875.4845
888.882	2565.20037
889.062	2909.2392
889.242	2533.52341
889.423	2634.88022
889.603	2465.93727
889.783	2658.10385
889.963	2660.21502
890.143	2639.10281
890.323	2630.65757
890.503	2951.42734
890.683	2579.98204
890.863	2905.02007
891.043	2742.54041
891.223	2778.41958
891.403	2575.75877
891.583	2858.60577
891.763	2503.9559
891.943	2748.87231
892.122	2394.11468
892.302	2571.53545
892.482	2455.3759
892.662	2613.76651
892.842	2596.87467
893.022	2546.19451
893.201	2472.27396
893.381	2628.54623
893.561	2472.27396
893.741	2776.30915
893.92	2478.61055
894.1	2791.08188
894.28	2571.53545
894.459	2672.88174
894.639	2503.9559
894.819	2658.10385
894.998	2487.05918
895.178	2556.75344
895.357	2556.75344
895.537	2641.21409
895.716	2368.76263
895.896	2453.2636
896.075	2250.43437
896.255	2394.11468
896.434	2294.81097
896.614	2320.16717
896.793	2227.18788
896.973	2415.24025
897.152	2132.07787
897.331	2436.36476
897.511	2140.53276
897.69	2529.29962
897.87	2246.20781
898.049	2339.18341
898.228	2250.43437
898.407	2398.33988
898.587	2313.82825
898.766	2233.52794
898.945	2108.82627
899.124	2392.00206
899.304	2066.54829
899.483	2387.77681
899.662	2032.72383
899.841	2165.89668
900.02	1924.89719
900.199	2241.98122
900.378	1914.32511
900.557	2309.60225
900.737	1956.61257
900.916	2165.89668
901.095	1956.61257
901.274	2148.98753
901.453	2064.43431
901.632	2119.39529
901.811	1747.26977
901.989	2020.03921
902.168	1895.29501
902.347	2157.44217
902.526	1713.43262
902.705	1981.98391
902.884	1829.74372
903.063	2058.09234
903.242	1920.66837
903.42	1960.84119
903.599	1639.4111
903.778	1929.12598
903.957	1639.4111
904.135	1943.92658
904.314	1514.62601
904.493	1806.48248
904.672	1552.69659
904.85	1734.58094
905.029	1635.1812
905.207	1709.20292
905.386	1660.56045
905.565	1628.83634
905.743	1370.80283
905.922	1658.44552
906.1	1339.07749
906.279	1630.95129
906.457	1540.00643
906.636	1793.79431
906.814	1474.44013
906.993	1525.2012
907.171	1336.96248
907.35	1406.7585
907.528	1307.35249
907.707	1449.0595
907.885	1191.03198
908.063	1430.02404
908.242	1184.68748
908.42	1453.28961
908.598	1210.06564
908.777	1298.89256
908.955	1324.27245
909.133	1413.10364
909.311	1057.80567
909.49	1345.42254
909.668	1148.73602
909.846	1372.91786
910.024	1186.80231
910.202	1400.41337
910.38	1277.74289
910.559	1292.54764
910.737	1083.18066
910.915	1284.08777
911.093	1059.92022
911.271	1345.42254
911.449	1176.22822
911.627	1286.20273
911.805	1102.2124
911.983	1330.61746
912.161	1150.85078
912.339	1377.14793
912.517	1218.52513
912.695	1279.85784
912.872	1313.69746
913.05	1485.01538
913.228	1336.96248
913.406	1497.70566
913.584	1301.00754
913.762	1375.0329
913.939	1328.50245
914.117	1497.70566
914.295	1203.72105
914.473	1265.05319
914.65	1210.06564
914.828	1205.83591
915.006	1108.5564
915.184	1246.01882
915.361	1085.29528
915.539	1262.93825
915.716	1277.74289
915.894	1341.19251
916.072	1207.95077
916.249	1430.02404
916.427	1243.9039
916.604	1366.57277
916.782	1260.82331
916.959	1372.91786
917.137	1281.9728
917.314	1290.43267
917.492	1159.30986
917.669	1277.74289
917.847	1057.80567
918.024	1138.16228
918.201	1087.4099
918.379	1100.09774
918.556	1038.77494
918.733	1059.92022
918.911	968.99979
919.088	1138.16228
919.265	994.37177
919.442	1239.67408
919.62	867.52228
919.797	922.48709
919.974	888.66195
920.151	1089.52453
920.328	968.99979
920.506	1045.11847
920.683	966.8855
920.86	981.68566
921.037	935.17202
921.214	983.8
921.391	823.13176
921.568	1078.95145
921.745	928.82952
921.922	1049.34751
922.099	880.20598
922.276	1066.26392
922.453	901.34614
922.63	1074.72225
922.807	926.71537
922.984	882.31996
923.161	833.70058
923.338	873.8641
923.514	761.83724
923.691	886.54795
923.868	850.61115
924.045	861.18054
924.222	753.38348
924.399	850.61115
924.575	721.68333
924.752	804.10846
924.929	804.10846
925.105	941.51459
925.282	766.06419
925.459	930.94368
925.635	711.11715
925.812	861.18054
925.989	829.47302
926.165	770.29117
926.342	677.30723
926.518	924.60123
926.695	668.85521
926.871	761.83724
927.048	660.40337
927.224	658.29044
927.401	514.64087
927.577	660.40337
927.754	601.24592
927.93	721.68333
928.107	510.41683
928.283	700.55124
928.459	706.89075
928.636	753.38348
928.812	533.64976
928.988	584.34561
929.165	516.75291
929.341	668.85521
929.517	578.0082
929.693	624.48519
929.87	499.85698
930.046	529.42547
930.222	542.09852
930.398	643.50026
930.574	508.30483
930.751	622.37247
930.927	482.96198
931.103	466.06793
931.279	430.17133
931.455	539.98631
931.631	442.8402
931.807	449.17485
931.983	457.62127
932.159	546.32299
932.335	428.0599
932.511	457.62127
932.687	352.0595
932.863	440.72869
933.039	400.61285
933.215	398.50165
933.391	368.94661
933.566	434.39422
933.742	282.41208
933.918	525.20123
934.094	292.96345
934.27	409.05781
934.445	314.06758
934.621	356.28118
934.797	301.40489
934.973	259.20069
935.148	322.50973
935.324	309.84661
935.5	238.10143
935.675	337.28419
935.851	292.96345
936.027	278.19166
936.202	185.36184
936.378	280.30186
936.553	195.90876
936.729	223.33309
936.904	195.90876
937.08	136.85268
937.255	229.66226
937.431	181.14322
937.606	134.74384
937.782	254.98069
937.957	160.05133
938.133	115.76524
938.308	187.47118
938.483	198.0182
938.659	124.19996
938.834	130.52622
939.009	153.72418
939.185	136.85268
939.36	164.26954
939.535	73.59693
939.71	73.59693
939.886	107.33087
940.061	179.03394
940.236	111.54801
940.411	164.26954
940.586	138.96154
940.761	111.54801
940.937	145.28826
941.112	111.54801
941.287	94.67998
941.462	122.09124
941.637	98.89685
941.812	77.81336
941.987	52.51615
942.162	103.11382
942.337	147.39721
942.512	58.84015
942.687	52.51615
942.862	50.4082
943.037	88.35483
943.212	101.00532
943.386	41.97663
943.561	18.79172
943.736	84.13817
943.911	96.7884
944.086	69.38059
944.26	63.05626
944.435	103.11382
944.61	60.94819
944.785	60.94819
944.959	67.27246
945.134	4.03918
945.309	56.73213
945.483	44.08449
945.658	101.00532
945.833	46.19237
946.007	77.81336
946.182	105.22233
946.357	94.67998
946.531	-19.141
946.706	10.36155
946.88	67.27246
947.055	63.05626
947.229	37.76098
947.404	60.94819
947.578	56.73213
947.752	27.22227
947.927	119.98255
948.101	54.62413
948.276	71.48875
948.45	136.85268
948.624	23.00695
948.799	105.22233
948.973	37.76098
949.147	98.89685
949.321	54.62413
949.496	69.38059
949.67	20.89932
949.844	117.87389
950.018	103.11382
950.193	52.51615
950.367	113.65661
950.541	48.30027
950.715	44.08449
950.889	103.11382
951.063	128.41744
951.237	60.94819
951.411	119.98255
951.585	122.09124
951.759	122.09124
951.933	86.24649
952.107	71.48875
952.281	105.22233
952.455	88.35483
952.629	105.22233
952.803	54.62413
952.977	54.62413
953.151	88.35483
953.325	14.57659
953.499	151.61516
953.672	-6.49763
953.846	35.65319
954.02	31.43768
954.194	98.89685
954.368	56.73213
954.541	-0.17561
954.715	92.57157
954.889	58.84015
955.062	69.38059
955.236	33.54542
955.41	96.7884
955.583	71.48875
955.757	119.98255
955.93	94.67998
956.104	115.76524
956.278	94.67998
956.451	-12.81942
956.625	1.93177
956.798	71.48875
956.972	52.51615
957.145	12.46906
957.319	27.22227
957.492	63.05626
957.665	96.7884
957.839	10.36155
958.012	63.05626
958.185	86.24649
958.359	92.57157
958.532	65.16435
958.705	77.81336
958.879	73.59693
959.052	111.54801
959.225	96.7884
959.398	41.97663
959.572	10.36155
959.745	52.51615
959.918	16.68414
960.091	44.08449
960.264	56.73213
960.438	103.11382
960.611	107.33087
960.784	63.05626
960.957	23.00695
961.13	23.00695
961.303	134.74384
961.476	39.86879
961.649	90.46319
961.822	141.07043
961.995	54.62413
962.168	18.79172
962.341	73.59693
962.514	119.98255
962.686	29.32996
962.859	198.0182
963.032	69.38059
963.205	115.76524
963.378	50.4082
963.551	132.63502
963.723	60.94819
963.896	119.98255
964.069	16.68414
964.242	-27.56942
964.414	107.33087
964.587	-23.35526
964.76	52.51615
964.932	46.19237
965.105	6.14661
965.278	52.51615
965.45	69.38059
965.623	119.98255
965.795	134.74384
965.968	63.05626
966.14	60.94819
966.313	71.48875
966.485	44.08449
966.658	90.46319
966.83	82.02988
967.003	113.65661
967.175	39.86879
967.348	-17.03383
967.52	103.11382
967.692	90.46319
967.865	94.67998
968.037	41.97663
968.209	37.76098
968.382	-6.49763
968.554	86.24649
968.726	6.14661
968.898	96.7884
969.071	149.50617
969.243	20.89932
969.415	96.7884
969.587	130.52622
969.759	-2.28298
969.932	-14.92664
970.104	44.08449
970.276	52.51615
970.448	69.38059
970.62	79.92161
970.792	69.38059
970.964	37.76098
971.136	136.85268
971.308	52.51615
971.48	12.46906
971.652	94.67998
971.824	73.59693
971.996	77.81336
972.168	52.51615
972.339	-31.78348
972.511	31.43768
972.683	25.11459
972.855	88.35483
973.027	48.30027
973.199	60.94819
973.37	6.14661
973.542	18.79172
973.714	63.05626
973.886	48.30027
974.057	65.16435
974.229	88.35483
974.401	88.35483
974.572	35.65319
974.744	60.94819
974.915	96.7884
975.087	86.24649
975.259	31.43768
975.43	71.48875
975.602	31.43768
975.773	73.59693
975.945	54.62413
976.116	60.94819
976.288	69.38059
976.459	56.73213
976.63	-2.28298
976.802	86.24649
976.973	37.76098
977.145	54.62413
977.316	75.70514
977.487	52.51615
977.659	63.05626
977.83	75.70514
978.001	-12.81942
978.172	10.36155
978.344	52.51615
978.515	27.22227
978.686	20.89932
978.857	37.76098
979.028	-38.10439
979.2	-6.49763
979.371	60.94819
979.542	73.59693
979.713	69.38059
979.884	52.51615
980.055	27.22227
980.226	35.65319
980.397	-2.28298
980.568	35.65319
980.739	39.86879
980.91	92.57157
981.081	79.92161
981.252	63.05626
981.423	115.76524
981.594	18.79172
981.765	-27.56942
981.936	27.22227
982.106	-12.81942
982.277	31.43768
982.448	18.79172
982.619	63.05626
982.79	-8.60492
982.96	69.38059
983.131	54.62413
983.302	27.22227
983.472	23.00695
983.643	31.43768
983.814	90.46319
983.984	77.81336
984.155	1.93177
984.326	54.62413
984.496	23.00695
984.667	18.79172
984.837	67.27246
985.008	-71.81209
985.178	18.79172
985.349	84.13817
985.519	82.02988
985.69	46.19237
985.86	31.43768
986.031	-63.38577
986.201	86.24649
986.371	77.81336
986.542	6.14661
986.712	-4.39031
986.882	39.86879
987.053	103.11382
987.223	60.94819
987.393	14.57659
987.563	10.36155
987.734	90.46319
987.904	39.86879
988.074	27.22227
988.244	37.76098
988.414	31.43768
988.585	-10.71218
988.755	60.94819
988.925	-31.78348
989.095	12.46906
989.265	16.68414
989.435	39.86879
989.605	79.92161
989.775	63.05626
989.945	1.93177
990.115	65.16435
990.285	86.24649
990.455	-10.71218
990.625	6.14661
990.795	10.36155
990.965	25.11459
991.134	12.46906
991.304	33.54542
991.474	-12.81942
991.644	79.92161
991.814	94.67998
991.984	8.25407
992.153	63.05626
992.323	27.22227
992.493	-38.10439
992.662	31.43768
992.832	109.43943
993.002	-19.141
993.171	69.38059
993.341	-17.03383
993.511	1.93177
993.68	44.08449
993.85	69.38059
994.019	20.89932
994.189	65.16435
994.358	29.32996
994.528	12.46906
994.697	4.03918
994.867	48.30027
995.036	37.76098
995.206	39.86879
995.375	10.36155
995.544	-50.74553
995.714	69.38059
995.883	-12.81942
996.052	44.08449
996.222	-12.81942
996.391	14.57659
996.56	-23.35526
996.73	39.86879
996.899	73.59693
997.068	16.68414
997.237	-10.71218
997.406	65.16435
997.576	39.86879
997.745	27.22227
997.914	-12.81942
998.083	18.79172
998.252	44.08449
998.421	31.43768
998.59	-6.49763
998.759	71.48875
998.928	12.46906
999.097	12.46906
999.266	60.94819
999.435	92.57157
999.604	31.43768
999.773	12.46906
999.942	12.46906
1000.111	79.92161
1000.28	-0.17561
1000.448	71.48875
1000.617	18.79172
1000.786	41.97663
1000.955	75.70514
1001.124	88.35483
1001.292	4.03918
1001.461	8.25407
1001.63	-40.21131
1001.798	-40.21131
1001.967	37.76098
1002.136	98.89685
1002.304	82.02988
1002.473	35.65319
1002.642	79.92161
1002.81	39.86879
1002.979	-19.141
1003.147	14.57659
1003.316	60.94819
1003.484	-23.35526
1003.653	14.57659
1003.821	46.19237
1003.99	-0.17561
1004.158	-19.141
1004.327	48.30027
1004.495	-6.49763
1004.663	71.48875
1004.832	-2.28298
1005	-14.92664
1005.168	-31.78348
1005.337	-29.67646
1005.505	39.86879
1005.673	10.36155
1005.842	-23.35526
1006.01	20.89932
1006.178	4.03918
1006.346	1.93177
1006.514	-35.99745
1006.683	23.00695
1006.851	41.97663
1007.019	20.89932
1007.187	60.94819
1007.355	10.36155
1007.523	35.65319
1007.691	46.19237
1007.859	48.30027
1008.027	82.02988
1008.195	-14.92664
1008.363	65.16435
1008.531	77.81336
1008.699	-19.141
1008.867	27.22227
1009.035	31.43768
1009.203	-4.39031
1009.37	-10.71218
1009.538	107.33087
1009.706	-54.95905
1009.874	18.79172
1010.042	-2.28298
1010.209	31.43768
1010.377	-19.141
1010.545	-6.49763
1010.713	-10.71218
1010.88	44.08449
1011.048	14.57659
1011.216	-40.21131
1011.383	18.79172
1011.551	-46.53192
1011.718	39.86879
1011.886	6.14661
1012.054	73.59693
1012.221	-23.35526
1012.389	-23.35526
1012.556	39.86879
1012.724	27.22227
1012.891	-23.35526
1013.058	58.84015
1013.226	-6.49763
1013.393	-31.78348
1013.561	44.08449
1013.728	54.62413
1013.895	29.32996
1014.063	52.51615
1014.23	-21.24814
1014.397	41.97663
1014.565	60.94819
1014.732	4.03918
1014.899	4.03918
1015.066	69.38059
1015.233	-46.53192
1015.401	-25.46235
1015.568	27.22227
1015.735	60.94819
1015.902	31.43768
1016.069	-12.81942
1016.236	-21.24814
1016.403	10.36155
1016.57	48.30027
1016.737	39.86879
1016.904	18.79172
1017.071	6.14661
1017.238	25.11459
1017.405	37.76098
1017.572	-0.17561
1017.739	-52.8523
1017.906	18.79172
1018.073	60.94819
1018.24	-14.92664
1018.407	79.92161
1018.573	-2.28298
1018.74	44.08449
1018.907	29.32996
1019.074	12.46906
1019.241	56.73213
1019.407	94.67998
1019.574	27.22227
1019.741	18.79172
1019.907	56.73213
1020.074	39.86879
1020.241	12.46906
1020.407	54.62413
1020.574	18.79172
1020.74	82.02988
1020.907	27.22227
1021.073	-27.56942
1021.24	-14.92664
1021.406	12.46906
1021.573	50.4082
1021.739	-6.49763
1021.906	35.65319
1022.072	-31.78348
1022.239	10.36155
1022.405	10.36155
1022.571	39.86879
1022.738	65.16435
1022.904	-6.49763
1023.07	6.14661
1023.237	6.14661
1023.403	65.16435
1023.569	18.79172
1023.735	-6.49763
1023.902	39.86879
1024.068	14.57659
1024.234	14.57659
1024.4	-40.21131
1024.566	46.19237
1024.732	12.46906
1024.898	-42.31821
1025.065	46.19237
1025.231	-4.39031
1025.397	20.89932
1025.563	-33.89048
1025.729	-2.28298
1025.895	18.79172
1026.061	6.14661
1026.227	71.48875
1026.392	-12.81942
1026.558	-0.17561
1026.724	-10.71218
1026.89	-2.28298
1027.056	-40.21131
1027.222	-38.10439
1027.388	52.51615
1027.553	25.11459
1027.719	69.38059
1027.885	-10.71218
1028.051	29.32996
1028.216	-12.81942
1028.382	48.30027
1028.548	18.79172
1028.713	-54.95905
1028.879	56.73213
1029.045	94.67998
1029.21	60.94819
1029.376	-65.49239
1029.541	27.22227
1029.707	14.57659
1029.873	54.62413
1030.038	-23.35526
1030.204	-40.21131
1030.369	-31.78348
1030.534	60.94819
1030.7	48.30027
1030.865	12.46906
1031.031	-2.28298
1031.196	-10.71218
1031.361	37.76098
1031.527	18.79172
1031.692	37.76098
1031.857	-21.24814
1032.023	35.65319
1032.188	-14.92664
1032.353	-14.92664
1032.518	90.46319
1032.684	27.22227
1032.849	35.65319
1033.014	1.93177
1033.179	44.08449
1033.344	-0.17561
1033.509	4.03918
1033.674	60.94819
1033.839	44.08449
1034.004	35.65319
1034.17	27.22227
1034.335	35.65319
1034.5	44.08449
1034.664	-14.92664
1034.829	-31.78348
1034.994	-4.39031
1035.159	39.86879
1035.324	41.97663
1035.489	-48.63874
1035.654	6.14661
1035.819	-35.99745
1035.984	44.08449
1036.148	29.32996
1036.313	1.93177
1036.478	35.65319
1036.643	10.36155
1036.807	4.03918
1036.972	-54.95905
1037.137	4.03918
1037.301	-12.81942
1037.466	-31.78348
1037.631	1.93177
1037.795	14.57659
1037.96	37.76098
1038.124	-54.95905
1038.289	27.22227
1038.454	-12.81942
1038.618	10.36155
1038.783	-6.49763
1038.947	25.11459
1039.111	-2.28298
1039.276	35.65319
1039.44	-12.81942
1039.605	-2.28298
1039.769	4.03918
1039.933	103.11382
1040.098	14.57659
1040.262	-78.13156
1040.426	-31.78348
1040.591	4.03918
1040.755	18.79172
1040.919	63.05626
1041.083	1.93177
1041.248	-57.06577
1041.412	-48.63874
1041.576	31.43768
1041.74	-10.71218
1041.904	-19.141
1042.068	-2.28298
1042.232	-21.24814
1042.397	44.08449
1042.561	-12.81942
1042.725	39.86879
1042.889	48.30027
1043.053	-2.28298
1043.217	-54.95905
1043.381	44.08449
1043.544	14.57659
1043.708	-57.06577
1043.872	-2.28298
1044.036	54.62413
1044.2	69.38059
1044.364	39.86879
1044.528	-57.06577
1044.691	-19.141
1044.855	10.36155
1045.019	14.57659
1045.183	27.22227
1045.346	56.73213
1045.51	18.79172
1045.674	-31.78348
1045.837	29.32996
1046.001	44.08449
1046.165	27.22227
1046.328	-0.17561
1046.492	46.19237
1046.655	-23.35526
1046.819	-76.0251
1046.983	23.00695
1047.146	63.05626
1047.31	39.86879
1047.473	-2.28298
1047.636	-25.46235
1047.8	-19.141
1047.963	-27.56942
1048.127	46.19237
1048.29	-6.49763
