Data from mixed_try1_USB4F045381__26__00174.txt Node

Date: Thu Apr 03 20:12:32 EDT 2025
User: mmckonesweet
Spectrometer: USB4F04538
Trigger mode: 4
Integration Time (sec): 2.700000E-3
Scans to average: 1
Electric dark correction enabled: true
Nonlinearity correction enabled: true
Boxcar width: 0
XAxis mode: Wavelengths
Number of Pixels in Spectrum: 3648
>>>>>Begin Spectral Data<<<<<
345.52	5.79537
345.736	5.79537
345.952	5.79537
346.168	22.65567
346.384	-38.45555
346.6	-51.09666
346.816	5.79537
347.032	-51.09666
347.248	3.68794
347.464	-36.3486
347.68	-38.45555
347.896	22.65567
348.112	-6.84884
348.328	33.19413
348.544	94.32857
348.76	-30.02763
348.975	54.2728
349.191	-21.59933
349.407	14.22533
349.623	-2.6342
349.839	35.30189
350.055	28.97868
350.27	-53.20343
350.486	-36.3486
350.702	-48.98987
350.918	-11.06339
351.133	-55.31017
351.349	-53.20343
351.565	-0.52684
351.781	-2.6342
351.996	-11.06339
352.212	-30.02763
352.428	-27.92059
352.644	-25.81353
352.859	37.40968
353.075	41.62532
353.291	18.44046
353.506	54.2728
353.722	62.70491
353.938	-34.24164
354.153	-80.58907
354.369	35.30189
354.584	96.437
354.8	-21.59933
355.016	-11.06339
355.231	-27.92059
355.447	35.30189
355.662	-23.70644
355.878	41.62532
356.093	-2.6342
356.309	-65.84349
356.524	22.65567
356.74	12.11781
356.955	-11.06339
357.171	28.97868
357.386	-34.24164
357.602	-36.3486
357.817	64.813
358.033	41.62532
358.248	-4.74153
358.464	22.65567
358.679	-4.74153
358.895	-44.77622
359.11	31.08639
359.325	37.40968
359.541	-61.63024
359.756	-6.84884
359.972	-63.73688
360.187	20.54805
360.402	-8.95613
360.618	71.13739
360.833	-78.48264
361.048	-4.74153
361.264	58.48881
361.479	-0.52684
361.694	-55.31017
361.909	-51.09666
362.125	50.05688
362.34	56.38079
362.555	31.08639
362.77	-11.06339
362.986	-30.02763
363.201	-42.66935
363.416	3.68794
363.631	-13.17063
363.847	12.11781
364.062	7.90283
364.277	-72.16318
364.492	20.54805
364.707	1.58054
364.922	37.40968
365.138	12.11781
365.353	50.05688
365.568	-21.59933
365.783	-55.31017
365.998	-72.16318
366.213	79.57023
366.428	-0.52684
366.643	33.19413
366.858	-0.52684
367.073	-63.73688
367.288	-46.88306
367.503	26.87099
367.718	-0.52684
367.933	3.68794
368.148	3.68794
368.363	16.33288
368.578	28.97868
368.793	20.54805
369.008	18.44046
369.223	7.90283
369.438	-36.3486
369.653	58.48881
369.868	37.40968
370.083	-13.17063
370.298	12.11781
370.513	-17.38502
370.728	-19.49219
370.943	-34.24164
371.157	-21.59933
371.372	12.11781
371.587	26.87099
371.802	-19.49219
372.017	66.92111
372.232	33.19413
372.446	-38.45555
372.661	-32.13465
372.876	62.70491
373.091	79.57023
373.306	81.6785
373.52	-11.06339
373.735	45.84105
373.95	-6.84884
374.165	12.11781
374.379	-82.69548
374.594	-8.95613
374.809	-51.09666
375.023	14.22533
375.238	-21.59933
375.453	26.87099
375.667	-0.52684
375.882	-21.59933
376.097	-2.6342
376.311	28.97868
376.526	-36.3486
376.741	98.54544
376.955	-30.02763
377.17	-15.27784
377.384	-21.59933
377.599	22.65567
377.813	-2.6342
378.028	-4.74153
378.242	-23.70644
378.457	3.68794
378.672	18.44046
378.886	20.54805
379.101	-0.52684
379.315	47.94895
379.53	83.78679
379.744	1.58054
379.958	-59.52357
380.173	5.79537
380.387	-4.74153
380.602	-34.24164
380.816	20.54805
381.031	20.54805
381.245	-53.20343
381.459	-21.59933
381.674	10.01031
381.888	24.76332
382.103	54.2728
382.317	-21.59933
382.531	24.76332
382.746	-13.17063
382.96	-19.49219
383.174	102.7624
383.388	-78.48264
383.603	28.97868
383.817	-46.88306
384.031	-46.88306
384.246	60.59685
384.46	28.97868
384.674	39.51749
384.888	14.22533
385.103	-120.60637
385.317	12.11781
385.531	7.90283
385.745	-17.38502
385.959	-8.95613
386.174	73.24557
386.388	37.40968
386.602	31.08639
386.816	-30.02763
387.03	7.90283
387.244	12.11781
387.458	54.2728
387.672	-4.74153
387.887	41.62532
388.101	-46.88306
388.315	20.54805
388.529	37.40968
388.743	-13.17063
388.957	62.70491
389.171	20.54805
389.385	-55.31017
389.599	71.13739
389.813	-53.20343
390.027	50.05688
390.241	28.97868
390.455	16.33288
390.669	20.54805
390.883	12.11781
391.097	45.84105
391.311	39.51749
391.525	28.97868
391.738	20.54805
391.952	16.33288
392.166	45.84105
392.38	35.30189
392.594	28.97868
392.808	-51.09666
393.022	66.92111
393.236	28.97868
393.449	12.11781
393.663	104.87091
393.877	-38.45555
394.091	10.01031
394.305	20.54805
394.518	20.54805
394.732	66.92111
394.946	-11.06339
395.16	18.44046
395.373	62.70491
395.587	-72.16318
395.801	5.79537
396.015	-17.38502
396.228	-72.16318
396.442	3.68794
396.656	18.44046
396.869	12.11781
397.083	-93.22713
397.297	-21.59933
397.51	-36.3486
397.724	-53.20343
397.938	-27.92059
398.151	-2.6342
398.365	-19.49219
398.578	-21.59933
398.792	79.57023
399.005	69.02924
399.219	-38.45555
399.433	-42.66935
399.646	39.51749
399.86	33.19413
400.073	37.40968
400.287	-30.02763
400.5	-21.59933
400.714	-25.81353
400.927	-2.6342
401.141	3.68794
401.354	24.76332
401.567	-2.6342
401.781	14.22533
401.994	-25.81353
402.208	20.54805
402.421	-4.74153
402.635	14.22533
402.848	35.30189
403.061	-4.74153
403.275	20.54805
403.488	5.79537
403.701	-27.92059
403.915	24.76332
404.128	50.05688
404.341	-27.92059
404.555	7.90283
404.768	50.05688
404.981	-11.06339
405.195	-0.52684
405.408	31.08639
405.621	-30.02763
405.834	14.22533
406.048	-17.38502
406.261	-55.31017
406.474	-0.52684
406.687	83.78679
406.9	54.2728
407.114	79.57023
407.327	-78.48264
407.54	16.33288
407.753	-4.74153
407.966	3.68794
408.179	20.54805
408.392	12.11781
408.605	-4.74153
408.819	26.87099
409.032	-46.88306
409.245	79.57023
409.458	28.97868
409.671	-70.05664
409.884	3.68794
410.097	12.11781
410.31	3.68794
410.523	7.90283
410.736	33.19413
410.949	-11.06339
411.162	-13.17063
411.375	45.84105
411.588	31.08639
411.801	83.78679
412.014	1.58054
412.227	-17.38502
412.44	39.51749
412.653	-30.02763
412.865	24.76332
413.078	-32.13465
413.291	-36.3486
413.504	-65.84349
413.717	104.87091
413.93	-38.45555
414.143	-2.6342
414.356	-30.02763
414.568	5.79537
414.781	22.65567
414.994	-61.63024
415.207	3.68794
415.42	16.33288
415.632	-0.52684
415.845	62.70491
416.058	81.6785
416.271	64.813
416.483	28.97868
416.696	-11.06339
416.909	-11.06339
417.121	7.90283
417.334	-4.74153
417.547	31.08639
417.759	12.11781
417.972	62.70491
418.185	-42.66935
418.397	20.54805
418.61	-46.88306
418.823	-38.45555
419.035	54.2728
419.248	-30.02763
419.46	22.65567
419.673	45.84105
419.885	-38.45555
420.098	5.79537
420.311	-8.95613
420.523	54.2728
420.736	14.22533
420.948	-11.06339
421.161	66.92111
421.373	-30.02763
421.586	-23.70644
421.798	58.48881
422.01	-0.52684
422.223	45.84105
422.435	-53.20343
422.648	12.11781
422.86	-6.84884
423.073	85.8951
423.285	-55.31017
423.497	-38.45555
423.71	50.05688
423.922	41.62532
424.134	-34.24164
424.347	62.70491
424.559	96.437
424.771	-25.81353
424.984	24.76332
425.196	28.97868
425.408	-63.73688
425.621	-13.17063
425.833	12.11781
426.045	14.22533
426.257	7.90283
426.47	54.2728
426.682	-0.52684
426.894	33.19413
427.106	39.51749
427.318	-4.74153
427.531	33.19413
427.743	-30.02763
427.955	-21.59933
428.167	-4.74153
428.379	14.22533
428.591	-27.92059
428.804	14.22533
429.016	-13.17063
429.228	64.813
429.44	37.40968
429.652	79.57023
429.864	-42.66935
430.076	41.62532
430.288	12.11781
430.5	5.79537
430.712	-21.59933
430.924	39.51749
431.136	-30.02763
431.348	28.97868
431.56	71.13739
431.772	-30.02763
431.984	26.87099
432.196	37.40968
432.408	37.40968
432.62	7.90283
432.832	-4.74153
433.044	60.59685
433.256	-13.17063
433.468	-89.01455
433.679	-80.58907
433.891	37.40968
434.103	33.19413
434.315	12.11781
434.527	-8.95613
434.739	73.24557
434.95	3.68794
435.162	33.19413
435.374	109.088
435.586	-4.74153
435.798	-4.74153
436.009	-2.6342
436.221	45.84105
436.433	7.90283
436.645	24.76332
436.856	-40.56246
437.068	31.08639
437.28	62.70491
437.491	14.22533
437.703	62.70491
437.915	33.19413
438.126	20.54805
438.338	52.16483
438.55	-38.45555
438.761	3.68794
438.973	47.94895
439.184	81.6785
439.396	47.94895
439.608	96.437
439.819	45.84105
440.031	69.02924
440.242	3.68794
440.454	43.73317
440.665	62.70491
440.877	-30.02763
441.088	22.65567
441.3	62.70491
441.511	28.97868
441.723	10.01031
441.934	71.13739
442.146	-15.27784
442.357	41.62532
442.569	-44.77622
442.78	88.00344
442.991	-21.59933
443.203	-8.95613
443.414	22.65567
443.626	-8.95613
443.837	45.84105
444.048	85.8951
444.26	37.40968
444.471	96.437
444.682	-38.45555
444.894	-19.49219
445.105	64.813
445.316	-0.52684
445.528	79.57023
445.739	73.24557
445.95	64.813
446.161	5.79537
446.373	-17.38502
446.584	-8.95613
446.795	41.62532
447.006	24.76332
447.217	47.94895
447.429	-93.22713
447.64	64.813
447.851	22.65567
448.062	39.51749
448.273	28.97868
448.484	66.92111
448.695	79.57023
448.907	12.11781
449.118	-21.59933
449.329	7.90283
449.54	-25.81353
449.751	64.813
449.962	14.22533
450.173	56.38079
450.384	14.22533
450.595	-61.63024
450.806	-13.17063
451.017	66.92111
451.228	-17.38502
451.439	66.92111
451.65	24.76332
451.861	-25.81353
452.072	-36.3486
452.283	33.19413
452.494	37.40968
452.705	20.54805
452.915	7.90283
453.126	1.58054
453.337	5.79537
453.548	31.08639
453.759	-21.59933
453.97	37.40968
454.181	41.62532
454.391	66.92111
454.602	14.22533
454.813	-11.06339
455.024	62.70491
455.235	71.13739
455.445	56.38079
455.656	54.2728
455.867	56.38079
456.078	28.97868
456.288	88.00344
456.499	37.40968
456.71	56.38079
456.921	75.35377
457.131	12.11781
457.342	14.22533
457.553	79.57023
457.763	-13.17063
457.974	28.97868
458.184	83.78679
458.395	-21.59933
458.606	-4.74153
458.816	71.13739
459.027	62.70491
459.237	5.79537
459.448	71.13739
459.659	130.17476
459.869	100.65391
460.08	37.40968
460.29	71.13739
460.501	75.35377
460.711	24.76332
460.922	54.2728
461.132	41.62532
461.343	94.32857
461.553	79.57023
461.764	37.40968
461.974	24.76332
462.184	77.46199
462.395	81.6785
462.605	81.6785
462.816	69.02924
463.026	96.437
463.236	88.00344
463.447	62.70491
463.657	83.78679
463.867	7.90283
464.078	22.65567
464.288	96.437
464.498	-11.06339
464.709	83.78679
464.919	98.54544
465.129	56.38079
465.339	64.813
465.55	20.54805
465.76	62.70491
465.97	100.65391
466.18	140.71894
466.391	115.4138
466.601	-17.38502
466.811	113.30518
467.021	134.39237
467.231	140.71894
467.441	138.61006
467.651	199.77609
467.862	54.2728
468.072	81.6785
468.282	157.59075
468.492	54.2728
468.702	140.71894
468.912	73.24557
469.122	155.4817
469.332	123.8485
469.542	115.4138
469.752	161.80891
469.962	157.59075
470.172	199.77609
470.382	168.13631
470.592	111.19658
470.802	174.4639
471.012	212.43327
471.222	149.15468
471.432	125.95723
471.642	214.54287
471.852	214.54287
472.062	147.04571
472.272	208.21413
472.482	214.54287
472.691	210.32369
472.901	147.04571
473.111	157.59075
473.321	258.84902
473.531	222.98148
473.741	193.44776
473.95	140.71894
474.16	225.09118
474.37	231.42039
474.58	284.17061
474.79	254.62902
474.999	208.21413
475.209	260.95905
475.419	284.17061
475.628	303.16355
475.838	227.2009
476.048	328.48976
476.258	347.4861
476.467	320.04741
476.677	347.4861
476.886	450.9345
477.096	328.48976
477.306	324.26855
477.515	480.4982
477.725	404.48342
477.935	334.82172
478.144	389.70517
478.354	450.9345
478.563	434.04231
478.773	450.9345
478.982	543.85871
479.192	461.49263
479.401	493.16926
479.611	543.85871
479.82	514.28887
480.03	537.52208
480.239	575.54369
480.449	613.56959
480.658	628.35855
480.868	619.90764
481.077	662.16415
481.287	649.48669
481.496	672.72903
481.705	744.57764
481.915	852.3727
482.124	744.57764
482.333	780.50655
482.543	835.46207
482.752	848.14499
482.961	920.02061
483.171	854.48657
483.38	755.14466
483.589	814.32458
483.799	873.51177
484.008	1074.36982
484.217	903.10786
484.426	1025.73564
484.636	913.67827
484.845	1076.48441
485.054	1057.45324
485.263	1197.02402
485.472	1203.36858
485.682	1249.89617
485.891	1139.92456
486.1	1211.82803
486.309	1156.84262
486.518	1355.64513
486.727	1139.92456
486.936	1232.97688
487.146	1271.04553
487.355	1493.12306
487.564	1469.85752
487.773	1501.58325
487.982	1524.8487
488.191	1664.4378
488.4	1503.69829
488.609	1524.8487
488.818	1539.65393
489.027	1683.47195
489.236	1465.62741
489.445	1744.80251
489.654	1689.81661
489.863	1791.32715
490.072	1609.44912
490.281	1837.84978
490.49	1694.04637
490.698	1901.28602
490.907	1778.6388
491.116	1930.88797
491.325	1778.6388
491.534	1962.60311
491.743	1937.2311
491.952	2119.043
492.16	1939.34547
492.369	2023.91509
492.578	1998.54527
492.787	2100.0186
492.996	2093.677
493.204	2269.10121
493.413	2277.55388
493.622	2286.00641
493.831	2343.05699
494.039	2400.10036
494.248	2307.13707
494.457	2535.28331
494.665	2338.83126
494.874	2581.74173
495.083	2336.71838
495.291	2560.62498
495.5	2495.15561
495.709	2594.41121
495.917	2427.56301
496.126	2590.1881
496.335	2484.59501
496.543	2636.63964
496.752	2666.19658
496.96	2655.64081
497.169	2691.52913
497.377	2913.10669
497.586	2742.18864
497.794	2708.41647
498.003	2816.05331
498.211	2870.91327
498.42	2839.26445
498.628	3115.55198
498.837	3005.91156
499.045	3026.99951
499.254	2826.60404
499.462	3105.01148
499.671	3235.68516
499.879	3088.14584
500.087	3214.61302
500.296	3277.82441
500.504	3214.61302
500.713	3313.63745
500.921	3334.70163
501.129	3303.10472
501.338	3090.2541
501.546	3442.1018
501.754	3048.08593
501.962	3425.25776
502.171	3372.61279
502.379	3530.51413
502.587	3385.24859
502.795	3599.95827
503.004	3391.56625
503.212	3772.42741
503.42	3652.55392
503.628	3719.85903
503.837	3450.5234
504.045	3547.35092
504.253	3604.16635
504.461	3703.03459
504.669	3688.3122
504.877	3711.44696
505.085	3770.32491
505.294	3848.10441
505.502	3562.08215
505.71	4116.96696
505.918	3824.98359
506.126	3982.57747
506.334	3728.27078
506.542	4125.36348
506.75	3879.62892
506.958	4024.58326
507.166	3780.83723
507.374	4182.03121
507.582	4114.86778
507.79	3984.67796
507.998	3879.62892
508.206	4194.62195
508.414	3938.46261
508.622	4194.62195
508.83	3965.77287
509.037	4182.03121
509.245	4108.5701
509.453	4278.54067
509.661	4372.9082
509.869	4402.25805
510.077	4203.01535
510.285	4486.09113
510.492	4395.96915
510.7	4555.22691
510.908	4425.31564
511.116	4425.31564
511.324	4278.54067
511.531	4341.45722
511.739	4475.61392
511.947	4611.77456
512.155	4458.84923
512.362	4613.8686
512.57	4507.04391
512.778	4714.35641
512.985	4670.39936
513.193	4504.94873
513.401	4630.62016
513.608	4772.95032
513.816	4651.55759
514.024	4860.80781
514.231	4595.02139
514.439	4795.96449
514.646	4630.62016
514.854	5055.20563
515.061	4881.72033
515.269	4789.68817
515.477	4852.44216
515.684	5138.75618
515.892	5119.96054
516.099	4944.44415
516.307	4906.81234
516.514	5115.78348
516.722	4992.51841
516.929	5153.37371
517.136	4850.35069
517.344	5063.56236
517.551	4844.07615
517.759	5107.42907
517.966	5199.30708
518.173	5211.8324
518.381	5230.61882
518.588	5472.5851
518.796	5266.09911
519.003	5330.78105
519.21	5337.0394
519.418	5622.61199
519.625	5305.74555
519.832	5539.2788
520.039	5412.12313
520.247	5680.92278
520.454	5412.12313
520.661	5687.16927
520.868	5599.69913
521.076	5785.00318
521.283	5595.53284
521.49	5705.90746
521.697	5720.48028
521.904	5697.57961
522.112	5449.65358
522.319	5874.46512
522.526	5712.1531
522.733	5845.34277
522.94	5839.10166
523.147	5776.67892
523.354	5762.11055
523.561	5868.22501
523.768	5897.34373
523.975	5874.46512
524.183	5782.92215
524.39	6152.97393
524.597	6144.66635
524.804	6260.93826
525.011	6231.87718
525.218	6186.20048
525.425	6250.55983
525.632	6321.12162
525.838	5918.13998
526.045	6289.99475
526.252	6319.04666
526.459	6484.96986
526.666	6117.66413
526.873	6327.34637
527.08	6443.50303
527.287	6460.09088
527.494	6273.39161
527.701	6654.88701
527.907	6414.47072
528.114	6484.96986
528.321	6306.59641
528.528	6551.29749
528.735	6428.98744
528.941	6766.69908
529.148	6555.44218
529.355	6543.00783
529.562	6547.15271
529.768	6683.88175
529.975	6547.15271
530.182	6870.16932
530.388	6545.08028
530.595	6857.75589
530.802	6841.20339
531.008	7035.60378
531.215	6764.62909
531.422	6915.67821
531.628	6855.68691
531.835	6911.54149
532.042	6967.37957
532.248	7229.80588
532.455	6890.85654
532.661	7157.51957
532.868	7033.53674
533.074	7213.28569
533.281	7029.40259
533.487	7163.71661
533.694	7167.84785
533.9	7405.24603
534.107	7359.85316
534.313	7339.21655
534.52	7271.10019
534.726	7337.15277
534.933	7403.18295
535.139	7578.46784
535.345	7460.94108
535.552	7576.40657
535.758	7205.02506
535.965	7539.30001
536.171	7399.05671
536.377	7545.48492
536.584	7487.75158
536.79	7658.84083
536.996	7576.40657
537.203	7807.13726
537.409	7671.20303
537.615	7800.96041
537.821	7788.60615
538.028	8134.24514
538.234	7850.36995
538.44	7856.5453
538.646	7700.04522
538.853	7889.47736
539.059	7765.95472
539.265	7840.07728
539.471	8037.60652
539.677	7963.5552
539.883	7930.635
540.09	8047.88934
540.296	7790.66525
540.502	8210.29121
540.708	7897.70955
540.914	8121.91077
541.12	8115.74331
541.326	8341.76646
541.532	8255.49491
541.738	8335.60535
541.944	7951.21074
542.15	8419.79207
542.356	8333.5516
542.562	8661.90641
542.768	8378.72944
542.974	8518.31106
543.18	8368.46258
543.386	8604.4793
543.592	8672.15972
543.798	8393.10224
544.004	8505.99859
544.21	8819.75637
544.415	8528.57093
544.621	8764.41874
544.827	8475.21442
545.033	9008.2159
545.239	8631.14371
545.445	8739.81997
545.651	8743.91995
545.856	9088.06131
546.062	8799.26249
546.268	8914.00498
546.474	8600.3768
546.679	8532.67474
546.885	8776.71713
547.091	8834.101
547.297	8971.35521
547.502	9071.68492
547.708	8789.01487
547.914	9137.18386
548.119	8940.6336
548.325	9030.73908
548.531	8844.34663
548.736	9128.99746
548.942	8793.11398
549.147	8952.92272
549.353	9169.92674
549.559	9255.85612
549.764	9079.87325
549.97	9214.94109
550.175	9047.11825
550.381	9515.51232
550.586	9188.34269
550.792	9589.0683
550.997	9454.19989
551.203	9388.78397
551.408	9264.03833
551.614	9335.62122
551.819	9225.17048
552.025	9399.0063
552.23	9335.62122
552.435	9572.7243
552.641	9513.4688
552.846	9533.90324
553.052	9497.1201
553.257	9660.56155
553.462	9556.37928
553.668	9717.74248
553.873	9564.55192
554.078	9754.49532
554.283	9515.51232
554.489	9876.96947
554.694	9709.57452
554.899	9717.74248
555.105	9687.11134
555.31	10013.66947
555.515	10066.6998
555.72	10056.50241
555.925	10162.5381
556.131	10150.30514
556.336	9815.73913
556.541	10029.98752
556.746	10003.47023
556.951	10070.77866
557.156	10056.50241
557.361	10093.21137
557.567	10178.84794
557.772	10427.46561
557.977	10254.26951
558.182	10205.34955
558.387	10207.38804
558.592	10427.46561
558.797	10207.38804
559.002	10290.95436
559.207	10278.72657
559.412	10111.56413
559.617	10264.46019
559.822	10578.1716
560.027	10437.65066
560.232	10531.338
560.437	10231.84884
560.642	10256.30768
560.847	10382.64754
561.051	10468.20386
561.256	10419.31734
561.461	10659.60567
561.666	10464.13026
561.871	10681.99659
562.076	10861.07182
562.281	10631.10599
562.485	10496.71757
562.69	10496.71757
562.895	10350.0486
563.1	10710.49201
563.305	10425.42856
563.509	10570.02711
563.714	10547.6287
563.919	10594.46
564.123	10586.3159
564.328	10970.91428
564.533	10610.7476
564.737	10641.28472
564.942	10765.44079
565.147	10920.06541
565.351	10745.09041
565.556	10950.57558
565.761	10848.86504
565.965	10983.11697
566.17	10857.00294
566.374	10771.54568
566.579	10818.34626
566.784	11025.8232
566.988	11286.02499
567.193	11092.9232
567.397	10958.7112
567.602	11147.81444
567.806	10993.28556
568.011	11204.7305
568.215	11261.63837
568.42	11292.12142
568.624	11290.08928
568.828	11125.45228
569.033	11050.22458
569.237	11444.50276
569.442	11355.11248
569.646	11279.92847
569.85	11277.89628
570.055	11495.28431
570.259	11214.89322
570.463	11590.7376
570.668	11462.78481
570.872	11180.33891
571.076	11456.69088
571.281	11586.67617
571.485	11397.77839
571.689	11586.67617
571.893	11328.69805
572.098	11643.53276
572.302	11667.89768
572.506	11667.89768
572.71	11503.4088
572.914	11842.47584
573.119	11477.00364
573.323	11706.47284
573.527	11586.67617
573.731	12061.62571
573.935	11846.53504
574.139	11903.36033
574.343	11797.82241
574.547	11909.44837
574.751	11580.58397
574.955	12150.88262
575.159	11818.11993
575.364	11830.29804
575.568	11998.73118
575.772	12094.08448
575.976	11757.22478
576.18	12047.42438
576.383	11931.77054
576.587	12014.96275
576.791	11828.26838
576.995	11927.71204
577.199	12100.17028
577.403	11895.24283
577.607	12268.5174
577.811	12282.71305
578.015	12010.90491
578.219	12329.35348
578.422	11810.00102
578.626	12225.92833
578.83	12167.10958
579.034	12418.56847
579.238	12140.74053
579.442	12505.74334
579.645	12363.82448
579.849	12813.8042
580.053	12420.59593
580.257	12601.01391
580.46	12655.73762
580.664	12805.69907
580.868	12554.39388
581.071	12582.77168
581.275	12461.14376
581.479	12665.87116
581.682	12382.07302
581.886	12576.69082
582.09	12572.63689
582.293	12876.61601
582.497	12548.31276
582.7	12489.52567
582.904	12659.79106
583.107	12783.40949
583.311	12832.04043
583.515	12969.81116
583.718	12588.85248
583.922	12894.85072
584.125	12860.40701
584.329	12988.04372
584.532	12923.21497
584.735	13012.35315
584.939	12821.90925
585.142	13048.81595
585.346	12775.30402
585.549	13036.66186
585.753	12886.74646
585.956	13121.73683
586.159	13083.25159
586.363	13196.67695
586.566	13225.03105
586.769	13212.8794
586.973	13032.61046
587.176	13409.31225
587.379	13318.18851
587.582	13666.44231
587.786	13103.50719
587.989	13368.81382
588.192	13231.10682
588.395	13522.69963
588.599	13478.156
588.802	13431.58572
589.005	13257.43468
589.208	13318.18851
589.411	13472.08173
589.615	13449.80911
589.818	13166.29658
590.021	13326.28873
590.224	13245.28345
590.427	13403.23759
590.63	13342.48898
590.833	13599.6345
591.036	13498.40332
591.239	13757.53816
591.442	13532.82293
591.645	13704.90579
591.848	13769.6838
592.051	13781.82933
592.254	13676.56439
592.457	13692.75955
592.66	13609.75713
592.863	13949.83188
593.066	13820.28946
593.269	14150.1974
593.472	13970.07189
593.675	14168.41135
593.878	13978.16783
594.081	14265.54967
594.284	14121.86425
594.486	13978.16783
594.689	14152.22118
594.892	14235.19443
595.095	14293.88085
595.298	14028.76652
595.5	14085.43527
595.703	14520.51873
595.906	14136.03088
596.109	14233.17073
596.311	14374.8252
596.514	14445.64938
596.717	14038.88607
596.92	14514.44831
597.122	14184.60139
597.325	14425.41409
597.528	14524.56567
597.73	14502.30744
597.933	14441.60234
598.136	14536.70646
598.338	14476.00205
598.541	14807.84064
598.743	14708.69653
598.946	14435.53176
599.148	14384.94306
599.351	14660.13539
599.554	14805.81731
599.756	14755.2338
599.959	14838.19052
600.161	14502.30744
600.363	14459.814
600.566	14929.23938
600.768	14813.91063
600.971	14898.88988
601.173	14840.21384
601.376	14927.21608
601.578	14783.56062
601.78	15089.07871
601.983	14708.69653
602.185	14735.00026
602.388	14888.77335
602.59	14828.07391
602.792	14911.02969
602.995	14635.85461
603.197	14672.27573
603.399	15141.68377
603.601	14674.29911
603.804	14965.65864
604.006	14955.54219
604.208	14880.68013
604.41	14722.86009
604.613	14945.42573
604.815	14751.1871
605.017	15091.10198
605.219	14906.98309
605.421	15127.52088
605.623	14639.90142
605.826	15038.49683
606.028	14787.6073
606.23	14739.04697
606.432	15014.21748
606.634	15208.45171
606.836	15002.07779
607.038	15216.54479
607.24	15151.80013
607.442	15129.54415
607.644	15040.52011
607.846	15214.52152
608.048	15042.54338
608.25	15226.66115
608.452	14939.35585
608.654	15350.08112
608.856	15250.94043
609.058	14902.93648
609.26	15119.42779
609.462	15178.10264
609.664	15408.75658
609.866	15418.87307
610.067	15518.01538
610.269	15297.47578
610.471	15232.73097
610.673	15408.75658
610.875	15534.20202
611.077	15457.31585
611.278	15461.36247
611.48	15236.77752
611.682	15305.5689
611.884	15785.10132
612.085	15360.19756
612.287	15621.20594
612.489	15190.24227
612.69	15445.17601
612.892	15269.1499
613.094	15386.50033
613.295	15325.80171
613.497	15441.1294
613.699	15346.03455
613.9	15687.97739
614.102	15641.43962
614.304	15685.954
614.505	15439.10609
614.707	15742.60932
614.908	15435.05948
615.11	15627.27604
615.311	15202.38189
615.513	15629.2994
615.714	15558.48205
615.916	15965.19206
616.117	15694.04757
616.319	15637.39287
616.52	15570.6221
616.722	15588.83223
616.923	15722.37519
617.124	15418.87307
617.326	15639.41625
617.527	15700.11776
617.729	15661.67337
617.93	15659.65
618.131	15702.14116
618.333	15570.6221
618.534	15588.83223
618.735	15821.5234
618.937	15528.13203
619.138	15997.569
619.339	15649.53311
619.54	15896.3922
619.742	15665.72014
619.943	15835.68765
620.144	15734.51565
620.345	15568.59876
620.546	15866.03979
620.748	16019.82835
620.949	15576.69214
621.15	15633.34614
621.351	15485.64224
621.552	15817.47649
621.753	15938.88606
621.954	16052.2059
622.155	15851.87543
622.356	16042.08788
622.558	15853.8989
622.759	15787.12476
622.96	15681.90722
623.161	15845.805
623.362	15750.70299
623.563	16066.3712
623.764	15896.3922
623.965	16072.44206
624.166	16159.45932
624.366	16307.19334
624.567	15924.72138
624.768	15730.46883
624.969	15481.5956
625.17	15926.7449
625.371	15752.72642
625.572	15926.7449
625.773	15833.66418
625.973	16013.7576
626.174	15884.25121
626.375	15861.99282
626.576	16013.7576
626.777	15864.01631
626.977	15924.72138
627.178	16074.46569
627.379	15530.15536
627.58	16131.1278
627.78	15953.0508
627.981	16003.63972
628.182	15793.19508
628.382	15997.569
628.583	16062.32397
628.784	16070.41844
628.984	16288.97905
629.185	16151.36457
629.386	15910.55676
629.586	16147.3172
629.787	15961.14497
629.987	15928.76842
630.188	15940.90959
630.388	16286.95525
630.589	15748.67957
630.79	15900.43921
630.99	15940.90959
631.191	16291.00285
631.391	16100.77295
631.591	16137.19881
631.792	16353.74166
631.992	16548.04157
632.193	16339.57467
632.393	16402.3149
632.594	16125.0568
632.794	16278.86006
632.994	16467.08099
633.195	16521.72901
633.395	16365.88486
633.595	16428.62587
633.796	16303.14571
633.996	16333.50314
634.196	16272.78869
634.397	16467.08099
634.597	16319.33628
634.797	16711.9975
634.997	16400.29099
635.198	16471.12894
635.398	16521.72901
635.598	16975.16956
635.798	16857.74907
635.998	16871.92005
636.199	16517.68095
636.399	16766.65286
636.599	16697.82788
636.799	16734.26429
636.999	16282.90765
637.199	16052.2059
637.399	16657.34387
637.599	16458.98511
637.799	16293.02665
637.999	17088.54954
638.199	16501.48882
638.399	16614.83665
638.599	16442.79346
638.799	16661.39223
638.999	16892.16452
639.199	16760.57996
639.399	17019.71068
639.599	16788.92036
639.799	16568.28225
639.999	16659.36805
640.199	16614.83665
640.399	16859.77349
640.599	16013.7576
640.799	17203.96312
640.998	17074.37657
641.198	17129.04448
641.398	17124.99494
641.598	16875.96892
641.798	16815.23688
641.997	16608.76427
642.197	16691.75522
642.397	17191.81388
642.597	16896.21345
642.796	17112.84637
642.996	16683.65837
643.196	16813.21252
643.395	16631.02976
643.595	17031.85848
643.795	16944.80135
643.994	16869.89562
644.194	17299.13576
644.394	17212.06266
644.593	16839.52943
644.793	17220.16226
644.992	17153.34199
645.192	17208.01288
645.392	16882.04225
645.591	17341.66182
645.791	17005.53836
645.99	17203.96312
646.19	16888.11561
646.389	16780.82305
646.589	17056.15439
646.788	17027.8092
646.987	16993.39077
647.187	17448.99549
647.386	17203.96312
647.586	17613.05078
647.785	16932.65423
647.984	17129.04448
648.184	17353.81237
648.383	17230.28681
648.582	16875.96892
648.782	17353.81237
648.981	17299.13576
649.18	17090.57426
649.38	17289.0107
649.579	17398.36533
649.778	17246.48626
649.977	17661.66383
650.177	17323.4362
650.376	17339.63674
650.575	17088.54954
650.774	17201.93824
650.973	17120.9454
651.173	17228.2619
651.372	17230.28681
651.571	17272.81076
651.77	17372.0384
651.969	17315.33601
652.168	17363.93791
652.367	17159.41643
652.566	17163.46607
652.765	17305.21083
652.964	17532.0332
653.163	17562.41419
653.362	17687.99669
653.561	17572.54135
653.76	17534.05858
653.959	17339.63674
654.158	17604.94879
654.357	17402.41567
654.556	17224.21207
654.755	17325.46126
654.954	17489.50103
655.153	17341.66182
655.352	17538.10934
655.551	17742.68981
655.749	17756.86991
655.948	17475.32395
656.147	17546.21091
656.346	17754.84417
656.545	17453.04599
656.743	17519.88101
656.942	17398.36533
657.141	17752.81844
657.34	17451.02074
657.538	17653.56152
657.737	17888.55023
657.936	17841.954
658.135	17694.07358
658.333	17623.17834
658.532	17608.99978
658.731	17438.8693
658.929	17463.17229
659.128	17509.75427
659.326	17463.17229
659.525	17823.72119
659.724	17604.94879
659.922	18056.71726
660.121	18016.19285
660.319	17692.04795
660.518	17351.78727
660.716	17649.51039
660.915	17667.74059
661.113	18261.38767
661.312	17726.48419
661.51	18079.0063
661.709	17961.48716
661.907	17690.02232
662.105	17639.38261
662.304	17872.34264
662.502	17655.58709
662.701	17906.78404
662.899	17457.0965
663.097	17779.15326
663.296	17586.7195
663.494	18200.59058
663.692	17681.91983
663.891	17981.74823
664.089	17807.51448
664.287	17718.38146
664.485	17552.28711
664.684	17973.64376
664.882	17687.99669
665.08	17846.00577
665.278	17890.57619
665.476	17823.72119
665.675	17673.81739
665.873	17690.02232
666.071	17566.46504
666.269	17694.07358
666.467	17481.39982
666.665	17637.35707
666.863	17321.41115
667.061	17594.82137
667.259	17444.94501
667.457	18164.11392
667.655	17827.7729
667.853	17760.9214
668.051	17574.56679
668.249	17613.05078
668.447	17604.94879
668.645	17517.85566
668.843	17927.04416
669.041	17854.10936
669.239	17544.18551
669.437	18105.34845
669.635	17920.96608
669.833	17947.30462
670.031	17625.20387
670.229	17655.58709
670.426	17961.48716
670.624	17633.30599
670.822	17677.8686
671.02	17933.12226
671.218	17756.86991
671.415	17791.30798
671.613	17797.38539
671.811	17931.09622
672.009	17799.4112
672.206	18342.45567
672.404	17720.40714
672.602	17827.7729
672.799	17821.69534
672.997	17939.20039
673.195	18162.08747
673.392	18172.21974
673.59	17667.74059
673.788	17730.53558
673.985	17491.52634
674.183	17698.12486
674.38	17904.75805
674.578	17552.28711
674.775	17631.28045
674.973	17651.53595
675.17	17309.26089
675.368	17534.05858
675.565	17412.54158
675.763	17515.8303
675.96	17203.96312
676.158	17673.81739
676.355	17436.84407
676.553	17835.87636
676.75	17795.35959
676.947	17572.54135
677.145	17503.67826
677.342	17353.81237
677.539	17404.44084
677.737	17544.18551
677.934	17282.9357
678.131	17653.56152
678.329	17436.84407
678.526	17756.86991
678.723	17704.20181
678.92	18174.2462
679.118	17359.88769
679.315	17507.72893
679.512	17568.49047
679.709	17681.91983
679.906	17669.76619
680.104	17592.7959
680.301	17422.66756
680.498	17341.66182
680.695	17341.66182
680.892	17430.76841
681.089	17289.0107
681.286	17730.53558
681.483	16946.82588
681.68	17307.23586
681.877	17416.59196
682.075	17414.56677
682.272	17064.25311
682.469	17406.46602
682.665	17562.41419
682.862	17602.9233
683.059	17513.80496
683.256	17594.82137
683.453	17313.31097
683.65	17321.41115
683.847	17333.56152
684.044	17392.28984
684.241	16752.48279
684.438	17497.60229
684.635	16871.92005
684.831	17572.54135
685.028	17655.58709
685.225	17420.64236
685.422	17122.97017
685.619	17068.30249
685.815	17039.95707
686.012	17262.68589
686.209	16924.55621
686.405	17191.81388
686.602	16954.92402
686.799	16871.92005
686.996	16873.94449
687.192	17082.47539
687.389	17173.59023
687.586	16965.04675
687.782	17076.40127
687.979	17238.38651
688.175	16620.90904
688.372	17122.97017
688.568	16819.28562
688.765	17276.86072
688.962	16979.2187
689.158	16906.3358
689.355	16724.14299
689.551	17179.66475
689.748	17086.52482
689.944	16985.29242
690.14	16784.8717
690.337	17163.46607
690.533	17187.76416
690.73	17406.46602
690.926	17511.77961
691.123	16920.50721
691.319	16965.04675
691.515	16867.87119
691.712	16886.09115
691.908	16495.41681
692.104	16521.72901
692.301	17013.63681
692.497	16661.39223
692.693	16742.36138
692.889	16859.77349
693.086	16975.16956
693.282	16934.67875
693.478	17046.03104
693.674	16918.48272
693.87	17037.93242
694.067	17100.6979
694.263	16890.14006
694.459	16701.87633
694.655	16890.14006
694.851	16714.02175
695.047	16724.14299
695.243	16718.07024
695.439	16513.63291
695.635	16487.32082
695.831	16778.79873
696.027	16701.87633
696.224	16574.35449
696.42	16701.87633
696.615	16539.94536
696.811	16639.12636
697.007	16934.67875
697.203	16440.76951
697.399	16548.04157
697.595	16720.09448
697.791	16661.39223
697.987	16786.89603
698.183	16758.55566
698.379	16438.74557
698.575	16736.28856
698.77	16869.89562
698.966	16734.26429
699.162	16388.14759
699.358	16685.68258
699.554	16629.00561
699.749	16770.70148
699.945	16655.31969
700.141	16517.68095
700.337	16444.81741
700.532	16572.33041
700.728	16416.4823
700.924	16736.28856
701.119	16515.65693
701.315	16434.69768
701.511	16212.07586
701.706	16606.74014
701.902	16266.71733
702.097	16699.8521
702.293	16432.67374
702.489	16450.88927
702.684	16319.33628
702.88	16546.01751
703.075	16092.67838
703.271	16501.48882
703.466	16288.97905
703.662	16641.15052
703.857	16543.99346
704.053	16560.18595
704.248	16473.15291
704.443	16803.09074
704.639	16645.19885
704.834	16659.36805
705.03	16556.13781
705.225	16564.2341
705.42	16141.24616
705.616	16610.78839
705.811	16274.81248
706.006	16129.10413
706.202	16023.87553
706.397	16226.24204
706.592	15963.16852
706.787	16410.41055
706.983	16163.5067
707.178	16752.48279
707.373	15906.50974
707.568	16110.89119
707.763	15785.10132
707.959	16286.95525
708.154	16475.17689
708.349	16230.28954
708.544	16400.29099
708.739	16343.62238
708.934	16365.88486
709.129	16351.7178
709.324	16007.68687
709.519	16430.64981
709.714	16064.34758
709.909	16760.57996
710.104	16086.60747
710.299	16177.67261
710.494	16313.2648
710.689	16216.12333
710.884	16339.57467
711.079	16147.3172
711.274	16373.98037
711.469	16643.17468
711.664	16378.02814
711.859	16499.46481
712.054	16268.74112
712.249	16345.64623
712.443	16291.00285
712.638	16349.69394
712.833	15918.65082
713.028	16106.84389
713.223	16013.7576
713.417	16003.63972
713.612	15936.86253
713.807	16135.17514
714.002	15841.75806
714.196	15770.93726
714.391	15803.31232
714.586	15934.839
714.78	15831.64072
714.975	15902.46272
715.17	15734.51565
715.364	16139.22249
715.559	15914.60379
715.754	15942.93312
715.948	15520.03871
716.143	15878.18072
716.337	15831.64072
716.532	16224.2183
716.726	15696.07097
716.921	16155.41194
717.115	16046.13508
717.31	15959.12143
717.504	15851.87543
717.699	15866.03979
717.893	15746.65615
718.088	16038.04068
718.282	15598.94899
718.476	15544.31869
718.671	15649.53311
718.865	15629.2994
719.059	15339.96469
719.254	15285.33612
719.448	15370.314
719.642	15619.18258
719.837	15289.38267
720.031	15649.53311
720.225	15188.219
720.419	15238.80079
720.614	15080.98562
720.808	15576.69214
721.002	15285.33612
721.196	15358.17427
721.39	15532.17869
721.585	15461.36247
721.779	15449.22262
721.973	15354.12769
722.167	14874.6102
722.361	15236.77752
722.555	15117.40452
722.749	15014.21748
722.943	15115.38125
723.137	15190.24227
723.331	15267.12663
723.525	15424.94297
723.719	14961.61206
723.913	15499.80547
724.107	15070.86925
724.301	15240.82406
724.495	15192.26554
724.689	15184.17246
724.883	15113.35798
725.077	15416.84977
725.271	15287.35939
725.465	15362.22084
725.659	15182.14919
725.853	15451.24593
726.046	15056.70632
726.24	14911.02969
726.434	14882.70343
726.628	15305.5689
726.822	15105.26489
727.015	15196.31208
727.209	14878.65682
727.403	14896.86657
727.596	14921.14619
727.79	15392.57021
727.984	15228.68443
728.177	15220.59134
728.371	15028.38044
728.565	15133.59069
728.758	15139.6605
728.952	15121.45106
729.146	15123.47434
729.339	15416.84977
729.533	15548.36536
729.726	15431.01288
729.92	15283.31284
730.113	15133.59069
730.307	15046.58994
730.5	14714.76663
730.694	14945.42573
730.887	14949.47232
731.081	15145.73032
731.274	15095.14853
731.468	14824.02726
731.661	15204.40517
731.854	14844.26048
732.048	15143.70705
732.241	14931.26267
732.435	14985.89151
732.628	15078.96234
732.821	15074.9158
733.014	15143.70705
733.208	14864.49364
733.401	14904.95979
733.594	15040.52011
733.788	14917.09959
733.981	15058.7296
734.174	15210.47498
734.367	15042.54338
734.56	15188.219
734.754	15309.61546
734.947	15196.31208
735.14	15475.52566
735.333	15473.50235
735.526	14987.9148
735.719	15048.61322
735.912	15325.80171
736.105	14947.44903
736.298	14656.08861
736.491	14840.21384
736.684	14660.13539
736.877	14828.07391
737.07	15060.75287
737.263	14478.02555
737.456	14822.00394
737.649	15016.24076
737.842	14652.04182
738.035	14435.53176
738.228	14848.30712
738.421	14951.49561
738.614	15105.26489
738.807	14951.49561
739	14759.2805
739.192	14872.58689
739.385	14904.95979
739.578	14625.73758
739.771	14943.40244
739.964	14751.1871
740.156	14803.79398
740.349	14686.43941
740.542	14656.08861
740.735	14767.37388
740.927	14643.94822
741.12	14508.37788
741.313	14338.40058
741.505	14550.87065
741.698	14554.91755
741.891	14824.02726
742.083	14569.08167
742.276	14510.40136
742.468	14601.45658
742.661	14265.54967
742.854	14554.91755
743.046	14405.17865
743.239	14467.90804
743.431	14826.05059
743.624	14694.53292
743.816	14702.62642
744.009	14973.7518
744.201	14670.25234
744.393	14451.71994
744.586	14637.87802
744.778	14471.95504
744.971	14676.3225
745.163	15091.10198
745.355	14698.57967
745.548	14354.58936
745.74	14625.73758
745.932	14777.4906
746.125	14929.23938
746.317	15058.7296
746.509	14520.51873
746.702	14807.84064
746.894	14518.49526
747.086	14358.63654
747.278	14484.09604
747.471	14348.51858
747.663	13992.33562
747.855	14439.57881
748.047	14229.12333
748.239	14393.03731
748.431	14310.06994
748.623	14192.69636
748.815	14223.05221
749.008	14170.43511
749.2	14366.73089
749.392	14289.83356
749.584	13846.60368
749.776	14249.36026
749.968	13749.44101
750.16	13889.11027
750.352	13828.38619
750.544	13988.28769
750.736	14184.60139
750.928	14221.0285
751.12	14198.76756
751.311	13933.63968
751.503	14247.33657
751.695	14297.92813
751.887	13933.63968
752.079	14160.31628
752.271	13923.51947
752.463	13903.27886
752.654	13791.95052
752.846	13913.3992
753.038	13838.50705
753.23	14018.6469
753.421	14046.98168
753.613	13593.56088
753.805	13607.73261
753.997	13814.21688
754.188	13686.68639
754.38	13779.80508
754.572	13771.70806
754.763	13822.31365
754.955	13848.62783
755.146	13565.2169
755.338	13457.9083
755.53	13593.56088
755.721	13690.73517
755.913	14077.33985
756.104	13832.43454
756.296	14125.91187
756.487	13836.48288
756.679	13840.53121
756.87	13757.53816
757.062	13587.48722
757.253	13332.36385
757.445	13308.06313
757.636	13322.23863
757.827	13441.70986
758.019	13476.13125
758.21	13652.27126
758.401	13314.13837
758.593	13542.94614
758.784	13146.04243
758.975	13285.78694
759.167	13156.16956
759.358	13698.83268
759.549	13285.78694
759.74	13411.33713
759.932	13069.07238
760.123	13407.28737
760.314	13285.78694
760.505	13289.8372
760.696	13431.58572
760.888	13581.41354
761.079	13312.1133
761.27	13332.36385
761.461	13180.47421
761.652	13285.78694
761.843	12973.86288
762.034	12998.17274
762.225	12957.6559
762.416	13048.81595
762.607	12684.11116
762.798	12981.96625
762.989	13097.43056
763.18	12990.06953
763.371	12773.27764
763.562	13022.48187
763.753	12868.51155
763.944	13208.82882
764.135	13227.05631
764.326	13212.8794
764.517	12832.04043
764.708	12564.52895
764.899	12521.96059
765.089	12965.75943
765.28	12947.52637
765.471	12779.35677
765.662	12564.52895
765.853	12467.22571
766.043	12061.62571
766.234	12420.59593
766.425	12122.48429
766.615	12479.38942
766.806	12491.5529
766.997	12526.01484
767.187	12477.36215
767.378	12842.17148
767.569	12327.32571
767.759	12402.34854
767.95	12424.65084
768.141	12497.63456
768.331	12572.63689
768.522	12481.41668
768.712	12601.01391
768.903	12643.57718
769.093	12181.30777
769.284	12548.31276
769.474	12404.37606
769.665	12410.45856
769.855	12574.66386
770.046	12530.06907
770.236	12083.94133
770.426	12546.28571
770.617	12313.13114
770.807	12349.63078
770.998	11921.62422
771.188	12002.78912
771.378	11872.91902
771.569	11801.88198
771.759	12016.99166
771.949	11980.47006
772.139	11996.7022
772.33	12199.56206
772.52	12205.6467
772.71	12227.95645
772.9	11980.47006
773.09	12043.36679
773.281	12016.99166
773.471	12029.16496
773.661	12012.93383
773.851	11903.36033
774.041	11836.38698
774.231	11935.82901
774.421	11787.67332
774.611	11586.67617
774.802	11584.64545
774.992	11818.11993
775.182	11546.05991
775.372	11511.53314
775.562	11462.78481
775.752	11606.98292
775.942	11363.23966
776.131	11736.92466
776.321	11420.12547
776.511	11791.73298
776.701	11613.07476
776.891	11702.41245
777.081	11448.5655
777.271	11535.90526
777.461	11734.8946
777.651	11820.14964
777.84	11649.62411
778.03	11623.22765
778.22	11635.41082
778.41	12108.28457
778.599	11700.38224
778.789	11586.67617
778.979	11501.37769
779.169	11304.31399
779.358	11180.33891
779.548	11336.82575
779.738	11174.24078
779.927	11383.55691
780.117	11513.5642
780.307	11361.20788
780.496	11131.55118
780.686	11188.46961
780.875	11155.94581
781.065	11302.28192
781.254	11115.28724
781.444	11434.34573
781.633	11208.79562
781.823	10999.38659
782.012	11040.05753
782.202	11141.7158
782.391	11259.60609
782.581	11290.08928
782.77	11088.85687
782.96	11192.5349
783.149	10708.4567
783.338	10997.35292
783.528	10836.65784
783.717	10974.98189
783.906	10922.0995
784.096	10850.89953
784.285	11086.82369
784.474	10787.82485
784.663	10887.51842
784.853	10846.83053
785.042	10800.03373
785.231	10793.92934
785.42	10846.83053
785.61	10932.26979
785.799	10763.40581
785.988	10551.70125
786.177	10394.87128
786.366	10533.37438
786.555	10745.09041
786.744	10500.79075
786.933	10502.82732
787.122	10800.03373
787.312	10618.89111
787.501	10854.96848
787.69	10602.6039
787.879	10704.38604
788.068	10309.29516
788.257	10307.25734
788.445	10305.21952
788.634	10431.53967
788.823	10282.80255
789.012	10333.74786
789.201	10211.46497
789.39	10288.91643
789.579	9919.82278
789.768	10115.64237
789.957	10311.33295
790.145	10299.10596
790.334	10123.79868
790.523	10333.74786
790.712	9876.96947
790.9	9970.83022
791.089	9715.70051
791.278	10136.03273
791.467	9848.39698
791.655	10191.07974
791.844	9954.50883
792.033	10034.06689
792.221	9840.23287
792.41	10136.03273
792.599	9768.78675
792.787	9827.98627
792.976	9864.72447
793.164	10052.42335
793.353	9897.37662
793.541	10080.97556
793.73	9885.1325
793.918	10209.42651
794.107	10013.66947
794.295	9989.19068
794.484	9856.56084
794.672	9895.33597
794.861	9858.60177
795.049	10066.6998
795.238	9774.91143
795.426	9885.1325
795.614	9347.89053
795.803	9654.4343
795.991	9689.15352
796.179	9734.07768
796.368	9537.98993
796.556	9529.81648
796.744	9227.2163
796.932	9435.80334
797.121	9349.93536
797.309	9768.78675
797.497	9468.50742
797.685	9595.19704
797.874	9554.33609
798.062	9399.0063
798.25	9122.85747
798.438	9644.22192
798.626	9450.11189
798.814	9709.57452
799.002	9591.11123
799.19	9448.06786
799.378	9462.37572
799.566	9452.1559
799.755	9292.67393
799.943	9578.85342
800.131	9523.68622
800.318	9587.02536
800.506	9317.21613
800.694	9660.56155
800.882	9276.31113
801.07	9625.83864
801.258	9321.30626
801.446	9570.68123
801.634	9292.67393
801.822	9257.9017
802.01	9290.62863
802.197	9762.66194
802.385	9137.18386
802.573	9705.49044
802.761	9505.29458
802.949	9619.7106
803.136	9523.68622
803.324	9441.93567
803.512	9433.7592
803.699	9237.44519
803.887	9280.40193
804.075	9515.51232
804.262	9386.73945
804.45	9527.77307
804.638	9360.15925
804.825	9249.7193
805.013	9476.68279
805.201	9546.16314
805.388	9325.39633
805.576	9758.57866
805.763	9662.60393
805.951	9799.40877
806.138	9511.42527
806.326	9515.51232
806.513	9251.76492
806.701	9452.1559
806.888	9533.90324
807.075	9378.56122
807.263	9141.27696
807.45	9405.13951
807.638	9435.80334
807.825	9619.7106
808.012	9196.52712
808.2	9407.18388
808.387	9249.7193
808.574	9286.538
808.761	9317.21613
808.949	9392.87295
809.136	9081.92029
809.323	9578.85342
809.51	9448.06786
809.698	9693.23784
809.885	9266.08384
810.072	9617.66789
810.259	9392.87295
810.446	9450.11189
810.633	9556.37928
810.82	9517.55582
811.008	9513.4688
811.195	9703.44838
811.382	9282.4473
811.569	9349.93536
811.756	9235.39945
811.943	9443.97975
812.13	9495.07645
812.317	9448.06786
812.504	9554.33609
812.691	9576.81039
812.878	9570.68123
813.064	9644.22192
813.251	9354.02496
813.438	9617.66789
813.625	9216.987
813.812	9448.06786
813.999	9208.80325
814.186	9527.77307
814.372	9533.90324
814.559	9376.51663
814.746	9171.97302
814.933	9515.51232
815.12	9421.49401
815.306	9198.57318
815.493	9300.85493
815.68	9638.0943
815.866	9210.84921
816.053	9403.09512
816.24	9141.27696
816.426	9284.49266
816.613	9349.93536
816.799	9108.53024
816.986	9497.1201
817.173	9409.22823
817.359	9114.67059
817.546	9055.30742
817.732	9145.36999
817.919	9290.62863
818.105	9038.92881
818.292	8979.54696
818.478	9088.06131
818.665	9090.10828
818.851	9128.99746
819.037	9165.83412
819.224	9182.20419
819.41	9214.94109
819.597	8934.4888
819.783	9057.35467
819.969	8967.25922
820.156	9079.87325
820.342	9063.49631
820.528	9016.40639
820.714	8967.25922
820.901	9059.4019
821.087	9010.26355
821.273	9063.49631
821.459	8758.26929
821.646	9131.04408
821.832	9178.11178
822.018	9000.02513
822.204	8752.11968
822.39	8983.64274
822.576	8772.61774
822.762	8891.47072
822.948	8754.16957
823.134	8850.49379
823.32	8567.55412
823.507	8860.73869
823.693	8739.81997
823.879	9237.44519
824.065	8682.41257
824.25	8772.61774
824.436	8825.90417
824.622	8637.29658
824.808	8868.93429
824.994	8875.0808
825.18	8688.56405
825.366	9053.26015
825.552	8616.78634
825.738	8862.78762
825.923	8522.41506
826.109	8905.81095
826.295	8633.19468
826.481	8745.96991
826.667	8678.31148
826.852	8670.1091
827.038	8616.78634
827.224	8909.908
827.409	8522.41506
827.595	8501.89428
827.781	8393.10224
827.966	8522.41506
828.152	8111.63157
828.338	8436.21497
828.523	8160.96714
828.709	8583.96606
828.894	8719.31898
829.08	8657.80496
829.266	8497.7899
829.451	8547.0375
829.637	8202.07132
829.822	8029.3799
830.008	8193.85112
830.193	8234.94896
830.378	8276.03889
830.564	8485.47628
830.749	8126.0223
830.935	8304.79716
831.12	8105.46382
831.305	8273.98458
831.491	8054.0588
831.676	8284.25593
831.861	7942.98069
832.047	8284.25593
832.232	8123.96655
832.417	7881.24484
832.602	7724.76381
832.788	7681.50429
832.973	7811.25505
833.158	8025.26647
833.343	8037.60652
833.528	8089.01558
833.714	8006.75501
833.899	8099.29588
834.084	8103.40786
834.269	7990.299
834.454	7671.20303
834.639	7940.92313
834.824	8017.03936
835.009	8037.60652
835.194	7905.9414
835.379	8255.49491
835.564	7891.53544
835.749	7963.5552
835.934	8017.03936
836.119	7932.69267
836.304	7584.65153
836.489	7749.47936
836.674	7747.41985
836.859	7770.07335
837.044	7959.44046
837.228	7930.635
837.413	7693.8651
837.598	8062.28445
837.783	7660.90125
837.968	7938.86554
838.152	7792.72432
838.337	8033.49325
838.522	7625.87121
838.707	7986.18479
838.891	7421.74991
839.076	7380.48759
839.261	7394.9304
839.445	7524.8678
839.63	7477.44028
839.815	7460.94108
839.999	7271.10019
840.184	7601.14042
840.368	7176.11007
840.553	7502.1865
840.737	7324.76962
840.922	7320.64173
841.106	7242.1951
841.291	7345.40777
841.475	6992.19121
841.66	7621.74962
841.844	7314.44973
842.029	7510.43455
842.213	7215.35079
842.397	7304.12929
842.582	7132.72943
842.766	7370.17065
842.951	7079.00645
843.135	7207.09025
843.319	6901.1993
843.504	7165.78224
843.688	6777.04867
843.872	7085.20603
844.056	7153.3881
844.241	7242.1951
844.425	6990.1237
844.609	7213.28569
844.793	7118.26704
844.977	7130.66344
845.161	7097.60458
845.346	7107.93609
845.53	6717.01308
845.714	6727.36542
845.898	6750.13854
846.082	6801.88535
846.266	6768.76904
846.45	6932.22418
846.634	6725.295
846.818	6886.71928
847.002	6551.29749
847.186	6942.56468
847.37	6580.30837
847.554	6932.22418
847.738	6654.88701
847.922	6988.05616
848.106	6578.23632
848.29	6752.20869
848.473	6520.20937
848.657	6617.60143
848.841	6294.14531
849.025	6569.94786
849.209	6263.01388
849.392	6555.44218
849.576	6310.74659
849.76	6472.53079
849.944	6372.98806
850.127	6509.84551
850.311	6331.49608
850.495	6706.66017
850.678	6513.99112
850.862	6886.71928
851.046	6341.86995
851.229	6561.65904
851.413	6103.12283
851.596	6443.50303
851.78	6383.3596
851.964	6161.28113
852.147	6246.40829
852.331	6186.20048
852.514	6138.43542
852.698	6219.42102
852.881	5999.22285
853.065	6011.69396
853.248	6005.45851
853.431	6292.07004
853.615	6071.95901
853.798	6136.3584
853.982	6092.73548
854.165	6302.44613
854.348	6090.65794
854.532	6260.93826
854.715	5712.1531
854.898	5997.14425
855.081	5857.82434
855.265	6044.94609
855.448	5970.12031
855.631	5930.61661
855.814	5878.62508
855.997	6038.71177
856.181	6036.63362
856.364	6134.28135
856.547	5716.31674
856.73	5928.53723
856.913	5780.84109
857.096	6038.71177
857.279	5805.81217
857.462	5820.37707
857.645	5595.53284
857.828	5882.78495
858.011	5716.31674
858.194	5978.43579
858.377	5687.16927
858.56	5945.17159
858.743	5662.18205
858.926	5739.21507
859.109	5620.52912
859.292	5703.82553
859.475	5508.01913
859.658	5795.40797
859.841	5357.89904
860.023	5703.82553
860.206	5505.93496
860.389	5614.28037
860.572	5272.35963
860.755	5678.84057
860.937	5253.57742
861.12	5512.18739
861.303	5343.29754
861.486	5568.44971
861.668	5186.78091
861.851	5380.84194
862.034	5053.11639
862.216	5094.89677
862.399	4877.53801
862.581	5038.49107
862.764	4961.16701
862.947	5071.91871
863.129	5002.96772
863.312	5203.48228
863.494	4936.08217
863.677	5048.93785
863.859	4835.70977
864.042	4927.71982
864.224	4915.1756
864.406	5228.53153
864.589	4808.51652
864.771	5119.96054
864.954	4720.63518
865.136	4877.53801
865.318	4858.71643
865.501	4982.06852
865.683	4883.81146
865.865	5090.71915
866.048	4827.34303
866.23	4860.80781
866.412	4638.9954
866.594	4929.81044
866.777	4668.30592
866.959	4944.44415
867.141	4486.09113
867.323	4781.31943
867.505	4795.96449
867.687	4871.26436
867.869	4904.72146
868.052	5140.84447
868.234	4592.92715
868.416	4910.99402
868.598	4703.89135
868.78	4810.60845
868.962	4649.46395
869.144	4479.80487
869.326	4559.41618
869.508	4894.26675
869.69	4609.68049
869.872	4821.06773
870.054	4670.39936
870.236	4636.90163
870.417	4335.16644
870.599	4643.18289
870.781	4513.32931
870.963	4595.02139
871.145	4400.16177
871.327	4395.96915
871.508	4307.90414
871.69	4500.75831
871.872	4469.32733
872.054	4714.35641
872.235	4182.03121
872.417	4486.09113
872.599	4190.42512
872.78	4726.91374
872.962	4427.41165
873.144	4450.46636
873.325	4221.89927
873.507	4419.02747
873.689	4198.81869
873.87	4460.94489
874.052	4345.65097
874.233	4442.08314
874.415	4211.40841
874.596	4532.18433
874.778	4270.15033
874.959	4427.41165
875.141	4307.90414
875.322	4437.89139
875.503	4383.39078
875.685	4605.49229
875.866	4448.37059
876.048	4578.2668
876.229	4156.84744
876.41	4404.3543
876.592	4265.95504
876.773	4465.13615
876.954	4307.90414
877.136	4649.46395
877.317	4343.5541
877.498	4680.86623
877.679	4268.0527
877.86	4490.28187
878.042	4253.36863
878.223	4444.17898
878.404	4230.29157
878.585	4427.41165
878.766	4291.12553
878.947	4362.42509
879.128	4326.77843
879.309	4421.12355
879.49	4207.21192
879.672	4523.80454
879.853	4370.81162
880.034	4544.75334
880.215	4276.44312
880.396	4408.54674
880.576	4444.17898
880.757	4408.54674
880.938	4131.66065
881.119	4492.3772
881.3	4148.45218
881.481	4270.15033
881.662	4198.81869
881.843	4450.46636
882.023	4295.32031
882.204	4555.22691
882.385	4217.70299
882.566	4379.19782
882.747	4175.73555
882.927	4194.62195
883.108	4140.05658
883.289	4395.96915
883.469	4324.68137
883.65	4735.28484
883.831	4211.40841
884.011	4643.18289
884.192	4647.37029
884.373	4571.98346
884.553	4450.46636
884.734	4668.30592
884.914	4362.42509
885.095	4450.46636
885.275	4358.23169
885.456	4540.56376
885.636	4152.64985
885.817	4737.37756
885.997	4454.65784
886.178	4710.17045
886.358	4467.23175
886.538	4555.22691
886.719	4385.48723
886.899	4737.37756
887.08	4483.99574
887.26	4368.71502
887.44	4265.95504
887.621	4452.56211
887.801	4349.84463
887.981	4651.55759
888.161	4555.22691
888.342	4626.43241
888.522	4563.60536
888.702	4647.37029
888.882	4592.92715
889.062	4534.27922
889.242	4509.13907
889.423	4312.09858
889.603	4043.48319
889.783	4400.16177
889.963	4131.66065
890.143	4611.77456
890.323	4364.52175
890.503	4662.02547
890.683	4542.65856
890.863	4538.46893
891.043	4416.93137
891.223	4693.42572
891.403	4517.51947
891.583	4638.9954
891.763	4383.39078
891.943	4458.84923
892.122	4177.83412
892.302	4662.02547
892.482	4375.00476
892.662	4351.94142
892.842	4358.23169
893.022	4391.77645
893.201	4251.27083
893.381	4404.3543
893.561	4268.0527
893.741	4312.09858
893.92	4393.87281
894.1	4620.15061
894.28	4395.96915
894.459	4379.19782
894.639	4270.15033
894.819	4343.5541
894.998	4108.5701
895.178	4257.56419
895.357	4301.61232
895.537	4119.06612
895.716	4089.67596
895.896	4442.08314
896.075	3957.37007
896.255	4098.07357
896.434	3846.00261
896.614	4366.6184
896.793	4018.28292
896.973	3993.07969
897.152	4024.58326
897.331	4209.31018
897.511	3963.6722
897.69	4310.00137
897.87	3806.06478
898.049	3999.38077
898.228	3856.51138
898.407	4175.73555
898.587	3597.8542
898.766	3932.15975
898.945	3677.79563
899.124	3797.65591
899.304	3528.40944
899.483	3703.03459
899.662	3806.06478
899.841	3703.03459
900.02	3583.12518
900.199	3776.63236
900.378	3492.62705
900.557	3618.89406
900.737	3570.49959
900.916	3795.55365
901.095	3408.41257
901.274	3690.41545
901.453	3421.04657
901.632	3433.67992
901.811	3250.43466
901.989	3404.2011
902.168	3180.89415
902.347	3530.51413
902.526	3197.75411
902.705	3458.94471
902.884	3322.06333
903.063	3446.31264
903.242	3416.83531
903.42	3452.62875
903.599	3248.32764
903.778	3368.40072
903.957	3043.86877
904.135	3115.55198
904.314	2870.91327
904.493	3071.2792
904.672	2923.65415
904.85	3010.12927
905.029	2742.18864
905.207	3020.67329
905.386	3029.10822
905.565	2961.62193
905.743	2619.74885
905.922	2775.95741
906.1	2693.6401
906.279	2756.9629
906.457	2607.08025
906.636	2769.62603
906.814	2632.41701
906.993	2615.52603
907.171	2440.23747
907.35	2571.1835
907.528	2459.24844
907.707	2503.60389
907.885	2279.66703
908.063	2594.41121
908.242	2385.31205
908.42	2423.3381
908.598	2277.55388
908.777	2592.29966
908.955	2359.9595
909.133	2539.50704
909.311	2288.11952
909.49	2480.37069
909.668	2203.5881
909.846	2560.62498
910.024	2235.28905
910.202	2514.16399
910.38	2243.74231
910.559	2226.83566
910.737	2167.65802
910.915	2501.49184
911.093	2286.00641
911.271	2387.4247
911.449	2338.83126
911.627	2372.63596
911.805	2294.45879
911.983	2431.78787
912.161	2243.74231
912.339	2446.57456
912.517	2433.90029
912.695	2516.27597
912.872	2311.36309
913.05	2581.74173
913.228	2370.52324
913.406	2535.28331
913.584	2480.37069
913.762	2526.83572
913.939	2260.64839
914.117	2366.29777
914.295	2349.3955
914.473	2357.84672
914.65	2256.42192
914.828	2423.3381
915.006	2395.87518
915.184	2467.69747
915.361	2404.3255
915.539	2459.24844
915.716	2317.70204
915.894	2340.94413
916.072	2438.12509
916.249	2387.4247
916.427	2239.5157
916.604	2406.43805
916.782	2102.13245
916.959	2531.05954
917.137	2167.65802
917.314	2290.23262
917.492	1863.22481
917.669	2091.56312
917.847	2023.91509
918.024	2074.6518
918.201	2007.00198
918.379	2188.79365
918.556	2186.68013
918.733	1964.7174
918.911	1947.80287
919.088	1990.08845
919.265	1905.51493
919.442	2116.9292
919.62	1964.7174
919.797	2091.56312
919.974	1848.42279
920.151	2226.83566
920.328	2019.68685
920.506	2209.92844
920.683	1924.54479
920.86	1952.03154
921.037	1804.01535
921.214	2212.04188
921.391	1770.17982
921.568	2028.1433
921.745	1804.01535
921.922	1960.4888
922.099	1780.75353
922.276	1848.42279
922.453	1689.81661
922.63	1842.079
922.807	1689.81661
922.984	1848.42279
923.161	1744.80251
923.338	1928.77358
923.514	1740.57291
923.691	1863.22481
923.868	1780.75353
924.045	1812.47406
924.222	1630.5988
924.399	1753.26167
924.575	1520.61862
924.752	1685.58684
924.929	1630.5988
925.105	1833.62054
925.282	1592.52924
925.459	1713.08015
925.635	1628.48384
925.812	1634.82871
925.989	1448.707
926.165	1554.4591
926.342	1400.06086
926.518	1613.67908
926.695	1389.48565
926.871	1448.707
927.048	1277.39039
927.224	1474.08762
927.401	1201.25372
927.577	1381.0255
927.754	1203.36858
927.93	1307
928.107	1173.76094
928.283	1526.96373
928.459	1355.64513
928.636	1294.31011
928.812	1239.32159
928.988	1262.58576
929.165	1173.76094
929.341	1285.85024
929.517	1118.77737
929.693	1271.04553
929.87	1112.43331
930.046	1072.25523
930.222	1021.50672
930.398	1199.13887
930.574	1082.82823
930.751	1220.28753
930.927	1154.72785
931.103	1230.86198
931.279	983.44761
931.455	1175.87575
931.631	968.64741
931.807	1000.36252
931.983	915.79237
932.159	1025.73564
932.335	905.22192
932.511	998.24813
932.687	848.14499
932.863	1034.19354
933.039	700.19905
933.215	1023.62118
933.391	831.2345
933.566	801.64253
933.742	708.65175
933.918	805.86985
934.094	687.52034
934.27	920.02061
934.445	619.90764
934.621	757.2581
934.797	653.71246
934.973	681.18114
935.148	554.42003
935.324	617.79494
935.5	493.16926
935.675	581.88105
935.851	524.84921
936.027	630.47131
936.202	400.26098
936.378	476.27464
936.553	522.73711
936.729	383.37188
936.904	360.15111
937.08	391.8163
937.255	370.70575
937.431	501.61693
937.606	322.15797
937.782	273.61962
937.957	355.92937
938.133	332.71105
938.308	273.61962
938.483	275.72978
938.659	233.53017
938.834	206.10459
939.009	241.96948
939.185	256.73901
939.36	155.4817
939.535	138.61006
939.71	241.96948
939.886	231.42039
940.061	121.73979
940.236	248.29916
940.411	147.04571
940.586	201.88557
940.761	149.15468
940.937	180.79167
941.112	96.437
941.287	172.35468
941.462	140.71894
941.637	90.11179
941.812	157.59075
941.987	94.32857
942.162	132.28355
942.337	79.57023
942.512	96.437
942.687	83.78679
942.862	100.65391
943.037	189.22898
943.212	147.04571
943.386	151.26366
943.561	98.54544
943.736	147.04571
943.911	54.2728
944.086	125.95723
944.26	170.24549
944.435	106.97945
944.61	166.02716
944.785	191.33836
944.959	113.30518
945.134	195.55718
945.309	128.06598
945.483	174.4639
945.658	121.73979
945.833	96.437
946.007	109.088
946.182	176.57313
946.357	260.95905
946.531	182.90097
946.706	96.437
946.88	79.57023
947.055	100.65391
947.229	121.73979
947.404	134.39237
947.578	113.30518
947.752	130.17476
947.927	109.088
948.101	138.61006
948.276	79.57023
948.45	222.98148
948.624	121.73979
948.799	106.97945
948.973	163.91802
949.147	163.91802
949.321	121.73979
949.496	142.82785
949.67	212.43327
949.844	134.39237
950.018	83.78679
950.193	115.4138
950.367	111.19658
950.541	83.78679
950.715	113.30518
950.889	136.50121
951.063	208.21413
951.237	163.91802
951.411	163.91802
951.585	58.48881
951.759	147.04571
951.933	168.13631
952.107	71.13739
952.281	195.55718
952.455	201.88557
952.629	96.437
952.803	189.22898
952.977	168.13631
953.151	170.24549
953.325	149.15468
953.499	235.63997
953.672	92.22017
953.846	94.32857
954.02	193.44776
954.194	155.4817
954.368	168.13631
954.541	176.57313
954.715	176.57313
954.889	113.30518
955.062	83.78679
955.236	174.4639
955.41	79.57023
955.583	125.95723
955.757	147.04571
955.93	104.87091
956.104	142.82785
956.278	157.59075
956.451	208.21413
956.625	56.38079
956.798	132.28355
956.972	189.22898
957.145	102.7624
957.319	88.00344
957.492	136.50121
957.665	147.04571
957.839	138.61006
958.012	104.87091
958.185	176.57313
958.359	197.66663
958.532	115.4138
958.705	265.17916
958.879	142.82785
959.052	96.437
959.225	117.52244
959.398	153.37267
959.572	121.73979
959.745	157.59075
959.918	246.18925
960.091	159.69982
960.264	113.30518
960.438	155.4817
960.611	109.088
960.784	168.13631
960.957	88.00344
961.13	163.91802
961.303	140.71894
961.476	138.61006
961.649	138.61006
961.822	77.46199
961.995	130.17476
962.168	109.088
962.341	113.30518
962.514	117.52244
962.686	140.71894
962.859	100.65391
963.032	142.82785
963.205	189.22898
963.378	98.54544
963.551	106.97945
963.723	155.4817
963.896	197.66663
964.069	104.87091
964.242	147.04571
964.414	109.088
964.587	109.088
964.76	155.4817
964.932	208.21413
965.105	147.04571
965.278	138.61006
965.45	121.73979
965.623	182.90097
965.795	142.82785
965.968	66.92111
966.14	123.8485
966.313	62.70491
966.485	172.35468
966.658	189.22898
966.83	83.78679
967.003	73.24557
967.175	157.59075
967.348	92.22017
967.52	134.39237
967.692	168.13631
967.865	73.24557
968.037	115.4138
968.209	134.39237
968.382	73.24557
968.554	90.11179
968.726	136.50121
968.898	117.52244
969.071	153.37267
969.243	130.17476
969.415	117.52244
969.587	104.87091
969.759	90.11179
969.932	88.00344
970.104	130.17476
970.276	113.30518
970.448	88.00344
970.62	37.40968
970.792	64.813
970.964	90.11179
971.136	77.46199
971.308	77.46199
971.48	71.13739
971.652	142.82785
971.824	90.11179
971.996	88.00344
972.168	117.52244
972.339	54.2728
972.511	88.00344
972.683	106.97945
972.855	66.92111
973.027	88.00344
973.199	83.78679
973.37	121.73979
973.542	73.24557
973.714	47.94895
973.886	113.30518
974.057	-0.52684
974.229	77.46199
974.401	109.088
974.572	20.54805
974.744	130.17476
974.915	-4.74153
975.087	62.70491
975.259	33.19413
975.43	-4.74153
975.602	37.40968
975.773	113.30518
975.945	96.437
976.116	54.2728
976.288	121.73979
976.459	100.65391
976.63	66.92111
976.802	96.437
976.973	66.92111
977.145	64.813
977.316	47.94895
977.487	79.57023
977.659	33.19413
977.83	47.94895
978.001	130.17476
978.172	75.35377
978.344	79.57023
978.515	125.95723
978.686	71.13739
978.857	79.57023
979.028	88.00344
979.2	45.84105
979.371	26.87099
979.542	62.70491
979.713	20.54805
979.884	39.51749
980.055	7.90283
980.226	92.22017
980.397	71.13739
980.568	54.2728
980.739	-17.38502
980.91	28.97868
981.081	-21.59933
981.252	-13.17063
981.423	58.48881
981.594	24.76332
981.765	24.76332
981.936	69.02924
982.106	-23.70644
982.277	85.8951
982.448	47.94895
982.619	5.79537
982.79	-30.02763
982.96	62.70491
983.131	54.2728
983.302	-25.81353
983.472	83.78679
983.643	50.05688
983.814	62.70491
983.984	54.2728
984.155	47.94895
984.326	104.87091
984.496	41.62532
984.667	83.78679
984.837	41.62532
985.008	64.813
985.178	130.17476
985.349	138.61006
985.519	-44.77622
985.69	79.57023
985.86	73.24557
986.031	66.92111
986.201	56.38079
986.371	119.63111
986.542	20.54805
986.712	43.73317
986.882	58.48881
987.053	47.94895
987.223	33.19413
987.393	14.22533
987.563	83.78679
987.734	33.19413
987.904	62.70491
988.074	104.87091
988.244	75.35377
988.414	-13.17063
988.585	88.00344
988.755	79.57023
988.925	5.79537
989.095	56.38079
989.265	79.57023
989.435	37.40968
989.605	66.92111
989.775	37.40968
989.945	-36.3486
990.115	81.6785
990.285	123.8485
990.455	-38.45555
990.625	28.97868
990.795	10.01031
990.965	3.68794
991.134	56.38079
991.304	81.6785
991.474	5.79537
991.644	-30.02763
991.814	39.51749
991.984	56.38079
992.153	83.78679
992.323	14.22533
992.493	-2.6342
992.662	58.48881
992.832	12.11781
993.002	54.2728
993.171	47.94895
993.341	45.84105
993.511	-17.38502
993.68	-2.6342
993.85	-21.59933
994.019	-46.88306
994.189	-34.24164
994.358	7.90283
994.528	31.08639
994.697	47.94895
994.867	31.08639
995.036	62.70491
995.206	73.24557
995.375	35.30189
995.544	20.54805
995.714	-36.3486
995.883	37.40968
996.052	-4.74153
996.222	22.65567
996.391	-25.81353
996.56	-48.98987
996.73	83.78679
996.899	75.35377
997.068	31.08639
997.237	24.76332
997.406	-23.70644
997.576	35.30189
997.745	39.51749
997.914	20.54805
998.083	14.22533
998.252	37.40968
998.421	54.2728
998.59	12.11781
998.759	28.97868
998.928	54.2728
999.097	20.54805
999.266	7.90283
999.435	75.35377
999.604	41.62532
999.773	-11.06339
999.942	22.65567
1000.111	5.79537
1000.28	12.11781
1000.448	16.33288
1000.617	22.65567
1000.786	35.30189
1000.955	39.51749
1001.124	31.08639
1001.292	-17.38502
1001.461	20.54805
1001.63	16.33288
1001.798	58.48881
1001.967	60.59685
1002.136	75.35377
1002.304	138.61006
1002.473	-61.63024
1002.642	47.94895
1002.81	43.73317
1002.979	113.30518
1003.147	-13.17063
1003.316	3.68794
1003.484	-2.6342
1003.653	-27.92059
1003.821	33.19413
1003.99	-11.06339
1004.158	75.35377
1004.327	88.00344
1004.495	-34.24164
1004.663	22.65567
1004.832	12.11781
1005	-0.52684
1005.168	-19.49219
1005.337	-13.17063
1005.505	12.11781
1005.673	28.97868
1005.842	-11.06339
1006.01	5.79537
1006.178	20.54805
1006.346	24.76332
1006.514	62.70491
1006.683	-8.95613
1006.851	54.2728
1007.019	3.68794
1007.187	-38.45555
1007.355	54.2728
1007.523	54.2728
1007.691	39.51749
1007.859	16.33288
1008.027	66.92111
1008.195	3.68794
1008.363	54.2728
1008.531	5.79537
1008.699	28.97868
1008.867	-4.74153
1009.035	-21.59933
1009.203	12.11781
1009.37	22.65567
1009.538	37.40968
1009.706	16.33288
1009.874	83.78679
1010.042	22.65567
1010.209	12.11781
1010.377	20.54805
1010.545	-32.13465
1010.713	56.38079
1010.88	12.11781
1011.048	64.813
1011.216	14.22533
1011.383	60.59685
1011.551	-13.17063
1011.718	16.33288
1011.886	100.65391
1012.054	39.51749
1012.221	7.90283
1012.389	33.19413
1012.556	37.40968
1012.724	-15.27784
1012.891	77.46199
1013.058	14.22533
1013.226	-51.09666
1013.393	20.54805
1013.561	-19.49219
1013.728	28.97868
1013.895	-89.01455
1014.063	-34.24164
1014.23	33.19413
1014.397	20.54805
1014.565	37.40968
1014.732	12.11781
1014.899	73.24557
1015.066	-19.49219
1015.233	-4.74153
1015.401	37.40968
1015.568	1.58054
1015.735	-48.98987
1015.902	-30.02763
1016.069	-19.49219
1016.236	28.97868
1016.403	-0.52684
1016.57	-30.02763
1016.737	-19.49219
1016.904	39.51749
1017.071	-44.77622
1017.238	-8.95613
1017.405	28.97868
1017.572	26.87099
1017.739	-19.49219
1017.906	71.13739
1018.073	-13.17063
1018.24	24.76332
1018.407	5.79537
1018.573	83.78679
1018.74	-44.77622
1018.907	16.33288
1019.074	73.24557
1019.241	83.78679
1019.407	-78.48264
1019.574	39.51749
1019.741	-38.45555
1019.907	60.59685
1020.074	24.76332
1020.241	24.76332
1020.407	47.94895
1020.574	-21.59933
1020.74	56.38079
1020.907	-30.02763
1021.073	5.79537
1021.24	12.11781
1021.406	54.2728
1021.573	-42.66935
1021.739	20.54805
1021.906	83.78679
1022.072	10.01031
1022.239	-0.52684
1022.405	-4.74153
1022.571	-4.74153
1022.738	-48.98987
1022.904	-21.59933
1023.07	5.79537
1023.237	-11.06339
1023.403	3.68794
1023.569	47.94895
1023.735	-2.6342
1023.902	-0.52684
1024.068	-21.59933
1024.234	41.62532
1024.4	37.40968
1024.566	20.54805
1024.732	20.54805
1024.898	-38.45555
1025.065	45.84105
1025.231	1.58054
1025.397	12.11781
1025.563	37.40968
1025.729	5.79537
1025.895	85.8951
1026.061	-13.17063
1026.227	-25.81353
1026.392	-51.09666
1026.558	41.62532
1026.724	-4.74153
1026.89	66.92111
1027.056	-55.31017
1027.222	62.70491
1027.388	45.84105
1027.553	54.2728
1027.719	71.13739
1027.885	-13.17063
1028.051	33.19413
1028.216	-6.84884
1028.382	-0.52684
1028.548	-8.95613
1028.713	-0.52684
1028.879	-38.45555
1029.045	20.54805
1029.21	3.68794
1029.376	16.33288
1029.541	71.13739
1029.707	-44.77622
1029.873	-44.77622
1030.038	39.51749
1030.204	-25.81353
1030.369	-21.59933
1030.534	71.13739
1030.7	20.54805
1030.865	31.08639
1031.031	66.92111
1031.196	7.90283
1031.361	-25.81353
1031.527	33.19413
1031.692	37.40968
1031.857	18.44046
1032.023	-72.16318
1032.188	22.65567
1032.353	-8.95613
1032.518	54.2728
1032.684	-4.74153
1032.849	-4.74153
1033.014	-23.70644
1033.179	-21.59933
1033.344	28.97868
1033.509	56.38079
1033.674	41.62532
1033.839	35.30189
1034.004	28.97868
1034.17	-6.84884
1034.335	28.97868
1034.5	5.79537
1034.664	-6.84884
1034.829	-8.95613
1034.994	31.08639
1035.159	14.22533
1035.324	-8.95613
1035.489	39.51749
1035.654	-48.98987
1035.819	-46.88306
1035.984	16.33288
1036.148	5.79537
1036.313	7.90283
1036.478	54.2728
1036.643	-6.84884
1036.807	-2.6342
1036.972	28.97868
1037.137	-21.59933
1037.301	-59.52357
1037.466	20.54805
1037.631	-34.24164
1037.795	54.2728
1037.96	-40.56246
1038.124	5.79537
1038.289	-53.20343
1038.454	-19.49219
1038.618	-17.38502
1038.783	-44.77622
1038.947	-80.58907
1039.111	64.813
1039.276	39.51749
1039.44	-4.74153
1039.605	54.2728
1039.769	12.11781
1039.933	-25.81353
1040.098	37.40968
1040.262	1.58054
1040.426	-19.49219
1040.591	-23.70644
1040.755	-63.73688
1040.919	28.97868
1041.083	64.813
1041.248	12.11781
1041.412	-15.27784
1041.576	37.40968
1041.74	31.08639
1041.904	20.54805
1042.068	16.33288
1042.232	-44.77622
1042.397	-63.73688
1042.561	-27.92059
1042.725	14.22533
1042.889	-19.49219
1043.053	-42.66935
1043.217	31.08639
1043.381	104.87091
1043.544	-57.41689
1043.708	-4.74153
1043.872	7.90283
1044.036	7.90283
1044.2	-38.45555
1044.364	56.38079
1044.528	-38.45555
1044.691	37.40968
1044.855	-80.58907
1045.019	-34.24164
1045.183	-46.88306
1045.346	35.30189
1045.51	62.70491
1045.674	1.58054
1045.837	-13.17063
1046.001	20.54805
1046.165	79.57023
1046.328	33.19413
1046.492	-13.17063
1046.655	-42.66935
1046.819	-0.52684
1046.983	-6.84884
1047.146	54.2728
1047.31	33.19413
1047.473	-13.17063
1047.636	12.11781
1047.8	33.19413
1047.963	66.92111
1048.127	-11.06339
1048.29	-36.3486
