Data from mixed_try1_USB4F045381__0__00148.txt Node

Date: Thu Apr 03 20:07:16 EDT 2025
User: mmckonesweet
Spectrometer: USB4F04538
Trigger mode: 4
Integration Time (sec): 2.700000E-3
Scans to average: 1
Electric dark correction enabled: true
Nonlinearity correction enabled: true
Boxcar width: 0
XAxis mode: Wavelengths
Number of Pixels in Spectrum: 3648
>>>>>Begin Spectral Data<<<<<
345.52	23.70949
345.736	23.70949
345.952	23.70949
346.168	32.14026
346.384	-10.00976
346.6	-64.79019
346.816	-47.93647
347.032	6.8491
347.248	55.32679
347.464	-56.36353
347.68	21.60186
347.896	-35.29512
348.112	40.5714
348.328	11.06405
348.544	4.74166
348.76	42.67924
348.975	21.60186
349.191	4.74166
349.407	15.2791
349.623	11.06405
349.839	40.5714
350.055	84.84094
350.27	40.5714
350.486	-47.93647
350.702	25.81715
350.918	2.63424
351.133	34.24801
351.349	23.70949
351.565	40.5714
351.781	-33.18815
351.996	-10.00976
352.212	-10.00976
352.428	2.63424
352.644	-14.22423
352.859	-1.58052
353.075	-16.33143
353.291	15.2791
353.506	57.4348
353.722	38.46358
353.938	19.49425
354.153	8.95656
354.369	17.38667
354.584	53.21881
354.8	-28.97412
355.016	-1.58052
355.231	-43.72279
355.447	34.24801
355.662	32.14026
355.878	34.24801
356.093	-35.29512
356.309	25.81715
356.524	6.8491
356.74	57.4348
356.955	25.81715
357.171	4.74166
357.386	-47.93647
357.602	65.86705
357.817	-16.33143
358.033	-20.54576
358.248	-26.86706
358.464	0.52684
358.679	19.49425
358.895	-43.72279
359.11	27.92483
359.325	-10.00976
359.541	40.5714
359.756	30.03253
359.972	38.46358
360.187	23.70949
360.402	17.38667
360.618	32.14026
360.833	23.70949
361.048	-62.68356
361.264	17.38667
361.479	-43.72279
361.694	32.14026
361.909	40.5714
362.125	-5.79519
362.34	-24.75999
362.555	6.8491
362.77	91.16598
362.986	-10.00976
363.201	-1.58052
363.416	36.35578
363.631	-26.86706
363.847	-14.22423
364.062	0.52684
364.277	44.78711
364.492	44.78711
364.707	-35.29512
364.922	-14.22423
365.138	-64.79019
365.353	-39.50901
365.568	6.8491
365.783	-1.58052
365.998	25.81715
366.213	76.40788
366.428	15.2791
366.643	30.03253
366.858	44.78711
367.073	36.35578
367.288	40.5714
367.503	65.86705
367.718	70.08331
367.933	-14.22423
368.148	2.63424
368.363	27.92483
368.578	-31.08114
368.793	-47.93647
369.008	11.06405
369.223	-94.28026
369.438	-39.50901
369.653	-7.90249
369.868	95.38278
370.083	-45.82964
370.298	-20.54576
370.513	13.17157
370.728	44.78711
370.943	72.19148
371.157	11.06405
371.372	53.21881
371.587	-1.58052
371.802	34.24801
372.017	-47.93647
372.232	23.70949
372.446	-58.47023
372.661	-18.43861
372.876	36.35578
373.091	65.86705
373.306	6.8491
373.52	80.62436
373.735	23.70949
373.95	84.84094
374.165	-52.15005
374.379	19.49425
374.594	-43.72279
374.809	-56.36353
375.023	-77.42941
375.238	-35.29512
375.453	99.59967
375.667	-16.33143
375.882	-35.29512
376.097	61.65088
376.311	-50.04327
376.526	42.67924
376.741	-16.33143
376.955	-16.33143
377.17	-35.29512
377.384	49.00291
377.599	-1.58052
377.813	-35.29512
378.028	2.63424
378.242	-5.79519
378.457	-33.18815
378.672	11.06405
378.886	61.65088
379.101	44.78711
379.315	21.60186
379.53	0.52684
379.744	25.81715
379.958	49.00291
380.173	15.2791
380.387	59.54283
380.602	34.24801
380.816	27.92483
381.031	65.86705
381.245	-7.90249
381.459	-39.50901
381.674	-20.54576
381.888	23.70949
382.103	11.06405
382.317	6.8491
382.531	30.03253
382.746	38.46358
382.96	6.8491
383.174	15.2791
383.388	11.06405
383.603	42.67924
383.817	15.2791
384.031	15.2791
384.246	-10.00976
384.46	8.95656
384.674	40.5714
384.888	17.38667
385.103	32.14026
385.317	-14.22423
385.531	57.4348
385.745	89.05761
385.959	6.8491
386.174	-24.75999
386.388	70.08331
386.602	-10.00976
386.816	-22.65289
387.03	19.49425
387.244	42.67924
387.458	-18.43861
387.672	34.24801
387.887	-14.22423
388.101	59.54283
388.315	-43.72279
388.529	-16.33143
388.743	42.67924
388.957	40.5714
389.171	59.54283
389.385	89.05761
389.599	0.52684
389.813	49.00291
390.027	101.70815
390.241	40.5714
390.455	11.06405
390.669	93.27437
390.883	11.06405
391.097	65.86705
391.311	-1.58052
391.525	25.81715
391.738	0.52684
391.952	23.70949
392.166	38.46358
392.38	6.8491
392.594	-1.58052
392.808	19.49425
393.022	21.60186
393.236	74.29967
393.449	23.70949
393.663	46.895
393.877	-35.29512
394.091	-1.58052
394.305	99.59967
394.518	17.38667
394.732	32.14026
394.946	32.14026
395.16	21.60186
395.373	46.895
395.587	15.2791
395.801	-1.58052
396.015	17.38667
396.228	4.74166
396.442	-5.79519
396.656	-14.22423
396.869	61.65088
397.083	21.60186
397.297	74.29967
397.51	116.46812
397.724	51.11085
397.938	-16.33143
398.151	40.5714
398.365	23.70949
398.578	36.35578
398.792	11.06405
399.005	-7.90249
399.219	8.95656
399.433	6.8491
399.646	57.4348
399.86	23.70949
400.073	2.63424
400.287	-5.79519
400.5	25.81715
400.714	59.54283
400.927	53.21881
401.141	59.54283
401.354	6.8491
401.567	-16.33143
401.781	32.14026
401.994	32.14026
402.208	49.00291
402.421	-39.50901
402.635	63.75895
402.848	-10.00976
403.061	11.06405
403.275	93.27437
403.488	74.29967
403.701	59.54283
403.915	-33.18815
404.128	-1.58052
404.341	8.95656
404.555	0.52684
404.768	-7.90249
404.981	57.4348
405.195	8.95656
405.408	-7.90249
405.621	-24.75999
405.834	-24.75999
406.048	25.81715
406.261	40.5714
406.474	42.67924
406.687	38.46358
406.9	49.00291
407.114	59.54283
407.327	49.00291
407.54	78.51611
407.753	74.29967
407.966	49.00291
408.179	23.70949
408.392	42.67924
408.605	32.14026
408.819	74.29967
409.032	15.2791
409.245	-12.11701
409.458	82.73264
409.671	-5.79519
409.884	150.20917
410.097	65.86705
410.31	15.2791
410.523	76.40788
410.736	103.81665
410.949	169.1909
411.162	8.95656
411.375	49.00291
411.588	38.46358
411.801	89.05761
412.014	42.67924
412.227	93.27437
412.44	103.81665
412.653	42.67924
412.865	59.54283
413.078	72.19148
413.291	-41.61591
413.504	36.35578
413.717	2.63424
413.93	74.29967
414.143	38.46358
414.356	6.8491
414.568	49.00291
414.781	59.54283
414.994	-1.58052
415.207	40.5714
415.42	80.62436
415.632	19.49425
415.845	120.68545
416.058	42.67924
416.271	122.79415
416.483	44.78711
416.696	57.4348
416.909	57.4348
417.121	-26.86706
417.334	59.54283
417.547	53.21881
417.759	91.16598
417.972	65.86705
418.185	36.35578
418.397	38.46358
418.61	36.35578
418.823	86.94927
419.035	82.73264
419.248	82.73264
419.46	11.06405
419.673	93.27437
419.885	65.86705
420.098	133.33796
420.311	103.81665
420.523	61.65088
420.736	82.73264
420.948	67.97517
421.161	-18.43861
421.373	11.06405
421.586	30.03253
421.798	51.11085
422.01	133.33796
422.223	65.86705
422.435	38.46358
422.648	27.92483
422.86	162.86346
423.073	158.64528
423.285	53.21881
423.497	53.21881
423.71	95.38278
423.922	99.59967
424.134	49.00291
424.347	137.55563
424.559	78.51611
424.771	108.03372
424.984	49.00291
425.196	51.11085
425.408	91.16598
425.621	137.55563
425.833	70.08331
426.045	93.27437
426.257	198.72135
426.47	101.70815
426.682	57.4348
426.894	99.59967
427.106	78.51611
427.318	112.25088
427.531	99.59967
427.743	124.90287
427.955	131.22915
428.167	65.86705
428.379	133.33796
428.591	158.64528
428.804	139.6645
429.016	86.94927
429.228	120.68545
429.44	103.81665
429.652	101.70815
429.864	156.53622
430.076	101.70815
430.288	226.14603
430.5	137.55563
430.712	158.64528
430.924	192.39306
431.136	152.31817
431.348	162.86346
431.56	143.8823
431.772	135.44678
431.984	234.58507
432.196	226.14603
432.408	124.90287
432.62	175.51851
432.832	133.33796
433.044	188.1743
433.256	145.99124
433.468	213.48807
433.679	215.59768
433.891	272.56455
434.103	173.40929
434.315	262.01407
434.527	141.77339
434.739	276.78487
434.95	278.89506
435.162	291.55658
435.374	171.30008
435.586	264.12413
435.798	221.92663
436.009	217.70731
436.221	217.70731
436.433	297.88759
436.645	270.45441
436.856	272.56455
437.068	219.81696
437.28	348.54149
437.491	257.79401
437.703	236.69488
437.915	340.09847
438.126	310.5501
438.338	297.88759
438.55	348.54149
438.761	302.10835
438.973	386.5385
439.184	380.20529
439.396	274.6747
439.608	371.76124
439.819	388.64961
440.031	335.87706
440.242	251.46407
440.454	219.81696
440.665	424.5409
440.877	405.53904
441.088	428.76371
441.3	371.76124
441.511	367.53931
441.723	386.5385
441.934	344.31995
442.146	416.09547
442.357	464.66014
442.569	386.5385
442.78	272.56455
442.991	411.87285
443.203	386.5385
443.414	509.00883
443.626	445.65559
443.837	420.31815
444.048	337.98775
444.26	420.31815
444.471	441.43252
444.682	496.33711
444.894	386.5385
445.105	428.76371
445.316	462.54846
445.528	521.68107
445.739	411.87285
445.95	411.87285
446.161	483.66592
446.373	445.65559
446.584	487.88959
446.795	506.89684
447.006	582.93728
447.217	470.99526
447.429	553.36388
447.64	466.77183
447.851	519.56899
448.062	485.77775
448.273	606.17534
448.484	498.44903
448.695	473.107
448.907	673.78553
449.118	523.79316
449.329	644.20454
449.54	578.71235
449.751	570.26265
449.962	741.40759
450.173	557.58849
450.384	724.50103
450.595	650.54313
450.806	599.83753
451.017	724.50103
451.228	697.02933
451.439	648.43026
451.65	665.33358
451.861	690.68998
452.072	762.54173
452.283	758.31482
452.494	741.40759
452.705	806.92668
452.915	868.22692
453.126	811.15404
453.337	768.88217
453.548	756.20138
453.759	781.56332
453.97	899.93677
454.181	906.27896
454.391	971.81885
454.602	986.61912
454.813	950.67619
455.024	1054.28143
455.235	1035.25078
455.445	1016.22061
455.656	868.22692
455.867	1045.82331
456.078	976.04747
456.288	1081.77092
456.499	1081.77092
456.71	1081.77092
456.921	1028.90734
457.131	1005.64851
457.342	1079.65631
457.553	1113.49065
457.763	1115.60533
457.974	1240.37905
458.184	1117.72003
458.395	1443.41937
458.606	1344.01253
458.816	1341.89751
459.027	1418.03876
459.237	1314.40246
459.448	1341.89751
459.659	1487.83544
459.869	1451.87957
460.08	1479.37525
460.29	1589.35675
460.501	1625.3114
460.711	1506.87086
460.922	1494.18059
461.132	1851.59467
461.343	1519.56111
461.553	1716.25242
461.764	1950.97438
461.974	1775.46669
462.184	1802.958
462.395	1781.8109
462.605	2056.68301
462.816	1836.79247
463.026	2094.73394
463.236	1834.67785
463.447	2043.99885
463.657	1912.91549
463.867	2388.48102
464.078	2172.94201
464.288	2215.21201
464.498	2261.705
464.709	2344.11341
464.919	2137.00991
465.129	2494.09957
465.339	2456.08
465.55	2352.56473
465.76	2373.69231
465.97	2424.39433
466.18	2415.94441
466.391	2848.75943
466.601	2715.80442
466.811	2871.96817
467.021	2707.36104
467.231	2871.96817
467.441	2582.79754
467.651	3017.51012
467.862	3068.11659
468.072	3034.37993
468.282	3230.41728
468.492	3167.19466
468.702	3278.87781
468.912	3487.36449
469.122	3329.43575
469.332	3462.10262
469.542	3409.46543
469.752	3497.8895
469.962	3569.44742
470.172	3786.0932
470.382	3716.70454
470.592	4013.03249
470.802	3842.84989
471.012	3903.79466
471.222	3878.57817
471.432	4153.69926
471.642	4103.3219
471.852	4520.66203
472.062	4109.61973
472.272	4388.63187
472.482	4441.03521
472.691	4663.07222
472.901	4593.97427
473.111	4424.26763
473.321	4696.56547
473.531	4972.66313
473.741	4901.58511
473.95	5169.03408
474.16	5072.96323
474.37	5310.96156
474.58	5281.75003
474.79	5463.20437
474.999	5604.90685
475.209	5265.05566
475.419	5509.0612
475.628	5873.42512
475.838	5506.97705
476.048	5887.98464
476.258	5758.98861
476.467	6315.93418
476.677	6249.52195
476.886	6550.2613
477.096	6546.1165
477.306	6517.10027
477.515	6106.23892
477.725	6573.05608
477.935	6546.1165
478.144	6829.8227
478.354	6796.71131
478.563	7042.83824
478.773	7084.17278
478.982	7257.68051
479.192	7301.03305
479.401	7373.26579
479.611	7315.48174
479.82	7348.5033
480.03	7571.25329
480.239	7787.5766
480.449	7820.51979
480.658	7950.182
480.868	7989.27046
481.077	8221.59303
481.287	7896.68054
481.496	8211.31867
481.705	8256.52215
481.915	8509.07677
482.124	8615.76078
482.333	8492.65931
482.543	8667.03313
482.752	8677.2862
482.961	8806.43555
483.171	9125.92748
483.38	9107.50684
483.589	9291.65128
483.799	9514.49056
484.008	9453.1779
484.217	9027.66787
484.426	9588.04683
484.636	9583.96091
484.845	9933.08559
485.054	9702.42734
485.263	9863.70403
485.472	9994.2906
485.682	10088.11317
485.891	10110.54457
486.1	10269.5554
486.309	10346.99228
486.518	10467.18546
486.727	10566.97287
486.936	10919.04836
487.146	10737.96749
487.355	10809.19011
487.564	10819.36359
487.773	11051.24127
487.982	10910.91187
488.191	11213.87696
488.4	11260.62223
488.609	11473.95679
488.818	11605.9676
489.027	11423.17271
489.236	11825.22387
489.445	11894.22813
489.654	11853.63856
489.863	12174.20872
490.072	11851.60899
490.281	12194.49149
490.49	12011.91937
490.698	12174.20872
490.907	12235.05482
491.116	12685.12447
491.325	12447.96601
491.534	12342.5338
491.743	12529.05551
491.952	12762.13244
492.16	12985.00499
492.369	13138.95336
492.578	13209.84146
492.787	13203.76556
492.996	13124.77507
493.204	13270.59833
493.413	13276.67381
493.622	13815.22898
493.831	13217.94261
494.039	13495.36625
494.248	13211.86676
494.457	13614.81841
494.665	13965.01191
494.874	14037.87412
495.083	14086.4472
495.291	14438.56705
495.5	14381.9077
495.709	14222.04036
495.917	14009.5392
496.126	14418.3317
496.335	14325.24711
496.543	14570.09339
496.752	14305.01086
496.96	14689.47448
497.169	14796.71231
497.377	14738.03529
497.586	14568.06995
497.794	14715.77832
498.003	14754.22212
498.211	15207.44007
498.42	14988.92644
498.628	14994.99629
498.837	15168.99793
499.045	15264.09172
499.254	15100.20671
499.462	15531.16702
499.671	15662.68507
499.879	15581.75051
500.087	15798.2537
500.296	16105.83206
500.504	16045.12328
500.713	15786.11304
500.921	15798.2537
501.129	15893.35695
501.338	15873.122
501.546	16364.87293
501.754	15879.19247
501.962	16166.54225
502.171	16399.27904
502.379	16304.15761
502.587	16283.91955
502.795	16435.70965
503.004	16018.81656
503.212	16862.81012
503.42	16816.24907
503.628	17018.69836
503.837	16581.43881
504.045	16660.38014
504.253	16751.47064
504.461	17097.6608
504.669	17036.9201
504.877	17223.19962
505.085	17109.80925
505.294	17257.62349
505.502	16957.96083
505.71	17498.61495
505.918	17486.46307
506.126	17324.44873
506.334	17427.73059
506.542	17745.72839
506.75	17314.32349
506.958	17830.81169
507.166	17539.12203
507.374	17794.34669
507.582	17721.41998
507.79	17938.18737
507.998	18213.763
508.206	18136.7572
508.414	17988.83968
508.622	18094.20362
508.83	17790.29509
509.037	18574.5463
509.245	17978.70904
509.453	18523.8672
509.661	18193.4978
509.869	18586.70964
510.077	18329.28171
510.285	18454.94749
510.492	18351.57619
510.7	18805.67391
510.908	18787.42513
511.116	18517.78587
511.324	18665.77479
511.531	18801.6186
511.739	18702.2684
511.947	19160.5759
512.155	18710.37827
512.362	18925.31279
512.57	18700.24095
512.778	18775.25946
512.985	19099.72675
513.193	18969.92747
513.401	19420.24044
513.608	19120.0094
513.816	19182.88818
514.024	19316.77226
514.231	19186.94501
514.439	19424.29824
514.646	19215.34328
514.854	19667.79643
515.061	19436.47172
515.269	19472.99308
515.477	19531.83587
515.684	19868.72776
515.892	19554.15647
516.099	19882.93659
516.307	19783.47915
516.514	20345.85092
516.722	19994.58451
516.929	19994.58451
517.136	20023.00601
517.344	20154.97379
517.551	20126.54846
517.759	20307.26638
517.966	20163.09546
518.173	19649.53198
518.381	20291.02071
518.588	20291.02071
518.796	20813.04674
519.003	20916.67212
519.21	20490.04866
519.418	20790.69757
519.625	20573.32739
519.832	20987.79378
520.039	20794.76102
520.247	20997.95443
520.454	21018.27603
520.661	21463.42107
520.868	21304.85406
521.076	21459.35494
521.283	21046.72697
521.49	21465.45413
521.697	21636.24601
521.904	21386.16743
522.112	21130.05217
522.319	21676.91484
522.526	21150.37643
522.733	21548.81335
522.94	21603.71208
523.147	21971.81028
523.354	21475.61953
523.561	22055.20912
523.768	21896.55341
523.975	21947.40207
524.183	21483.75193
524.39	22346.13723
524.597	22099.96233
524.804	22091.82525
525.011	21935.19818
525.218	22254.57826
525.425	22342.06779
525.632	22199.64646
525.838	22496.71692
526.045	22352.24143
526.252	22409.2155
526.459	22781.65078
526.666	22808.1124
526.873	22708.37551
527.08	22354.27617
527.287	22702.26944
527.494	22462.12254
527.701	23019.82608
527.907	22940.42916
528.114	23410.77603
528.321	23152.16552
528.528	23109.40818
528.735	23396.52057
528.941	23616.47886
529.148	23213.24994
529.355	23378.19235
529.562	23498.34864
529.768	23471.87259
529.975	23677.58471
530.182	23506.49522
530.388	23127.73258
530.595	24105.39951
530.802	23563.52266
531.008	23942.40751
531.215	23773.32262
531.422	24066.68728
531.628	24038.16313
531.835	23962.78052
532.042	24172.63889
532.248	24547.6028
532.455	24292.86215
532.661	24612.82283
532.868	24358.07188
533.074	24676.00718
533.281	24502.76552
533.487	24466.08139
533.694	24229.69283
533.9	24724.92571
534.107	24702.50454
534.313	24684.16017
534.52	25075.54865
534.726	25144.86587
534.933	24906.34406
535.139	25085.7422
535.345	25267.1966
535.552	25224.37995
535.758	25179.52545
535.965	25389.53506
536.171	25375.26185
536.377	25648.5093
536.584	25212.1468
536.79	25593.44907
536.996	25420.12085
537.203	25511.88103
537.409	25316.13107
537.615	25491.48952
537.821	25640.35214
538.028	26150.23256
538.234	25809.61958
538.44	25960.54367
538.646	25624.03791
538.853	25748.43705
539.059	25581.21366
539.265	25568.97832
539.471	26270.58061
539.677	26121.67627
539.883	26554.1352
540.09	26168.59035
540.296	26266.50092
540.502	26233.86363
540.708	26242.02292
540.914	26660.22103
541.12	26601.05727
541.326	26890.7677
541.532	26501.09386
541.738	26643.89986
541.944	26968.30082
542.15	27325.38691
542.356	27219.27705
542.562	27470.27331
542.768	27413.13424
542.974	27462.11052
543.18	27056.03813
543.386	27370.2806
543.592	27215.19597
543.798	27678.43096
544.004	27447.8257
544.21	27376.40251
544.415	27319.26509
544.621	27717.20682
544.827	27027.47221
545.033	27600.88055
545.239	27547.82075
545.445	28162.13878
545.651	27674.34932
545.856	28037.63403
546.062	27923.33826
546.268	27849.86431
546.474	27715.16598
546.679	27319.26509
546.885	27576.3913
547.091	27907.01059
547.297	27913.13346
547.502	27943.74796
547.708	27782.5145
547.914	27778.43274
548.119	28447.90283
548.325	28380.54225
548.531	28264.19493
548.736	28645.90879
548.942	28349.9242
549.147	28247.86576
549.353	28856.17337
549.559	29378.82047
549.764	29027.65944
549.97	28899.0442
550.175	28639.78475
550.381	29307.36078
550.586	28739.81199
550.792	28929.6665
550.997	29005.20251
551.203	29062.36585
551.408	29195.06958
551.614	29023.57635
551.819	28909.25161
552.025	29442.11441
552.23	29366.57014
552.435	29856.613
552.641	30148.627
552.846	29664.67216
553.052	29791.27035
553.257	29926.0408
553.462	30073.06869
553.668	30097.57392
553.873	29987.30171
554.078	30064.90032
554.283	29952.58707
554.489	30440.66491
554.694	30365.10028
554.899	30293.62177
555.105	30103.70025
555.31	29950.54504
555.515	30175.17489
555.72	30361.01575
555.925	30089.40549
556.131	30205.80732
556.336	29923.99879
556.541	30120.03719
556.746	30614.26582
556.951	30622.4355
557.156	30338.55094
557.361	30718.43083
557.567	30914.51564
557.772	30689.83617
557.977	30932.89924
558.182	30571.37532
558.387	30785.83357
558.592	31075.88677
558.797	31016.64822
559.002	30963.53884
559.207	31051.37412
559.412	31079.97224
559.617	30796.04623
559.822	31159.63994
560.027	31094.2714
560.232	31292.42456
560.437	30918.60087
560.642	31151.46879
560.847	30851.19521
561.051	31161.68273
561.256	31082.01497
561.461	31241.35278
561.666	31208.66735
561.871	31310.81064
562.076	31558.01393
562.281	31404.78594
562.485	31192.32478
562.69	31676.51677
562.895	31288.33878
563.1	31466.07602
563.305	31067.71587
563.509	31670.38717
563.714	31451.77487
563.919	31474.24814
564.123	31688.77602
564.328	31715.33795
564.533	31964.62642
564.737	31431.34479
564.942	31611.13518
565.147	32091.32486
565.351	32017.75711
565.556	31854.28221
565.761	31872.67253
565.965	32021.84414
566.17	31917.62729
566.374	32242.5557
566.579	32448.98405
566.784	32058.62777
566.988	32448.98405
567.193	32485.77563
567.397	31784.80903
567.602	32340.6575
567.806	32040.23587
568.011	32070.88912
568.215	32463.2918
568.42	32594.11067
568.624	32882.35546
568.828	32853.73321
569.033	32113.80442
569.237	32970.26985
569.442	32929.37884
569.646	32516.43583
569.85	33056.14441
570.055	33538.76996
570.259	33324.02246
570.463	33503.99904
570.668	32585.93421
570.872	32702.4523
571.076	33072.50201
571.281	32857.82207
571.485	32841.46668
571.689	33092.94925
571.893	33070.4573
572.098	33565.36009
572.302	33017.29581
572.506	33426.27902
572.71	33209.50378
572.914	33254.49219
573.119	32945.73512
573.323	33416.05303
573.527	33704.45568
573.731	33827.1996
573.935	33620.58745
574.139	33994.9694
574.343	34050.21584
574.547	33900.85177
574.751	33620.58745
574.955	33587.85985
575.159	33444.68599
575.364	33643.08815
575.568	33786.28363
575.772	33722.8665
575.976	33653.31587
576.18	33704.45568
576.383	34072.72439
576.587	33997.01552
576.791	33681.95391
576.995	33808.78725
577.199	33849.70396
577.403	33708.54695
577.607	33906.98965
577.811	34271.22818
578.015	34054.30827
578.219	34095.23338
578.422	34256.90199
578.626	34549.60366
578.83	34525.03814
579.034	34119.78915
579.238	34195.50611
579.442	34680.62981
579.645	34191.41317
579.849	34813.72103
580.053	34647.87167
580.257	34629.44569
580.46	34783.00605
580.664	34580.31139
580.868	34498.42616
581.071	34557.7923
581.275	34619.20918
581.479	34752.29205
581.682	34205.73852
581.886	34115.69649
582.09	34660.15585
582.293	35610.62957
582.497	35063.57351
582.7	35262.276
582.904	35221.30272
583.107	34676.53499
583.311	34961.1668
583.515	35592.18359
583.718	34856.72367
583.922	35198.76825
584.125	35297.10481
584.329	35143.45882
584.532	35461.02442
584.735	35811.5138
584.939	36035.00864
585.142	36026.8058
585.346	35700.81607
585.549	35657.77122
585.753	36024.7551
585.956	35793.06307
586.159	36073.97341
586.363	35932.47972
586.566	36030.90721
586.769	35877.12002
586.973	35717.21473
587.176	35952.98436
587.379	36422.70127
587.582	36773.66305
587.786	35936.58061
587.989	36451.42793
588.192	36453.47989
588.395	36582.76563
588.599	36469.89573
588.802	36367.30332
589.005	36073.97341
589.208	36387.82055
589.411	36361.14827
589.615	36256.52089
589.818	36437.06445
590.021	36615.60416
590.224	36664.86508
590.427	36599.18469
590.63	36537.61535
590.833	36508.88497
591.036	36445.27212
591.239	37034.44486
591.442	36679.23356
591.645	36545.82426
591.848	37024.17576
592.051	37237.80976
592.254	36851.6807
592.457	36989.2621
592.66	37159.74221
592.863	37813.3776
593.066	38002.62691
593.269	37632.41993
593.472	37412.47279
593.675	37642.69999
593.878	37227.53711
594.081	38045.83483
594.284	37504.96328
594.486	37681.76598
594.689	37930.62178
594.892	37081.68503
595.095	37441.24597
595.298	37632.41993
595.5	37270.68344
595.703	38056.12297
595.906	37449.46715
596.109	37632.41993
596.311	37254.24636
596.514	37437.13543
596.717	38161.07389
596.92	38636.71974
597.122	38296.92537
597.325	38589.33998
597.528	37836.00163
597.73	38877.81314
597.933	38313.39475
598.136	38515.18987
598.338	37990.28246
598.541	38204.29534
598.743	38323.68839
598.946	38115.79827
599.148	38379.2778
599.351	38272.22233
599.554	38093.16198
599.756	38111.68251
599.959	39098.41193
600.161	38636.71974
600.363	38968.51356
600.566	38492.53519
600.768	38921.09971
600.971	39238.66243
601.173	38618.17927
601.376	39137.59507
601.578	39057.17026
601.78	39123.15877
601.983	38820.10411
602.185	38921.09971
602.388	38805.67798
602.59	39362.45033
602.792	39166.46908
602.995	38945.83675
603.197	38980.88321
603.399	39218.03454
603.601	38622.29931
603.804	38601.69946
604.006	38943.77528
604.208	38535.78596
604.41	39088.10115
604.613	38929.34524
604.815	39182.96937
605.017	39465.63413
605.219	39215.97181
605.421	39057.17026
605.623	39156.15672
605.826	39395.46644
606.028	38754.15981
606.23	39345.94323
606.432	39517.23541
606.634	39967.46986
606.836	39314.99411
607.038	38688.2249
607.24	39187.09454
607.442	39391.33928
607.644	38731.49363
607.846	39160.28164
608.048	39133.47036
608.25	39209.78366
608.452	39399.59363
608.654	39760.87921
608.856	39164.40659
609.058	39422.2939
609.26	39678.27211
609.462	39302.61509
609.664	39566.77858
609.866	39238.66243
610.067	39453.25076
610.269	39387.21217
610.471	39137.59507
610.673	39686.53208
610.875	39589.48781
611.077	39494.53007
611.278	38844.83566
611.48	39005.62353
611.682	39191.21975
611.884	39754.6831
612.085	39329.43676
612.287	39659.68779
612.489	39525.4922
612.69	40205.18032
612.892	39913.74619
613.094	39727.83439
613.295	39300.55195
613.497	39020.05601
613.699	39649.36352
613.9	40002.60075
614.102	40374.76574
614.304	39500.72232
614.505	39253.10253
614.707	39542.00627
614.908	38985.0065
615.11	39521.36379
615.311	39783.59906
615.513	39077.79061
615.714	39488.33792
615.916	39655.55805
616.117	39866.22734
616.319	39961.27061
616.52	39804.25457
616.722	39484.20987
616.923	40052.20254
617.124	40050.13568
617.326	39180.9068
617.527	39432.6126
617.729	38904.6091
617.93	38834.53068
618.131	39579.16528
618.333	40110.07909
618.534	40041.86833
618.735	39998.46755
618.937	40265.14724
619.138	39601.87518
619.339	40062.53703
619.54	39924.07711
619.742	40378.90289
619.943	39765.01
620.144	39587.42328
620.345	40029.46763
620.546	39771.20626
620.748	40043.93515
620.949	39343.87988
621.15	39626.65103
621.351	38982.94485
621.552	39872.42514
621.753	39822.84541
621.954	40072.87177
622.155	39372.76759
622.356	39572.97188
622.558	39909.61389
622.759	39676.20715
622.96	39620.45693
623.161	39046.86043
623.362	39496.59415
623.563	40093.54207
623.764	39981.93515
623.965	40056.3363
624.166	40434.75879
624.366	40414.07048
624.567	39917.87853
624.768	39628.71575
624.969	39102.5363
625.17	39942.67343
625.371	39806.32018
625.572	40046.00198
625.773	39515.17124
625.973	39736.09535
626.174	39975.73568
626.375	39789.79561
626.576	39777.40262
626.777	40372.69718
626.977	39484.20987
627.178	39957.13783
627.379	39866.22734
627.58	40136.9532
627.78	40139.02052
627.981	39882.75501
628.182	39895.15119
628.382	40122.4823
628.583	40048.06883
628.784	40242.40008
628.984	39837.30554
629.185	40792.84427
629.386	40099.74337
629.586	40407.8642
629.787	40318.9185
629.987	39981.93515
630.188	39926.14333
630.388	40207.24799
630.589	39562.64976
630.79	40103.87763
630.99	40031.53439
631.191	40432.68991
631.391	40480.27699
631.591	40126.61679
631.792	40132.81861
631.992	41130.54523
632.193	40772.13644
632.393	40188.63933
632.594	40387.17733
632.794	40325.12335
632.994	41039.35614
633.195	40509.24592
633.395	40486.48443
633.595	40629.28351
633.796	41111.89106
633.996	41026.92302
634.196	40687.24628
634.397	40629.28351
634.597	40320.98677
634.797	41520.43083
634.997	40786.6318
635.198	40724.51277
635.398	39653.49319
635.598	40186.57175
635.798	40614.7942
635.998	40695.5274
636.199	40469.93147
636.399	40476.13875
636.599	40312.71374
636.799	39841.4371
636.999	39686.53208
637.199	39812.51706
637.399	39940.60713
637.599	40571.3296
637.799	39988.13472
637.999	40832.19231
638.199	40602.37524
638.399	40281.69145
638.599	40695.5274
638.799	40703.80871
638.999	40912.97239
639.199	41095.31038
639.399	41225.90372
639.599	41491.38214
639.799	40941.97467
639.999	40412.00171
640.199	40556.84251
640.399	40393.38328
640.599	39653.49319
640.799	41383.50777
640.998	40892.25788
641.198	40538.21705
641.398	40190.70691
641.598	41008.27414
641.798	40641.70335
641.997	40745.21797
642.197	40825.97919
642.397	40975.12291
642.597	40674.82494
642.796	40691.38682
642.996	40786.6318
643.196	40799.05684
643.395	40380.97149
643.595	41006.2021
643.795	41481.00818
643.994	41035.21172
644.194	41116.03635
644.394	41288.10759
644.593	41441.5899
644.793	41242.49037
644.992	41091.16533
645.192	41572.30944
645.392	41213.46423
645.591	41350.32222
645.791	41234.19695
645.99	41155.41894
646.19	40844.61888
646.389	41186.51348
646.589	41064.22363
646.788	41283.96033
646.987	41416.6964
647.187	41707.22958
647.386	41705.1535
647.586	41682.31734
647.785	41424.99404
647.984	41850.50949
648.184	41819.35666
648.383	41518.35585
648.582	41420.8452
648.782	41582.68607
648.981	41093.23785
649.18	41607.59124
649.38	41522.50583
649.579	41514.20591
649.778	41962.68288
649.977	42272.38866
650.177	41840.1249
650.376	41620.04449
650.575	41754.983
650.774	41732.1436
650.973	41601.36479
651.173	40964.76377
651.372	40819.76617
651.571	41257.00431
651.77	41568.15887
651.969	41259.07778
652.168	41526.65586
652.367	41678.16548
652.566	41435.36637
652.765	41771.59442
652.964	41835.97116
653.163	42031.25126
653.362	41736.29611
653.561	41342.02631
653.76	41765.36505
653.959	41765.36505
654.158	42118.53994
654.357	41719.68637
654.556	41570.23415
654.755	41302.62337
654.954	41402.176
655.153	41298.47595
655.352	41227.97701
655.551	41802.74297
655.749	41609.66675
655.948	41603.44026
656.147	41348.24822
656.346	41910.74623
656.545	41346.17424
656.743	41201.02517
656.942	41543.25648
657.141	42035.40736
657.34	42534.5085
657.538	41856.74039
657.737	41900.35983
657.936	42166.35033
658.135	41346.17424
658.333	41605.51575
658.532	41960.60526
658.731	41759.13578
658.929	41894.12815
659.128	41553.63226
659.326	41792.35981
659.525	42341.01938
659.724	42249.51484
659.922	42131.01157
660.121	42180.90265
660.319	41991.77082
660.518	41734.21985
660.716	41620.04449
660.915	42093.59804
661.113	42569.88956
661.312	42187.13955
661.51	42503.29303
661.709	42272.38866
661.907	41698.92531
662.105	42193.37657
662.304	42255.753
662.502	41919.05557
662.701	42334.77964
662.899	41393.87888
663.097	41744.60127
663.296	42068.65797
663.494	42066.57971
663.692	41682.31734
663.891	41615.89336
664.089	41516.28087
664.287	41561.93311
664.485	41597.21387
664.684	42133.09022
664.882	41711.3818
665.08	41599.28932
665.278	41493.45697
665.476	41555.70745
665.675	41923.21031
665.873	42241.19748
666.071	42320.22072
666.269	41701.00136
666.467	40873.6158
666.665	41350.32222
666.863	41172.00236
667.061	41331.6567
667.259	41514.20591
667.457	41636.6495
667.655	41387.65618
667.853	41694.77324
668.051	40670.68458
668.249	40921.25853
668.447	40542.35596
668.645	40759.71229
668.843	41306.77085
669.041	41532.881
669.239	41238.34364
669.437	41532.881
669.635	41568.15887
669.833	41211.39103
670.031	40765.92431
670.229	41165.78349
670.426	40710.01981
670.624	41308.8446
670.822	41472.70923
671.02	41412.54765
671.218	41547.40676
671.415	41084.94784
671.613	41655.33108
671.811	41919.05557
672.009	41449.88813
672.206	41946.0623
672.404	41348.24822
672.602	41223.83044
672.799	41516.28087
672.997	41968.9158
673.195	41489.30732
673.392	41898.28259
673.59	41252.85741
673.788	41099.45548
673.985	40596.16591
674.183	41089.09282
674.38	41024.85088
674.578	41391.80464
674.775	40846.69001
674.973	41010.34619
675.17	41381.43358
675.368	40554.77297
675.565	40685.17603
675.763	40979.26665
675.96	40670.68458
676.158	40921.25853
676.355	40517.52316
676.553	41433.29188
676.75	40927.47325
676.947	41342.02631
677.145	40832.19231
677.342	40917.11544
677.539	40476.13875
677.737	40983.41044
677.934	40776.27791
678.131	41099.45548
678.329	41227.97701
678.526	41248.71056
678.723	41487.23252
678.92	41418.77079
679.118	40480.27699
679.315	40598.23567
679.512	40792.84427
679.709	40815.62421
679.906	40443.03443
680.104	40469.93147
680.301	40623.07374
680.498	39626.65103
680.695	40314.78198
680.892	40540.2865
681.089	40343.7385
681.286	40587.88696
681.483	39719.5736
681.68	40318.9185
681.877	39926.14333
682.075	40215.51879
682.272	39618.39225
682.469	40352.01219
682.665	39709.24784
682.862	39798.05781
683.059	39882.75501
683.256	39482.14586
683.453	39271.66908
683.65	39024.17967
683.847	39207.72097
684.044	39395.46644
684.241	39653.49319
684.438	40157.62684
684.635	39131.40803
684.831	40097.67626
685.028	39651.42835
685.225	39657.62291
685.422	39403.72086
685.619	39601.87518
685.815	39500.72232
686.012	39686.53208
686.209	39426.42135
686.405	39948.8724
686.602	39009.74705
686.799	38737.6752
686.996	39537.87769
687.192	39308.80456
687.389	39312.93092
687.586	39271.66908
687.782	39182.96937
687.979	39088.10115
688.175	38929.34524
688.372	38692.34556
688.568	38560.50245
688.765	38867.50742
688.962	39129.3457
689.158	39331.50003
689.355	39700.98742
689.551	39228.34837
689.748	38869.56855
689.944	38548.14404
690.14	38628.47944
690.337	39207.72097
690.533	39620.45693
690.73	39222.16004
690.926	38968.51356
691.123	38443.11051
691.319	38406.04533
691.515	38828.34781
691.712	38336.04105
691.908	38719.13072
692.104	38309.27735
692.301	38813.92143
692.497	38385.45479
692.693	38669.68239
692.889	38568.74156
693.086	37895.65147
693.282	38268.10528
693.478	38484.29739
693.674	38313.39475
693.87	38535.78596
694.067	38212.52842
694.263	38789.19154
694.459	38587.2801
694.655	38677.92342
694.851	38311.33604
695.047	38659.38131
695.243	38554.32321
695.439	37982.05299
695.635	37796.92437
695.831	37817.49099
696.027	38509.01121
696.224	37624.19603
696.42	38037.60447
696.615	38389.57283
696.811	38558.44269
697.007	38290.74949
697.203	37854.51292
697.399	37661.20458
697.595	37430.96967
697.791	37498.79677
697.987	36985.15474
698.183	37840.1152
698.379	37161.79648
698.575	37873.02487
698.77	37720.8348
698.966	38121.97198
699.162	37761.96295
699.358	37729.06017
699.554	37147.4167
699.749	37550.18645
699.945	36705.91874
700.141	37110.44174
700.337	36993.36948
700.532	37416.58315
700.728	37836.00163
700.924	37920.33615
701.119	37453.57779
701.315	37124.82062
701.511	36866.05343
701.706	37527.5744
701.902	36806.5114
702.097	36847.57426
702.293	36785.98098
702.489	36833.20195
702.684	36679.23356
702.88	36623.81406
703.075	37149.47094
703.271	37186.44835
703.466	37135.09146
703.662	37484.40851
703.857	36985.15474
704.053	36864.00016
704.248	37020.06816
704.443	37184.39399
704.639	36779.82199
704.834	36527.35435
705.03	36773.66305
705.225	36917.38737
705.42	36264.72639
705.616	37348.76596
705.811	36740.81642
706.006	37141.25405
706.202	36342.68345
706.397	36738.76356
706.592	37013.90683
706.787	36777.769
706.983	37104.27947
707.178	37461.79915
707.373	36855.78716
707.568	36572.50393
707.763	36322.16758
707.959	36958.4576
708.154	36744.92215
708.349	36236.00758
708.544	36681.28623
708.739	36441.16827
708.934	36728.49937
709.129	36777.769
709.324	36227.80242
709.519	37161.79648
709.714	36250.36684
709.909	36993.36948
710.104	36217.54611
710.299	35948.88339
710.494	36170.36902
710.689	36461.68776
710.884	36658.70726
711.079	36178.5735
711.274	36223.69988
711.469	36147.80717
711.664	35957.08536
711.859	35688.5173
712.054	36430.90877
712.249	36449.37599
712.443	36106.78747
712.638	35961.18638
712.833	35415.94332
713.028	35829.96497
713.223	35475.36892
713.417	35463.07362
713.612	35545.04582
713.807	36006.2991
714.002	35655.72153
714.196	35934.53016
714.391	35590.13407
714.586	35704.91571
714.78	36076.02424
714.975	36162.16463
715.17	34979.59916
715.364	35075.86309
715.559	35045.13945
715.754	35094.29778
715.948	35520.45329
716.143	35704.91571
716.337	35639.32415
716.532	35836.11546
716.726	35258.17858
716.921	35032.85029
717.115	34721.57902
717.31	35100.44276
717.504	35032.85029
717.699	35163.94338
717.893	35333.98394
718.088	35155.7495
718.282	35020.56129
718.476	35079.95966
718.671	34952.97476
718.865	34797.33959
719.059	34924.30319
719.254	35127.0715
719.448	34731.81659
719.642	35069.71828
719.837	34209.83151
720.031	34746.14937
720.225	34633.54032
720.419	34879.24963
720.614	34791.19662
720.808	34869.01049
721.002	34320.34799
721.196	34819.86415
721.39	34281.46129
721.585	34752.29205
721.779	34844.437
721.973	34457.48599
722.167	33999.06164
722.361	34044.07721
722.555	34434.96958
722.749	33884.48424
722.943	33894.71392
723.137	33857.88747
723.331	33876.30056
723.525	34062.49318
723.719	33890.62204
723.913	34760.48236
724.107	33898.80582
724.301	34277.36804
724.495	34510.70853
724.689	34379.70406
724.883	34064.53941
725.077	34130.02088
725.271	33861.97924
725.465	33749.46039
725.659	33628.76948
725.853	34134.11359
726.046	33837.4288
726.24	33262.67205
726.434	33279.0319
726.628	33485.59127
726.822	33148.15816
727.015	33534.67921
727.209	33229.95289
727.403	33473.31956
727.596	33759.68896
727.79	33945.86363
727.984	34037.93862
728.177	33997.01552
728.371	33407.87229
728.565	33434.45987
728.758	33571.49635
728.952	34058.40071
729.146	33853.79571
729.339	34082.9557
729.533	33546.95148
729.726	33802.64986
729.92	33712.63823
730.113	33395.60127
730.307	33399.6916
730.5	33142.02374
730.694	33074.54672
730.887	32913.02273
731.081	33137.93414
731.274	33221.77321
731.468	32455.11593
731.661	32888.48887
731.854	32684.05419
732.048	32929.37884
732.241	33268.80697
732.435	33962.23199
732.628	34089.09452
732.821	33771.96335
733.014	33424.23381
733.208	33099.08347
733.401	33338.33793
733.594	32960.047
733.788	32733.11625
733.981	32980.49276
734.174	33315.84225
734.367	32931.42336
734.56	33029.56368
734.754	33037.74232
734.947	32888.48887
735.14	33064.32319
735.333	32929.37884
735.526	32585.93421
735.719	32238.46823
735.912	32739.24911
736.105	32481.68764
736.298	32416.28104
736.491	32085.19412
736.684	32289.5622
736.877	32567.53732
737.07	32608.41956
737.263	32972.31442
737.456	33215.63849
737.649	32532.78815
737.842	33035.69766
738.035	33007.07266
738.228	32639.08185
738.421	33217.68339
738.614	33064.32319
738.807	32949.82421
739	32357.00829
739.192	32432.63248
739.385	32385.62249
739.578	32651.34692
739.771	33109.30724
739.964	33189.05496
740.156	33047.96568
740.349	32575.71369
740.542	33099.08347
740.735	32526.65601
740.927	32610.46369
741.12	32526.65601
741.313	32244.59944
741.505	32530.7441
741.698	32455.11593
741.891	32747.42629
742.083	33146.11335
742.276	33172.69611
742.468	32992.76035
742.661	32571.6255
742.854	32471.46771
743.046	32849.64435
743.239	32189.41926
743.431	32641.12602
743.624	31709.20825
743.816	32506.21571
744.009	32845.55551
744.201	31968.71335
744.393	32013.67008
744.586	31893.1064
744.778	31917.62729
744.971	32397.88585
745.163	32134.24058
745.355	32027.9747
745.548	32162.85156
745.74	32077.01982
745.932	32463.2918
746.125	32332.48216
746.317	31768.4627
746.509	31398.65701
746.702	31954.40913
746.894	31245.43849
747.086	31155.55436
747.278	31478.33421
747.471	31459.94694
747.663	31725.55415
747.855	31929.88783
748.047	31186.19635
748.239	31598.87632
748.431	31686.73281
748.623	31848.15214
748.815	31586.61753
749.008	31754.15976
749.2	31715.33795
749.392	31406.82892
749.584	30943.1124
749.776	30904.30258
749.968	31186.19635
750.16	30941.06977
750.352	31012.56285
750.544	30822.59932
750.736	31239.30993
750.928	31758.24631
751.12	31200.49606
751.311	30679.62386
751.503	31114.6989
751.695	31018.69091
751.887	30883.87655
752.079	30996.22142
752.271	30379.39616
752.463	31067.71587
752.654	30412.07269
752.846	30620.39308
753.038	30767.45086
753.23	30787.8761
753.421	30775.62094
753.613	30154.75342
753.805	30924.72874
753.997	30177.21705
754.188	30426.36877
754.38	29644.25349
754.572	29299.19404
754.763	29666.71403
754.955	29462.53202
755.146	29834.15133
755.338	29664.67216
755.53	29472.74087
755.721	29960.75519
755.913	29899.49472
756.104	30081.23708
756.296	30187.42784
756.487	30242.56659
756.679	30193.55432
756.87	29811.6898
757.062	29903.57872
757.253	29946.46099
757.445	29834.15133
757.636	29556.45442
757.827	29858.65497
758.019	29470.6991
758.21	29456.40673
758.401	29613.62568
758.593	29542.16174
758.784	29419.65515
758.975	29340.02791
759.167	29364.52843
759.358	30022.01668
759.549	29621.79307
759.74	29125.65477
759.932	29301.23572
760.123	29001.11945
760.314	28876.58799
760.505	28533.63615
760.696	28480.56292
760.888	29293.069
761.079	28364.21259
761.27	28321.34756
761.461	28852.09045
761.652	29172.61171
761.843	28956.20602
762.034	28521.38842
762.225	28233.5778
762.416	28435.65536
762.607	28160.09769
762.798	28337.67704
762.989	28478.52166
763.18	28570.37957
763.371	28158.05659
763.562	28162.13878
763.753	28268.27723
763.944	28766.35025
764.135	28147.85114
764.326	28233.5778
764.517	28160.09769
764.708	28409.11932
764.899	27747.81965
765.089	27637.61474
765.28	27296.81852
765.471	27231.52031
765.662	26939.73575
765.853	27158.06144
766.043	26456.21355
766.234	27235.60141
766.425	27109.08983
766.615	27164.18295
766.806	27500.88392
766.997	27598.83977
767.187	27170.30447
767.378	27411.09358
767.569	27282.53442
767.759	27341.71181
767.95	27482.51752
768.141	27192.75014
768.331	26998.90657
768.522	27251.92586
768.712	27337.63058
768.903	27229.47976
769.093	26886.68706
769.284	26670.42181
769.474	26705.10474
769.665	26437.85365
769.855	26641.85972
770.046	26929.534
770.236	26309.33802
770.426	26503.13389
770.617	26925.45332
770.807	27327.42752
770.998	27005.02775
771.188	27084.60431
771.378	27202.95277
771.569	27019.31057
771.759	26607.17759
771.949	26144.11333
772.139	25934.02925
772.33	25787.18579
772.52	25581.21366
772.71	25830.01413
772.9	25621.99864
773.09	25699.49227
773.281	25746.39766
773.471	25552.66465
773.661	25980.93958
773.851	26148.19281
774.041	25232.53543
774.231	25503.7244
774.421	25155.0598
774.611	25352.83272
774.802	25295.74156
774.992	25346.71573
775.182	25517.99852
775.372	25199.91373
775.562	25238.65206
775.752	25208.0691
775.942	25165.25378
776.131	25728.04326
776.321	24773.84565
776.511	24802.38292
776.701	25242.72983
776.891	25193.79722
777.081	25173.40901
777.271	25312.05315
777.461	25397.69122
777.651	25479.25471
777.84	24922.65225
778.03	25310.01419
778.22	24804.42132
778.41	24924.69078
778.599	24906.34406
778.789	25083.70348
778.979	25171.3702
779.169	24464.04341
779.358	24604.67019
779.548	24623.0137
779.738	24663.77776
779.927	24724.92571
780.117	24967.50052
780.307	24712.69595
780.496	24394.75353
780.686	24798.30614
780.875	23838.50961
781.065	24466.08139
781.254	24211.35383
781.444	24270.44693
781.633	24174.6765
781.823	24142.07517
782.012	24107.43702
782.202	23950.55668
782.391	23702.02781
782.581	23583.89019
782.77	23956.66859
782.96	24032.05088
783.149	23661.28955
783.338	23598.14764
783.528	24042.23798
783.717	23944.4448
783.906	24058.53747
784.096	23455.5799
784.285	23647.03145
784.474	23612.40524
784.663	23649.06831
784.853	23858.88115
785.042	23341.53667
785.231	23390.41113
785.42	22930.25044
785.61	23482.05562
785.799	23162.34606
785.988	22873.25116
786.177	22472.29725
786.366	22728.7293
786.555	22614.75257
786.744	22926.17897
786.933	23131.8047
787.122	23634.81033
787.312	23541.11874
787.501	22997.43156
787.69	22449.913
787.879	22405.14583
788.068	22407.18066
788.257	22346.13723
788.445	22051.14073
788.634	22230.16379
788.823	22191.50864
789.012	22262.71653
789.201	22014.52596
789.39	22205.74986
789.579	22134.5456
789.768	22401.07617
789.957	22474.3322
790.145	22085.72247
790.334	22608.64698
790.523	22146.75172
790.712	22433.63383
790.9	22480.43708
791.089	22494.68192
791.278	22602.54143
791.467	22281.02787
791.655	22523.17214
791.844	22317.65142
792.033	22364.44992
792.221	21943.33409
792.41	22171.16436
792.599	21569.14588
792.787	22036.90151
792.976	22036.90151
793.164	22063.34593
793.353	22163.02676
793.541	21823.33554
793.73	22230.16379
793.918	21951.47007
794.107	21912.82472
794.295	21693.18281
794.484	21514.24896
794.672	21310.95234
794.861	21221.51454
795.049	21162.57118
795.238	21624.04567
795.426	21585.41218
795.614	21239.808
795.803	21605.74542
795.991	21225.57972
796.179	21146.31155
796.368	20965.44072
796.556	20851.65102
796.744	20337.72773
796.932	20382.40609
797.121	20569.26485
797.309	20800.85622
797.497	20957.31245
797.685	21113.79306
797.874	20581.45252
798.062	20378.34434
798.25	20094.06337
798.438	20713.49523
798.626	20754.1273
798.814	21193.0587
799.002	21117.85781
799.19	20626.14193
799.378	20707.40057
799.566	20654.58169
799.755	20758.19059
799.943	20908.54425
800.131	20733.81106
800.318	21054.85595
800.506	20776.47564
800.694	20624.11055
800.882	20368.19003
801.07	20555.04609
801.258	20823.20561
801.446	20496.14199
801.634	20236.19356
801.822	20575.35866
802.01	20644.42454
802.197	20741.9375
802.385	20433.17942
802.573	20597.70298
802.761	20540.82754
802.949	20607.85965
803.136	20045.33777
803.324	20538.79633
803.512	20609.891
803.699	20492.07976
803.887	20630.2047
804.075	20634.26749
804.262	20402.71511
804.45	20613.95371
804.638	20463.64468
804.825	20372.25174
805.013	20207.76587
805.201	20892.28871
805.388	20321.48156
805.576	20685.05378
805.763	20291.02071
805.951	20305.23565
806.138	20427.08648
806.326	20520.51567
806.513	20209.7964
806.701	20274.77531
806.888	20467.70678
807.075	20453.48949
807.263	20295.0821
807.45	20565.20232
807.638	20224.01016
807.825	20345.85092
808.012	20254.46893
808.2	20266.65271
808.387	20266.65271
808.574	20626.14193
808.761	20772.41227
808.949	21006.08302
809.136	20687.08528
809.323	20595.67166
809.51	20538.79633
809.698	20435.21041
809.885	19943.83388
810.072	20630.2047
810.259	20335.69694
810.446	20098.12395
810.633	20532.70274
810.82	20226.04072
811.008	20224.01016
811.195	20142.7914
811.382	19783.47915
811.569	20132.63953
811.756	19927.59423
811.943	20146.85218
812.13	20386.46786
812.317	20435.21041
812.504	20530.67155
812.691	20766.31724
812.878	20811.01497
813.064	20516.45335
813.251	20607.85965
813.438	20672.86483
813.625	20197.61333
813.812	20136.70027
813.999	19820.01336
814.186	19893.08587
814.372	19886.99629
814.559	19761.15335
814.746	19422.26934
814.933	20201.67433
815.12	20083.91201
815.306	20337.72773
815.493	20380.37521
815.68	20423.02455
815.866	20081.88175
816.053	20242.28531
816.24	19903.23526
816.426	20090.00282
816.613	19761.15335
816.799	19777.39024
816.986	19893.08587
817.173	19962.1038
817.359	20258.53018
817.546	19783.47915
817.732	19848.4298
817.919	19842.3405
818.105	19170.71778
818.292	19124.06597
818.478	19442.55852
818.665	19690.1201
818.851	19724.62132
819.037	19566.33155
819.224	19539.95239
819.41	19481.10912
819.597	19330.97314
819.783	19617.06268
819.969	19866.69795
820.156	19736.79851
820.342	20055.48874
820.528	20189.49137
820.714	19779.41987
820.901	19787.53844
821.087	19834.22148
821.273	20128.57881
821.459	19744.91673
821.646	19781.44951
821.832	19722.59181
822.018	19598.79918
822.204	19172.74617
822.39	19286.34248
822.576	19318.80094
822.762	19621.12129
822.948	19253.88508
823.134	19513.57394
823.32	18959.7876
823.507	19312.7149
823.693	19008.4599
823.879	19598.79918
824.065	19219.40024
824.25	19322.85832
824.436	19105.8115
824.622	19164.63264
824.808	18775.25946
824.994	18976.01144
825.18	18673.88437
825.366	19103.78325
825.552	18909.08975
825.738	19197.08715
825.923	19095.67027
826.109	19367.49061
826.295	19152.46247
826.481	19274.17083
826.667	19205.20095
826.852	19257.9422
827.038	19221.42873
827.224	19485.16716
827.409	19272.14224
827.595	18953.70373
827.781	18884.75568
827.966	18750.92854
828.152	18546.16571
828.338	18414.40855
828.523	18234.02857
828.709	18517.78587
828.894	18108.38797
829.08	18493.4609
829.266	18313.06783
829.451	18256.32112
829.637	17992.89196
829.822	17784.21771
830.008	17701.16333
830.193	17589.7577
830.378	17620.14007
830.564	17867.27781
830.749	17800.42411
830.935	18082.04575
831.12	17644.44649
831.305	18246.18809
831.491	18146.88924
831.676	18266.45425
831.861	17674.83019
832.047	17666.7278
832.232	17591.78317
832.417	18061.78291
832.602	17938.18737
832.788	17980.73516
832.973	18122.57249
833.158	18013.15358
833.343	18084.07205
833.528	17930.0832
833.714	17658.62546
833.899	18011.1274
834.084	17772.06306
834.269	18098.25627
834.454	17664.70221
834.639	17670.77899
834.824	17032.8708
835.009	17755.85704
835.194	17162.45366
835.379	17168.52814
835.564	16907.34804
835.749	17344.69945
835.934	17423.68017
836.119	17354.82492
836.304	17259.64845
836.489	17032.8708
836.674	16806.12727
836.859	16972.13271
837.044	17026.79688
837.228	17579.6304
837.413	17312.29845
837.598	17484.43777
837.783	16897.22568
837.968	16986.30471
838.152	16652.28343
838.337	17255.59853
838.522	16662.40432
838.707	16692.76733
838.891	16389.15953
839.076	16389.15953
839.261	16417.49426
839.445	17016.67374
839.63	16470.11695
839.815	16804.10292
839.999	16785.88387
840.184	16909.37252
840.368	16830.41968
840.553	16725.15512
840.737	16405.35076
840.922	16502.50083
841.106	16324.39586
841.291	16330.46738
841.475	16146.30536
841.66	16358.80132
841.844	16472.14092
842.029	16425.58997
842.213	16328.44354
842.397	16085.59565
842.582	15767.90212
842.766	15889.30995
842.951	15775.99585
843.135	16101.78477
843.319	15828.60552
843.504	15814.4413
843.688	15409.76823
843.872	15531.16702
844.056	15711.24646
844.241	15966.20384
844.425	15644.47467
844.609	15784.0896
844.793	15405.72163
844.977	15620.19426
845.161	15294.44086
845.346	15377.39552
845.53	15361.2092
845.714	15500.81713
845.898	15298.48742
846.082	15434.04783
846.266	15559.49372
846.45	15695.05927
846.634	15314.67366
846.818	15377.39552
847.002	15199.34699
847.186	15075.92743
847.37	15136.6256
847.554	15599.96067
847.738	15492.72385
847.922	15660.66168
848.106	15616.14754
848.29	15401.67504
848.473	15466.42075
848.657	14926.20443
848.841	15142.69541
849.025	15071.88088
849.209	14942.39079
849.392	14863.48198
849.576	14744.10536
849.76	14566.04651
849.944	14600.44487
850.127	14750.17542
850.311	14861.45867
850.495	14988.92644
850.678	14916.08794
850.862	15239.81243
851.046	14920.13454
851.229	14859.43536
851.413	14531.6478
851.596	14671.26404
851.78	14284.77444
851.964	14495.22524
852.147	14272.6325
852.331	14226.08777
852.514	14183.58952
852.698	14128.94757
852.881	14086.4472
853.065	14661.14709
853.248	14175.49451
853.431	14045.96973
853.615	13960.96392
853.798	14369.76626
853.982	14472.9668
854.165	14270.60883
854.348	13865.833
854.532	14114.78089
854.715	13849.63991
854.898	13882.02592
855.081	13641.13675
855.265	13956.91591
855.448	13677.5766
855.631	13960.96392
855.814	13626.96541
855.997	13845.59161
856.181	14060.13695
856.364	13882.02592
856.547	13782.84145
856.73	13890.12231
856.913	13560.1554
857.096	13687.69859
857.279	13430.5733
857.462	13341.47647
857.645	13228.06894
857.828	13414.37445
858.011	13187.56295
858.194	13171.36004
858.377	13033.62331
858.56	13078.18761
858.743	12938.40969
858.926	13066.03394
859.109	12926.25394
859.292	12968.79823
859.475	12812.79107
859.658	12899.91584
859.841	12634.45671
860.023	12674.99122
860.206	12681.07119
860.389	12790.5017
860.572	12683.09784
860.755	12571.6234
860.937	12723.6295
861.12	12409.44481
861.303	12656.75099
861.486	12681.07119
861.668	12273.58731
861.851	12666.88451
862.034	12121.47004
862.216	12689.17774
862.399	12093.07017
862.581	12269.53138
862.764	12155.9536
862.947	12111.3274
863.129	11817.10508
863.312	12024.09279
863.494	11823.19418
863.677	12166.09541
863.859	12032.20824
864.042	12281.69909
864.224	12374.97643
864.406	12222.88613
864.589	11715.6086
864.771	11969.31016
864.954	11530.82785
865.136	11675.00388
865.318	11179.32256
865.501	11345.96921
865.683	11329.71402
865.865	11451.61254
866.048	11234.20166
866.23	11250.46068
866.412	11167.12617
866.594	11203.71421
866.777	11185.42062
866.959	11589.72224
867.141	11431.29857
867.323	11486.14407
867.505	11471.92554
867.687	11528.79686
867.869	11461.76916
868.052	11534.88978
868.234	11589.72224
868.416	11636.42607
868.598	11490.20642
868.78	11603.93697
868.962	11536.92073
869.144	11534.88978
869.326	11063.44133
869.508	11345.96921
869.69	11250.46068
869.872	11528.79686
870.054	11091.90662
870.236	11110.20462
870.417	10906.84355
870.599	11285.00891
870.781	11051.24127
870.963	11350.03291
871.145	11114.27072
871.327	11435.36144
871.508	11061.40802
871.69	10813.25954
871.872	10784.77256
872.054	11317.5222
872.235	10914.98014
872.417	10992.26871
872.599	10949.55862
872.78	11337.8417
872.962	11061.40802
873.144	11081.74069
873.325	10880.39837
873.507	11085.8071
873.689	10890.56982
873.87	10933.2868
874.052	10894.63832
874.233	11185.42062
874.415	11421.14122
874.596	11390.66771
874.778	10845.81328
874.959	10910.91187
875.141	10805.12064
875.322	11146.798
875.503	10801.05112
875.685	11276.88018
875.866	10894.63832
876.048	10923.11655
876.229	10717.61549
876.41	10774.59808
876.592	10617.87318
876.773	10941.4228
876.954	10509.95522
877.136	10902.77519
877.317	10772.56315
877.498	10821.39826
877.679	10469.22225
877.86	10829.53678
878.042	10558.8281
878.223	10837.67512
878.404	10522.17413
878.585	10668.76577
878.766	10438.66914
878.947	10896.67255
879.128	10562.90051
879.309	10605.65781
879.49	10868.19225
879.672	11183.38794
879.853	10973.96499
880.034	11150.86372
880.215	10829.53678
880.396	11138.66644
880.576	10801.05112
880.757	11268.75129
880.938	10735.93234
881.119	10943.45677
881.3	11016.67228
881.481	11203.71421
881.662	11211.84443
881.843	11520.67284
882.023	11197.61644
882.204	11022.77292
882.385	10803.08588
882.566	10526.24699
882.747	10621.94487
882.927	10992.26871
883.108	10998.36976
883.289	10978.03256
883.469	10923.11655
883.65	11095.97292
883.831	11238.26648
884.011	11555.19889
884.192	11587.69153
884.373	11323.61816
884.553	11219.97448
884.734	11480.05047
884.914	11230.1368
885.095	11522.70386
885.275	11010.57154
885.456	11325.65012
885.636	11104.10538
885.817	11343.93735
885.997	11238.26648
886.178	11093.93978
886.358	10919.04836
886.538	10951.59254
886.719	11053.27464
886.899	11211.84443
887.08	11047.17449
887.26	11039.04081
887.44	11140.69935
887.621	11207.77934
887.801	10784.77256
887.981	11016.67228
888.161	10853.95125
888.342	10888.53555
888.522	10862.08903
888.702	11207.77934
888.882	11063.44133
889.062	11156.96222
889.242	10862.08903
889.423	10872.261
889.603	11063.44133
889.783	11475.98802
889.963	11116.30376
890.143	11256.55764
890.323	11030.90695
890.503	11140.69935
890.683	11028.87346
890.863	10768.49325
891.043	10740.00262
891.223	11075.641
891.403	10813.25954
891.583	10829.53678
891.763	10599.54996
891.943	10967.86355
892.122	10782.73769
892.302	10711.50966
892.482	10365.32978
892.662	10750.17811
892.842	10414.22457
893.022	11006.50432
893.201	10980.06633
893.381	11073.60775
893.561	10699.29766
893.741	11240.29887
893.92	10996.33609
894.1	11293.13748
894.28	11264.68678
894.459	11075.641
894.639	10870.22663
894.819	10961.76201
894.998	10719.65074
895.178	10776.633
895.357	10591.40599
895.537	10719.65074
895.716	10611.76555
895.896	10664.69464
896.075	10522.17413
896.255	10573.08132
896.434	10495.69926
896.614	10670.80131
896.793	10332.72904
896.973	10717.61549
897.152	10397.92714
897.331	10691.15609
897.511	10623.9807
897.69	10503.8456
897.87	10324.57832
898.049	10605.65781
898.228	10573.08132
898.407	11032.94043
898.587	10923.11655
898.766	10764.4233
898.945	10257.32675
899.124	10670.80131
899.304	10719.65074
899.483	10701.33302
899.662	10389.77811
899.841	10349.02983
900.02	10014.68938
900.199	10071.79836
900.378	9722.84734
900.557	9943.28733
900.737	9616.64653
900.916	9739.18223
901.095	9502.22918
901.274	9884.11214
901.453	9847.37648
901.632	9896.35629
901.811	9918.80254
901.989	9804.51211
902.168	9747.34932
902.347	9877.98986
902.526	9741.22403
902.705	9818.80097
902.884	9692.21677
903.063	10312.35185
903.242	9808.59472
903.42	10010.60974
903.599	9508.35994
903.778	9250.74211
903.957	9228.23921
904.135	9700.38526
904.314	9500.18556
904.493	9698.34316
904.672	9361.18162
904.85	9765.72437
905.029	9541.05491
905.207	9826.9657
905.386	9547.18477
905.565	9833.08909
905.743	9606.43271
905.922	9696.30105
906.1	9258.92448
906.279	9492.01093
906.457	9203.68827
906.636	9496.09828
906.814	9211.87219
906.993	9222.1017
907.171	8996.95351
907.35	9134.11399
907.528	9103.41317
907.707	9066.56707
907.885	8982.6188
908.063	9195.50408
908.242	8990.81017
908.42	8972.37919
908.598	8589.09455
908.777	9041.99988
908.955	8853.5673
909.133	8960.09108
909.311	8607.55612
909.49	8765.44363
909.668	8509.07677
909.846	8601.40243
910.024	8457.76815
910.202	8757.24437
910.38	8164.05023
910.559	8369.48929
910.737	8053.03057
910.915	8281.17458
911.093	8108.54772
911.271	8277.06604
911.449	7974.8703
911.627	8131.16161
911.805	7999.55567
911.983	8320.2018
912.161	7894.62251
912.339	8038.63483
912.517	7884.33207
912.695	8122.93866
912.872	7511.46553
913.05	7816.40218
913.228	7958.41176
913.406	7886.3902
913.584	8139.38425
913.762	8053.03057
913.939	7962.52652
914.117	7707.25512
914.295	7464.03478
914.473	7509.40356
914.65	7464.03478
914.828	7595.98779
915.006	7521.77505
915.184	7536.20748
915.361	7199.86199
915.539	7525.89871
915.716	7383.58257
915.894	7571.25329
916.072	7478.47144
916.249	7451.65967
916.427	7488.78268
916.604	7674.29347
916.782	7241.1627
916.959	7470.22205
917.137	7472.28443
917.314	7871.98286
917.492	7346.43962
917.669	7251.48649
917.847	6883.61627
918.024	6984.95482
918.201	6885.68495
918.379	6956.00648
918.556	7011.83146
918.733	7199.86199
918.911	6873.27255
919.088	7119.3001
919.265	6539.89912
919.442	6864.99716
919.62	6753.24375
919.797	6960.14223
919.974	6488.0795
920.151	6732.54137
920.328	6786.36281
920.506	7009.76416
920.683	6614.49396
920.86	6353.28053
921.037	6280.65567
921.214	6740.8226
921.391	6305.55885
921.568	6641.42363
921.745	6322.1591
921.922	6438.31902
922.099	6313.85916
922.276	6469.42089
922.453	6075.07563
922.63	6324.23402
922.807	6087.54158
922.984	6315.93418
923.161	5908.78196
923.338	6091.69671
923.514	5684.04605
923.691	5838.06146
923.868	5636.15008
924.045	5975.31753
924.222	5598.65756
924.399	5948.29037
924.575	5534.06922
924.752	5971.15976
924.929	5675.71722
925.105	5690.29244
925.282	5509.0612
925.459	5715.27584
925.635	5761.06991
925.812	5811.01406
925.989	5486.13421
926.165	5450.69598
926.342	5252.53391
926.518	5461.11969
926.695	5139.80033
926.871	5377.71353
927.048	5123.09328
927.224	5329.73798
927.401	4849.30495
927.577	5233.7497
927.754	5089.67473
927.93	5135.6237
928.107	4503.90114
928.283	4981.0235
928.459	4757.25726
928.636	5035.35693
928.812	4566.74719
928.988	4782.36554
929.165	4503.90114
929.341	4730.05295
929.517	4663.07222
929.693	4782.36554
929.87	4434.74753
930.046	4640.04228
930.222	4279.58944
930.398	4562.55807
930.574	4080.22826
930.751	4430.55563
930.927	4132.71016
931.103	4302.66097
931.279	3893.28814
931.455	4162.09431
931.631	4019.33299
931.807	4235.53658
931.983	3975.22562
932.159	4355.08658
932.335	3853.3588
932.511	3962.62186
932.687	3840.74805
932.863	3952.11816
933.039	3596.80216
933.215	3886.98399
933.391	3701.98302
933.566	3916.40182
933.742	3571.55174
933.918	3657.81284
934.094	3407.35971
934.27	3577.8646
934.445	3211.45205
934.621	3407.35971
934.797	3009.07485
934.973	3179.84037
935.148	3093.41646
935.324	3259.91605
935.5	2876.18776
935.675	2855.08926
935.851	2741.13331
936.027	2994.31254
936.202	2441.29366
936.378	2694.69557
936.553	2367.35414
936.729	2477.20243
936.904	2217.32542
937.08	2301.85449
937.255	2008.05906
937.431	2265.93142
937.606	2033.42853
937.782	2018.62979
937.957	1826.21932
938.133	1876.96933
938.308	1767.00769
938.483	1654.92065
938.659	1544.9415
938.834	1547.05652
939.009	1445.53442
939.185	1445.53442
939.36	1356.70265
939.535	1415.92371
939.71	1242.49396
939.886	1449.76452
940.061	1215.00033
940.236	1310.17248
940.411	978.16178
940.586	1081.77092
940.761	969.70455
940.937	973.93315
941.112	809.04035
941.287	904.16489
941.462	800.58571
941.637	950.67619
941.812	825.95009
941.987	969.70455
942.162	775.2227
942.337	893.59466
942.512	815.38144
942.687	694.9162
942.862	732.95422
943.037	713.93477
943.212	580.82481
943.386	758.31482
943.561	570.26265
943.736	726.61431
943.911	665.33358
944.086	585.04977
944.26	682.23766
944.435	688.57688
944.61	585.04977
944.785	597.72496
944.959	513.23285
945.134	739.29423
945.309	642.09171
945.483	711.82155
945.658	597.72496
945.833	623.07671
946.007	519.56899
946.182	682.23766
946.357	582.93728
946.531	610.4006
946.706	530.12951
946.88	658.99475
947.055	608.28796
947.229	730.84091
947.404	652.65602
947.578	658.99475
947.752	597.72496
947.927	751.97453
948.101	749.86112
948.276	728.7276
948.45	697.02933
948.624	682.23766
948.799	650.54313
948.973	768.88217
949.147	787.90403
949.321	918.96355
949.496	705.48196
949.67	893.59466
949.844	678.01157
950.018	792.13122
950.193	709.70835
950.367	768.88217
950.541	652.65602
950.715	678.01157
950.889	699.14248
951.063	891.48064
951.237	749.86112
951.411	819.60887
951.585	762.54173
951.759	885.13862
951.933	804.81301
952.107	935.87675
952.281	749.86112
952.455	830.17761
952.629	809.04035
952.803	773.10918
952.977	838.63277
953.151	893.59466
953.325	739.29423
953.499	891.48064
953.672	694.9162
953.846	817.49515
954.02	817.49515
954.194	853.42963
954.368	876.6827
954.541	957.01892
954.715	745.63433
954.889	986.61912
955.062	618.85129
955.236	880.91064
955.41	817.49515
955.583	887.25261
955.757	787.90403
955.93	952.79042
956.104	804.81301
956.278	842.8604
956.451	749.86112
956.625	735.06755
956.798	707.59515
956.972	855.54351
957.145	692.80309
957.319	796.35845
957.492	825.95009
957.665	825.95009
957.839	777.33623
958.012	823.83634
958.185	684.35073
958.359	777.33623
958.532	794.24483
958.705	880.91064
958.879	783.67688
959.052	716.048
959.225	642.09171
959.398	893.59466
959.572	732.95422
959.745	836.51897
959.918	737.18088
960.091	792.13122
960.264	656.88183
960.438	722.38775
960.611	606.17534
960.784	760.42827
960.957	572.37505
961.13	834.40517
961.303	726.61431
961.476	665.33358
961.649	585.04977
961.822	800.58571
961.995	599.83753
962.168	768.88217
962.341	580.82481
962.514	705.48196
962.686	572.37505
962.859	667.44655
963.032	555.47618
963.205	559.70082
963.378	631.5277
963.551	576.59991
963.723	652.65602
963.896	701.25563
964.069	553.36388
964.242	726.61431
964.414	783.67688
964.587	735.06755
964.76	631.5277
964.932	496.33711
965.105	559.70082
965.278	574.48747
965.45	521.68107
965.623	639.97888
965.795	585.04977
965.968	678.01157
966.14	582.93728
966.313	741.40759
966.485	582.93728
966.658	523.79316
966.83	490.00145
967.003	749.86112
967.175	521.68107
967.348	538.57818
967.52	523.79316
967.692	513.23285
967.865	485.77775
968.037	521.68107
968.209	574.48747
968.382	521.68107
968.554	496.33711
968.726	534.35382
968.898	589.27478
969.071	555.47618
969.243	513.23285
969.415	555.47618
969.587	487.88959
969.759	502.6729
969.932	515.34488
970.104	530.12951
970.276	428.76371
970.448	504.78487
970.62	504.78487
970.792	551.2516
970.964	487.88959
971.136	462.54846
971.308	504.78487
971.48	509.00883
971.652	403.4278
971.824	460.4368
971.996	479.44231
972.168	403.4278
972.339	384.42741
972.511	405.53904
972.683	407.65029
972.855	528.01738
973.027	409.76156
973.199	468.88354
973.37	361.20655
973.542	361.20655
973.714	346.43071
973.886	416.09547
974.057	262.01407
974.229	447.76714
974.401	371.76124
974.572	369.65026
974.744	416.09547
974.915	397.09419
975.087	238.8047
975.259	449.87871
975.43	321.10269
975.602	344.31995
975.773	344.31995
975.945	285.22573
976.116	272.56455
976.288	359.09566
976.459	369.65026
976.63	386.5385
976.802	337.98775
976.973	335.87706
977.145	287.336
977.316	268.3443
977.487	196.6119
977.659	312.66058
977.83	276.78487
978.001	230.36551
978.172	270.45441
978.344	302.10835
978.515	299.99796
978.686	270.45441
978.857	323.21326
979.028	268.3443
979.2	221.92663
979.371	318.99213
979.542	255.68401
979.713	293.6669
979.884	194.50247
980.055	196.6119
980.226	243.02442
980.397	302.10835
980.568	249.35413
980.739	306.32919
980.91	167.08173
981.081	245.1343
981.252	224.03632
981.423	251.46407
981.594	243.02442
981.765	331.65572
981.936	234.58507
982.106	221.92663
982.277	230.36551
982.448	209.26891
982.619	186.06495
982.79	289.44628
982.96	234.58507
983.131	236.69488
983.302	209.26891
983.472	200.83082
983.643	217.70731
983.814	207.15936
983.984	139.6645
984.155	236.69488
984.326	200.83082
984.496	116.46812
984.667	217.70731
984.837	211.37848
985.008	211.37848
985.178	171.30008
985.349	167.08173
985.519	249.35413
985.69	120.68545
985.86	145.99124
986.031	118.57677
986.201	124.90287
986.371	133.33796
986.542	129.12037
986.712	150.20917
986.882	143.8823
987.053	103.81665
987.223	137.55563
987.393	262.01407
987.563	145.99124
987.734	116.46812
987.904	226.14603
988.074	179.73703
988.244	251.46407
988.414	169.1909
988.585	194.50247
988.755	145.99124
988.925	200.83082
989.095	49.00291
989.265	133.33796
989.435	156.53622
989.605	194.50247
989.775	139.6645
989.945	150.20917
990.115	124.90287
990.285	135.44678
990.455	116.46812
990.625	110.14229
990.795	152.31817
990.965	160.75436
991.134	93.27437
991.304	120.68545
991.474	118.57677
991.644	101.70815
991.814	116.46812
991.984	116.46812
992.153	74.29967
992.323	40.5714
992.493	95.38278
992.662	116.46812
992.832	57.4348
993.002	133.33796
993.171	19.49425
993.341	76.40788
993.511	99.59967
993.68	158.64528
993.85	99.59967
994.019	59.54283
994.189	112.25088
994.358	42.67924
994.528	145.99124
994.697	40.5714
994.867	105.92518
995.036	108.03372
995.206	133.33796
995.375	169.1909
995.544	164.97259
995.714	118.57677
995.883	103.81665
996.052	133.33796
996.222	82.73264
996.391	59.54283
996.56	70.08331
996.73	84.84094
996.899	99.59967
997.068	93.27437
997.237	93.27437
997.406	61.65088
997.576	116.46812
997.745	67.97517
997.914	139.6645
998.083	99.59967
998.252	57.4348
998.421	86.94927
998.59	0.52684
998.759	80.62436
998.928	91.16598
999.097	67.97517
999.266	65.86705
999.435	59.54283
999.604	99.59967
999.773	59.54283
999.942	21.60186
1000.111	23.70949
1000.28	0.52684
1000.448	40.5714
1000.617	34.24801
1000.786	57.4348
1000.955	67.97517
1001.124	91.16598
1001.292	91.16598
1001.461	86.94927
1001.63	86.94927
1001.798	34.24801
1001.967	57.4348
1002.136	91.16598
1002.304	82.73264
1002.473	91.16598
1002.642	82.73264
1002.81	72.19148
1002.979	57.4348
1003.147	65.86705
1003.316	93.27437
1003.484	40.5714
1003.653	25.81715
1003.821	61.65088
1003.99	15.2791
1004.158	6.8491
1004.327	78.51611
1004.495	80.62436
1004.663	40.5714
1004.832	76.40788
1005	53.21881
1005.168	36.35578
1005.337	91.16598
1005.505	21.60186
1005.673	70.08331
1005.842	86.94927
1006.01	19.49425
1006.178	49.00291
1006.346	76.40788
1006.514	34.24801
1006.683	59.54283
1006.851	93.27437
1007.019	74.29967
1007.187	59.54283
1007.355	15.2791
1007.523	49.00291
1007.691	67.97517
1007.859	49.00291
1008.027	44.78711
1008.195	-43.72279
1008.363	42.67924
1008.531	-26.86706
1008.699	103.81665
1008.867	72.19148
1009.035	-41.61591
1009.203	8.95656
1009.37	82.73264
1009.538	72.19148
1009.706	67.97517
1009.874	-22.65289
1010.042	84.84094
1010.209	61.65088
1010.377	72.19148
1010.545	44.78711
1010.713	23.70949
1010.88	-1.58052
1011.048	55.32679
1011.216	-7.90249
1011.383	84.84094
1011.551	-14.22423
1011.718	36.35578
1011.886	19.49425
1012.054	2.63424
1012.221	86.94927
1012.389	55.32679
1012.556	19.49425
1012.724	82.73264
1012.891	32.14026
1013.058	15.2791
1013.226	72.19148
1013.393	86.94927
1013.561	6.8491
1013.728	63.75895
1013.895	8.95656
1014.063	36.35578
1014.23	-10.00976
1014.397	-5.79519
1014.565	-18.43861
1014.732	49.00291
1014.899	53.21881
1015.066	15.2791
1015.233	-16.33143
1015.401	84.84094
1015.568	44.78711
1015.735	-33.18815
1015.902	44.78711
1016.069	78.51611
1016.236	78.51611
1016.403	23.70949
1016.57	72.19148
1016.737	2.63424
1016.904	15.2791
1017.071	-7.90249
1017.238	23.70949
1017.405	-10.00976
1017.572	-33.18815
1017.739	40.5714
1017.906	25.81715
1018.073	34.24801
1018.24	-1.58052
1018.407	-22.65289
1018.573	-33.18815
1018.74	36.35578
1018.907	-43.72279
1019.074	25.81715
1019.241	17.38667
1019.407	25.81715
1019.574	-14.22423
1019.741	86.94927
1019.907	-26.86706
1020.074	70.08331
1020.241	6.8491
1020.407	-16.33143
1020.574	36.35578
1020.74	6.8491
1020.907	67.97517
1021.073	53.21881
1021.24	-1.58052
1021.406	61.65088
1021.573	-16.33143
1021.739	-16.33143
1021.906	38.46358
1022.072	4.74166
1022.239	4.74166
1022.405	-26.86706
1022.571	51.11085
1022.738	59.54283
1022.904	42.67924
1023.07	42.67924
1023.237	63.75895
1023.403	2.63424
1023.569	-47.93647
1023.735	-3.68787
1023.902	6.8491
1024.068	23.70949
1024.234	89.05761
1024.4	49.00291
1024.566	91.16598
1024.732	23.70949
1024.898	-7.90249
1025.065	124.90287
1025.231	-5.79519
1025.397	-20.54576
1025.563	34.24801
1025.729	-1.58052
1025.895	17.38667
1026.061	76.40788
1026.227	40.5714
1026.392	42.67924
1026.558	34.24801
1026.724	70.08331
1026.89	15.2791
1027.056	6.8491
1027.222	59.54283
1027.388	23.70949
1027.553	51.11085
1027.719	36.35578
1027.885	42.67924
1028.051	23.70949
1028.216	49.00291
1028.382	-1.58052
1028.548	44.78711
1028.713	44.78711
1028.879	11.06405
1029.045	23.70949
1029.21	-14.22423
1029.376	-7.90249
1029.541	-16.33143
1029.707	51.11085
1029.873	-1.58052
1030.038	74.29967
1030.204	70.08331
1030.369	23.70949
1030.534	55.32679
1030.7	95.38278
1030.865	15.2791
1031.031	11.06405
1031.196	65.86705
1031.361	101.70815
1031.527	91.16598
1031.692	116.46812
1031.857	36.35578
1032.023	-18.43861
1032.188	21.60186
1032.353	19.49425
1032.518	-12.11701
1032.684	-7.90249
1032.849	17.38667
1033.014	-1.58052
1033.179	4.74166
1033.344	27.92483
1033.509	-31.08114
1033.674	99.59967
1033.839	57.4348
1034.004	-1.58052
1034.17	25.81715
1034.335	15.2791
1034.5	32.14026
1034.664	34.24801
1034.829	-1.58052
1034.994	-33.18815
1035.159	-18.43861
1035.324	8.95656
1035.489	-26.86706
1035.654	97.49122
1035.819	-75.32294
1035.984	6.8491
1036.148	11.06405
1036.313	55.32679
1036.478	25.81715
1036.643	49.00291
1036.807	65.86705
1036.972	105.92518
1037.137	82.73264
1037.301	32.14026
1037.466	49.00291
1037.631	-24.75999
1037.795	70.08331
1037.96	-58.47023
1038.124	-1.58052
1038.289	34.24801
1038.454	21.60186
1038.618	27.92483
1038.783	19.49425
1038.947	23.70949
1039.111	-28.97412
1039.276	34.24801
1039.44	-52.15005
1039.605	23.70949
1039.769	11.06405
1039.933	0.52684
1040.098	-35.29512
1040.262	32.14026
1040.426	25.81715
1040.591	4.74166
1040.755	-18.43861
1040.919	36.35578
1041.083	-16.33143
1041.248	19.49425
1041.412	-7.90249
1041.576	6.8491
1041.74	8.95656
1041.904	51.11085
1042.068	74.29967
1042.232	70.08331
1042.397	-31.08114
1042.561	6.8491
1042.725	-31.08114
1042.889	-20.54576
1043.053	42.67924
1043.217	23.70949
1043.381	-14.22423
1043.544	6.8491
1043.708	-10.00976
1043.872	49.00291
1044.036	32.14026
1044.2	42.67924
1044.364	38.46358
1044.528	-52.15005
1044.691	74.29967
1044.855	42.67924
1045.019	-3.68787
1045.183	97.49122
1045.346	6.8491
1045.51	-5.79519
1045.674	8.95656
1045.837	-31.08114
1046.001	11.06405
1046.165	23.70949
1046.328	34.24801
1046.492	70.08331
1046.655	-18.43861
1046.819	-18.43861
1046.983	21.60186
1047.146	23.70949
1047.31	-52.15005
1047.473	32.14026
1047.636	19.49425
1047.8	-7.90249
1047.963	40.5714
1048.127	49.00291
1048.29	2.63424
