Data from mixed_try1_USB4F045381__29__00177.txt Node

Date: Thu Apr 03 20:12:51 EDT 2025
User: mmckonesweet
Spectrometer: USB4F04538
Trigger mode: 4
Integration Time (sec): 2.700000E-3
Scans to average: 1
Electric dark correction enabled: true
Nonlinearity correction enabled: true
Boxcar width: 0
XAxis mode: Wavelengths
Number of Pixels in Spectrum: 3648
>>>>>Begin Spectral Data<<<<<
345.52	14.40096
345.736	14.40096
345.952	14.40096
346.168	5.97099
346.384	-23.53085
346.6	-36.17303
346.816	12.29343
347.032	-36.17303
347.248	18.61609
347.464	18.61609
347.68	20.72369
347.896	33.36978
348.112	-15.10224
348.328	-57.24133
348.544	-6.67324
348.76	37.58533
348.975	10.18593
349.191	62.88058
349.407	20.72369
349.623	-15.10224
349.839	5.97099
350.055	10.18593
350.27	71.31307
350.486	-36.17303
350.702	33.36978
350.918	-4.56592
351.133	5.97099
351.349	1.75615
351.565	12.29343
351.781	3.86356
351.996	39.69314
352.212	18.61609
352.428	29.15432
352.644	18.61609
352.859	41.80097
353.075	1.75615
353.291	-12.99502
353.506	1.75615
353.722	22.83131
353.938	54.44846
354.153	10.18593
354.369	27.04663
354.584	77.63768
354.8	58.66448
355.016	18.61609
355.231	1.75615
355.447	-15.10224
355.662	-31.95906
355.878	-27.74501
356.093	10.18593
356.309	10.18593
356.524	60.77252
356.74	31.26204
356.955	-19.31659
357.171	5.97099
357.386	1.75615
357.602	10.18593
357.817	8.07845
358.033	29.15432
358.248	48.12461
358.464	-29.85205
358.679	-23.53085
358.895	-6.67324
359.11	14.40096
359.325	18.61609
359.541	-15.10224
359.756	10.18593
359.972	18.61609
360.187	-40.38689
360.402	-50.9211
360.618	18.61609
360.833	31.26204
361.048	18.61609
361.264	35.47754
361.479	-2.45859
361.694	-23.53085
361.909	14.40096
362.125	22.83131
362.34	43.90883
362.555	41.80097
362.77	96.6127
362.986	-4.56592
363.201	22.83131
363.416	27.04663
363.631	-48.81431
363.847	-2.45859
364.062	3.86356
364.277	-36.17303
364.492	8.07845
364.707	43.90883
364.922	-15.10224
365.138	64.98867
365.353	67.09678
365.568	-23.53085
365.783	3.86356
365.998	10.18593
366.213	-40.38689
366.428	29.15432
366.643	48.12461
366.858	43.90883
367.073	60.77252
367.288	-4.56592
367.503	-12.99502
367.718	-29.85205
367.933	-27.74501
368.148	39.69314
368.363	-38.27997
368.578	-4.56592
368.793	14.40096
369.008	-46.70749
369.223	20.72369
369.438	41.80097
369.653	-10.88778
369.868	50.23254
370.083	-80.41353
370.298	-19.31659
370.513	3.86356
370.728	8.07845
370.943	-21.42373
371.157	-29.85205
371.372	8.07845
371.587	-15.10224
371.802	12.29343
372.017	-15.10224
372.232	69.20492
372.446	-38.27997
372.661	98.72115
372.876	18.61609
373.091	29.15432
373.306	-2.45859
373.52	58.66448
373.735	27.04663
373.95	14.40096
374.165	-27.74501
374.379	-38.27997
374.594	52.34049
374.809	-31.95906
375.023	5.97099
375.238	33.36978
375.453	43.90883
375.667	-15.10224
375.882	10.18593
376.097	37.58533
376.311	37.58533
376.526	37.58533
376.741	54.44846
376.955	-46.70749
377.17	-2.45859
377.384	14.40096
377.599	27.04663
377.813	35.47754
378.028	29.15432
378.242	37.58533
378.457	-2.45859
378.672	50.23254
378.886	29.15432
379.101	-4.56592
379.315	62.88058
379.53	-38.27997
379.744	18.61609
379.958	54.44846
380.173	-50.9211
380.387	12.29343
380.602	-25.63794
380.816	14.40096
381.031	27.04663
381.245	27.04663
381.459	5.97099
381.674	-55.13461
381.888	-31.95906
382.103	-10.88778
382.317	50.23254
382.531	83.96248
382.746	100.82962
382.96	39.69314
383.174	-21.42373
383.388	27.04663
383.603	-57.24133
383.817	14.40096
384.031	-6.67324
384.246	1.75615
384.46	-23.53085
384.674	60.77252
384.888	24.93896
385.103	-31.95906
385.317	12.29343
385.531	10.18593
385.745	50.23254
385.959	10.18593
386.174	22.83131
386.388	10.18593
386.602	-40.38689
386.816	-10.88778
387.03	-15.10224
387.244	5.97099
387.458	18.61609
387.672	43.90883
387.887	-42.49378
388.101	73.42125
388.315	69.20492
388.529	94.50427
388.743	73.42125
388.957	10.18593
389.171	27.04663
389.385	8.07845
389.599	24.93896
389.813	37.58533
390.027	16.50851
390.241	88.17913
390.455	69.20492
390.669	1.75615
390.883	31.26204
391.097	43.90883
391.311	12.29343
391.525	79.74592
391.738	-31.95906
391.952	10.18593
392.166	54.44846
392.38	-44.60065
392.594	-4.56592
392.808	18.61609
393.022	-40.38689
393.236	22.83131
393.449	39.69314
393.663	10.18593
393.877	-6.67324
394.091	18.61609
394.305	10.18593
394.518	29.15432
394.732	-23.53085
394.946	18.61609
395.16	88.17913
395.373	-44.60065
395.587	27.04663
395.801	22.83131
396.015	1.75615
396.228	-10.88778
396.442	-23.53085
396.656	43.90883
396.869	29.15432
397.083	-23.53085
397.297	35.47754
397.51	-61.45468
397.724	-88.83902
397.938	56.55646
398.151	31.26204
398.365	60.77252
398.578	62.88058
398.792	-2.45859
399.005	69.20492
399.219	73.42125
399.433	35.47754
399.646	1.75615
399.86	-4.56592
400.073	46.01671
400.287	-29.85205
400.5	-19.31659
400.714	-2.45859
400.927	52.34049
401.141	-2.45859
401.354	10.18593
401.567	67.09678
401.781	52.34049
401.994	29.15432
402.208	5.97099
402.421	-23.53085
402.635	31.26204
402.848	10.18593
403.061	16.50851
403.275	27.04663
403.488	46.01671
403.701	67.09678
403.915	-27.74501
404.128	77.63768
404.341	-55.13461
404.555	62.88058
404.768	14.40096
404.981	31.26204
405.195	35.47754
405.408	10.18593
405.621	-6.67324
405.834	37.58533
406.048	10.18593
406.261	1.75615
406.474	5.97099
406.687	14.40096
406.9	64.98867
407.114	27.04663
407.327	3.86356
407.54	73.42125
407.753	94.50427
407.966	31.26204
408.179	60.77252
408.392	48.12461
408.605	10.18593
408.819	46.01671
409.032	-6.67324
409.245	35.47754
409.458	60.77252
409.671	-4.56592
409.884	37.58533
410.097	64.98867
410.31	71.31307
410.523	-15.10224
410.736	39.69314
410.949	-6.67324
411.162	12.29343
411.375	43.90883
411.588	46.01671
411.801	27.04663
412.014	-15.10224
412.227	-15.10224
412.44	35.47754
412.653	20.72369
412.865	60.77252
413.078	71.31307
413.291	1.75615
413.504	18.61609
413.717	64.98867
413.93	64.98867
414.143	-21.42373
414.356	-21.42373
414.568	27.04663
414.781	-17.20943
414.994	18.61609
415.207	-46.70749
415.42	10.18593
415.632	43.90883
415.845	29.15432
416.058	3.86356
416.271	111.37229
416.483	69.20492
416.696	29.15432
416.909	5.97099
417.121	69.20492
417.334	111.37229
417.547	77.63768
417.759	115.58952
417.972	62.88058
418.185	48.12461
418.397	24.93896
418.61	46.01671
418.823	20.72369
419.035	48.12461
419.248	10.18593
419.46	43.90883
419.673	3.86356
419.885	94.50427
420.098	54.44846
420.311	-10.88778
420.523	62.88058
420.736	-23.53085
420.948	86.0708
421.161	39.69314
421.373	102.93811
421.586	3.86356
421.798	52.34049
422.01	-21.42373
422.223	-40.38689
422.435	16.50851
422.648	35.47754
422.86	98.72115
423.073	31.26204
423.285	20.72369
423.497	29.15432
423.71	43.90883
423.922	62.88058
424.134	64.98867
424.347	-6.67324
424.559	10.18593
424.771	-31.95906
424.984	1.75615
425.196	90.28749
425.408	33.36978
425.621	54.44846
425.833	14.40096
426.045	18.61609
426.257	-2.45859
426.47	-21.42373
426.682	41.80097
426.894	46.01671
427.106	10.18593
427.318	56.55646
427.531	105.04662
427.743	8.07845
427.955	18.61609
428.167	94.50427
428.379	3.86356
428.591	5.97099
428.804	88.17913
429.016	56.55646
429.228	10.18593
429.44	-21.42373
429.652	-21.42373
429.864	3.86356
430.076	48.12461
430.288	29.15432
430.5	-29.85205
430.712	-4.56592
430.924	24.93896
431.136	119.80683
431.348	52.34049
431.56	-12.99502
431.772	69.20492
431.984	54.44846
432.196	-21.42373
432.408	73.42125
432.62	20.72369
432.832	22.83131
433.044	3.86356
433.256	39.69314
433.468	10.18593
433.679	46.01671
433.891	-2.45859
434.103	10.18593
434.315	-40.38689
434.527	69.20492
434.739	20.72369
434.95	-23.53085
435.162	35.47754
435.374	48.12461
435.586	10.18593
435.798	62.88058
436.009	5.97099
436.221	92.39587
436.433	-2.45859
436.645	39.69314
436.856	-4.56592
437.068	-6.67324
437.28	39.69314
437.491	43.90883
437.703	62.88058
437.915	79.74592
438.126	-2.45859
438.338	73.42125
438.55	10.18593
438.761	-19.31659
438.973	18.61609
439.184	39.69314
439.396	10.18593
439.608	1.75615
439.819	60.77252
440.031	111.37229
440.242	-23.53085
440.454	39.69314
440.665	-29.85205
440.877	105.04662
441.088	27.04663
441.3	60.77252
441.511	67.09678
441.723	37.58533
441.934	77.63768
442.146	75.52945
442.357	14.40096
442.569	-6.67324
442.78	-36.17303
442.991	64.98867
443.203	20.72369
443.414	81.85419
443.626	12.29343
443.837	-48.81431
444.048	60.77252
444.26	94.50427
444.471	43.90883
444.682	27.04663
444.894	90.28749
445.105	-17.20943
445.316	3.86356
445.528	-31.95906
445.739	-23.53085
445.95	37.58533
446.161	31.26204
446.373	29.15432
446.584	1.75615
446.795	-0.35123
447.006	119.80683
447.217	111.37229
447.429	60.77252
447.64	64.98867
447.851	14.40096
448.062	43.90883
448.273	56.55646
448.484	31.26204
448.695	48.12461
448.907	75.52945
449.118	27.04663
449.329	48.12461
449.54	113.4809
449.751	54.44846
449.962	41.80097
450.173	88.17913
450.384	-2.45859
450.595	69.20492
450.806	18.61609
451.017	52.34049
451.228	111.37229
451.439	31.26204
451.65	54.44846
451.861	46.01671
452.072	111.37229
452.283	86.0708
452.494	-31.95906
452.705	54.44846
452.915	-34.06606
453.126	81.85419
453.337	52.34049
453.548	67.09678
453.759	58.66448
453.97	16.50851
454.181	5.97099
454.391	-23.53085
454.602	56.55646
454.813	98.72115
455.024	20.72369
455.235	33.36978
455.445	102.93811
455.656	71.31307
455.867	1.75615
456.078	46.01671
456.288	-4.56592
456.499	86.0708
456.71	79.74592
456.921	43.90883
457.131	71.31307
457.342	113.4809
457.553	90.28749
457.763	77.63768
457.974	71.31307
458.184	77.63768
458.395	90.28749
458.606	35.47754
458.816	64.98867
459.027	107.15516
459.237	77.63768
459.448	52.34049
459.659	64.98867
459.869	46.01671
460.08	105.04662
460.29	46.01671
460.501	73.42125
460.711	73.42125
460.922	119.80683
461.132	111.37229
461.343	130.35049
461.553	56.55646
461.764	71.31307
461.974	69.20492
462.184	14.40096
462.395	-21.42373
462.605	113.4809
462.816	43.90883
463.026	71.31307
463.236	27.04663
463.447	86.0708
463.657	111.37229
463.867	31.26204
464.078	77.63768
464.288	52.34049
464.498	105.04662
464.709	54.44846
464.919	60.77252
465.129	60.77252
465.339	115.58952
465.55	22.83131
465.76	73.42125
465.97	90.28749
466.18	130.35049
466.391	31.26204
466.601	94.50427
466.811	100.82962
467.021	81.85419
467.231	115.58952
467.441	73.42125
467.651	166.20292
467.862	121.91552
468.072	105.04662
468.282	170.42125
468.492	90.28749
468.702	187.2954
468.912	111.37229
469.122	113.4809
469.332	199.95188
469.542	153.54842
469.752	170.42125
469.962	170.42125
470.172	115.58952
470.382	107.15516
470.592	183.07674
470.802	221.0476
471.012	145.11251
471.222	242.1453
471.432	170.42125
471.642	197.84241
471.852	140.89469
472.062	193.62355
472.272	204.17086
472.482	252.69488
472.691	149.33043
472.901	237.92561
473.111	195.73297
473.321	233.70599
473.531	227.37671
473.741	237.92561
473.95	286.45672
474.16	199.95188
474.37	212.60907
474.58	265.355
474.79	248.47499
474.999	195.73297
475.209	145.11251
475.419	218.93794
475.628	265.355
475.838	242.1453
476.048	227.37671
476.258	233.70599
476.467	356.10527
476.677	292.78759
476.886	398.32572
477.096	419.43842
477.306	330.77629
477.515	389.88109
477.725	273.79547
477.935	309.67074
478.144	413.10444
478.354	330.77629
478.563	474.33885
478.773	372.99264
478.982	432.10681
479.192	448.99889
479.401	432.10681
479.611	480.67419
479.82	539.8103
480.03	482.78599
480.239	512.35284
480.449	425.77255
480.658	575.71972
480.868	565.15772
481.077	679.24418
481.287	594.73216
481.496	643.32419
481.705	660.22729
481.915	677.13115
482.124	626.42187
482.333	664.45318
482.543	601.06987
482.752	721.50723
482.961	685.58335
483.171	808.15966
483.38	795.47777
483.589	780.68268
483.799	848.32114
484.008	797.5914
484.217	816.61443
484.426	947.68104
484.636	829.29687
484.845	924.42505
485.054	1002.65311
485.263	994.19557
485.472	954.02373
485.682	1015.3396
485.891	983.6238
486.1	1133.75658
486.309	1188.74091
486.518	1140.10079
486.727	1192.97058
486.936	1205.65967
487.146	1104.15084
487.355	1192.97058
487.564	1129.52714
487.773	1201.42996
487.982	1319.8662
488.191	1404.4672
488.4	1302.94628
488.609	1419.27253
488.818	1548.29029
489.027	1434.07789
489.236	1324.09619
489.445	1596.93547
489.654	1450.9983
489.863	1472.14882
490.072	1603.28043
490.281	1654.03943
490.49	1575.78549
490.698	1666.72896
490.907	1567.32546
491.116	1751.32312
491.325	1768.24129
491.534	1829.5675
491.743	1747.09354
491.952	1770.35605
492.16	1658.26928
492.369	2161.49331
492.578	1852.82818
492.787	1952.20774
492.996	1878.2028
493.204	1865.51558
493.413	2038.88988
493.622	2127.67423
493.831	2057.91618
494.039	2176.2885
494.248	2045.23204
494.457	2336.89446
494.665	2203.76422
494.874	2343.23306
495.083	2138.24291
495.291	2275.61682
495.5	2370.6993
495.709	2292.5218
495.917	2258.71126
496.126	2429.85148
496.335	2463.649
496.543	2546.01853
496.752	2474.21015
496.96	2503.7799
497.169	2372.81202
497.377	2685.37209
497.586	2393.93863
497.794	2603.03324
498.003	2531.23553
498.211	2706.48151
498.42	2520.6759
498.628	2841.55031
498.837	2653.70555
499.045	2704.37062
499.254	2736.03251
499.462	2887.96714
499.671	2799.34729
499.879	2879.52823
500.087	2875.30869
500.296	3001.86953
500.504	3071.4549
500.713	3069.3465
500.921	2919.611
501.129	3001.86953
501.338	2932.26763
501.546	3301.17367
501.754	2807.78833
501.962	3368.57623
502.171	3153.67014
502.379	3259.03816
502.587	3229.53929
502.795	3364.36409
503.004	3178.96222
503.212	3330.66447
503.42	3417.01078
503.628	3532.79418
503.837	3296.96043
504.045	3595.92545
504.253	3385.42408
504.461	3524.37542
504.669	3560.15311
504.877	3537.00345
505.085	3246.39619
505.294	3659.0399
505.502	3616.96548
505.71	3768.3976
505.918	3490.69746
506.126	3759.98733
506.334	3522.27068
506.542	3659.0399
506.75	3541.21264
506.958	3844.07595
507.166	3829.36272
507.374	3965.94792
507.582	3896.61526
507.79	3898.71657
507.998	3785.21721
508.206	4112.94351
508.414	3854.58481
508.622	3896.61526
508.83	3852.48308
509.037	3877.70255
509.245	3751.57674
509.453	4100.34786
509.661	4033.15844
509.869	4058.35696
510.077	4003.75642
510.285	4251.44564
510.492	3932.33483
510.7	4106.64578
510.908	4020.55807
511.116	4180.10755
511.324	4108.74504
511.531	4255.64124
511.739	3947.0412
511.947	4459.02387
512.155	4224.17222
512.362	4314.37053
512.57	4198.99355
512.778	4240.95629
512.985	4377.27601
513.193	4584.72447
513.401	4540.73833
513.608	4343.72884
513.816	4593.10167
514.024	4465.31079
514.231	4270.32514
514.439	4486.26575
514.646	4337.43813
514.854	4591.0074
515.061	4394.04751
515.269	4708.25186
515.477	4756.38539
515.684	4800.32293
515.892	4576.34691
516.099	4846.34198
516.307	4699.87959
516.514	4710.34487
516.722	4760.57035
516.929	4871.43863
517.136	4718.71669
517.344	4733.3665
517.551	4850.52498
517.759	4921.62204
517.966	4837.9757
518.173	4959.25093
518.381	5021.94917
518.588	4986.42271
518.796	4833.79242
519.003	5291.31383
519.21	4946.70879
519.418	5184.86712
519.625	5147.28321
519.832	5141.01849
520.039	5239.14166
520.247	5301.74651
520.454	5044.93332
520.661	5514.44516
520.868	5322.61011
521.076	5424.80788
521.283	5113.86896
521.49	5297.57351
521.697	5441.48788
521.904	5289.22722
522.112	5212.00636
522.319	5485.26571
522.526	5493.60316
522.733	5510.27695
522.94	5395.61427
523.147	5483.18128
523.354	5376.84452
523.561	5818.46983
523.768	5535.2848
523.975	5756.04006
524.183	5753.9587
524.39	5812.22781
524.597	5751.87732
524.804	5791.41954
525.011	5639.44766
525.218	5735.22542
525.425	5710.24473
525.632	5691.50698
525.838	5785.17659
526.045	5885.03817
526.252	5778.93344
526.459	5816.38918
526.666	5820.55045
526.873	6246.58127
527.08	6007.71022
527.287	6128.22316
527.494	6049.27535
527.701	6354.49071
527.907	6053.43135
528.114	6167.68434
528.321	6169.76101
528.528	6319.21958
528.735	6263.18684
528.941	6358.63981
529.148	6244.50547
529.355	6402.19974
529.562	5901.67648
529.768	6283.9417
529.975	6263.18684
530.182	6638.48917
530.388	6300.54389
530.595	6433.30768
530.802	6358.63981
531.008	6644.70326
531.215	6362.78882
531.422	6657.13081
531.628	6491.36184
531.835	6640.56056
532.042	6524.52748
532.248	6710.97395
532.455	6626.06038
532.661	6843.44496
532.868	6650.91714
533.074	6839.30666
533.281	6760.66155
533.487	6816.54435
533.694	6818.61377
533.9	7035.77603
534.107	6739.95999
534.313	6967.55188
534.52	6888.96031
534.726	6975.82278
534.933	6549.39781
535.139	7062.64549
535.345	6917.9189
535.552	7103.97574
535.758	6884.823
535.965	7273.33671
536.171	7221.71805
536.377	7267.1432
536.584	7130.83561
536.79	7298.10878
536.996	7269.20772
537.203	7335.26095
537.409	7099.84312
537.615	7130.83561
537.821	7269.20772
538.028	7784.65949
538.234	7549.77988
538.44	7599.25114
538.646	7273.33671
538.853	7648.71012
539.059	7211.39266
539.265	7648.71012
539.471	7370.3426
539.677	7366.21568
539.883	7310.49363
540.09	7471.42511
540.296	7665.19372
540.502	7790.83684
540.708	7549.77988
540.914	7928.74879
541.12	7683.73616
541.326	7959.61191
541.532	7887.59077
541.738	8159.083
541.944	7998.69858
542.15	7914.34442
542.356	7879.35817
542.562	8011.04022
542.768	7811.42663
542.974	7957.55451
543.18	7990.47042
543.386	8105.63515
543.592	8175.52578
543.798	8226.90125
544.004	8101.52321
544.21	8467.17562
544.415	8048.06072
544.621	8495.90869
544.827	8206.35255
545.033	8311.13032
545.239	8311.13032
545.445	8514.37798
545.651	8200.18756
545.856	8549.26023
546.062	8337.83021
546.268	8475.38545
546.474	8270.0471
546.679	8276.21008
546.885	8177.58104
547.091	8426.12188
547.297	8376.84722
547.502	8692.83582
547.708	8497.96091
547.914	8495.90869
548.119	8676.4318
548.325	8502.06529
548.531	8422.01608
548.736	8674.38121
548.942	8440.49156
549.147	8586.18842
549.353	8625.16158
549.559	8621.05946
549.764	8561.5703
549.97	8942.85251
550.175	8631.31462
550.381	9022.71971
550.586	8662.07731
550.792	8867.05616
550.997	8725.64032
551.203	8961.28578
551.408	8787.13609
551.614	8815.82851
551.819	9024.76723
552.025	9161.91196
552.23	9010.43419
552.435	9114.84115
552.641	9352.15057
552.846	9143.49403
553.052	9217.15749
553.257	9323.52173
553.462	9235.56993
553.668	9401.22109
553.873	9073.90262
554.078	9425.75282
554.283	9321.47669
554.489	9364.41908
554.694	9679.11264
554.899	9503.42129
555.105	9348.06093
555.31	9470.72161
555.515	9393.04332
555.72	9681.15488
555.925	9372.59777
556.131	9601.49588
556.336	9429.84122
556.541	9675.0281
556.746	9658.68935
556.951	9938.35654
557.156	9585.15264
557.361	9858.77185
557.567	9736.28967
557.772	9885.30257
557.977	9746.49859
558.182	9795.49615
558.387	9740.37328
558.592	9893.46536
558.797	9928.15462
559.002	9589.23855
559.207	9679.11264
559.412	9838.3619
559.617	9540.20353
559.822	10185.13379
560.027	9875.09874
560.232	10150.47505
560.437	9956.71907
560.642	9985.28068
560.847	9981.20062
561.051	10050.55376
561.256	9724.03846
561.461	10097.45979
561.666	10017.91905
561.871	10001.60033
562.076	9928.15462
562.281	10368.55571
562.485	9956.71907
562.69	10181.0565
562.895	9926.11419
563.1	10248.3248
563.305	10217.75014
563.509	10121.92955
563.714	10044.43503
563.919	10172.90175
564.123	9962.83965
564.328	10160.66921
564.533	10307.42716
564.737	10217.75014
564.942	10095.42056
565.147	10232.0187
565.351	10409.30147
565.556	10354.29345
565.761	10395.04105
565.965	10684.20168
566.17	10327.80467
566.374	10492.81405
566.579	10649.59713
566.784	10476.52061
566.988	10376.70528
567.193	10580.37737
567.397	10327.80467
567.602	10663.84649
567.806	10362.44339
568.011	10588.52162
568.215	10777.82003
568.42	10582.41345
568.624	10800.20329
568.828	10413.37576
569.033	10555.94344
569.237	10802.23807
569.442	10735.08436
569.646	10718.80272
569.85	10714.73219
570.055	10932.43929
570.259	10682.16621
570.463	10973.11758
570.668	10724.90843
570.872	10777.82003
571.076	10824.61978
571.281	10920.23492
571.485	10914.13259
571.689	10910.0643
571.893	10606.84544
572.098	10867.34459
572.302	10932.43929
572.506	11048.36064
572.71	10804.27283
572.914	11028.02617
573.119	10999.55606
573.323	11194.73691
573.527	11107.32444
573.731	11257.74315
573.935	11347.15446
574.139	11361.37719
574.343	11255.71085
574.547	11023.95914
574.751	11239.45204
574.955	11469.04792
575.159	11103.25826
575.364	11336.99507
575.568	11345.12261
575.772	11422.32626
575.976	11306.51539
576.18	11426.38921
576.383	11426.38921
576.587	11450.76614
576.791	11328.86738
576.995	11515.76451
577.199	11534.04355
577.403	11513.73346
577.607	11523.88862
577.811	11609.18276
578.015	11247.58153
578.219	11698.52121
578.422	11259.77545
578.626	11550.29094
578.83	11844.67458
579.034	11816.25936
579.238	11471.07918
579.442	11680.24885
579.645	11637.61053
579.849	11791.90213
580.053	11816.25936
580.257	11903.52944
580.46	11785.81263
580.664	11919.76404
580.868	11704.61184
581.071	11915.70544
581.275	11905.5588
581.479	11883.23545
581.682	11834.52648
581.886	11948.17333
582.09	12019.18964
582.293	12169.30694
582.497	12295.04947
582.7	11966.4356
582.904	12033.39174
583.107	12142.938
583.311	12134.82422
583.515	12124.68183
583.718	11739.12388
583.922	12280.85412
584.125	12043.53585
584.329	12201.7593
584.532	12161.19355
584.735	12094.25353
584.939	12116.56779
585.142	12262.60244
585.346	12187.56163
585.549	12205.81571
585.753	12323.43914
585.956	12402.5175
586.159	12493.74906
586.363	12526.18377
586.566	12554.5628
586.769	12629.55862
586.973	12627.53182
587.176	12680.22675
587.379	12582.94059
587.582	12661.98666
587.786	12449.14864
587.989	12761.2881
588.192	12222.04107
588.395	12732.91768
588.599	12530.23799
588.802	12670.09343
589.005	12548.48168
589.208	12809.9205
589.411	12767.36732
589.615	12718.73205
589.818	12824.10435
590.021	12927.43576
590.224	12771.42012
590.427	12807.89422
590.63	12781.55199
590.833	12933.51364
591.036	12822.0781
591.239	12844.36652
591.442	12992.26416
591.645	13077.34361
591.848	12978.08339
592.051	13036.83067
592.254	12949.72111
592.457	13138.10942
592.66	12911.22783
592.863	13239.37655
593.066	12846.3927
593.269	13449.97785
593.472	13158.36376
593.675	13395.30673
593.878	13085.44597
594.081	13320.38232
594.284	13255.57825
594.486	13417.58049
594.689	13229.25034
594.892	13334.55764
595.095	13510.72026
595.298	13470.22569
595.5	13504.64617
595.703	13773.90101
595.906	13314.30713
596.109	13334.55764
596.311	13332.53261
596.514	13506.67087
596.717	13393.28182
596.92	13607.90132
597.122	13765.80395
597.325	13711.14756
597.528	13626.12187
597.73	13816.40976
597.933	13447.95304
598.136	13729.36661
598.338	13510.72026
598.541	13812.36136
598.743	13581.58225
598.946	13810.33716
599.148	13781.99801
599.351	13820.45814
599.554	13996.5522
599.756	13846.77236
599.959	13887.25484
600.161	14113.93763
600.363	13779.97377
600.566	13968.21657
600.768	14067.38917
600.971	14120.00908
601.173	14026.91126
601.376	14136.19953
601.578	13786.0465
601.78	14304.16768
601.983	14099.77084
602.185	14281.9076
602.388	13998.57615
602.59	13907.49567
602.792	14043.10254
602.995	14205.0074
603.197	14111.91381
603.399	14401.30017
603.601	14020.83949
603.804	14075.48464
604.006	14320.3567
604.208	13901.42345
604.41	14267.74198
604.613	14202.98367
604.815	14411.41793
605.017	14443.79449
605.219	14306.19132
605.421	14231.31567
605.623	14451.88857
605.826	14385.11169
606.028	14140.24711
606.23	14437.72391
606.432	14251.55258
606.634	14559.13307
606.836	14356.78159
607.038	14182.74629
607.24	14263.69464
607.442	14619.83596
607.644	14496.40561
607.846	14269.76564
608.048	14235.36307
608.25	14625.9062
608.452	14549.01582
608.654	14751.35571
608.856	14287.97855
609.058	14569.25029
609.26	14453.91208
609.462	14559.13307
609.664	14569.25029
609.866	14504.49954
610.067	14555.08618
610.269	14611.7423
610.471	14549.01582
610.673	14698.74828
610.875	14310.23858
611.077	14611.7423
611.278	14704.8184
611.48	14696.72491
611.682	14640.07004
611.884	14913.2216
612.085	14684.58464
612.287	14735.16887
612.489	14729.09879
612.69	14915.2449
612.892	14836.33581
613.094	14862.63894
613.295	14781.70589
613.497	14757.42576
613.699	14516.64041
613.9	14892.98857
614.102	14674.46773
614.304	14998.19983
614.505	14563.17996
614.707	14856.56899
614.908	14652.21043
615.11	14842.40577
615.311	14633.99983
615.513	14749.33236
615.714	14919.2915
615.916	15010.33952
616.117	14820.14922
616.319	14965.82725
616.52	14731.12215
616.722	14949.64093
616.923	15036.64216
617.124	15010.33952
617.326	14702.79503
617.527	15016.40936
617.729	14553.06273
617.93	14737.19223
618.131	14856.56899
618.333	14969.87383
618.534	15008.31624
618.735	15202.5505
618.937	15105.4335
619.138	14975.94369
619.339	14951.66422
619.54	15073.06113
619.742	14933.45458
619.943	15058.8982
620.144	14617.81255
620.345	15131.73603
620.546	14911.1983
620.748	15295.62111
620.949	14791.82258
621.15	14969.87383
621.351	14727.07543
621.552	15214.69013
621.753	14975.94369
621.954	15445.34462
622.155	14767.5425
622.356	15101.38695
622.558	15002.24639
622.759	15158.03855
622.96	14965.82725
623.161	14947.61763
623.362	14854.54568
623.563	15162.08509
623.764	15048.78182
623.965	15263.24868
624.166	15275.38834
624.366	15230.87631
624.567	14975.94369
624.768	14921.3148
624.969	14810.03258
625.17	15228.85303
625.371	15281.45817
625.572	15016.40936
625.773	15032.5956
625.973	15358.34287
626.174	15228.85303
626.375	15168.1549
626.576	15364.41274
626.777	15311.80735
626.977	15077.10768
627.178	15570.79071
627.379	15283.48144
627.58	15251.10904
627.78	15026.52576
627.981	15170.17817
628.182	15232.89958
628.382	15564.72068
628.583	15257.17886
628.784	15289.55128
628.984	15056.87493
629.185	15455.46115
629.386	14963.80396
629.586	15540.44063
629.787	15245.03922
629.987	15510.09069
630.188	15301.69095
630.388	15570.79071
630.589	15463.55439
630.79	15257.17886
630.99	15376.55248
631.191	15603.16432
631.391	15736.70768
631.591	15504.02072
631.792	15441.29801
631.992	15655.77185
632.193	15740.75452
632.393	15686.12262
632.594	15451.41454
632.794	15504.02072
632.994	15943.10175
633.195	15564.72068
633.395	15366.43603
633.595	15421.06498
633.796	15552.58064
633.996	15728.61403
634.196	15912.7489
634.397	15926.91353
634.597	15501.9974
634.797	15959.29006
634.997	15410.94848
635.198	15593.04755
635.398	15673.98229
635.598	15740.75452
635.798	15858.11448
635.998	15765.03559
636.199	15663.86537
636.399	15860.13797
636.599	15439.2747
636.799	15807.52784
636.999	15400.832
637.199	15777.17619
637.399	15544.4873
637.599	15671.9589
637.799	15716.47359
637.999	15922.86648
638.199	15471.64764
638.399	15779.19962
638.599	15459.50777
638.799	15831.80934
638.999	15949.17235
639.199	15906.67836
639.399	15843.95015
639.599	16175.81754
639.799	15837.87974
639.999	15890.49032
640.199	15661.84199
640.399	15809.55129
640.599	15180.29452
640.799	16185.93609
640.998	15734.68427
641.198	16149.50952
641.398	15957.26651
641.598	15961.3136
641.798	15926.91353
641.997	15975.47845
642.197	15682.07584
642.397	15939.05468
642.597	15939.05468
642.796	15983.57268
642.996	16007.8555
643.196	16090.82338
643.395	15941.07822
643.595	16335.69564
643.795	15926.91353
643.994	16695.97234
644.194	15975.47845
644.394	16279.02871
644.593	16032.13852
644.793	16323.5526
644.992	16386.29235
645.192	16192.00723
645.392	16068.56346
645.591	16289.1477
645.791	16084.75247
645.99	16400.45965
646.19	16250.69578
646.389	16329.62411
646.589	16291.1715
646.788	16279.02871
646.987	16084.75247
647.187	16378.1968
647.386	16015.94982
647.586	16584.64362
647.785	16368.07739
647.984	16424.74667
648.184	16426.7706
648.383	16238.5532
648.582	16440.93818
648.782	16295.21911
648.981	16285.1001
649.18	16570.475
649.38	16355.93418
649.579	16612.98119
649.778	16451.05793
649.977	16428.79453
650.177	16293.1953
650.376	16515.8256
650.575	16309.38581
650.774	16204.14957
650.973	16574.52317
651.173	16635.24673
651.372	16353.91031
651.571	16546.18618
651.77	16347.83874
651.969	16353.91031
652.168	16521.89768
652.367	16513.80158
652.566	16477.36954
652.765	16702.04502
652.964	16426.7706
653.163	16392.36404
653.362	16475.34556
653.561	16758.72435
653.76	16384.26846
653.959	16483.4415
654.158	16615.00532
654.357	16639.29504
654.556	16224.38694
654.755	16791.11339
654.954	16529.99381
655.153	16669.65766
655.352	16481.41751
655.551	16807.30814
655.749	16493.56147
655.948	16455.10585
656.147	16665.60928
656.346	16926.74942
656.545	16683.82705
656.743	16793.13773
656.942	16629.17429
657.141	16880.18651
657.34	16740.50579
657.538	16671.68185
657.737	16586.66772
657.936	17080.61941
658.135	16515.8256
658.333	16453.08189
658.532	16606.90882
658.731	16910.55347
658.929	16750.62719
659.128	16736.45725
659.326	16598.81235
659.525	16839.69813
659.724	16819.45431
659.922	16934.84746
660.121	16813.38122
660.319	16807.30814
660.518	16230.45819
660.716	16841.72252
660.915	17064.42183
661.113	17147.43631
661.312	16643.34336
661.51	16866.01546
661.709	16817.42995
661.907	16722.28742
662.105	16874.11319
662.304	16928.77392
662.502	16659.53673
662.701	16772.89448
662.899	16904.48003
663.097	16902.45556
663.296	16918.65142
663.494	16991.53489
663.692	16817.42995
663.891	17309.42964
664.089	16795.16206
664.287	17345.88075
664.485	16776.94311
664.684	17076.57
664.882	16645.36753
665.08	17234.5054
665.278	17038.10114
665.476	17181.85834
665.675	16797.1864
665.873	17222.35591
666.071	17032.0272
666.269	16866.01546
666.467	16631.19843
666.665	16803.25944
666.863	16849.82013
667.061	17121.11414
667.259	16993.55948
667.457	17317.52981
667.655	17115.03985
667.853	17040.12579
668.051	16631.19843
668.249	16859.94219
668.447	16736.45725
668.645	16920.67592
668.843	16959.14182
669.041	16951.04365
669.239	16772.89448
669.437	17092.76771
669.635	16602.86058
669.833	16829.57619
670.031	16748.6029
670.229	16754.67577
670.426	16787.06473
670.624	17412.71034
670.822	16944.97006
671.02	17254.7548
671.218	16940.92101
671.415	16979.38741
671.613	17145.41151
671.811	17076.57
672.009	17135.28755
672.206	17123.1389
672.404	16813.38122
672.602	17009.7563
672.799	16936.87197
672.997	17137.31234
673.195	16955.09273
673.392	16764.79725
673.59	16594.76413
673.788	16641.3192
673.985	16252.71955
674.183	16803.25944
674.38	16760.74865
674.578	17161.60999
674.775	16544.16213
674.973	16951.04365
675.17	16440.93818
675.368	16938.89649
675.565	17121.11414
675.763	16523.92171
675.96	16730.38445
676.158	16481.41751
676.355	16570.475
676.553	17220.331
676.75	16752.65148
676.947	16754.67577
677.145	16343.79103
677.342	16756.70006
677.539	16799.21075
677.737	16623.10186
677.934	16615.00532
678.131	16643.34336
678.329	16967.24002
678.526	17113.0151
678.723	17054.29843
678.92	17115.03985
679.118	16716.21468
679.315	16568.45092
679.512	16752.65148
679.709	17080.61941
679.906	16408.55529
680.104	17038.10114
680.301	16681.80285
680.498	16797.1864
680.695	16491.53747
680.892	16878.16207
681.089	16422.72274
681.286	16432.84241
681.483	16442.96212
681.68	16857.91778
681.877	16619.05359
682.075	16855.89336
682.272	16072.6107
682.469	16853.86895
682.665	16386.29235
682.862	16343.79103
683.059	16412.60312
683.256	16465.22568
683.453	16343.79103
683.65	16416.65096
683.847	16685.85126
684.044	16542.13808
684.241	16309.38581
684.438	16444.98607
684.635	16359.98191
684.831	16827.55181
685.028	16590.71592
685.225	16532.01785
685.422	16311.40963
685.619	16400.45965
685.815	16192.00723
686.012	16238.5532
686.209	16177.84125
686.405	16402.48356
686.602	16234.50569
686.799	16339.74333
686.996	16111.05983
687.192	16497.60948
687.389	16408.55529
687.586	16167.72274
687.782	16461.17774
687.979	16398.43574
688.175	16343.79103
688.372	16347.83874
688.568	16198.0784
688.765	16212.2445
688.962	16030.11493
689.158	16343.79103
689.355	16062.4926
689.551	16246.64825
689.748	15969.40779
689.944	16321.52877
690.14	16444.98607
690.337	16046.30372
690.533	16242.60072
690.73	16262.83842
690.926	16216.29197
691.123	16181.88867
691.319	16355.93418
691.515	16329.62411
691.712	15791.34026
691.908	16157.60427
692.104	15789.31682
692.301	16157.60427
692.497	16163.67535
692.693	16064.51622
692.889	16248.67201
693.086	16256.76709
693.282	15829.78587
693.478	16102.96523
693.674	16135.34378
693.87	16392.36404
694.067	16289.1477
694.263	16208.19703
694.459	16066.53984
694.655	16173.79384
694.851	15874.30237
695.047	15991.66693
695.243	16111.05983
695.439	15775.15275
695.635	16082.72884
695.831	15912.7489
696.027	15777.17619
696.224	15878.34935
696.42	15993.6905
696.615	16293.1953
696.811	15957.26651
697.007	16076.65795
697.203	15831.80934
697.399	16107.01252
697.595	15945.12528
697.791	15981.54912
697.987	15955.24297
698.183	16177.84125
698.379	15663.86537
698.575	16192.00723
698.77	16080.70521
698.966	16072.6107
699.162	15803.48094
699.358	15775.15275
699.554	15698.26298
699.749	15884.41983
699.945	15686.12262
700.141	15740.75452
700.337	15744.80135
700.532	15920.84296
700.728	15720.5204
700.924	15926.91353
701.119	15718.49699
701.315	15673.98229
701.511	15410.94848
701.706	15987.6198
701.902	15514.13734
702.097	15961.3136
702.293	15437.2514
702.489	15572.81406
702.684	15957.26651
702.88	16003.80835
703.075	15548.53397
703.271	15617.32783
703.466	15892.51383
703.662	15633.51475
703.857	15718.49699
704.053	15582.93079
704.248	15508.06737
704.443	15680.05245
704.639	15554.60398
704.834	15653.74848
705.03	15206.59704
705.225	15572.81406
705.42	15356.31959
705.616	15734.68427
705.811	15534.37063
706.006	15489.85748
706.202	15489.85748
706.397	15410.94848
706.592	15340.1333
706.787	15463.55439
706.983	15526.27731
707.178	15649.70172
707.373	15582.93079
707.568	15694.21619
707.763	15435.22809
707.959	15748.84819
708.154	15447.36792
708.349	15412.97178
708.544	15688.14601
708.739	15463.55439
708.934	15198.50396
709.129	15340.1333
709.324	15487.83416
709.519	15659.81861
709.714	15501.9974
709.909	15718.49699
710.104	15358.34287
710.299	15396.78541
710.494	15378.57577
710.689	15311.80735
710.884	15319.90047
711.079	15550.55731
711.274	15238.9694
711.469	15443.32131
711.664	15269.31851
711.859	15611.25775
712.054	15437.2514
712.249	15597.09425
712.443	15319.90047
712.638	15340.1333
712.833	15153.992
713.028	15307.76079
713.223	14943.57105
713.417	15267.29524
713.612	15198.50396
713.807	15625.42128
714.002	15208.62031
714.196	15289.55128
714.391	14937.50117
714.586	15222.78322
714.78	15075.0844
714.975	15259.20214
715.17	15317.87719
715.364	15259.20214
715.559	14913.2216
715.754	14977.96698
715.948	15141.85238
716.143	15044.73527
716.337	15103.41023
716.532	15265.27196
716.726	15238.9694
716.921	15176.24798
717.115	15087.22404
717.31	14973.9204
717.504	15097.34041
717.699	15066.9913
717.893	14510.56998
718.088	14757.42576
718.282	14530.80469
718.476	14694.70153
718.671	14464.02965
718.865	14650.18704
719.059	14401.30017
719.254	14777.65921
719.448	14753.37906
719.642	15093.29386
719.837	14629.95301
720.031	14939.52446
720.225	14702.79503
720.419	14846.45241
720.614	14565.20341
720.808	14623.88279
721.002	14708.86514
721.196	14595.55493
721.39	14441.77096
721.585	14799.91592
721.779	14587.46122
721.973	14587.46122
722.167	14338.56921
722.361	14828.24252
722.555	14342.61642
722.749	14526.75776
722.943	14567.22685
723.137	14553.06273
723.331	14352.73441
723.525	14603.64863
723.719	14362.85235
723.913	14322.38032
724.107	14370.94668
724.301	14296.07313
724.495	14205.0074
724.689	14785.75257
724.883	14449.86505
725.077	14470.10017
725.271	14308.21495
725.465	14427.60626
725.659	14379.04098
725.853	14593.5315
726.046	14358.80518
726.24	14379.04098
726.434	14229.29197
726.628	14453.91208
726.822	14401.30017
727.015	14516.64041
727.209	14037.03083
727.403	14306.19132
727.596	14144.29469
727.79	14455.9356
727.984	14449.86505
728.177	14546.99237
728.371	14342.61642
728.565	14431.65332
728.758	14374.99383
728.952	14374.99383
729.146	14332.49839
729.339	14466.05315
729.533	14532.82816
729.726	14415.46502
729.92	13980.36047
730.113	14279.88394
730.307	13992.50428
730.5	14285.9549
730.694	14128.10432
730.887	14144.29469
731.081	14271.78931
731.274	14433.67685
731.468	14113.93763
731.661	14300.12041
731.854	14083.58008
732.048	14340.59282
732.241	14267.74198
732.435	14330.47478
732.628	14192.865
732.821	13913.56787
733.014	14492.35863
733.208	14344.64002
733.401	14209.05484
733.594	14372.97025
733.788	14332.49839
733.981	14209.05484
734.174	14433.67685
734.367	14152.38983
734.56	14196.91248
734.754	14122.0329
734.947	14198.93621
735.14	14140.24711
735.333	14290.0022
735.526	14425.58272
735.719	14178.69879
735.912	14263.69464
736.105	13842.72405
736.298	13911.54381
736.491	13915.59193
736.684	13520.84368
736.877	14026.91126
737.07	14265.71831
737.263	14079.53236
737.456	14069.41304
737.649	14209.05484
737.842	14320.3567
738.035	13864.98962
738.228	14259.64729
738.421	14328.45117
738.614	14300.12041
738.807	14241.43415
739	14057.26978
739.192	13976.31251
739.385	13842.72405
739.578	13707.09885
739.771	13860.94136
739.964	13763.77968
740.156	14312.2622
740.349	13779.97377
740.542	14089.65163
740.735	13696.97701
740.927	13962.14458
741.12	13812.36136
741.313	13966.19258
741.505	13885.23075
741.698	14126.08052
741.891	14120.00908
742.083	13913.56787
742.276	14075.48464
742.468	13903.44753
742.661	13788.07074
742.854	13648.39106
743.046	13575.50854
743.239	13834.6274
743.431	14166.55623
743.624	14063.34142
743.816	13966.19258
744.009	14190.84126
744.201	13794.14343
744.393	13889.27894
744.586	13759.73113
744.778	13656.48885
744.971	13729.36661
745.163	14045.12644
745.355	13615.99938
745.548	13743.53681
745.74	13583.60682
745.932	13771.87675
746.125	13506.67087
746.317	13834.6274
746.509	13553.23798
746.702	13802.24032
746.894	13713.17191
747.086	13709.1232
747.278	13699.00138
747.471	13520.84368
747.663	13585.63138
747.855	13346.70775
748.047	13638.26875
748.239	13494.52262
748.431	13526.91768
748.623	13832.60323
748.815	13595.75413
749.008	13761.75541
749.2	13573.48396
749.392	13798.19188
749.584	13103.67599
749.776	13239.37655
749.968	13709.1232
750.16	13601.82774
750.352	13468.20093
750.544	13597.77867
750.736	13579.55769
750.928	13605.8768
751.12	13257.60344
751.311	13312.28205
751.503	13567.4102
751.695	13381.13226
751.887	13172.54152
752.079	13520.84368
752.271	13407.45611
752.463	13259.62863
752.654	13423.65507
752.846	13358.85771
753.038	13188.7444
753.23	13486.4237
753.421	13482.37422
753.613	13198.87105
753.805	13304.18171
753.997	12990.23835
754.188	13144.18577
754.38	12931.48769
754.572	13247.47743
754.763	13263.679
754.955	12939.59148
755.146	13176.59226
755.338	12951.74702
755.53	12961.8765
755.721	12757.23525
755.913	13454.02745
756.104	13065.18993
756.296	13403.40633
756.487	13101.65045
756.679	13206.97229
756.87	13107.72705
757.062	13247.47743
757.253	12951.74702
757.445	12824.10435
757.636	12953.77293
757.827	12882.86314
758.019	12589.02139
758.21	12939.59148
758.401	12655.90652
758.593	12668.06674
758.784	12465.36734
758.975	12666.04005
759.167	12351.82744
759.358	12694.41316
759.549	12568.75185
759.74	12643.74608
759.932	12522.12952
760.123	12749.12948
760.314	12595.10213
760.505	12645.77283
760.696	12749.12948
760.888	12890.96744
761.079	12830.18306
761.27	12880.83705
761.461	12262.60244
761.652	12629.55862
761.843	12546.45463
762.034	12546.45463
762.225	12465.36734
762.416	12436.98433
762.607	12215.95662
762.798	12582.94059
762.989	12361.9658
763.18	12392.37983
763.371	12088.16766
763.562	12272.74233
763.753	12345.74435
763.944	12562.67086
764.135	12428.87466
764.326	12505.91227
764.517	12280.85412
764.708	12240.29404
764.899	12015.13183
765.089	12386.29715
765.28	12301.13309
765.471	12067.88094
765.662	11905.5588
765.853	12189.58989
766.043	11755.36397
766.234	12019.18964
766.425	11988.75528
766.615	12376.1592
766.806	12246.37824
766.997	11933.96889
767.187	11743.18396
767.378	12114.53926
767.569	12017.16074
767.759	11755.36397
767.95	11791.90213
768.141	11574.66091
768.331	11588.87611
768.522	11731.00363
768.712	11848.73376
768.903	11795.96176
769.093	11728.97354
769.284	11668.06688
769.474	11519.82658
769.665	11495.45357
769.855	11881.20601
770.046	11913.67613
770.236	11684.30944
770.426	11741.15392
770.617	11745.21398
770.807	11483.26655
770.998	11460.92278
771.188	11414.20023
771.378	11255.71085
771.569	11635.58003
771.759	11341.05886
771.949	11202.86731
772.139	11568.56855
772.33	11574.66091
772.52	11377.63114
772.71	11282.13
772.9	11280.09782
773.09	11501.54695
773.281	11493.42242
773.471	11280.09782
773.661	11296.35499
773.851	11310.57948
774.041	11162.21363
774.231	11257.74315
774.421	10999.55606
774.611	11089.0263
774.802	11009.7242
774.992	11129.68764
775.182	11084.95993
775.372	10971.08377
775.562	10842.93104
775.752	11005.65698
775.942	10832.75823
776.131	11097.15892
776.321	10694.37882
776.511	11066.66073
776.701	10767.64535
776.891	11070.72729
777.081	10918.20082
777.271	11028.02617
777.461	10747.29509
777.651	11080.89352
777.84	10877.51641
778.03	11119.52271
778.22	11036.16009
778.41	11438.57785
778.599	10946.6772
778.789	11011.7578
778.979	10663.84649
779.169	10869.37897
779.358	10645.52577
779.548	10930.40526
779.738	10600.73761
779.927	10700.48496
780.117	10649.59713
780.307	10696.41421
780.496	10466.3368
780.686	10704.55566
780.875	10541.68948
781.065	10509.10667
781.254	10388.92925
781.444	10922.26901
781.633	10631.27564
781.823	10494.85067
782.012	10564.08828
782.202	10728.97884
782.391	10529.47131
782.581	10602.77356
782.77	10425.59832
782.96	10498.92388
783.149	10136.20264
783.338	10393.0038
783.528	10238.13359
783.717	10295.20001
783.906	10460.22636
784.096	10433.74643
784.285	10248.3248
784.474	10187.17241
784.663	10119.89048
784.853	10087.26347
785.042	9999.56042
785.231	10229.98037
785.42	10017.91905
785.61	10019.95883
785.799	10064.8303
785.988	10333.91766
786.177	9979.16057
786.366	10136.20264
786.555	9840.40296
786.744	9887.34329
786.933	9919.99282
787.122	10266.66812
787.312	10107.65577
787.501	10113.77319
787.69	9773.04001
787.879	10113.77319
788.068	9842.44401
788.257	9679.11264
788.445	9262.16326
788.634	9752.62376
788.823	9777.12308
789.012	9850.60805
789.201	9813.86799
789.39	9677.07038
789.579	9544.29013
789.768	9807.74418
789.957	9425.75282
790.145	10001.60033
790.334	9744.45684
790.523	9726.08036
790.712	9503.42129
790.9	9640.30707
791.089	9290.79908
791.278	9458.45817
791.467	9495.24675
791.655	9685.23932
791.844	9458.45817
792.033	9368.50846
792.221	9292.84437
792.41	9585.15264
792.599	9438.01781
792.787	9450.28222
792.976	9617.83812
793.164	9695.45016
793.353	9427.79703
793.541	9756.70713
793.73	9401.22109
793.918	9458.45817
794.107	9421.66436
794.295	9542.24684
794.484	9523.85651
794.672	9339.88146
794.861	9313.29635
795.049	9456.41421
795.238	9374.6424
795.426	9583.10967
795.614	9335.79163
795.803	9319.43163
795.991	9337.83655
796.179	9323.52173
796.368	9331.70173
796.556	9176.23606
796.744	8905.98166
796.932	9217.15749
797.121	8955.14152
797.309	9282.61775
797.497	9110.74761
797.685	9049.33618
797.874	9006.33887
798.062	9155.7728
798.25	8598.49646
798.438	8914.17568
798.626	8865.00727
798.814	8881.39788
799.002	8926.46618
799.19	9127.12137
799.378	9057.52527
799.566	9039.09942
799.755	9041.14681
799.943	9204.88177
800.131	9135.30783
800.318	8996.10028
800.506	8922.36942
800.694	9004.29119
800.882	9069.80839
801.07	9225.34096
801.258	9106.654
801.446	9035.0046
801.634	8940.80428
801.822	8926.46618
802.01	9082.09088
802.197	8871.15388
802.385	8899.83596
802.573	9014.52943
802.761	8860.90944
802.949	9110.74761
803.136	8709.23866
803.324	8760.48994
803.512	8785.0865
803.699	8889.59276
803.887	8856.81153
804.075	8584.13701
804.262	8799.43328
804.45	8887.54407
804.638	8770.73883
804.825	8983.81339
805.013	8766.63933
805.201	8897.78735
805.388	8975.62178
805.576	9280.57238
805.763	8826.07494
805.951	8987.90909
806.138	9184.42089
806.326	9159.86559
806.513	8963.33384
806.701	9004.29119
806.888	8848.6155
807.075	8971.52587
807.263	8957.18962
807.45	9176.23606
807.638	8801.48275
807.825	9102.56032
808.012	8971.52587
808.2	8971.52587
808.387	9098.46657
808.574	9051.38348
808.761	9069.80839
808.949	9039.09942
809.136	8948.9971
809.323	9170.09726
809.51	9024.76723
809.698	9069.80839
809.885	9049.33618
810.072	9063.66691
810.259	8903.93311
810.446	9037.05202
810.633	8852.71355
810.82	8903.93311
811.008	8694.88624
811.195	9125.07471
811.382	8918.27259
811.569	9163.95831
811.756	8776.88794
811.943	9037.05202
812.13	8795.33429
812.317	8996.10028
812.504	9073.90262
812.691	8924.41781
812.878	8938.75604
813.064	9100.51345
813.251	8858.86049
813.438	9331.70173
813.625	8983.81339
813.812	9102.56032
813.999	8936.70777
814.186	9145.54053
814.372	8961.28578
814.559	9206.92777
814.746	8731.79064
814.933	8803.5322
815.12	8737.94079
815.306	8938.75604
815.493	8895.73873
815.68	8883.44663
815.866	8664.128
816.053	8836.32092
816.24	8662.07731
816.426	8826.07494
816.613	8783.03689
816.799	9118.93462
816.986	8807.63104
817.173	8844.51738
817.359	8660.02659
817.546	8815.82851
817.732	8629.26363
817.919	8672.33061
818.105	8828.12418
818.292	8801.48275
818.478	8637.46749
818.665	8735.89076
818.851	8760.48994
819.037	8920.32101
819.224	8776.88794
819.41	8799.43328
819.597	8602.599
819.783	8602.599
819.969	8672.33061
820.156	8834.27176
820.342	8586.18842
820.528	8705.13806
820.714	8374.79387
820.901	8555.41535
821.087	8573.8797
821.273	8647.72191
821.459	8846.56645
821.646	8676.4318
821.832	8662.07731
822.018	8701.03738
822.204	8565.67351
822.39	8756.39026
822.576	8200.18756
822.762	8549.26023
822.948	8479.49025
823.134	8500.01311
823.32	8122.08208
823.507	8446.64971
823.693	8629.26363
823.879	8606.70145
824.065	8290.58969
824.25	8216.62715
824.436	8093.2991
824.622	8274.15577
824.808	8249.50254
824.994	8327.56141
825.18	8054.23017
825.366	8341.9376
825.552	8202.24257
825.738	8259.77507
825.923	8212.51737
826.109	8401.48594
826.295	8348.09853
826.481	8270.0471
826.667	8380.95387
826.852	8491.8042
827.038	8052.1737
827.224	8346.0449
827.409	8270.0471
827.595	8317.29212
827.781	8126.19362
827.966	8095.35516
828.152	7846.42449
828.338	8120.02629
828.523	7978.12757
828.709	8169.35989
828.894	8068.62483
829.08	8037.77791
829.266	8074.79367
829.451	8060.39943
829.637	7541.53347
829.822	7920.51784
830.008	7722.87569
830.193	7784.65949
830.378	7733.1743
830.564	8054.23017
830.749	7755.8294
830.935	8056.28661
831.12	7799.073
831.305	8078.90613
831.491	7856.71683
831.676	7817.60316
831.861	7485.86122
832.047	7743.47239
832.232	7360.02513
832.417	7632.22515
832.602	7310.49363
832.788	7570.3944
832.973	7450.80025
833.158	7543.5951
833.343	7477.61214
833.528	7582.76209
833.714	7467.30031
833.899	7516.79218
834.084	7467.30031
834.269	7574.51705
834.454	7310.49363
834.639	7617.79969
834.824	7527.10143
835.009	7634.28585
835.194	7527.10143
835.379	7797.01399
835.564	7475.54982
835.749	7652.83115
835.934	7310.49363
836.119	7384.78616
836.304	7345.57974
836.489	7395.10233
836.674	7178.3477
836.859	7393.03914
837.044	6994.43099
837.228	7496.17208
837.413	7423.98471
837.598	7584.82329
837.783	7132.9016
837.968	7277.46561
838.152	6948.94104
838.337	7320.81373
838.522	6998.5659
838.707	7331.13328
838.891	6822.75253
839.076	7227.91302
839.261	7095.71041
839.445	7157.69171
839.63	7031.64193
839.815	7110.17451
839.999	6679.91249
840.184	7130.83561
840.368	6775.15128
840.553	7041.97701
840.737	6864.13512
840.922	7182.47863
841.106	6975.82278
841.291	6926.19197
841.475	7056.44518
841.66	6855.85933
841.844	6692.3377
842.029	6679.91249
842.213	6773.08139
842.397	6932.39653
842.582	6667.48647
842.766	7064.71222
842.951	6516.23662
843.135	6704.76207
843.319	6657.13081
843.504	6698.54999
843.688	6530.74537
843.872	6652.98838
844.056	6797.9186
844.241	6764.80159
844.425	6570.12054
844.609	6516.23662
844.793	6615.70242
844.977	6907.57705
845.161	6545.25299
845.346	6619.84568
845.53	6568.04837
845.714	6675.77058
845.898	6383.53245
846.082	6611.55908
846.266	6229.97421
846.45	6503.79965
846.634	6433.30768
846.818	6447.82293
847.002	6358.63981
847.186	6648.84587
847.37	6202.98452
847.554	6483.0695
847.738	6273.56456
847.922	6507.9454
848.106	6342.04284
848.29	6356.56527
848.473	6321.29454
848.657	6194.67921
848.841	6159.37743
849.025	6275.64004
849.209	5953.66147
849.392	6215.44179
849.576	5835.11418
849.76	6011.86716
849.944	5789.33858
850.127	6072.13216
850.311	5918.31328
850.495	6059.66516
850.678	6101.21852
850.862	6130.30028
851.046	5903.75616
851.229	6018.10239
851.413	5691.50698
851.596	6084.59831
851.78	5645.69556
851.964	5993.1602
852.147	5916.23376
852.331	6061.74305
852.514	5860.07787
852.698	6018.10239
852.881	5685.26064
853.065	5974.45133
853.248	5731.06221
853.431	5743.55156
853.615	5891.27771
853.798	5845.51613
853.982	5693.58905
854.165	5959.89867
854.348	5597.78959
854.532	5776.85234
854.715	5562.37281
854.898	5618.61981
855.081	5426.89296
855.265	5464.42041
855.448	5691.50698
855.631	5693.58905
855.814	5539.45245
855.997	5520.6973
856.181	5668.6027
856.364	5643.61295
856.547	5474.84335
856.73	5547.78746
856.913	5456.08164
857.096	5639.44766
857.279	5310.09223
857.462	5610.288
857.645	5301.74651
857.828	5539.45245
858.011	5406.04109
858.194	5485.26571
858.377	5289.22722
858.56	5460.25107
858.743	5391.44338
858.926	5376.84452
859.109	5347.64335
859.292	5203.65624
859.475	5070.00374
859.658	5381.01574
859.841	5180.6915
860.023	5431.06306
860.206	5051.20124
860.389	5368.50179
860.572	4988.51269
860.755	5205.74381
860.937	5191.13037
861.12	5044.93332
861.303	5195.30576
861.486	5126.4
861.668	5157.72394
861.851	5243.31597
862.034	4716.62377
862.216	4892.34999
862.399	4649.63842
862.581	4856.79932
862.764	4687.32051
862.947	4988.51269
863.129	4687.32051
863.312	4724.99531
863.494	4553.30679
863.677	4860.98209
863.859	4900.71389
864.042	5021.94917
864.224	4681.04067
864.406	4909.07742
864.589	4599.38433
864.771	5024.03875
864.954	4456.92819
865.136	4678.94734
865.318	4425.49031
865.501	4494.64712
865.683	4591.0074
865.865	4888.1679
866.048	4473.69304
866.23	4490.45648
866.412	4322.75905
866.594	4498.83767
866.777	4519.7891
866.959	4505.12333
867.141	4299.68978
867.323	4438.06605
867.505	4285.00798
867.687	4394.04751
867.869	4381.46902
868.052	4490.45648
868.234	4264.03216
868.416	4823.33383
868.598	4247.24997
868.78	4454.83248
868.962	4326.95318
869.144	4484.17035
869.326	4394.04751
869.508	4452.73676
869.69	4222.07411
869.872	4448.54524
870.054	4266.12984
870.236	4482.07493
870.417	4276.61791
870.599	4427.58632
870.781	4251.44564
870.963	4268.2275
871.145	4178.009
871.327	4356.30968
871.508	4060.4567
871.69	4347.92254
871.872	4098.24851
872.054	4314.37053
872.235	4171.71323
872.417	4308.07891
872.599	4215.77967
872.78	4551.2121
872.962	4091.95034
873.144	4203.19021
873.325	4033.15844
873.507	4165.41726
873.689	4007.95695
873.87	4201.09189
874.052	3953.34362
874.233	4201.09189
874.415	3936.53675
874.596	4234.66242
874.778	3989.0539
874.959	4301.7871
875.141	3934.4358
875.322	4154.92356
875.503	3852.48308
875.685	4159.1211
875.866	4054.15741
876.048	4106.64578
876.229	3846.17776
876.41	4028.9584
876.592	3972.2498
876.773	4331.14723
876.954	4039.45835
877.136	4280.81299
877.317	4005.8567
877.498	4104.54649
877.679	3785.21721
877.86	4266.12984
878.042	3991.15432
878.223	4205.28851
878.404	3980.65201
878.585	4308.07891
878.766	4037.3584
878.947	4331.14723
879.128	4054.15741
879.309	4356.30968
879.49	4089.85091
879.672	4125.5384
879.853	3989.0539
880.034	4222.07411
880.215	4007.95695
880.396	4324.85613
880.576	4001.65612
880.757	4163.31856
880.938	4096.14914
881.119	4280.81299
881.3	4066.7558
881.481	4163.31856
881.662	3902.91914
881.843	4240.95629
882.023	3911.32402
882.204	4299.68978
882.385	3947.0412
882.566	4224.17222
882.747	3785.21721
882.927	3978.55149
883.108	4133.93458
883.289	4247.24997
883.469	4320.66195
883.65	4350.01936
883.831	4041.55827
884.011	4305.98166
884.192	4272.42275
884.373	4385.66193
884.553	4058.35696
884.734	4320.66195
884.914	4303.88439
885.095	4400.33646
885.275	4165.41726
885.456	4207.38678
885.636	4165.41726
885.817	4557.49611
885.997	4070.9551
886.178	4339.53506
886.358	4184.30459
886.538	4280.81299
886.719	4373.08292
886.899	4356.30968
887.08	4052.05761
887.26	4343.72884
887.44	4022.65818
887.621	4352.11616
887.801	3919.72859
887.981	4303.88439
888.161	4148.62709
888.342	4287.10545
888.522	4079.35345
888.702	4224.17222
888.882	4173.81184
889.062	4196.89519
889.242	3940.73859
889.423	4104.54649
889.603	3896.61526
889.783	4150.72593
889.963	3905.02039
890.143	4383.56549
890.323	4112.94351
890.503	4326.95318
890.683	4108.74504
890.863	4201.09189
891.043	3888.20981
891.223	4305.98166
891.403	3913.4252
891.583	4356.30968
891.763	4031.05843
891.943	4540.73833
892.122	4131.83557
892.302	4517.69406
892.482	4205.28851
892.662	4280.81299
892.842	4247.24997
893.022	4408.72143
893.201	4020.55807
893.381	4268.2275
893.561	4087.75146
893.741	4243.0542
893.92	4039.45835
894.1	4165.41726
894.28	4104.54649
894.459	4087.75146
894.639	3913.4252
894.819	3982.75251
894.998	3877.70255
895.178	4115.04271
895.357	3982.75251
895.537	3993.25472
895.716	3831.46467
895.896	3999.5558
896.075	3818.85267
896.255	3959.64586
896.434	3701.10671
896.614	4163.31856
896.793	3629.5886
896.973	3835.66851
897.152	3665.35041
897.331	3902.91914
897.511	3627.4848
897.69	3953.34362
897.87	3743.16584
898.049	3778.91001
898.228	3511.74673
898.407	3734.75463
898.587	3421.22203
898.766	3711.62222
898.945	3484.38232
899.124	3619.06938
899.304	3553.83979
899.483	3619.06938
899.662	3414.90512
899.841	3606.4457
900.02	3343.30235
900.199	3433.85538
900.378	3372.7883
900.557	3478.06702
900.737	3172.63942
900.916	3448.59347
901.095	3286.42702
901.274	3366.47017
901.453	3246.39619
901.632	3200.03715
901.811	3056.69577
901.989	3223.21768
902.168	2997.6517
902.347	3383.31816
902.526	3063.02121
902.705	3181.06978
902.884	3111.5115
903.063	3292.74711
903.242	3136.80745
903.42	3360.15188
903.599	2854.21012
903.778	3178.96222
903.957	2849.99024
904.135	2980.77976
904.314	2820.44949
904.493	2875.30869
904.672	2733.92181
904.85	2849.99024
905.029	2529.12363
905.207	2959.6885
905.386	2626.25894
905.565	2655.81674
905.743	2660.03909
905.922	2721.25733
906.1	2311.53917
906.279	2660.03909
906.457	2393.93863
906.636	2641.03815
906.814	2419.28919
906.993	2565.0244
907.171	2400.27641
907.35	2584.02931
907.528	2180.51563
907.707	2467.87349
907.885	2322.10404
908.063	2258.71126
908.242	2292.5218
908.42	2324.21699
908.598	2055.80217
908.777	2364.36109
908.955	2349.57157
909.133	2300.97406
909.311	2286.1825
909.49	2429.85148
909.668	2060.03017
909.846	2472.09794
910.024	2030.43357
910.202	2341.1202
910.38	2252.37152
910.559	2229.12513
910.737	2169.94776
910.915	2425.6266
911.093	2172.06135
911.271	2220.67163
911.449	2144.58402
911.627	2248.14499
911.805	2172.06135
911.983	2269.27731
912.161	2220.67163
912.339	2461.53674
912.517	2150.92507
912.695	2415.0642
912.872	2269.27731
913.05	2305.20013
913.228	2203.76422
913.406	2495.33162
913.584	2330.55577
913.762	2584.02931
913.939	2377.03742
914.117	2343.23306
914.295	2224.8984
914.473	2271.39049
914.65	2267.16412
914.828	2400.27641
915.006	2319.99109
915.184	2391.82601
915.361	2114.99156
915.539	2269.27731
915.716	2083.28367
915.894	2326.32992
916.072	2157.26603
916.249	2307.31315
916.427	2150.92507
916.604	2326.32992
916.782	2136.12919
916.959	2334.78157
917.137	2055.80217
917.314	2360.13556
917.492	2021.97715
917.669	2102.30861
917.847	1928.94978
918.024	2114.99156
918.201	1939.52167
918.379	2093.85316
918.556	1903.57668
918.733	2267.16412
918.911	1844.36982
919.088	2066.37212
919.265	1772.4708
919.442	2241.80512
919.62	1666.72896
919.797	2072.71401
919.974	1880.31732
920.151	2119.21914
920.328	1888.77534
920.506	2153.03873
920.683	1852.82818
920.86	1954.32206
921.037	1821.10893
921.214	1922.60658
921.391	1732.28989
921.568	2021.97715
921.745	1744.97874
921.922	1914.1489
922.099	1728.06025
922.276	1774.58555
922.453	1736.51952
922.63	1971.23644
922.807	1664.61404
922.984	1844.36982
923.161	1615.9703
923.338	1774.58555
923.514	1601.16545
923.691	1666.72896
923.868	1590.5905
924.045	1656.15435
924.222	1539.83018
924.399	1666.72896
924.575	1374.85664
924.752	1635.00495
924.929	1436.19294
925.105	1687.87797
925.282	1505.98959
925.459	1569.44047
925.635	1491.18427
925.812	1641.3498
925.989	1419.27253
926.165	1427.73273
926.342	1328.3262
926.518	1501.7595
926.695	1370.62658
926.871	1514.44976
927.048	1336.78623
927.224	1389.6619
927.401	1220.46377
927.577	1281.79656
927.754	1167.59277
927.93	1404.4672
928.107	1294.48636
928.283	1283.91152
928.459	1334.67122
928.636	1372.74161
928.812	1091.46294
928.988	1192.97058
929.165	1220.46377
929.341	1302.94628
929.517	1214.11914
929.693	1220.46377
929.87	1116.8389
930.046	1125.29771
930.222	1169.70757
930.398	1161.24841
930.574	1112.60953
930.751	1207.77453
930.927	905.3981
931.103	1157.01885
931.279	888.48578
931.455	1040.71324
931.631	926.53919
931.807	1097.80687
931.983	854.66273
932.159	915.96855
932.335	721.50723
932.511	890.59979
932.687	727.84706
932.863	947.68104
933.039	755.32078
933.215	962.48076
933.391	871.57399
933.566	907.51217
933.742	664.45318
933.918	791.25055
934.094	656.00144
934.27	772.22855
934.445	603.18247
934.621	687.69643
934.797	607.4077
934.973	630.64738
935.148	535.58592
935.324	594.73216
935.5	476.45062
935.675	569.38248
935.851	520.80104
936.027	577.83217
936.202	419.43842
936.378	491.23337
936.553	448.99889
936.729	385.65888
936.904	432.10681
937.08	525.02522
937.255	366.65975
937.431	322.33385
937.606	383.5478
937.782	263.24494
937.957	358.21613
938.133	271.68532
938.308	305.44984
938.483	240.03545
938.659	240.03545
938.834	271.68532
939.009	320.22329
939.185	216.8283
939.36	98.72115
939.535	254.80485
939.71	237.92561
939.886	227.37671
940.061	159.87558
940.236	218.93794
940.411	197.84241
940.586	246.36508
940.761	161.98467
940.937	206.28038
941.112	155.65745
941.287	199.95188
941.462	119.80683
941.637	212.60907
941.812	180.96744
941.987	64.98867
942.162	180.96744
942.337	164.09378
942.512	140.89469
942.687	178.85816
942.862	130.35049
943.037	121.91552
943.212	212.60907
943.386	88.17913
943.561	183.07674
943.736	88.17913
943.911	111.37229
944.086	102.93811
944.26	119.80683
944.435	128.24171
944.61	86.0708
944.785	176.7489
944.959	86.0708
945.134	35.47754
945.309	149.33043
945.483	187.2954
945.658	145.11251
945.833	155.65745
946.007	86.0708
946.182	145.11251
946.357	138.7858
946.531	157.7665
946.706	109.26371
946.88	161.98467
947.055	79.74592
947.229	231.59621
947.404	155.65745
947.578	128.24171
947.752	159.87558
947.927	138.7858
948.101	134.5681
948.276	111.37229
948.45	119.80683
948.624	147.22146
948.799	223.15728
948.973	157.7665
949.147	111.37229
949.321	126.13296
949.496	153.54842
949.67	164.09378
949.844	189.40476
950.018	140.89469
950.193	109.26371
950.367	124.02423
950.541	83.96248
950.715	58.66448
950.889	140.89469
951.063	153.54842
951.237	174.63967
951.411	111.37229
951.585	210.49949
951.759	159.87558
951.933	90.28749
952.107	240.03545
952.281	130.35049
952.455	117.69816
952.629	149.33043
952.803	195.73297
952.977	145.11251
953.151	174.63967
953.325	145.11251
953.499	246.36508
953.672	159.87558
953.846	136.67694
954.02	128.24171
954.194	128.24171
954.368	119.80683
954.541	113.4809
954.715	60.77252
954.889	140.89469
955.062	229.48645
955.236	242.1453
955.41	153.54842
955.583	180.96744
955.757	132.45929
955.93	187.2954
956.104	189.40476
956.278	145.11251
956.451	206.28038
956.625	164.09378
956.798	208.38993
956.972	183.07674
957.145	221.0476
957.319	170.42125
957.492	145.11251
957.665	155.65745
957.839	189.40476
958.012	136.67694
958.185	170.42125
958.359	178.85816
958.532	149.33043
958.705	75.52945
958.879	107.15516
959.052	128.24171
959.225	132.45929
959.398	134.5681
959.572	124.02423
959.745	121.91552
959.918	77.63768
960.091	204.17086
960.264	128.24171
960.438	145.11251
960.611	170.42125
960.784	210.49949
960.957	113.4809
961.13	178.85816
961.303	69.20492
961.476	79.74592
961.649	161.98467
961.822	124.02423
961.995	128.24171
962.168	119.80683
962.341	138.7858
962.514	199.95188
962.686	189.40476
962.859	119.80683
963.032	204.17086
963.205	113.4809
963.378	174.63967
963.551	161.98467
963.723	229.48645
963.896	48.12461
964.069	170.42125
964.242	119.80683
964.414	153.54842
964.587	134.5681
964.76	164.09378
964.932	128.24171
965.105	161.98467
965.278	102.93811
965.45	136.67694
965.623	138.7858
965.795	113.4809
965.968	143.00359
966.14	124.02423
966.313	88.17913
966.485	161.98467
966.658	130.35049
966.83	138.7858
967.003	145.11251
967.175	119.80683
967.348	170.42125
967.52	111.37229
967.692	178.85816
967.865	115.58952
968.037	111.37229
968.209	128.24171
968.382	151.43941
968.554	90.28749
968.726	128.24171
968.898	138.7858
969.071	161.98467
969.243	69.20492
969.415	140.89469
969.587	155.65745
969.759	128.24171
969.932	121.91552
970.104	136.67694
970.276	166.20292
970.448	94.50427
970.62	178.85816
970.792	69.20492
970.964	153.54842
971.136	81.85419
971.308	41.80097
971.48	113.4809
971.652	117.69816
971.824	88.17913
971.996	60.77252
972.168	102.93811
972.339	54.44846
972.511	86.0708
972.683	102.93811
972.855	96.6127
973.027	102.93811
973.199	94.50427
973.37	79.74592
973.542	155.65745
973.714	128.24171
973.886	130.35049
974.057	69.20492
974.229	69.20492
974.401	143.00359
974.572	88.17913
974.744	98.72115
974.915	121.91552
975.087	132.45929
975.259	86.0708
975.43	90.28749
975.602	128.24171
975.773	111.37229
975.945	77.63768
976.116	128.24171
976.288	67.09678
976.459	187.2954
976.63	102.93811
976.802	98.72115
976.973	102.93811
977.145	111.37229
977.316	111.37229
977.487	81.85419
977.659	96.6127
977.83	96.6127
978.001	119.80683
978.172	119.80683
978.344	119.80683
978.515	64.98867
978.686	153.54842
978.857	73.42125
979.028	140.89469
979.2	140.89469
979.371	62.88058
979.542	77.63768
979.713	105.04662
979.884	35.47754
980.055	98.72115
980.226	94.50427
980.397	64.98867
980.568	98.72115
980.739	12.29343
980.91	145.11251
981.081	31.26204
981.252	20.72369
981.423	109.26371
981.594	153.54842
981.765	60.77252
981.936	43.90883
982.106	22.83131
982.277	81.85419
982.448	27.04663
982.619	56.55646
982.79	83.96248
982.96	96.6127
983.131	136.67694
983.302	138.7858
983.472	145.11251
983.643	29.15432
983.814	105.04662
983.984	100.82962
984.155	83.96248
984.326	56.55646
984.496	18.61609
984.667	69.20492
984.837	88.17913
985.008	67.09678
985.178	100.82962
985.349	94.50427
985.519	94.50427
985.69	35.47754
985.86	-0.35123
986.031	43.90883
986.201	69.20492
986.371	88.17913
986.542	46.01671
986.712	140.89469
986.882	69.20492
987.053	121.91552
987.223	48.12461
987.393	94.50427
987.563	62.88058
987.734	18.61609
987.904	69.20492
988.074	20.72369
988.244	43.90883
988.414	-19.31659
988.585	29.15432
988.755	138.7858
988.925	58.66448
989.095	105.04662
989.265	27.04663
989.435	1.75615
989.605	71.31307
989.775	12.29343
989.945	10.18593
990.115	50.23254
990.285	18.61609
990.455	50.23254
990.625	86.0708
990.795	67.09678
990.965	130.35049
991.134	54.44846
991.304	100.82962
991.474	86.0708
991.644	107.15516
991.814	62.88058
991.984	46.01671
992.153	113.4809
992.323	39.69314
992.493	46.01671
992.662	60.77252
992.832	86.0708
993.002	48.12461
993.171	31.26204
993.341	54.44846
993.511	71.31307
993.68	77.63768
993.85	35.47754
994.019	-31.95906
994.189	124.02423
994.358	102.93811
994.528	52.34049
994.697	50.23254
994.867	71.31307
995.036	-15.10224
995.206	77.63768
995.375	37.58533
995.544	145.11251
995.714	54.44846
995.883	-17.20943
996.052	22.83131
996.222	3.86356
996.391	43.90883
996.56	64.98867
996.73	56.55646
996.899	83.96248
997.068	77.63768
997.237	35.47754
997.406	-23.53085
997.576	54.44846
997.745	5.97099
997.914	48.12461
998.083	58.66448
998.252	54.44846
998.421	48.12461
998.59	48.12461
998.759	132.45929
998.928	35.47754
999.097	1.75615
999.266	-4.56592
999.435	-38.27997
999.604	119.80683
999.773	29.15432
999.942	27.04663
1000.111	60.77252
1000.28	48.12461
1000.448	54.44846
1000.617	50.23254
1000.786	31.26204
1000.955	5.97099
1001.124	71.31307
1001.292	145.11251
1001.461	-2.45859
1001.63	-15.10224
1001.798	3.86356
1001.967	69.20492
1002.136	41.80097
1002.304	58.66448
1002.473	1.75615
1002.642	96.6127
1002.81	12.29343
1002.979	119.80683
1003.147	-15.10224
1003.316	31.26204
1003.484	43.90883
1003.653	1.75615
1003.821	113.4809
1003.99	-12.99502
1004.158	52.34049
1004.327	69.20492
1004.495	35.47754
1004.663	48.12461
1004.832	-4.56592
1005	33.36978
1005.168	31.26204
1005.337	37.58533
1005.505	-34.06606
1005.673	46.01671
1005.842	-6.67324
1006.01	52.34049
1006.178	-19.31659
1006.346	46.01671
1006.514	18.61609
1006.683	-21.42373
1006.851	-29.85205
1007.019	10.18593
1007.187	64.98867
1007.355	27.04663
1007.523	64.98867
1007.691	20.72369
1007.859	-15.10224
1008.027	10.18593
1008.195	37.58533
1008.363	5.97099
1008.531	33.36978
1008.699	88.17913
1008.867	1.75615
1009.035	119.80683
1009.203	35.47754
1009.37	121.91552
1009.538	62.88058
1009.706	77.63768
1009.874	35.47754
1010.042	10.18593
1010.209	-19.31659
1010.377	-2.45859
1010.545	124.02423
1010.713	31.26204
1010.88	73.42125
1011.048	18.61609
1011.216	33.36978
1011.383	143.00359
1011.551	27.04663
1011.718	107.15516
1011.886	24.93896
1012.054	60.77252
1012.221	20.72369
1012.389	64.98867
1012.556	29.15432
1012.724	14.40096
1012.891	43.90883
1013.058	-23.53085
1013.226	20.72369
1013.393	-15.10224
1013.561	14.40096
1013.728	102.93811
1013.895	94.50427
1014.063	43.90883
1014.23	62.88058
1014.397	54.44846
1014.565	22.83131
1014.732	12.29343
1014.899	107.15516
1015.066	22.83131
1015.233	-59.34802
1015.401	27.04663
1015.568	-19.31659
1015.735	46.01671
1015.902	22.83131
1016.069	117.69816
1016.236	-6.67324
1016.403	86.0708
1016.57	18.61609
1016.737	29.15432
1016.904	41.80097
1017.071	54.44846
1017.238	130.35049
1017.405	20.72369
1017.572	35.47754
1017.739	22.83131
1017.906	18.61609
1018.073	10.18593
1018.24	-2.45859
1018.407	20.72369
1018.573	119.80683
1018.74	-2.45859
1018.907	77.63768
1019.074	35.47754
1019.241	132.45929
1019.407	10.18593
1019.574	41.80097
1019.741	62.88058
1019.907	20.72369
1020.074	60.77252
1020.241	67.09678
1020.407	-25.63794
1020.574	50.23254
1020.74	-40.38689
1020.907	43.90883
1021.073	8.07845
1021.24	50.23254
1021.406	14.40096
1021.573	79.74592
1021.739	5.97099
1021.906	-2.45859
1022.072	69.20492
1022.239	64.98867
1022.405	54.44846
1022.571	20.72369
1022.738	60.77252
1022.904	27.04663
1023.07	33.36978
1023.237	43.90883
1023.403	10.18593
1023.569	-6.67324
1023.735	22.83131
1023.902	43.90883
1024.068	43.90883
1024.234	-31.95906
1024.4	-53.02787
1024.566	-21.42373
1024.732	-15.10224
1024.898	58.66448
1025.065	43.90883
1025.231	29.15432
1025.397	-44.60065
1025.563	22.83131
1025.729	37.58533
1025.895	75.52945
1026.061	16.50851
1026.227	37.58533
1026.392	43.90883
1026.558	-0.35123
1026.724	71.31307
1026.89	18.61609
1027.056	86.0708
1027.222	27.04663
1027.388	22.83131
1027.553	35.47754
1027.719	-4.56592
1027.885	79.74592
1028.051	18.61609
1028.216	54.44846
1028.382	35.47754
1028.548	67.09678
1028.713	-6.67324
1028.879	86.0708
1029.045	41.80097
1029.21	35.47754
1029.376	8.07845
1029.541	79.74592
1029.707	10.18593
1029.873	-6.67324
1030.038	27.04663
1030.204	69.20492
1030.369	52.34049
1030.534	1.75615
1030.7	10.18593
1030.865	35.47754
1031.031	69.20492
1031.196	71.31307
1031.361	-23.53085
1031.527	79.74592
1031.692	69.20492
1031.857	20.72369
1032.023	29.15432
1032.188	77.63768
1032.353	35.47754
1032.518	12.29343
1032.684	20.72369
1032.849	22.83131
1033.014	31.26204
1033.179	35.47754
1033.344	14.40096
1033.509	-6.67324
1033.674	67.09678
1033.839	-15.10224
1034.004	60.77252
1034.17	62.88058
1034.335	-0.35123
1034.5	-44.60065
1034.664	60.77252
1034.829	10.18593
1034.994	27.04663
1035.159	1.75615
1035.324	12.29343
1035.489	-27.74501
1035.654	27.04663
1035.819	5.97099
1035.984	5.97099
1036.148	-6.67324
1036.313	46.01671
1036.478	79.74592
1036.643	39.69314
1036.807	18.61609
1036.972	14.40096
1037.137	111.37229
1037.301	10.18593
1037.466	60.77252
1037.631	-21.42373
1037.795	69.20492
1037.96	14.40096
1038.124	-19.31659
1038.289	86.0708
1038.454	52.34049
1038.618	-10.88778
1038.783	-15.10224
1038.947	22.83131
1039.111	39.69314
1039.276	-12.99502
1039.44	-0.35123
1039.605	128.24171
1039.769	-15.10224
1039.933	79.74592
1040.098	22.83131
1040.262	48.12461
1040.426	20.72369
1040.591	35.47754
1040.755	-19.31659
1040.919	24.93896
1041.083	-31.95906
1041.248	43.90883
1041.412	86.0708
1041.576	3.86356
1041.74	18.61609
1041.904	20.72369
1042.068	56.55646
1042.232	29.15432
1042.397	8.07845
1042.561	-34.06606
1042.725	3.86356
1042.889	31.26204
1043.053	-36.17303
1043.217	71.31307
1043.381	33.36978
1043.544	-15.10224
1043.708	-6.67324
1043.872	-4.56592
1044.036	113.4809
1044.2	-21.42373
1044.364	31.26204
1044.528	1.75615
1044.691	-2.45859
1044.855	-57.24133
1045.019	35.47754
1045.183	35.47754
1045.346	33.36978
1045.51	60.77252
1045.674	20.72369
1045.837	48.12461
1046.001	31.26204
1046.165	64.98867
1046.328	10.18593
1046.492	71.31307
1046.655	10.18593
1046.819	37.58533
1046.983	41.80097
1047.146	157.7665
1047.31	10.18593
1047.473	27.04663
1047.636	-57.24133
1047.8	94.50427
1047.963	37.58533
1048.127	12.29343
1048.29	-46.70749
