Data from mixed_try1_USB4F045381__23__00171.txt Node

Date: Thu Apr 03 20:12:02 EDT 2025
User: mmckonesweet
Spectrometer: USB4F04538
Trigger mode: 4
Integration Time (sec): 2.700000E-3
Scans to average: 1
Electric dark correction enabled: true
Nonlinearity correction enabled: true
Boxcar width: 0
XAxis mode: Wavelengths
Number of Pixels in Spectrum: 3648
>>>>>Begin Spectral Data<<<<<
345.52	-10.53658
345.736	-10.53658
345.952	-10.53658
346.168	31.61332
346.384	-14.75104
346.6	10.53718
346.816	-14.75104
347.032	35.82884
347.248	-63.21022
347.464	-10.53658
347.68	33.72107
347.896	33.72107
348.112	10.53718
348.328	-58.9969
348.544	10.53718
348.76	16.85977
348.975	-4.2147
349.191	-2.10736
349.407	-0
349.623	-44.2495
349.839	-25.28676
350.055	-25.28676
350.27	6.32224
350.486	31.61332
350.702	-6.32202
350.918	31.61332
351.133	-31.6079
351.349	2.10739
351.565	-42.14263
351.781	-18.9654
351.996	40.04444
352.212	4.2148
352.428	40.04444
352.644	25.29023
352.859	92.74727
353.075	69.55627
353.291	18.96735
353.506	65.34002
353.722	-10.53658
353.938	-126.39756
354.153	-18.9654
354.369	-14.75104
354.584	14.75222
354.8	-25.28676
355.016	-35.82187
355.231	-2.10736
355.447	48.47593
355.662	33.72107
355.878	59.01582
356.093	12.64469
356.309	-33.71489
356.524	-27.39383
356.74	-75.84956
356.955	31.61332
357.171	-8.42931
357.386	40.04444
357.602	23.18258
357.817	-27.39383
358.033	33.72107
358.248	-8.42931
358.464	31.61332
358.679	-18.9654
358.895	23.18258
359.11	-31.6079
359.325	27.39791
359.541	-2.10736
359.756	40.04444
359.972	-35.82187
360.187	-16.85823
360.402	16.85977
360.618	6.32224
360.833	-12.64382
361.048	16.85977
361.264	84.31387
361.479	-25.28676
361.694	-82.16888
361.909	23.18258
362.125	35.82884
362.34	-6.32202
362.555	-44.2495
362.77	35.82884
362.986	29.5056
363.201	8.4297
363.416	4.2148
363.631	-27.39383
363.847	6.32224
364.062	14.75222
364.277	-18.9654
364.492	14.75222
364.707	-18.9654
364.922	16.85977
365.138	-16.85823
365.353	25.29023
365.568	-10.53658
365.783	-63.21022
365.998	6.32224
366.213	14.75222
366.428	18.96735
366.643	-25.28676
366.858	115.94096
367.073	56.90779
367.288	56.90779
367.503	-42.14263
367.718	37.93663
367.933	56.90779
368.148	-27.39383
368.363	8.4297
368.578	-2.10736
368.793	-10.53658
369.008	40.04444
369.223	-25.28676
369.438	75.88082
369.653	-18.9654
369.868	-2.10736
370.083	65.34002
370.298	14.75222
370.513	69.55627
370.728	23.18258
370.943	-8.42931
371.157	77.98905
371.372	35.82884
371.587	31.61332
371.802	23.18258
372.017	-27.39383
372.232	27.39791
372.446	-42.14263
372.661	33.72107
372.876	35.82884
373.091	14.75222
373.306	-33.71489
373.52	-40.03573
373.735	-48.46317
373.95	50.58386
374.165	109.61514
374.379	23.18258
374.594	8.4297
374.809	-33.71489
375.023	63.23193
375.238	-18.9654
375.453	-54.78349
375.667	23.18258
375.882	-35.82187
376.097	14.75222
376.311	59.01582
376.526	40.04444
376.741	48.47593
376.955	-10.53658
377.17	-10.53658
377.384	48.47593
377.599	-12.64382
377.813	-2.10736
378.028	48.47593
378.242	8.4297
378.457	-33.71489
378.672	-31.6079
378.886	6.32224
379.101	82.20557
379.315	16.85977
379.53	-16.85823
379.744	-33.71489
379.958	-18.9654
380.173	-2.10736
380.387	-31.6079
380.602	52.69182
380.816	31.61332
381.031	8.4297
381.245	-6.32202
381.459	18.96735
381.674	-10.53658
381.888	40.04444
382.103	6.32224
382.317	-58.9969
382.531	14.75222
382.746	-33.71489
382.96	6.32224
383.174	14.75222
383.388	48.47593
383.603	2.10739
383.817	27.39791
384.031	-56.89021
384.246	25.29023
384.46	2.10739
384.674	8.4297
384.888	27.39791
385.103	71.66443
385.317	-10.53658
385.531	-2.10736
385.745	-18.9654
385.959	-31.6079
386.174	6.32224
386.388	23.18258
386.602	-25.28676
386.816	6.32224
387.03	-2.10736
387.244	65.34002
387.458	18.96735
387.672	-25.28676
387.887	16.85977
388.101	-8.42931
388.315	23.18258
388.529	8.4297
388.743	40.04444
388.957	40.04444
389.171	25.29023
389.385	-94.80682
389.599	33.72107
389.813	-6.32202
390.027	-10.53658
390.241	-14.75104
390.455	-40.03573
390.669	-18.9654
390.883	6.32224
391.097	-0
391.311	31.61332
391.525	2.10739
391.738	25.29023
391.952	8.4297
392.166	-25.28676
392.38	56.90779
392.594	40.04444
392.808	-4.2147
393.022	-65.31684
393.236	-16.85823
393.449	-4.2147
393.663	-2.10736
393.877	-0
394.091	40.04444
394.305	-77.95602
394.518	-10.53658
394.732	10.53718
394.946	40.04444
395.16	-27.39383
395.373	56.90779
395.587	-16.85823
395.801	-10.53658
396.015	-10.53658
396.228	-2.10736
396.442	-21.07254
396.656	-23.17966
396.869	-50.56997
397.083	23.18258
397.297	27.39791
397.51	-29.50088
397.724	35.82884
397.938	-56.89021
398.151	-10.53658
398.365	-23.17966
398.578	-58.9969
398.792	48.47593
399.005	23.18258
399.219	54.79979
399.433	-2.10736
399.646	-16.85823
399.86	69.55627
400.073	-27.39383
400.287	8.4297
400.5	-48.46317
400.714	42.15228
400.927	31.61332
401.141	14.75222
401.354	-48.46317
401.567	25.29023
401.781	42.15228
401.994	37.93663
402.208	56.90779
402.421	-31.6079
402.635	8.4297
402.848	31.61332
403.061	4.2148
403.275	-48.46317
403.488	-40.03573
403.701	-2.10736
403.915	77.98905
404.128	29.5056
404.341	23.18258
404.555	44.26014
404.768	18.96735
404.981	42.15228
405.195	-58.9969
405.408	-73.74306
405.621	-29.50088
405.834	37.93663
406.048	-44.2495
406.261	-18.9654
406.474	16.85977
406.687	65.34002
406.9	44.26014
407.114	52.69182
407.327	-8.42931
407.54	65.34002
407.753	-6.32202
407.966	10.53718
408.179	-50.56997
408.392	37.93663
408.605	-61.10358
408.819	-6.32202
409.032	-14.75104
409.245	23.18258
409.458	69.55627
409.671	-12.64382
409.884	14.75222
410.097	21.07496
410.31	40.04444
410.523	6.32224
410.736	-35.82187
410.949	23.18258
411.162	10.53718
411.375	33.72107
411.588	-71.63655
411.801	12.64469
412.014	63.23193
412.227	-52.67674
412.44	-35.82187
412.653	25.29023
412.865	65.34002
413.078	6.32224
413.291	21.07496
413.504	-33.71489
413.717	31.61332
413.93	48.47593
414.143	-8.42931
414.356	18.96735
414.568	-16.85823
414.781	-23.17966
414.994	44.26014
415.207	-67.42343
415.42	-10.53658
415.632	12.64469
415.845	-46.35635
416.058	-6.32202
416.271	-16.85823
416.483	-52.67674
416.696	42.15228
416.909	37.93663
417.121	6.32224
417.334	67.44814
417.547	96.96411
417.759	75.88082
417.972	42.15228
418.185	33.72107
418.397	6.32224
418.61	23.18258
418.823	-35.82187
419.035	-48.46317
419.248	-18.9654
419.46	8.4297
419.673	27.39791
419.885	23.18258
420.098	33.72107
420.311	23.18258
420.523	-69.53
420.736	48.47593
420.948	-65.31684
421.161	50.58386
421.373	80.0973
421.586	14.75222
421.798	6.32224
422.01	-21.07254
422.223	6.32224
422.435	-18.9654
422.648	8.4297
422.86	31.61332
423.073	-16.85823
423.285	-14.75104
423.497	6.32224
423.71	-54.78349
423.922	-10.53658
424.134	52.69182
424.347	33.72107
424.559	-0
424.771	8.4297
424.984	-31.6079
425.196	33.72107
425.408	-35.82187
425.621	4.2148
425.833	42.15228
426.045	-44.2495
426.257	94.85568
426.47	33.72107
426.682	-0
426.894	65.34002
427.106	44.26014
427.318	25.29023
427.531	-10.53658
427.743	48.47593
427.955	8.4297
428.167	-18.9654
428.379	23.18258
428.591	14.75222
428.804	-0
429.016	-31.6079
429.228	-10.53658
429.44	-16.85823
429.652	6.32224
429.864	6.32224
430.076	18.96735
430.288	-40.03573
430.5	16.85977
430.712	2.10739
430.924	-52.67674
431.136	16.85977
431.348	73.77262
431.56	-4.2147
431.772	16.85977
431.984	33.72107
432.196	-35.82187
432.408	-27.39383
432.62	-8.42931
432.832	31.61332
433.044	6.32224
433.256	31.61332
433.468	-10.53658
433.679	103.28953
433.891	14.75222
434.103	10.53718
434.315	42.15228
434.527	23.18258
434.739	21.07496
434.95	-52.67674
435.162	6.32224
435.374	120.15828
435.586	10.53718
435.798	77.98905
436.009	44.26014
436.221	16.85977
436.433	10.53718
436.645	65.34002
436.856	65.34002
437.068	6.32224
437.28	-0
437.491	-14.75104
437.703	29.5056
437.915	-10.53658
438.126	71.66443
438.338	-14.75104
438.55	-6.32202
438.761	-10.53658
438.973	-8.42931
439.184	92.74727
439.396	31.61332
439.608	-18.9654
439.819	48.47593
440.031	82.20557
440.242	-18.9654
440.454	-2.10736
440.665	-6.32202
440.877	16.85977
441.088	18.96735
441.3	-10.53658
441.511	42.15228
441.723	-25.28676
441.934	-71.63655
442.146	61.12386
442.357	56.90779
442.569	37.93663
442.78	-46.35635
442.991	-48.46317
443.203	59.01582
443.414	-75.84956
443.626	-10.53658
443.837	25.29023
444.048	-2.10736
444.26	80.0973
444.471	31.61332
444.682	-8.42931
444.894	-35.82187
445.105	37.93663
445.316	-16.85823
445.528	21.07496
445.739	-35.82187
445.95	90.63889
446.161	52.69182
446.373	48.47593
446.584	-2.10736
446.795	-27.39383
447.006	-14.75104
447.217	33.72107
447.429	-117.97394
447.64	-10.53658
447.851	54.79979
448.062	8.4297
448.273	18.96735
448.484	61.12386
448.695	-18.9654
448.907	2.10739
449.118	56.90779
449.329	6.32224
449.54	27.39791
449.751	44.26014
449.962	40.04444
450.173	6.32224
450.384	29.5056
450.595	27.39791
450.806	-61.10358
451.017	16.85977
451.228	92.74727
451.439	107.50658
451.65	59.01582
451.861	31.61332
452.072	-6.32202
452.283	14.75222
452.494	-86.38163
452.705	42.15228
452.915	-8.42931
453.126	-33.71489
453.337	-18.9654
453.548	-27.39383
453.759	-35.82187
453.97	33.72107
454.181	-10.53658
454.391	-61.10358
454.602	-0
454.813	-12.64382
455.024	109.61514
455.235	40.04444
455.445	35.82884
455.656	12.64469
455.867	18.96735
456.078	50.58386
456.288	-25.28676
456.499	-6.32202
456.71	61.12386
456.921	6.32224
457.131	2.10739
457.342	-6.32202
457.553	23.18258
457.763	56.90779
457.974	48.47593
458.184	25.29023
458.395	73.77262
458.606	65.34002
458.816	-14.75104
459.027	-44.2495
459.237	56.90779
459.448	10.53718
459.659	6.32224
459.869	42.15228
460.08	31.61332
460.29	44.26014
460.501	33.72107
460.711	16.85977
460.922	-29.50088
461.132	-27.39383
461.343	31.61332
461.553	27.39791
461.764	-12.64382
461.974	-10.53658
462.184	25.29023
462.395	48.47593
462.605	31.61332
462.816	23.18258
463.026	-6.32202
463.236	61.12386
463.447	10.53718
463.657	-16.85823
463.867	48.47593
464.078	35.82884
464.288	48.47593
464.498	25.29023
464.709	44.26014
464.919	-44.2495
465.129	25.29023
465.339	18.96735
465.55	61.12386
465.76	84.31387
465.97	23.18258
466.18	48.47593
466.391	65.34002
466.601	92.74727
466.811	120.15828
467.021	90.63889
467.231	31.61332
467.441	86.42218
467.651	88.53052
467.862	-18.9654
468.072	14.75222
468.282	35.82884
468.492	37.93663
468.702	-2.10736
468.912	82.20557
469.122	23.18258
469.332	59.01582
469.542	92.74727
469.752	-2.10736
469.962	56.90779
470.172	25.29023
470.382	14.75222
470.592	61.12386
470.802	59.01582
471.012	35.82884
471.222	40.04444
471.432	42.15228
471.642	40.04444
471.852	48.47593
472.062	42.15228
472.272	67.44814
472.482	23.18258
472.691	82.20557
472.901	124.37568
473.111	-65.31684
473.321	40.04444
473.531	101.18103
473.741	109.61514
473.95	75.88082
474.16	65.34002
474.37	23.18258
474.58	6.32224
474.79	35.82884
474.999	48.47593
475.209	25.29023
475.419	73.77262
475.628	84.31387
475.838	166.55444
476.048	-4.2147
476.258	107.50658
476.467	126.48442
476.677	42.15228
476.886	122.26697
477.096	158.11802
477.306	75.88082
477.515	120.15828
477.725	103.28953
477.935	86.42218
478.144	120.15828
478.354	151.79091
478.563	92.74727
478.773	206.63197
478.982	42.15228
479.192	52.69182
479.401	141.24617
479.611	69.55627
479.82	149.68192
480.03	229.83807
480.239	158.11802
480.449	59.01582
480.658	183.42829
480.868	193.97512
481.077	257.26651
481.287	84.31387
481.496	191.86571
481.705	160.22709
481.915	168.6636
482.124	200.30345
482.333	219.28955
482.543	73.77262
482.752	153.89993
482.961	162.33619
483.171	191.86571
483.38	168.6636
483.589	137.02842
483.799	143.35507
484.008	177.10045
484.217	158.11802
484.426	202.41294
484.636	231.94784
484.845	246.71673
485.054	234.05762
485.263	202.41294
485.472	210.85109
485.682	208.74152
485.891	242.49695
486.1	312.13296
486.309	301.58075
486.518	360.67883
486.727	295.24965
486.936	318.4645
487.146	345.90302
487.355	301.58075
487.564	291.029
487.773	280.47771
487.982	352.2354
488.191	394.45523
488.4	310.02248
488.609	318.4645
488.818	356.45708
489.027	388.12183
489.236	398.67758
489.445	386.01073
489.654	369.12252
489.863	424.01305
490.072	396.5664
490.281	373.34447
490.49	381.78858
490.698	487.36163
490.907	497.92105
491.116	504.25687
491.325	377.56649
491.534	489.47348
491.743	495.80913
491.952	348.0138
492.16	510.59283
492.369	548.61126
492.578	462.02054
492.787	622.54853
492.996	533.82578
493.204	531.71362
493.413	624.66125
493.622	698.61419
493.831	557.06041
494.039	559.17274
494.248	500.03297
494.457	557.06041
494.665	599.30939
494.874	717.63293
495.083	622.54853
495.291	707.06685
495.5	715.51969
495.709	745.10599
495.917	633.11228
496.126	675.37029
496.335	630.9995
496.543	768.3538
496.752	673.25728
496.96	768.3538
497.169	715.51969
497.377	918.43502
497.586	844.44577
497.794	880.38215
498.003	846.55961
498.211	952.26187
498.42	884.61012
498.628	844.44577
498.837	766.24031
499.045	833.87673
499.254	903.63637
499.462	994.54797
499.671	952.26187
499.879	994.54797
500.087	945.91919
500.296	954.37611
500.504	901.52231
500.713	1032.60768
500.921	943.80498
501.129	1142.56799
501.338	948.03341
501.546	1123.53545
501.754	903.63637
501.962	1163.71566
502.171	1123.53545
502.379	1197.55274
502.587	1022.03534
502.795	1123.53545
503.004	1015.692
503.212	1214.47162
503.42	1127.76487
503.628	1254.65476
503.837	1053.75279
504.045	1140.45325
504.253	1138.33851
504.461	1260.99955
504.669	1315.9887
504.877	1311.75872
505.085	1233.5056
505.294	1392.12945
505.502	1301.18379
505.71	1237.73541
505.918	1343.48377
506.126	1320.2187
506.334	1301.18379
506.542	1531.72256
506.75	1324.4487
506.958	1324.4487
507.166	1324.4487
507.374	1485.19163
507.582	1377.32418
507.79	1421.74009
507.998	1392.12945
508.206	1563.44793
508.414	1476.73143
508.622	1580.368
508.83	1612.09285
509.037	1480.96153
509.245	1417.50999
509.453	1588.828
509.661	1561.33292
509.869	1677.65598
510.077	1580.368
510.285	1772.82326
510.492	1597.28797
510.7	1696.68997
510.908	1616.32279
511.116	1552.87284
511.324	1535.95263
511.531	1703.03457
511.739	1571.90798
511.947	1758.01993
512.155	1658.62177
512.362	1798.19994
512.57	1590.943
512.778	1781.28222
512.985	1722.06823
513.193	1853.18061
513.401	1798.19994
513.608	1834.14919
513.816	1772.82326
514.024	1832.03457
514.231	1891.24225
514.439	1882.78425
514.646	1793.97054
514.854	1969.47454
515.061	1916.61574
515.269	2208.34336
515.477	1963.13168
515.684	2096.31934
515.892	1874.32617
516.099	2068.83842
516.307	1865.86801
516.514	2121.68522
516.722	2007.53052
516.929	2174.52719
517.136	1891.24225
517.344	2098.43321
517.551	1950.44579
517.759	2119.57144
517.966	2170.30002
518.173	2060.38251
518.381	2208.34336
518.588	2210.4568
518.796	2252.72373
519.003	2271.74269
519.21	2136.48148
519.418	2113.23005
519.625	2324.56914
519.832	2155.50466
520.039	2227.364
520.247	2394.29073
520.454	2349.92371
520.661	2573.82309
520.868	2385.84021
521.076	2485.12305
521.283	2326.68208
521.49	2575.93474
521.697	2415.41629
521.904	2611.83103
522.112	2592.82755
522.319	2613.94246
522.526	2436.54079
522.733	2535.81128
522.94	2406.96619
523.147	2497.79572
523.354	2521.02789
523.561	2795.4784
523.768	2535.81128
523.975	2660.39095
524.183	2673.05766
524.39	2770.15364
524.597	2521.02789
524.804	2848.23194
525.011	2616.05389
525.218	2803.91955
525.425	2803.91955
525.632	2597.05063
525.838	2609.71958
526.045	2837.68193
526.252	2881.9896
526.459	3118.18705
526.666	2867.22107
526.873	2896.75743
527.08	2871.44072
527.287	3006.43878
527.494	2780.70586
527.701	3113.97093
527.907	2778.59545
528.114	3158.23693
528.321	3130.83501
528.528	3149.80586
528.735	2955.8216
528.941	3057.04719
529.148	2926.29095
529.355	3031.74409
529.562	2888.31875
529.768	3331.01553
529.975	2941.05664
530.182	3343.65339
530.388	3090.78116
530.595	3217.24713
530.802	3035.96143
531.008	3446.83899
531.215	3194.06609
531.422	3250.96142
531.628	3145.59023
531.835	3535.24959
532.042	3326.80277
532.248	3427.88971
532.455	3360.5029
532.661	3358.39677
532.868	3341.54712
533.074	3598.38022
533.281	3278.35111
533.487	3575.23426
533.694	3347.86587
533.9	3783.46523
534.107	3375.2453
534.313	3665.70099
534.52	3480.52299
534.726	3802.38594
534.933	3394.19856
535.139	3528.93562
535.345	3457.36573
535.552	3690.94127
535.758	3836.01883
535.965	3775.05551
536.171	3474.20759
536.377	3791.87463
536.584	3751.92719
536.79	3724.59068
536.996	3716.17879
537.203	3806.59033
537.409	3608.90036
537.615	3892.7628
537.821	3646.76898
538.028	3890.66143
538.234	3840.22258
538.44	3817.10095
538.646	3739.31074
538.853	4020.90809
539.059	3814.99887
539.265	3827.61108
539.471	3945.29049
539.677	4104.89638
539.883	3930.58401
540.09	4033.50844
540.296	3976.80104
540.502	4167.86571
540.708	3962.09668
540.914	4016.7078
541.12	4088.10137
541.326	4442.6071
541.532	4159.47089
541.738	4377.62543
541.944	4075.50425
542.15	4362.94925
542.356	4327.30269
542.562	4518.04323
542.768	4316.81721
542.974	4608.10993
543.18	4329.39972
543.386	4637.42507
543.592	4300.03934
543.798	4494.99633
544.004	4339.88454
544.21	4524.32829
544.415	4396.49324
544.621	4610.20401
544.827	4396.49324
545.033	4585.07352
545.239	4595.54495
545.445	4603.92169
545.651	4490.8057
545.856	4765.10395
546.062	4574.60154
546.268	4578.7904
546.474	4608.10993
546.679	4471.94676
546.885	4696.04218
547.091	4696.04218
547.297	4562.03443
547.502	4622.76805
547.708	4748.36396
547.914	4729.52975
548.119	4589.26216
548.325	5057.81715
548.531	4721.1584
548.736	4993.04089
548.942	4490.8057
549.147	4930.33309
549.353	4869.69591
549.559	4821.59068
549.764	4727.43694
549.97	4863.422
550.175	4848.78208
550.381	5034.83457
550.586	4947.0572
550.792	5130.92489
550.997	5055.72794
551.203	4990.95096
551.408	4794.39543
551.614	4990.95096
551.819	5016.02855
552.025	5218.6166
552.23	4976.32084
552.435	5245.75094
552.641	5126.74807
552.846	5233.22789
553.052	5297.92126
553.257	5260.36011
553.462	5389.70548
553.668	5229.05336
553.873	5350.07695
554.078	5681.44333
554.283	5252.01215
554.489	5406.38864
554.694	5502.28761
554.899	5564.8036
555.105	5446.00512
555.31	5468.93709
555.515	5312.52633
555.72	5531.46438
555.925	5316.699
556.131	5383.44891
556.336	5272.88133
556.541	5508.54017
556.746	5406.38864
556.951	5614.80111
557.156	5483.52869
557.361	5750.14282
557.567	5516.87657
557.772	5810.49387
557.977	5268.70768
558.182	5798.00908
558.387	5679.36113
558.592	5764.71213
558.797	5581.47094
559.002	5958.16614
559.207	5856.26419
559.412	5891.62435
559.617	5752.22422
559.822	5916.58035
560.027	5633.54668
560.232	5991.42798
560.437	5604.38608
560.642	5785.52343
560.847	5648.12524
561.051	5949.84973
561.256	5681.44333
561.461	6030.91858
561.666	5985.19184
561.871	5918.65986
562.076	5860.42457
562.281	6082.86695
562.485	5768.87458
562.69	5947.77057
562.895	5897.86366
563.1	6084.94458
563.305	5922.81882
563.509	6163.87705
563.714	5889.54452
563.919	6082.86695
564.123	5887.46468
564.328	6076.63392
564.533	5947.77057
564.737	5951.92887
564.942	5999.7425
565.147	6315.41543
565.351	6022.60548
565.556	6325.7902
565.761	6014.292
565.965	6213.71167
566.17	6024.68379
566.374	6487.56123
566.579	6340.31391
566.784	6354.83647
566.988	6265.60836
567.193	6580.82638
567.397	6041.30943
567.602	6396.3232
567.806	6066.24507
568.011	6234.4721
568.215	6172.18376
568.42	6132.72355
568.624	6394.24909
568.828	6356.91103
569.033	6313.3404
569.237	6388.0266
569.442	6321.64036
569.646	6429.50588
569.85	6396.3232
570.055	6504.14513
570.259	6429.50588
570.463	6508.29088
570.668	6489.6343
570.872	6491.70735
571.076	6475.12233
571.281	6758.93651
571.485	6479.26873
571.689	6653.33359
571.893	6607.76093
572.098	6785.84537
572.302	6454.38898
572.506	6849.99709
572.71	6562.1771
572.914	7021.65082
573.119	6752.72622
573.323	6916.1953
573.527	6754.79634
573.731	6854.13516
573.935	6866.54882
574.139	6723.74216
574.343	6951.35366
574.547	6930.67306
574.751	7062.98995
574.955	7174.56093
575.159	6872.75534
575.364	7116.71743
575.568	6765.14659
575.772	7038.18755
575.976	6719.60122
576.18	7060.92321
576.383	6980.3027
576.587	7098.12116
576.791	6818.95867
576.995	7133.24593
577.199	7031.98644
577.403	7019.58363
577.607	7112.58508
577.811	7108.45265
578.015	6893.44228
578.219	7005.11265
578.422	7021.65082
578.626	7219.99719
578.83	7160.10169
579.034	7067.12337
579.238	6969.96427
579.442	7347.98738
579.645	7069.19005
579.849	7632.5686
580.053	7447.0188
580.257	7414.01389
580.46	7358.30549
580.664	7343.85998
580.868	7236.51681
581.071	7492.39149
581.275	7199.34568
581.479	7455.26916
581.682	7141.50964
581.886	7350.05105
582.09	7288.13152
582.293	7686.13969
582.497	7578.98315
582.7	7539.81542
582.904	7356.24192
583.107	7817.94629
583.311	7418.13981
583.515	7465.58162
583.718	7207.60655
583.922	7741.75608
584.125	7603.71669
584.329	7801.47515
584.532	7374.81334
584.735	7704.68019
584.939	7614.02142
585.142	7620.20401
585.346	7504.76405
585.549	7834.41609
585.753	7735.57724
585.956	7714.97973
586.159	7760.29147
586.363	7877.64301
586.566	7889.99188
586.769	7920.86081
586.973	7682.01934
587.176	7762.35085
587.379	7756.17264
587.582	7842.6505
587.786	7894.108
587.989	8023.72391
588.192	7957.89741
588.395	8105.9778
588.599	7992.87034
588.802	8161.48099
589.005	7914.68739
589.208	8231.35321
589.411	7974.35599
589.615	8198.47502
589.818	8147.09267
590.021	8212.85986
590.224	8089.52961
590.427	8114.20142
590.63	8161.48099
590.833	8251.89951
591.036	8177.92358
591.239	8543.4469
591.442	7972.29874
591.645	8005.21231
591.848	8130.64769
592.051	8159.42557
592.254	8159.42557
592.457	8241.62661
592.66	7964.06953
592.863	8451.09715
593.066	8108.03374
593.269	8656.2669
593.472	8229.29847
593.675	8631.65645
593.878	8175.86832
594.081	8529.08391
594.284	8568.06701
594.486	8672.67237
594.689	8449.0445
594.892	8410.0404
595.095	8368.97593
595.298	8734.18238
595.5	8377.18944
595.703	8648.06371
595.906	8494.1985
596.109	8684.9757
596.311	8566.01544
596.514	8812.07137
596.717	8639.86023
596.92	8922.71082
597.122	8889.93421
597.325	8769.03071
597.528	8520.87607
597.73	8814.12073
597.933	8615.248
598.136	8742.38246
598.338	8524.98003
598.541	8855.10405
598.743	8836.66245
598.946	8889.93421
599.148	8928.85592
599.351	8963.67518
599.554	8783.37849
599.756	8896.08017
599.959	8980.05894
600.161	9149.97457
600.363	8676.77356
600.566	8879.69058
600.768	8877.6418
600.971	8994.39381
601.173	8894.03154
601.376	9139.74205
601.578	9143.83511
601.78	9266.59521
601.983	8988.2504
602.185	9192.94646
602.388	8965.72321
602.59	9000.53706
602.792	9139.74205
602.995	9057.86648
603.197	8992.34602
603.399	9266.59521
603.601	8861.25092
603.804	8945.24209
604.006	8764.93118
604.208	9082.43205
604.41	8943.19388
604.613	8963.67518
604.815	8898.12879
605.017	9291.13996
605.219	9109.04194
605.421	9280.91327
605.623	9352.49137
605.826	9438.3585
606.028	9248.18507
606.23	9170.43831
606.432	9192.94646
606.634	9311.59209
606.836	9082.43205
607.038	9348.40174
607.24	9180.66954
607.442	9434.27024
607.644	9442.44669
607.846	9487.41258
608.048	9156.11387
608.25	9377.02778
608.452	9346.3569
608.654	9732.5463
608.856	9597.75064
609.058	9565.0627
609.26	9307.50179
609.462	9438.3585
609.664	9450.62289
609.866	9642.69002
610.067	9424.04931
610.269	9712.12703
610.471	9293.18525
610.673	9336.13245
610.875	9346.3569
611.077	9548.71721
611.278	9272.73162
611.48	9377.02778
611.682	9197.03863
611.884	9757.04741
612.085	9450.62289
612.287	9685.57969
612.489	9520.11017
612.69	9589.57904
612.892	9663.11453
613.094	9777.46334
613.295	9548.71721
613.497	9804.00178
613.699	9372.93854
613.9	9630.43458
614.102	9667.19924
614.304	9738.67178
614.505	9675.36848
614.707	9899.92741
614.908	9560.97642
615.11	9834.61991
615.311	9769.29715
615.513	9761.13072
615.714	9771.33872
615.916	9669.24157
616.117	9458.79883
616.319	10136.54247
616.52	9528.28393
616.722	9769.29715
616.923	9597.75064
617.124	9669.24157
617.326	9442.44669
617.527	9859.112
617.729	9610.00759
617.93	9675.36848
618.131	9940.73693
618.333	9948.89814
618.534	9842.78418
618.735	9928.49469
618.937	9828.49656
619.138	9763.17235
619.339	9571.19199
619.54	9897.88678
619.742	9769.29715
619.943	9842.78418
620.144	9616.13585
620.345	9846.86623
620.546	9812.16695
620.748	9965.21985
620.949	9665.15689
621.15	10114.11304
621.351	9857.07108
621.552	9850.94821
621.753	9718.25297
621.954	9961.13951
622.155	9703.9589
622.356	9793.79499
622.558	9885.64269
622.759	10089.64264
622.96	9716.21101
623.161	9950.9384
623.362	9804.00178
623.563	10193.62797
623.764	9793.79499
623.965	10165.08657
624.166	9957.05911
624.366	9869.31641
624.567	9997.86049
624.768	9899.92741
624.969	9548.71721
625.17	10169.16408
625.371	9752.96405
625.572	9840.74314
625.773	9869.31641
625.973	10120.23032
626.174	9965.21985
626.375	10146.7371
626.576	9912.17088
626.777	9957.05911
626.977	9691.70623
627.178	9842.78418
627.379	9852.98918
627.58	9777.46334
627.78	9640.64749
627.981	10195.66654
628.182	9991.74065
628.382	9736.62997
628.583	10057.01228
628.784	10456.49214
628.984	9944.81756
629.185	10293.50176
629.386	9763.17235
629.586	10205.85917
629.787	10061.09128
629.987	10348.52044
630.188	9977.46052
630.388	9924.41382
630.589	9769.29715
630.79	10234.39672
630.99	9724.37878
631.191	10330.18196
631.391	10075.36731
631.591	10038.65612
631.792	10211.97459
631.992	10307.7668
632.193	10385.1942
632.393	10222.16667
632.594	9895.84613
632.794	10209.93613
632.994	10283.31205
633.195	10405.56666
633.395	10464.63947
633.595	10340.37014
633.796	10114.11304
633.996	10434.08593
634.196	10324.06889
634.397	10385.1942
634.597	10234.39672
634.797	10161.00901
634.997	10144.6982
635.198	10334.25727
635.398	10273.122
635.598	10780.19408
635.798	10552.21032
635.998	10293.50176
636.199	10407.60384
636.399	10495.19011
636.599	10319.99345
636.799	10364.82042
636.999	9910.13034
637.199	10674.36349
637.399	10262.93161
637.599	10436.12292
637.799	10214.01303
637.999	10197.70509
638.199	10264.96971
638.399	10643.82936
638.599	10436.12292
638.799	10806.6467
638.999	10423.90077
639.199	10759.84456
639.399	10548.13778
639.599	10800.54242
639.799	10193.62797
639.999	10529.81071
640.199	10586.82491
640.399	10649.9364
640.599	10289.42592
640.799	10991.76029
640.998	10737.4587
641.198	11119.86154
641.398	10853.44263
641.598	10597.00499
641.798	10831.06274
641.997	10759.84456
642.197	10548.13778
642.397	10995.82767
642.597	10515.55561
642.796	10759.84456
642.996	10733.38839
643.196	10770.01947
643.395	10597.00499
643.595	10912.43747
643.795	10480.9335
643.994	10957.18578
644.194	10993.79398
644.394	11032.43206
644.593	10814.78556
644.793	10881.92411
644.992	10786.29871
645.192	10666.22132
645.392	10735.42355
645.591	10983.6254
645.791	10928.71022
645.99	10847.33916
646.19	10676.399
646.389	10837.16648
646.589	11101.56401
646.788	10896.164
646.987	10651.97206
647.187	10961.25354
647.386	10881.92411
647.586	11168.65074
647.785	10839.20104
647.984	11154.42119
648.184	10910.40333
648.383	11136.12529
648.582	10979.55789
648.782	11158.48683
648.981	10877.85546
649.18	11008.02953
649.38	11115.7955
649.579	11288.56518
649.778	11081.23239
649.977	11148.32265
650.177	11160.51963
650.376	11123.92755
650.575	10934.81231
650.774	10920.57394
650.973	10983.6254
651.173	10812.75086
651.372	10881.92411
651.571	11071.06617
651.77	11205.23864
651.969	11130.02647
652.168	10965.32125
652.367	11087.33199
652.566	11071.06617
652.765	11132.05942
652.964	11343.42938
653.163	11384.06483
653.362	11089.36517
653.561	11095.46464
653.76	11008.02953
653.959	11073.09944
654.158	11103.59711
654.357	11241.82316
654.556	11142.22402
654.755	11432.82215
654.954	11195.07568
655.153	11105.6302
655.352	11223.53132
655.551	11487.66746
655.749	11207.2712
655.948	11465.32392
656.147	11308.88611
656.346	11304.82201
656.545	11276.37213
656.743	11280.43652
656.942	11512.04091
657.141	11335.30182
657.34	11347.49311
657.538	11341.39751
657.737	11105.6302
657.936	11475.48022
658.135	11052.7663
658.333	11422.66484
658.532	11375.93805
658.731	11554.69118
658.929	11355.62043
659.128	11367.81112
659.326	11382.03315
659.525	11788.18078
659.724	11339.36562
659.922	11256.04957
660.121	11235.72597
660.319	11251.98493
660.518	11249.9526
660.716	11621.70474
660.915	11272.3077
661.113	11471.41773
661.312	11162.55243
661.51	11357.65224
661.709	11351.55679
661.907	11804.4192
662.105	11310.91815
662.304	11613.58241
662.502	11284.50087
662.701	11546.56763
662.899	11219.46635
663.097	11319.0462
663.296	11349.52495
663.494	11542.50581
663.692	11359.68404
663.891	11493.76095
664.089	11205.23864
664.287	11447.04198
664.485	11501.88547
664.684	11625.76584
664.882	11463.29263
665.08	11459.23003
665.278	11526.25812
665.476	11577.03015
665.675	11207.2712
665.873	11495.79209
666.071	11071.06617
666.269	11357.65224
666.467	11260.11416
666.665	11418.60185
666.863	11382.03315
667.061	11851.1016
667.259	11897.77956
667.457	11877.48534
667.655	11717.13121
667.853	11585.15313
668.051	11272.3077
668.249	11398.2863
668.447	11369.84287
668.645	11302.78994
668.843	11619.67417
669.041	11830.80545
669.239	11548.59853
669.437	11733.37205
669.635	11676.52662
669.833	11432.82215
670.031	11402.34948
670.229	11286.53303
670.426	11483.60508
670.624	11625.76584
670.822	11540.47488
671.02	11765.85206
671.218	11562.81457
671.415	11666.37491
671.613	11188.97777
671.811	11430.79071
672.009	11428.75925
672.206	11524.22712
672.404	11538.44394
672.602	11280.43652
672.799	11552.6603
672.997	11690.73863
673.195	11418.60185
673.392	11516.10302
673.59	11629.82691
673.788	11540.47488
673.985	11621.70474
674.183	11674.49629
674.38	11658.25339
674.578	11642.0099
674.775	11510.00984
674.973	11934.30709
675.17	11380.00146
675.368	11380.00146
675.565	11347.49311
675.763	11625.76584
675.96	11193.04305
676.158	11540.47488
676.355	11418.60185
676.553	11698.85958
676.75	11512.04091
676.947	11564.84539
677.145	11176.78168
677.342	11767.88199
677.539	11479.54267
677.737	11680.58724
677.934	11254.01725
678.131	11445.0106
678.329	11550.62942
678.526	12015.46998
678.723	11544.53673
678.92	11916.04366
679.118	11516.10302
679.315	11639.97943
679.512	11459.23003
679.709	11398.2863
679.906	11221.49884
680.104	11572.9686
680.301	11402.34948
680.498	11438.91642
680.695	11394.22307
680.892	11607.49058
681.089	11410.47574
681.286	11635.91845
681.483	11304.82201
681.68	11550.62942
681.877	11522.19611
682.075	11487.66746
682.272	11451.1047
682.469	11544.53673
682.665	11530.3201
682.862	11251.98493
683.059	11186.94512
683.256	11402.34948
683.453	11477.51145
683.65	11117.82853
683.847	11018.19745
684.044	11040.56589
684.241	11258.08187
684.438	11325.14213
684.635	11304.82201
684.831	11577.03015
685.028	11347.49311
685.225	11235.72597
685.422	10786.29871
685.619	11166.61798
685.815	10944.98224
686.012	11369.84287
686.209	10888.02699
686.405	11298.72577
686.602	11016.16389
686.799	11093.43149
686.996	11154.42119
687.192	11292.62945
687.389	11195.07568
687.586	11323.11016
687.782	11213.36883
687.979	11353.58862
688.175	10806.6467
688.372	11012.09673
688.568	10985.65914
688.765	11099.53089
688.962	10949.05013
689.158	11302.78994
689.355	11195.07568
689.551	11343.42938
689.748	11095.46464
689.944	11127.9935
690.14	11221.49884
690.337	11229.62869
690.533	11048.69954
690.73	10788.33356
690.926	10881.92411
691.123	10898.19822
691.319	11069.0329
691.515	11099.53089
691.712	11091.39833
691.908	11164.58521
692.104	10871.75241
692.301	11213.36883
692.497	11052.7663
692.693	11060.89968
692.889	10910.40333
693.086	11052.7663
693.282	11040.56589
693.478	11195.07568
693.674	11062.933
693.87	11087.33199
694.067	11016.16389
694.263	11146.28979
694.459	11170.68349
694.655	11272.3077
694.851	11345.46125
695.047	11130.02647
695.243	11174.74896
695.439	10918.53984
695.635	11034.46554
695.831	11058.86635
696.027	10706.93021
696.224	10975.49034
696.42	10666.22132
696.615	11097.49777
696.811	10977.52412
697.007	11032.43206
697.203	11052.7663
697.399	11056.83301
697.595	10808.68143
697.791	11148.32265
697.987	10745.59918
698.183	10924.6421
698.379	10784.26384
698.575	10963.2874
698.77	10967.35509
698.966	11022.26454
699.162	10989.72659
699.358	10991.76029
699.554	10863.61485
699.749	11162.55243
699.945	10892.09551
700.141	10961.25354
700.337	10686.57637
700.532	10637.7222
700.728	10845.30465
700.924	10776.12427
701.119	10853.44263
701.315	10977.52412
701.511	10965.32125
701.706	10922.60803
701.902	10562.39146
702.097	10552.21032
702.293	10501.29989
702.489	10696.75344
702.684	10576.64453
702.88	10582.7528
703.075	10588.86096
703.271	10633.6507
703.466	10550.17405
703.662	10708.96553
703.857	10820.88959
704.053	10951.08406
704.248	10597.00499
704.443	11152.38836
704.639	10820.88959
704.834	10885.9927
705.03	10829.02813
705.225	11026.33158
705.42	10649.9364
705.616	10794.43804
705.811	10472.78659
706.006	10700.82418
706.202	10478.89679
706.397	10368.89528
706.592	10690.64724
706.787	10698.78882
706.983	10723.21241
707.178	10816.82025
707.373	10489.08021
707.568	10749.66935
707.763	10456.49214
707.959	10733.38839
708.154	10568.49999
708.349	10715.0714
708.544	10853.44263
708.739	10861.58043
708.934	10625.50756
709.129	10723.21241
709.324	10413.71528
709.519	10466.67626
709.714	10601.07694
709.909	10906.33501
710.104	10692.68265
710.299	10568.49999
710.494	10708.96553
710.689	10448.34461
710.884	10438.1599
711.079	10747.63427
711.274	10503.33646
711.469	11022.26454
711.664	10706.93021
711.859	10965.32125
712.054	10639.75793
712.249	10633.6507
712.443	10226.24341
712.638	10279.23607
712.833	10185.47356
713.028	10350.55799
713.223	10389.26879
713.417	10568.49999
713.612	10535.91984
713.807	10609.22067
714.002	10448.34461
714.196	10562.39146
714.391	10234.39672
714.586	10177.31893
714.78	10297.57755
714.975	10503.33646
715.17	10372.97009
715.364	10586.82491
715.559	10238.4733
715.754	10344.44532
715.948	10181.39627
716.143	10067.20966
716.337	10059.05179
716.532	10234.39672
716.726	10277.19806
716.921	10087.60335
717.115	10201.78216
717.31	10283.31205
717.504	10379.0822
717.699	10336.29491
717.893	10205.85917
718.088	10303.69114
718.282	10211.97459
718.476	10246.62629
718.671	10087.60335
718.865	10211.97459
719.059	9999.90041
719.254	10032.53714
719.448	9865.23469
719.642	10065.17021
719.837	9781.54634
720.031	10205.85917
720.225	9946.85786
720.419	10179.35761
720.614	10071.28851
720.808	10244.58806
721.002	10032.53714
721.196	10095.76043
721.39	9918.29242
721.585	10136.54247
721.779	9977.46052
721.973	10110.03478
722.167	9997.86049
722.361	9924.41382
722.555	10130.42552
722.749	10287.38797
722.943	10381.11954
723.137	10016.21923
723.331	9901.96802
723.525	10432.04892
723.719	10116.15215
723.913	10101.87809
724.107	10057.01228
724.301	10118.19124
724.495	10087.60335
724.689	10226.24341
724.883	9738.67178
725.077	9973.38035
725.271	9899.92741
725.465	9959.09931
725.659	9867.27556
725.853	9981.54063
726.046	9814.2082
726.24	9999.90041
726.434	9560.97642
726.628	10177.31893
726.822	9906.04921
727.015	9969.30013
727.209	9401.56182
727.403	9908.08978
727.596	9844.82521
727.79	10024.3783
727.984	9663.11453
728.177	9834.61991
728.371	9973.38035
728.565	9722.33686
728.758	9897.88678
728.952	10275.16003
729.146	9834.61991
729.339	10201.78216
729.533	9846.86623
729.726	9879.52044
729.92	9861.15291
730.113	9816.24944
730.307	10079.44604
730.5	9946.85786
730.694	9991.74065
730.887	9967.25999
731.081	9875.43887
731.274	9648.81754
731.468	9556.89008
731.661	9730.50444
731.854	9552.80368
732.048	9881.56121
732.241	9648.81754
732.435	9779.50485
732.628	9961.13951
732.821	10001.94031
733.014	9871.35724
733.208	9861.15291
733.401	9720.29492
733.594	9952.97865
733.788	10071.28851
733.981	9973.38035
734.174	10018.25902
734.367	9793.79499
734.56	10207.89766
734.754	10103.91729
734.947	10097.79967
735.14	10083.52472
735.333	9801.96045
735.526	9836.661
735.719	9728.46257
735.912	9891.7648
736.105	9720.29492
736.298	9748.88062
736.491	9650.86001
736.684	9973.38035
736.877	9948.89814
737.07	10222.16667
737.263	9628.39195
737.456	9685.57969
737.649	9724.37878
737.842	9848.90722
738.035	9720.29492
738.228	9671.28389
738.421	9577.32115
738.614	9483.3251
738.807	9485.36885
739	9552.80368
739.192	9663.11453
739.385	9706.00095
739.578	9589.57904
739.771	9867.27556
739.964	9563.01957
740.156	9861.15291
740.349	9763.17235
740.542	9748.88062
740.735	9859.112
740.927	9736.62997
741.12	9679.45301
741.313	9683.53748
741.505	9628.39195
741.698	9597.75064
741.891	9556.89008
742.083	9642.69002
742.276	9659.02975
742.468	9536.45743
742.661	9485.36885
742.854	9368.84924
743.046	9699.87474
743.239	9777.46334
743.431	9887.68341
743.624	9787.67073
743.816	9720.29492
744.009	9663.11453
744.201	9479.23754
744.393	9640.64749
744.586	9346.3569
744.778	9630.43458
744.971	9646.77505
745.163	9730.50444
745.355	9395.42853
745.548	9654.94491
745.74	9317.7274
745.932	9544.63068
746.125	9708.04299
746.317	9466.97451
746.509	9616.13585
746.702	9887.68341
746.894	9536.45743
747.086	9513.97968
747.278	9483.3251
747.471	9422.00507
747.663	9372.93854
747.855	9703.9589
748.047	9088.57305
748.239	9569.14891
748.431	9274.77706
748.623	9338.17737
748.815	9174.53086
749.008	9436.31438
749.2	9485.36885
749.392	9411.78365
749.584	9133.60234
749.776	9293.18525
749.968	9190.90035
750.16	9336.13245
750.352	9299.32101
750.544	9256.36752
750.736	9499.67466
750.928	9364.75987
751.12	9229.77357
751.311	9194.99256
751.503	9272.73162
751.695	9242.04805
751.887	9055.81923
752.079	9147.9281
752.271	8902.22597
752.463	9352.49137
752.654	8926.80757
752.846	9182.71574
753.038	8926.80757
753.23	9207.26877
753.421	9064.0081
753.613	8969.81922
753.805	9199.08469
753.997	8955.48287
754.188	8951.38661
754.38	9068.10244
754.572	8939.09741
754.763	8746.4824
754.955	8980.05894
755.146	9037.39326
755.338	9006.68015
755.53	8994.39381
755.721	9014.8707
755.913	8939.09741
756.104	8980.05894
756.296	9068.10244
756.487	9141.78859
756.679	9147.9281
756.87	8678.82412
757.062	8935.00087
757.253	8961.62713
757.445	9068.10244
757.636	8803.87377
757.827	9045.58275
758.019	8674.72298
758.21	8795.67588
758.401	8689.07667
758.593	8650.11454
758.784	8553.70561
758.975	8699.32875
759.167	8592.68442
759.358	8842.80981
759.549	8711.63064
759.74	8641.91113
759.932	8629.60546
760.123	8574.22162
760.314	8459.30758
760.505	8664.46978
760.696	8535.23959
760.888	8693.17756
761.079	8602.94087
761.27	8602.94087
761.461	8500.35515
761.652	8557.80896
761.843	8463.41268
762.034	8656.2669
762.225	8393.61554
762.416	8340.2262
762.607	8307.36468
762.798	8619.35022
762.989	8738.28246
763.18	8615.248
763.371	8549.60218
763.562	8574.22162
763.753	8691.12712
763.944	8730.08223
764.135	8742.38246
764.326	8812.07137
764.517	8678.82412
764.708	8613.19686
764.899	8424.41114
765.089	8621.40131
765.28	8424.41114
765.471	8434.67537
765.662	8436.72816
765.853	8184.08922
766.043	8056.62935
766.234	8147.09267
766.425	8105.9778
766.615	8251.89951
766.806	8262.17192
766.997	8142.98155
767.187	8064.8549
767.378	8492.14624
767.569	8192.3098
767.759	8182.03403
767.95	8188.19955
768.141	8239.57197
768.331	8387.4559
768.522	8282.71526
768.712	8237.51731
768.903	8064.8549
769.093	7978.47044
769.284	8058.68576
769.474	7844.70905
769.665	8093.64178
769.855	8025.78065
770.046	8303.25664
770.236	8034.00741
770.426	7953.78256
770.617	7968.18418
770.807	8058.68576
770.998	8064.8549
771.188	8200.53006
771.378	8122.42471
771.569	7782.94353
771.759	7820.00509
771.949	7836.47473
772.139	7927.03404
772.33	7712.91987
772.52	8089.52961
772.71	7904.39796
772.9	7442.89349
773.09	7842.6505
773.281	7576.92189
773.471	7852.94303
773.661	7737.63687
773.851	7632.5686
774.041	7329.4134
774.231	7529.50684
774.421	7358.30549
774.611	7791.18002
774.802	7459.39421
774.992	7611.96052
775.182	7447.0188
775.372	7572.79929
775.562	7523.32143
775.752	7451.14402
775.942	7397.50935
776.131	7513.01199
776.321	7523.32143
776.511	7727.33849
776.701	7356.24192
776.891	7391.31979
777.081	7193.14979
777.271	7401.63562
777.461	7339.73249
777.651	7469.70645
777.84	7546.00032
778.03	7630.50789
778.22	7401.63562
778.41	7597.53359
778.599	7583.10562
778.789	7387.19331
778.979	7310.83764
779.169	7203.47616
779.358	7060.92321
779.548	7397.50935
779.738	7242.7113
779.927	7426.39138
780.117	7153.90454
780.307	7434.64261
780.496	7314.96574
780.686	7385.13004
780.875	7110.51888
781.065	7040.25454
781.254	7067.12337
781.444	7232.38704
781.633	7025.78514
781.823	7195.21511
782.012	6938.94557
782.202	7133.24593
782.391	6955.48951
782.581	6976.1674
782.77	6988.57305
782.96	7096.0548
783.149	6705.10718
783.338	7031.98644
783.528	6765.14659
783.717	6988.57305
783.906	6998.91047
784.096	6862.41102
784.285	6682.32857
784.474	6719.60122
784.663	6990.64058
784.853	6895.51085
785.042	6622.26253
785.231	6949.2857
785.42	6736.16445
785.61	6976.1674
785.799	6837.58234
785.988	6881.03039
786.177	6591.18629
786.366	6761.00656
786.555	6607.76093
786.744	6881.03039
786.933	6537.30848
787.122	6680.25765
787.312	6582.89841
787.501	6574.61016
787.69	6508.29088
787.879	6889.30508
788.068	6400.47136
788.257	6897.5794
788.445	6473.0491
788.634	6694.75361
788.823	6611.90436
789.012	6597.40195
789.201	6371.43228
789.39	6446.09498
789.579	6439.87424
789.768	6719.60122
789.957	6508.29088
790.145	6570.4659
790.334	6495.85337
790.523	6647.11979
790.712	6406.69343
790.9	6537.30848
791.089	6448.16851
791.278	6605.68918
791.467	6437.80062
791.655	6555.96026
791.844	6412.91528
792.033	6462.6826
792.221	6529.0182
792.41	6539.38099
792.599	6334.0896
792.787	6555.96026
792.976	6354.83647
793.164	6288.43827
793.353	6249.00301
793.541	6470.97585
793.73	6300.88976
793.918	6282.21221
794.107	6350.68728
794.295	6358.98556
794.484	6197.10163
794.672	6055.85563
794.861	6072.47845
795.049	6373.50665
795.238	6030.91858
795.426	6184.64312
795.614	6228.24422
795.803	6249.00301
795.991	6134.80062
796.179	6074.5562
796.368	6035.07499
796.556	6060.01148
796.744	5662.70265
796.932	5914.50081
797.121	5856.26419
797.309	5831.29998
797.497	5745.97994
797.685	6010.13511
797.874	5914.50081
798.062	5933.21579
798.25	5814.65528
798.438	6012.21357
798.626	5943.61218
798.814	6101.56476
799.002	6035.07499
799.19	5983.11308
799.378	5966.48216
799.566	6003.89961
799.755	5858.34439
799.943	5743.89847
800.131	5643.96005
800.318	5822.97782
800.506	5804.25158
800.694	5943.61218
800.882	5748.06139
801.07	5972.71894
801.258	5831.29998
801.446	5756.38695
801.634	5822.97782
801.822	5974.79781
802.01	5818.8166
802.197	6097.40986
802.385	5837.54135
802.573	5885.38481
802.761	5906.18243
802.949	5981.0343
803.136	5866.66495
803.324	5839.62176
803.512	5810.49387
803.699	5989.34929
803.887	6114.02891
804.075	6039.23131
804.262	5816.73595
804.45	6072.47845
804.638	5910.34167
804.825	5891.62435
805.013	5833.38046
805.201	5839.62176
805.388	6130.64646
805.576	5895.78391
805.763	5951.92887
805.951	6082.86695
806.138	5885.38481
806.326	6089.09977
806.513	5714.75538
806.701	5931.13645
806.888	6103.64218
807.075	6076.63392
807.263	6066.24507
807.45	6087.02218
807.638	5974.79781
807.825	6055.85563
808.012	5718.91896
808.2	5974.79781
808.387	6014.292
808.574	6180.49009
808.761	6072.47845
808.949	6128.56935
809.136	5883.30492
809.323	6051.69969
809.51	5833.38046
809.698	5947.77057
809.885	5810.49387
810.072	6022.60548
810.259	6114.02891
810.446	6037.15316
810.633	5987.27058
810.82	6028.84034
811.008	5895.78391
811.195	5825.0584
811.382	5908.26206
811.569	6082.86695
811.756	5827.13895
811.943	6313.3404
812.13	6068.32289
812.317	6047.54366
812.504	5866.66495
812.691	6118.18344
812.878	5956.08707
813.064	6047.54366
813.251	5954.00798
813.438	6259.38153
813.625	5864.58484
813.812	6039.23131
813.999	6008.05664
814.186	6101.56476
814.372	5874.98512
814.559	6010.13511
814.746	5870.82508
814.933	5906.18243
815.12	5654.37284
815.306	6064.16723
815.493	5877.06511
815.68	6134.80062
815.866	5820.89722
816.053	6091.17732
816.24	6022.60548
816.426	6114.02891
816.613	6012.21357
816.799	5958.16614
816.986	5847.94317
817.173	5891.62435
817.359	5852.10373
817.546	5773.03693
817.732	5773.03693
817.919	6055.85563
818.105	5652.29033
818.292	5962.3242
818.478	5841.70215
818.665	5943.61218
818.851	5810.49387
819.037	6078.71162
819.224	5718.91896
819.41	6005.97814
819.597	5974.79781
819.783	5999.7425
819.969	5789.68541
820.156	5931.13645
820.342	5829.21948
820.528	5860.42457
820.714	5983.11308
820.901	5978.9555
821.087	5872.90511
821.273	5889.54452
821.459	5708.50983
821.646	5906.18243
821.832	5775.11808
822.018	5947.77057
822.204	5600.2199
822.39	5689.77191
822.576	5556.46936
822.762	5506.45601
822.948	5675.19665
823.134	5762.63087
823.32	5523.12863
823.507	5633.54668
823.693	5650.2078
823.879	5850.02346
824.065	5610.63517
824.25	5696.0181
824.436	5498.11913
824.622	5643.96005
824.808	5466.85249
824.994	5673.11438
825.18	5395.96184
825.366	5581.47094
825.552	5479.35978
825.738	5566.8871
825.923	5345.90504
826.109	5585.63754
826.295	5368.84942
826.481	5683.52551
826.667	5546.05103
826.852	5706.42794
827.038	5389.70548
827.224	5641.87743
827.409	5379.27774
827.595	5525.2126
827.781	5231.14064
827.966	5506.45601
828.152	5262.44704
828.338	5373.02082
828.523	5118.39416
828.709	5350.07695
828.894	5168.51209
829.08	5460.59852
829.266	5450.17478
829.451	5337.56092
829.637	5068.26285
829.822	5235.31513
830.008	5107.95124
830.193	5231.14064
830.378	4957.50901
830.564	5172.68797
830.749	5043.19219
830.935	5368.84942
831.12	5141.36654
831.305	5316.699
831.491	5039.01343
831.676	5080.79693
831.861	5059.90633
832.047	5331.30259
832.232	4959.59931
832.417	5107.95124
832.602	4838.3243
832.788	4809.0395
832.973	4857.14788
833.158	5049.46017
833.343	4758.82663
833.528	5089.15252
833.714	5084.97477
833.899	5120.48267
834.084	4647.8937
834.269	4748.36396
834.454	4553.65591
834.639	4951.23799
834.824	4754.64163
835.009	5066.17376
835.194	4767.19635
835.379	4990.95096
835.564	4725.34412
835.749	4794.39543
835.934	4813.22332
836.119	4467.75565
836.304	4574.60154
836.489	4639.51884
836.674	4553.65591
836.859	4783.9347
837.044	4589.26216
837.228	4909.4259
837.413	4767.19635
837.598	4965.87005
837.783	4580.8848
837.968	4788.11906
838.152	4532.70805
838.337	4587.16785
838.522	4457.27747
838.707	4543.18226
838.891	4352.46562
839.076	4423.74362
839.261	4463.56444
839.445	4656.26821
839.63	4494.99633
839.815	4631.14362
839.999	4302.13665
840.184	4603.92169
840.368	4344.07832
840.553	4566.22355
840.737	4423.74362
840.922	4804.8556
841.106	4436.31947
841.291	4444.70293
841.475	4358.75587
841.66	4549.46651
841.844	4553.65591
842.029	4482.42417
842.213	4157.37214
842.397	4647.8937
842.582	4381.81843
842.766	4507.5677
842.951	4148.97689
843.135	4631.14362
843.319	4113.29338
843.504	4130.08637
843.688	4184.65434
843.872	4394.3969
844.056	4285.35756
844.241	4356.65914
844.425	4041.90826
844.609	4314.72005
844.793	4218.22753
844.977	4140.58132
845.161	3959.99598
845.346	4146.87803
845.53	3966.29803
845.714	4115.39257
845.898	3871.74821
846.082	4190.94973
846.266	4218.22753
846.45	4155.27336
846.634	4155.27336
846.818	4155.27336
847.002	3924.28093
847.186	3917.97767
847.37	3802.38594
847.554	4094.39965
847.738	4046.10805
847.922	3983.1026
848.106	4002.00617
848.29	3848.62985
848.473	3756.13251
848.657	4067.10575
848.841	3728.79651
849.025	4027.20835
849.209	3690.94127
849.392	3993.60479
849.576	3796.07921
849.76	3976.80104
849.944	3589.96377
850.127	4174.16161
850.311	3598.38022
850.495	3976.80104
850.678	3676.2181
850.862	3825.50909
851.046	3680.42482
851.229	3909.57303
851.413	3564.71263
851.596	3697.25091
851.78	3745.61905
851.964	3928.483
852.147	3558.39943
852.331	3653.07982
852.514	3472.10242
852.698	3528.93562
852.881	3210.92522
853.065	3524.72621
853.248	3474.20759
853.431	3598.38022
853.615	3368.92723
853.798	3693.0445
853.982	3514.20236
854.165	3787.66997
854.348	3457.36573
854.532	3621.52391
854.715	3246.74736
854.898	3619.42003
855.081	3259.38932
855.265	3760.33776
855.448	3352.07828
855.631	3722.48773
855.814	3339.44084
855.997	3611.00433
856.181	3404.72753
856.364	3625.73161
856.547	3318.37705
856.73	3659.39049
856.913	3261.49625
857.096	3486.83823
857.279	3411.04471
857.462	3402.62178
857.645	3065.48106
857.828	3423.67857
858.011	3196.17354
858.194	3339.44084
858.377	3269.92382
858.56	3381.56321
858.743	3440.52272
858.926	3116.079
859.109	2968.47671
859.292	3236.21194
859.475	3111.86285
859.658	3301.52477
859.841	3010.65648
860.023	3312.05757
860.206	2854.56178
860.389	3185.63612
860.572	2869.3309
860.755	3225.6761
860.937	3160.34466
861.12	3202.49579
861.303	3143.48239
861.486	3164.56007
861.668	2909.415
861.851	3035.96143
862.034	2740.60564
862.216	2953.71237
862.399	2829.24167
862.581	2924.18151
862.764	2854.56178
862.947	3008.54764
863.129	2888.31875
863.312	3019.09171
863.494	2797.58871
863.677	2894.64778
863.859	2643.50129
864.042	2723.7199
864.224	2685.72392
864.406	2732.16288
864.589	2635.05616
864.771	2808.14004
864.954	2554.81766
865.136	2609.71958
865.318	2447.10264
865.501	2575.93474
865.683	2597.05063
865.865	2789.14739
866.048	2436.54079
866.23	2544.25868
866.412	2337.2466
866.594	2611.83103
866.777	2440.76557
866.959	2641.39002
867.141	2335.13372
867.323	2449.21498
867.505	2366.82596
867.687	2366.82596
867.869	2447.10264
868.052	2651.94622
868.234	2540.035
868.416	2761.71163
868.598	2508.35597
868.78	2685.72392
868.962	2529.47561
869.144	2719.49833
869.326	2578.04638
869.508	2778.59545
869.69	2483.0109
869.872	2575.93474
870.054	2356.26213
870.236	2466.11329
870.417	2425.97867
870.599	2394.29073
870.781	2434.42839
870.963	2423.86622
871.145	2345.69805
871.327	2436.54079
871.508	2136.48148
871.69	2508.35597
871.872	2440.76557
872.054	2419.64127
872.235	2354.14933
872.417	2430.20355
872.599	2368.93869
872.78	2567.48805
872.962	2316.11731
873.144	2594.93909
873.325	2453.43962
873.507	2449.21498
873.689	2174.52719
873.87	2546.3705
874.052	2180.86789
874.233	2381.6149
874.415	2301.32623
874.596	2476.67438
874.778	2288.64779
874.959	2584.38124
875.141	2221.02386
875.322	2455.55193
875.503	2278.08217
875.685	2502.01985
875.866	2409.07873
876.048	2432.31598
876.229	2322.4562
876.41	2442.87794
876.592	2240.04403
876.773	2392.17812
876.954	2254.83699
877.136	2681.50189
877.317	2341.47234
877.498	2343.5852
877.679	2339.35948
877.86	2483.0109
878.042	2180.86789
878.223	2537.92315
878.404	2328.795
878.585	2597.05063
878.766	2286.53469
878.947	2436.54079
879.128	2195.66255
879.309	2398.51592
879.49	2233.70405
879.672	2476.67438
879.853	2212.57023
880.034	2273.85586
880.215	2265.40312
880.396	2417.52879
880.576	2237.93071
880.757	2504.1319
880.938	2187.20851
881.119	2459.77651
881.3	2447.10264
881.481	2567.48805
881.662	2197.77604
881.843	2537.92315
882.023	2483.0109
882.204	2624.49947
882.385	2314.00433
882.566	2476.67438
882.747	2299.21318
882.927	2360.48769
883.108	2269.62951
883.289	2390.06549
883.469	2254.83699
883.65	2275.96902
883.831	2398.51592
884.011	2491.45944
884.192	2333.02082
884.373	2347.81088
884.553	2415.41629
884.734	2599.16215
884.914	2432.31598
885.095	2415.41629
885.275	2132.25401
885.456	2565.37635
885.636	2400.62851
885.817	2601.27366
885.997	2632.94484
886.178	2584.38124
886.358	2449.21498
886.538	2613.94246
886.719	2383.72756
886.899	2571.71142
887.08	2311.89134
887.26	2527.3637
887.44	2263.28991
887.621	2630.83352
887.801	2301.32623
887.981	2548.48231
888.161	2307.66532
888.342	2569.59974
888.522	2406.96619
888.702	2491.45944
888.882	2478.78656
889.062	2586.49283
889.242	2495.68364
889.423	2472.44998
889.603	2411.19126
889.783	2679.39085
889.963	2290.76089
890.143	2622.38809
890.323	2294.98706
890.503	2696.27878
890.683	2375.27684
890.863	2584.38124
891.043	2246.38392
891.223	2352.03652
891.403	2333.02082
891.583	2533.6994
891.763	2297.10012
891.943	2371.05142
892.122	2470.33776
892.302	2521.02789
892.482	2237.93071
892.662	2301.32623
892.842	2068.83842
893.022	2451.32731
893.201	2163.9592
893.381	2305.5523
893.561	2223.13725
893.741	2379.50222
893.92	2248.4972
894.1	2483.0109
894.28	2333.02082
894.459	2440.76557
894.639	2191.43555
894.819	2390.06549
894.998	2089.9777
895.178	2354.14933
895.357	2149.16367
895.537	2314.00433
895.716	2182.98144
895.896	2159.73195
896.075	2128.02652
896.255	2271.74269
896.434	1975.81735
896.614	2254.83699
896.793	2060.38251
896.973	2394.29073
897.152	2043.47034
897.331	2352.03652
897.511	2144.93631
897.69	2214.68365
897.87	2168.18642
898.049	2204.11646
898.228	2030.78592
898.407	2094.20547
898.587	1910.27244
898.766	2147.04999
898.945	1952.56012
899.124	2081.52208
899.304	1874.32617
899.483	2058.26851
899.662	1874.32617
899.841	2104.77476
900.02	1825.69066
900.199	1975.81735
900.378	1679.77088
900.557	1825.69066
900.737	1698.80484
900.916	1730.52754
901.095	1601.51794
901.274	1785.51167
901.453	1781.28222
901.632	1787.6264
901.811	1404.81971
901.989	1578.253
902.168	1586.713
902.347	1867.98256
902.526	1535.95263
902.705	1823.57602
902.884	1550.75782
903.063	1497.88192
903.242	1464.04112
903.42	1658.62177
903.599	1540.18269
903.778	1569.79297
903.957	1461.92607
904.135	1639.58735
904.314	1582.483
904.493	1612.09285
904.672	1394.24449
904.85	1436.54545
905.029	1286.37898
905.207	1554.98786
905.386	1351.94384
905.565	1552.87284
905.743	1284.26401
905.922	1400.58962
906.1	1303.29877
906.279	1535.95263
906.457	1280.03409
906.636	1506.3421
906.814	1227.16091
906.993	1326.5637
907.171	1146.79749
907.35	1197.55274
907.528	1180.63408
907.707	1239.85032
907.885	1115.07666
908.063	1201.78244
908.242	945.91919
908.42	1167.94524
908.598	986.09053
908.777	1087.58612
908.955	988.20488
909.133	1028.37872
909.311	983.97619
909.49	1193.32305
909.668	905.75044
909.846	1134.10904
910.024	977.6332
910.202	1148.91225
910.38	867.69844
910.559	1060.09644
910.737	1007.23431
910.915	1161.60087
911.093	981.86185
911.271	1197.55274
911.449	1003.00551
911.627	1091.81538
911.805	1062.211
911.983	1193.32305
912.161	1072.78387
912.339	1193.32305
912.517	1096.04466
912.695	1218.70137
912.872	969.17598
913.05	1282.14905
913.228	1072.78387
913.406	1100.27396
913.584	1112.96198
913.762	1079.12766
913.939	1011.46315
914.117	1138.33851
914.295	988.20488
914.473	1246.19506
914.65	1028.37872
914.828	1096.04466
915.006	964.94741
915.184	1015.692
915.361	1022.03534
915.539	1244.08014
915.716	1117.19135
915.894	1121.42075
916.072	1011.46315
916.249	1189.09338
916.427	986.09053
916.604	1024.14979
916.782	939.57658
916.959	971.29028
917.137	950.14763
917.314	1011.46315
917.492	929.0057
917.669	918.43502
917.847	895.18018
918.024	937.46239
918.201	876.15421
918.379	931.11986
918.556	914.20679
918.733	1074.89846
918.911	770.4673
919.088	878.26818
919.265	819.08044
919.442	943.80498
919.62	829.64917
919.797	1026.26425
919.974	969.17598
920.151	1026.26425
920.328	850.78731
920.506	1131.99431
920.683	909.9786
920.86	821.19417
921.037	685.93553
921.214	943.80498
921.391	852.90117
921.568	905.75044
921.745	863.47061
921.922	789.48922
922.099	709.18005
922.276	880.38215
922.453	802.17095
922.63	977.6332
922.807	759.89991
922.984	793.71643
923.161	774.69432
923.338	901.52231
923.514	774.69432
923.691	802.17095
923.868	776.80785
924.045	681.7094
924.222	723.97271
924.399	821.19417
924.575	521.15305
924.752	766.24031
924.929	666.91831
925.105	736.65255
925.282	732.42589
925.459	778.92139
925.635	715.51969
925.812	709.18005
925.989	711.29325
926.165	808.51194
926.342	529.60148
926.518	757.78646
926.695	639.45067
926.871	521.15305
927.048	529.60148
927.224	614.09776
927.401	394.45523
927.577	495.80913
927.754	472.57906
927.93	658.46652
928.107	582.40916
928.283	582.40916
928.459	538.05013
928.636	487.36163
928.812	512.70485
928.988	531.71362
929.165	432.45872
929.341	506.36885
929.517	470.46733
929.693	548.61126
929.87	453.574
930.046	428.23586
930.222	495.80913
930.398	588.74665
930.574	402.9
930.751	428.23586
930.927	413.45632
931.103	411.34503
931.279	436.68165
931.455	453.574
931.631	377.56649
931.807	453.574
931.983	288.91871
932.159	459.90888
932.335	350.12459
932.511	343.79226
932.687	417.67897
932.863	445.1277
933.039	293.13931
933.215	369.12252
933.391	339.57079
933.566	354.34623
933.742	278.36751
933.918	301.58075
934.094	223.5089
934.27	274.14716
934.445	276.25732
934.621	280.47771
934.797	221.39921
934.973	221.39921
935.148	191.86571
935.324	225.6186
935.5	236.16742
935.675	255.15652
935.851	280.47771
936.027	326.9068
936.202	191.86571
936.378	259.37653
936.553	217.1799
936.729	303.69116
936.904	124.37568
937.08	257.26651
937.255	183.42829
937.431	166.55444
937.606	185.53762
937.782	225.6186
937.957	124.37568
938.133	132.81075
938.308	137.02842
938.483	77.98905
938.659	191.86571
938.834	92.74727
939.009	99.07256
939.185	109.61514
939.36	73.77262
939.535	107.50658
939.71	75.88082
939.886	86.42218
940.061	113.83233
940.236	88.53052
940.411	200.30345
940.586	2.10739
940.761	118.04961
940.937	65.34002
941.112	77.98905
941.287	52.69182
941.462	73.77262
941.637	126.48442
941.812	48.47593
941.987	63.23193
942.162	44.26014
942.337	31.61332
942.512	99.07256
942.687	168.6636
942.862	-10.53658
943.037	44.26014
943.212	67.44814
943.386	-16.85823
943.561	92.74727
943.736	14.75222
943.911	42.15228
944.086	23.18258
944.26	105.39804
944.435	73.77262
944.61	65.34002
944.785	67.44814
944.959	86.42218
945.134	59.01582
945.309	42.15228
945.483	35.82884
945.658	29.5056
945.833	37.93663
946.007	80.0973
946.182	52.69182
946.357	-10.53658
946.531	153.89993
946.706	90.63889
946.88	27.39791
947.055	139.13728
947.229	73.77262
947.404	118.04961
947.578	56.90779
947.752	61.12386
947.927	48.47593
948.101	73.77262
948.276	103.28953
948.45	82.20557
948.624	177.10045
948.799	82.20557
948.973	86.42218
949.147	99.07256
949.321	18.96735
949.496	42.15228
949.67	50.58386
949.844	143.35507
950.018	109.61514
950.193	103.28953
950.367	37.93663
950.541	103.28953
950.715	46.36803
950.889	77.98905
951.063	134.91958
951.237	73.77262
951.411	33.72107
951.585	82.20557
951.759	84.31387
951.933	128.59318
952.107	48.47593
952.281	67.44814
952.455	25.29023
952.629	92.74727
952.803	139.13728
952.977	73.77262
953.151	80.0973
953.325	65.34002
953.499	103.28953
953.672	14.75222
953.846	-14.75104
954.02	86.42218
954.194	56.90779
954.368	111.72373
954.541	105.39804
954.715	54.79979
954.889	139.13728
955.062	2.10739
955.236	42.15228
955.41	35.82884
955.583	103.28953
955.757	59.01582
955.93	99.07256
956.104	18.96735
956.278	25.29023
956.451	109.61514
956.625	56.90779
956.798	29.5056
956.972	105.39804
957.145	73.77262
957.319	14.75222
957.492	27.39791
957.665	75.88082
957.839	92.74727
958.012	10.53718
958.185	56.90779
958.359	52.69182
958.532	65.34002
958.705	122.26697
958.879	111.72373
959.052	75.88082
959.225	82.20557
959.398	137.02842
959.572	124.37568
959.745	103.28953
959.918	124.37568
960.091	90.63889
960.264	52.69182
960.438	73.77262
960.611	75.88082
960.784	137.02842
960.957	107.50658
961.13	94.85568
961.303	77.98905
961.476	23.18258
961.649	48.47593
961.822	115.94096
961.995	88.53052
962.168	61.12386
962.341	14.75222
962.514	109.61514
962.686	124.37568
962.859	10.53718
963.032	69.55627
963.205	73.77262
963.378	14.75222
963.551	80.0973
963.723	65.34002
963.896	-6.32202
964.069	164.4453
964.242	-2.10736
964.414	59.01582
964.587	27.39791
964.76	107.50658
964.932	65.34002
965.105	63.23193
965.278	73.77262
965.45	65.34002
965.623	-14.75104
965.795	90.63889
965.968	86.42218
966.14	56.90779
966.313	42.15228
966.485	40.04444
966.658	48.47593
966.83	96.96411
967.003	134.91958
967.175	99.07256
967.348	23.18258
967.52	77.98905
967.692	48.47593
967.865	130.70195
968.037	31.61332
968.209	107.50658
968.382	6.32224
968.554	109.61514
968.726	54.79979
968.898	-12.64382
969.071	10.53718
969.243	92.74727
969.415	6.32224
969.587	-0
969.759	92.74727
969.932	52.69182
970.104	18.96735
970.276	63.23193
970.448	52.69182
970.62	59.01582
970.792	54.79979
970.964	40.04444
971.136	86.42218
971.308	65.34002
971.48	42.15228
971.652	21.07496
971.824	99.07256
971.996	99.07256
972.168	67.44814
972.339	124.37568
972.511	35.82884
972.683	94.85568
972.855	23.18258
973.027	69.55627
973.199	65.34002
973.37	27.39791
973.542	90.63889
973.714	16.85977
973.886	50.58386
974.057	67.44814
974.229	37.93663
974.401	75.88082
974.572	48.47593
974.744	84.31387
974.915	2.10739
975.087	84.31387
975.259	73.77262
975.43	90.63889
975.602	18.96735
975.773	101.18103
975.945	42.15228
976.116	40.04444
976.288	25.29023
976.459	84.31387
976.63	75.88082
976.802	40.04444
976.973	50.58386
977.145	-0
977.316	14.75222
977.487	23.18258
977.659	75.88082
977.83	65.34002
978.001	6.32224
978.172	92.74727
978.344	67.44814
978.515	-25.28676
978.686	2.10739
978.857	71.66443
979.028	48.47593
979.2	63.23193
979.371	40.04444
979.542	75.88082
979.713	14.75222
979.884	86.42218
980.055	65.34002
980.226	42.15228
980.397	29.5056
980.568	-16.85823
980.739	2.10739
980.91	92.74727
981.081	69.55627
981.252	31.61332
981.423	52.69182
981.594	6.32224
981.765	29.5056
981.936	23.18258
982.106	69.55627
982.277	27.39791
982.448	-25.28676
982.619	75.88082
982.79	-14.75104
982.96	14.75222
983.131	86.42218
983.302	48.47593
983.472	21.07496
983.643	99.07256
983.814	63.23193
983.984	-44.2495
984.155	48.47593
984.326	42.15228
984.496	6.32224
984.667	14.75222
984.837	6.32224
985.008	75.88082
985.178	23.18258
985.349	14.75222
985.519	-14.75104
985.69	107.50658
985.86	73.77262
986.031	90.63889
986.201	2.10739
986.371	23.18258
986.542	67.44814
986.712	14.75222
986.882	-18.9654
987.053	-8.42931
987.223	14.75222
987.393	23.18258
987.563	31.61332
987.734	86.42218
987.904	73.77262
988.074	25.29023
988.244	25.29023
988.414	-42.14263
988.585	59.01582
988.755	6.32224
988.925	99.07256
989.095	18.96735
989.265	86.42218
989.435	82.20557
989.605	-2.10736
989.775	44.26014
989.945	31.61332
990.115	59.01582
990.285	-25.28676
990.455	42.15228
990.625	23.18258
990.795	149.68192
990.965	-16.85823
991.134	126.48442
991.304	-33.71489
991.474	25.29023
991.644	-25.28676
991.814	6.32224
991.984	101.18103
992.153	37.93663
992.323	-75.84956
992.493	101.18103
992.662	-14.75104
992.832	52.69182
993.002	61.12386
993.171	-33.71489
993.341	-35.82187
993.511	16.85977
993.68	56.90779
993.85	-25.28676
994.019	48.47593
994.189	-46.35635
994.358	-16.85823
994.528	33.72107
994.697	-0
994.867	31.61332
995.036	73.77262
995.206	50.58386
995.375	44.26014
995.544	-52.67674
995.714	-2.10736
995.883	77.98905
996.052	-35.82187
996.222	-8.42931
996.391	16.85977
996.56	4.2148
996.73	118.04961
996.899	18.96735
997.068	42.15228
997.237	6.32224
997.406	48.47593
997.576	14.75222
997.745	-10.53658
997.914	18.96735
998.083	65.34002
998.252	40.04444
998.421	-10.53658
998.59	14.75222
998.759	-10.53658
998.928	-27.39383
999.097	18.96735
999.266	2.10739
999.435	33.72107
999.604	23.18258
999.773	27.39791
999.942	12.64469
1000.111	12.64469
1000.28	73.77262
1000.448	-58.9969
1000.617	6.32224
1000.786	14.75222
1000.955	31.61332
1001.124	6.32224
1001.292	37.93663
1001.461	50.58386
1001.63	50.58386
1001.798	77.98905
1001.967	25.29023
1002.136	16.85977
1002.304	-10.53658
1002.473	-27.39383
1002.642	52.69182
1002.81	21.07496
1002.979	-0
1003.147	-48.46317
1003.316	-10.53658
1003.484	50.58386
1003.653	-8.42931
1003.821	-31.6079
1003.99	56.90779
1004.158	-14.75104
1004.327	4.2148
1004.495	-37.92881
1004.663	42.15228
1004.832	40.04444
1005	6.32224
1005.168	44.26014
1005.337	2.10739
1005.505	-33.71489
1005.673	59.01582
1005.842	10.53718
1006.01	107.50658
1006.178	18.96735
1006.346	-2.10736
1006.514	59.01582
1006.683	-10.53658
1006.851	-8.42931
1007.019	-2.10736
1007.187	-69.53
1007.355	56.90779
1007.523	31.61332
1007.691	18.96735
1007.859	56.90779
1008.027	48.47593
1008.195	-16.85823
1008.363	-23.17966
1008.531	16.85977
1008.699	2.10739
1008.867	25.29023
1009.035	-6.32202
1009.203	-12.64382
1009.37	-14.75104
1009.538	65.34002
1009.706	8.4297
1009.874	-31.6079
1010.042	-23.17966
1010.209	10.53718
1010.377	31.61332
1010.545	-6.32202
1010.713	14.75222
1010.88	42.15228
1011.048	16.85977
1011.216	16.85977
1011.383	40.04444
1011.551	-21.07254
1011.718	-2.10736
1011.886	6.32224
1012.054	56.90779
1012.221	18.96735
1012.389	42.15228
1012.556	-18.9654
1012.724	71.66443
1012.891	-33.71489
1013.058	14.75222
1013.226	37.93663
1013.393	6.32224
1013.561	27.39791
1013.728	-44.2495
1013.895	33.72107
1014.063	-21.07254
1014.23	46.36803
1014.397	-44.2495
1014.565	-14.75104
1014.732	-18.9654
1014.899	-77.95602
1015.066	107.50658
1015.233	-31.6079
1015.401	-25.28676
1015.568	40.04444
1015.735	65.34002
1015.902	8.4297
1016.069	-69.53
1016.236	-0
1016.403	92.74727
1016.57	-23.17966
1016.737	-6.32202
1016.904	-65.31684
1017.071	88.53052
1017.238	48.47593
1017.405	18.96735
1017.572	-2.10736
1017.739	48.47593
1017.906	82.20557
1018.073	16.85977
1018.24	-14.75104
1018.407	42.15228
1018.573	-35.82187
1018.74	77.98905
1018.907	31.61332
1019.074	33.72107
1019.241	18.96735
1019.407	6.32224
1019.574	-25.28676
1019.741	-21.07254
1019.907	23.18258
1020.074	31.61332
1020.241	-23.17966
1020.407	33.72107
1020.574	6.32224
1020.74	73.77262
1020.907	-18.9654
1021.073	-18.9654
1021.24	23.18258
1021.406	82.20557
1021.573	-2.10736
1021.739	8.4297
1021.906	16.85977
1022.072	-16.85823
1022.239	56.90779
1022.405	-25.28676
1022.571	-63.21022
1022.738	-6.32202
1022.904	-40.03573
1023.07	-6.32202
1023.237	-27.39383
1023.403	-8.42931
1023.569	44.26014
1023.735	-44.2495
1023.902	-35.82187
1024.068	10.53718
1024.234	2.10739
1024.4	18.96735
1024.566	23.18258
1024.732	6.32224
1024.898	44.26014
1025.065	-18.9654
1025.231	48.47593
1025.397	-2.10736
1025.563	-67.42343
1025.729	-6.32202
1025.895	-27.39383
1026.061	10.53718
1026.227	-10.53658
1026.392	21.07496
1026.558	27.39791
1026.724	-10.53658
1026.89	6.32224
1027.056	-18.9654
1027.222	-23.17966
1027.388	31.61332
1027.553	33.72107
1027.719	-8.42931
1027.885	-14.75104
1028.051	75.88082
1028.216	25.29023
1028.382	31.61332
1028.548	33.72107
1028.713	92.74727
1028.879	56.90779
1029.045	-23.17966
1029.21	-10.53658
1029.376	52.69182
1029.541	-27.39383
1029.707	-10.53658
1029.873	-2.10736
1030.038	63.23193
1030.204	-27.39383
1030.369	29.5056
1030.534	23.18258
1030.7	40.04444
1030.865	23.18258
1031.031	50.58386
1031.196	-44.2495
1031.361	48.47593
1031.527	-33.71489
1031.692	44.26014
1031.857	6.32224
1032.023	105.39804
1032.188	31.61332
1032.353	-31.6079
1032.518	2.10739
1032.684	2.10739
1032.849	44.26014
1033.014	-18.9654
1033.179	-0
1033.344	10.53718
1033.509	-52.67674
1033.674	-58.9969
1033.839	44.26014
1034.004	-27.39383
1034.17	48.47593
1034.335	-31.6079
1034.5	-16.85823
1034.664	67.44814
1034.829	18.96735
1034.994	33.72107
1035.159	56.90779
1035.324	23.18258
1035.489	-63.21022
1035.654	37.93663
1035.819	-40.03573
1035.984	29.5056
1036.148	-37.92881
1036.313	-31.6079
1036.478	75.88082
1036.643	56.90779
1036.807	23.18258
1036.972	80.0973
1037.137	8.4297
1037.301	86.42218
1037.466	-23.17966
1037.631	-35.82187
1037.795	-56.89021
1037.96	6.32224
1038.124	-21.07254
1038.289	27.39791
1038.454	-12.64382
1038.618	16.85977
1038.783	-23.17966
1038.947	42.15228
1039.111	-42.14263
1039.276	67.44814
1039.44	-23.17966
1039.605	23.18258
1039.769	8.4297
1039.933	48.47593
1040.098	50.58386
1040.262	-2.10736
1040.426	-31.6079
1040.591	-50.56997
1040.755	-77.95602
1040.919	-25.28676
1041.083	-18.9654
1041.248	-16.85823
1041.412	27.39791
1041.576	18.96735
1041.74	2.10739
1041.904	-35.82187
1042.068	65.34002
1042.232	-48.46317
1042.397	42.15228
1042.561	27.39791
1042.725	2.10739
1042.889	-23.17966
1043.053	56.90779
1043.217	40.04444
1043.381	-2.10736
1043.544	73.77262
1043.708	40.04444
1043.872	23.18258
1044.036	33.72107
1044.2	40.04444
1044.364	35.82884
1044.528	50.58386
1044.691	21.07496
1044.855	10.53718
1045.019	-6.32202
1045.183	67.44814
1045.346	18.96735
1045.51	75.88082
1045.674	-50.56997
1045.837	-44.2495
1046.001	23.18258
1046.165	44.26014
1046.328	-10.53658
1046.492	-16.85823
1046.655	16.85977
1046.819	16.85977
1046.983	31.61332
1047.146	2.10739
1047.31	25.29023
1047.473	42.15228
1047.636	50.58386
1047.8	-27.39383
1047.963	-25.28676
1048.127	48.47593
1048.29	-46.35635
