Data from mixed_try1_USB4F045381__3__00151.txt Node

Date: Thu Apr 03 20:07:27 EDT 2025
User: mmckonesweet
Spectrometer: USB4F04538
Trigger mode: 4
Integration Time (sec): 2.700000E-3
Scans to average: 1
Electric dark correction enabled: true
Nonlinearity correction enabled: true
Boxcar width: 0
XAxis mode: Wavelengths
Number of Pixels in Spectrum: 3648
>>>>>Begin Spectral Data<<<<<
345.52	25.46587
345.736	25.46587
345.952	25.46587
346.168	-29.32529
346.384	19.14299
346.6	-23.00407
346.816	6.49786
347.032	10.7128
347.248	6.49786
347.464	54.97546
347.68	-44.07393
347.896	12.82031
348.112	4.39042
348.328	-23.00407
348.544	-52.50118
348.76	19.14299
348.975	27.57355
349.191	-18.7898
349.407	8.60532
349.623	-12.46822
349.839	-31.43231
350.055	-10.36097
350.27	-1.93175
350.486	-23.00407
350.702	19.14299
350.918	-35.64629
351.133	27.57355
351.349	-31.43231
351.565	-6.14641
351.781	-25.11117
351.996	-29.32529
352.212	36.00449
352.428	-8.2537
352.644	10.7128
352.859	25.46587
353.075	4.39042
353.291	31.78897
353.506	31.78897
353.722	61.29953
353.938	-20.89695
354.153	19.14299
354.369	-23.00407
354.584	6.49786
354.8	4.39042
355.016	-18.7898
355.231	23.35822
355.447	-54.60793
355.662	-48.28761
355.878	21.25059
356.093	27.57355
356.309	48.65159
356.524	-1.93175
356.74	-1.93175
356.955	2.283
357.171	-20.89695
357.386	12.82031
357.602	4.39042
357.817	40.22009
358.033	10.7128
358.248	23.35822
358.464	44.4358
358.679	-39.86016
358.895	14.92785
359.11	-84.09974
359.325	-48.28761
359.541	14.92785
359.756	-1.93175
359.972	-56.71465
360.187	-14.57544
360.402	10.7128
360.618	12.82031
360.833	63.4076
361.048	-12.46822
361.264	-48.28761
361.479	27.57355
361.694	-60.92802
361.909	-31.43231
362.125	-52.50118
362.34	6.49786
362.555	-46.18078
362.77	14.92785
362.986	-16.68263
363.201	-18.7898
363.416	29.68125
363.631	-6.14641
363.847	-31.43231
364.062	2.283
364.277	17.0354
364.492	-6.14641
364.707	10.7128
364.922	44.4358
365.138	2.283
365.353	-4.03909
365.568	19.14299
365.783	31.78897
365.998	-10.36097
366.213	-52.50118
366.428	31.78897
366.643	27.57355
366.858	82.38126
367.073	-35.64629
367.288	71.84011
367.503	-37.75323
367.718	10.7128
367.933	2.283
368.148	38.11228
368.363	33.89672
368.578	-12.46822
368.793	-23.00407
369.008	2.283
369.223	21.25059
369.438	-10.36097
369.653	-10.36097
369.868	-14.57544
370.083	25.46587
370.298	-12.46822
370.513	12.82031
370.728	-29.32529
370.943	-12.46822
371.157	-10.36097
371.372	27.57355
371.587	-18.7898
371.802	-16.68263
372.017	-29.32529
372.232	-23.00407
372.446	-31.43231
372.661	65.5157
372.876	61.29953
373.091	-16.68263
373.306	-12.46822
373.52	19.14299
373.735	-46.18078
373.95	-41.96706
374.165	-14.57544
374.379	-18.7898
374.594	-23.00407
374.809	12.82031
375.023	19.14299
375.238	40.22009
375.453	4.39042
375.667	-33.53931
375.882	-6.14641
376.097	19.14299
376.311	14.92785
376.526	-18.7898
376.741	52.86748
376.955	21.25059
377.17	80.27299
377.384	86.59788
377.599	14.92785
377.813	19.14299
378.028	-48.28761
378.242	4.39042
378.457	48.65159
378.672	12.82031
378.886	-1.93175
379.101	-48.28761
379.315	17.0354
379.53	-16.68263
379.744	31.78897
379.958	36.00449
380.173	-4.03909
380.387	33.89672
380.602	2.283
380.816	-25.11117
381.031	-41.96706
381.245	12.82031
381.459	21.25059
381.674	29.68125
381.888	10.7128
382.103	-1.93175
382.317	23.35822
382.531	-71.461
382.746	-14.57544
382.96	-23.00407
383.174	27.57355
383.388	-48.28761
383.603	6.49786
383.817	-23.00407
384.031	-12.46822
384.246	14.92785
384.46	-25.11117
384.674	2.283
384.888	50.75953
385.103	65.5157
385.317	78.16474
385.531	-12.46822
385.745	-35.64629
385.959	-16.68263
386.174	54.97546
386.388	-77.78048
386.602	54.97546
386.816	-12.46822
387.03	-10.36097
387.244	-6.14641
387.458	-12.46822
387.672	2.283
387.887	42.32793
388.101	36.00449
388.315	14.92785
388.529	78.16474
388.743	2.283
388.957	-14.57544
389.171	4.39042
389.385	-44.07393
389.599	-14.57544
389.813	-48.28761
390.027	36.00449
390.241	44.4358
390.455	21.25059
390.669	-14.57544
390.883	-60.92802
391.097	82.38126
391.311	23.35822
391.525	95.03138
391.738	48.65159
391.952	46.54368
392.166	12.82031
392.38	-6.14641
392.594	105.57375
392.808	4.39042
393.022	25.46587
393.236	38.11228
393.449	-31.43231
393.663	-56.71465
393.877	44.4358
394.091	-37.75323
394.305	31.78897
394.518	-20.89695
394.732	61.29953
394.946	12.82031
395.16	27.57355
395.373	54.97546
395.587	80.27299
395.801	61.29953
396.015	-1.93175
396.228	10.7128
396.442	38.11228
396.656	-14.57544
396.869	61.29953
397.083	63.4076
397.297	-27.21824
397.51	2.283
397.724	44.4358
397.938	48.65159
398.151	-4.03909
398.365	19.14299
398.578	71.84011
398.792	82.38126
399.005	12.82031
399.219	52.86748
399.433	-6.14641
399.646	12.82031
399.86	36.00449
400.073	78.16474
400.287	-4.03909
400.5	14.92785
400.714	-56.71465
400.927	-6.14641
401.141	48.65159
401.354	6.49786
401.567	10.7128
401.781	2.283
401.994	2.283
402.208	-25.11117
402.421	6.49786
402.635	36.00449
402.848	95.03138
403.061	6.49786
403.275	114.00805
403.488	-10.36097
403.701	137.20416
403.915	6.49786
404.128	-44.07393
404.341	42.32793
404.555	69.73195
404.768	48.65159
404.981	21.25059
405.195	-8.2537
405.408	114.00805
405.621	54.97546
405.834	52.86748
406.048	-31.43231
406.261	6.49786
406.474	54.97546
406.687	44.4358
406.9	54.97546
407.114	52.86748
407.327	105.57375
407.54	21.25059
407.753	63.4076
407.966	65.5157
408.179	-48.28761
408.392	36.00449
408.605	-39.86016
408.819	44.4358
409.032	78.16474
409.245	36.00449
409.458	14.92785
409.671	-4.03909
409.884	80.27299
410.097	-4.03909
410.31	-23.00407
410.523	63.4076
410.736	61.29953
410.949	107.68229
411.162	69.73195
411.375	-6.14641
411.588	46.54368
411.801	40.22009
412.014	12.82031
412.227	-20.89695
412.44	-8.2537
412.653	97.13981
412.865	76.05651
413.078	29.68125
413.291	21.25059
413.504	90.81458
413.717	73.9483
413.93	52.86748
414.143	109.79086
414.356	46.54368
414.568	80.27299
414.781	111.89944
414.994	27.57355
415.207	29.68125
415.42	17.0354
415.632	120.334
415.845	54.97546
416.058	19.14299
416.271	27.57355
416.483	10.7128
416.696	50.75953
416.909	86.59788
417.121	29.68125
417.334	14.92785
417.547	54.97546
417.759	67.62381
417.972	27.57355
418.185	111.89944
418.397	46.54368
418.61	2.283
418.823	107.68229
419.035	69.73195
419.248	154.07568
419.46	44.4358
419.673	90.81458
419.885	54.97546
420.098	14.92785
420.311	132.98649
420.523	59.19149
420.736	46.54368
420.948	78.16474
421.161	137.20416
421.373	36.00449
421.586	46.54368
421.798	120.334
422.01	48.65159
422.223	80.27299
422.435	57.08346
422.648	86.59788
422.86	97.13981
423.073	105.57375
423.285	78.16474
423.497	76.05651
423.71	164.62107
423.922	173.05775
424.134	71.84011
424.347	122.44269
424.559	128.76891
424.771	27.57355
424.984	139.31302
425.196	78.16474
425.408	92.92297
425.621	103.46523
425.833	202.58873
426.045	54.97546
426.257	38.11228
426.47	86.59788
426.682	61.29953
426.894	97.13981
427.106	44.4358
427.318	149.85767
427.531	130.87769
427.743	116.11668
427.955	111.89944
428.167	137.20416
428.379	179.38548
428.591	86.59788
428.804	179.38548
429.016	111.89944
429.228	88.70622
429.44	84.48956
429.652	189.93211
429.864	227.90414
430.076	219.46535
430.288	263.77245
430.5	213.13647
430.712	164.62107
430.924	154.07568
431.136	139.31302
431.348	177.27622
431.56	223.68471
431.772	221.57502
431.984	289.09456
432.196	238.45306
432.408	196.26033
432.62	213.13647
432.832	111.89944
433.044	213.13647
433.256	145.63975
433.468	175.16697
433.679	202.58873
433.891	198.36978
434.103	177.27622
434.315	251.11241
434.527	230.01389
434.739	173.05775
434.95	238.45306
435.162	297.53586
435.374	255.33235
435.586	217.35571
435.798	246.89255
436.009	316.52984
436.221	230.01389
436.433	263.77245
436.645	230.01389
436.856	240.56291
437.068	221.57502
437.28	263.77245
437.491	204.69824
437.703	278.54336
437.915	327.08269
438.126	324.97208
438.338	215.24608
438.55	318.64038
438.761	246.89255
438.973	246.89255
439.184	244.78265
439.396	377.74241
439.608	318.64038
439.819	293.31517
440.031	324.97208
440.242	316.52984
440.454	318.64038
440.665	322.8615
440.877	407.29842
441.088	314.41933
441.3	297.53586
441.511	331.30395
441.723	445.30366
441.934	386.18665
442.146	381.9645
442.357	381.9645
442.569	424.189
442.78	369.29844
442.991	291.20486
443.203	377.74241
443.414	331.30395
443.626	392.52001
443.837	476.97856
444.048	430.52323
444.26	356.63299
444.471	417.85491
444.682	362.96564
444.894	365.07655
445.105	398.85351
445.316	438.9691
445.528	424.189
445.739	468.53159
445.95	500.20897
446.161	479.09034
446.373	595.2603
446.584	525.55324
446.795	455.86158
447.006	510.76883
447.217	449.52678
447.429	462.19651
447.64	398.85351
447.851	504.43287
448.062	512.88085
448.273	534.00179
448.484	588.92269
448.695	618.49918
448.907	559.34876
449.118	593.14775
449.329	536.11396
449.54	576.24783
449.751	495.98513
449.962	576.24783
450.173	658.64259
450.384	572.02299
450.595	719.92228
450.806	637.51393
451.017	652.30387
451.228	698.79028
451.439	631.17557
451.65	597.37286
451.861	652.30387
452.072	728.37539
452.283	614.27381
452.494	772.75693
452.705	686.11162
452.915	859.41896
453.126	728.37539
453.337	707.24295
453.548	812.91545
453.759	785.43819
453.97	840.39428
454.181	941.86696
454.391	857.30507
454.602	1034.89837
454.813	815.02915
455.024	1013.75377
455.235	931.29604
455.445	872.10247
455.656	998.95292
455.867	905.92662
456.078	935.52439
456.288	855.19119
456.499	897.47039
456.71	1049.69993
456.921	903.81255
457.131	1136.4
457.342	979.92372
457.553	914.38297
457.763	977.8094
457.974	1227.33715
458.184	1263.29074
458.395	1229.45205
458.606	1155.43277
458.816	1292.90013
459.027	1388.07562
459.237	1333.08496
459.448	1447.29696
459.659	1364.81025
459.869	1404.99596
460.08	1438.83675
460.29	1464.21738
460.501	1603.80918
460.711	1443.06686
460.922	1447.29696
461.132	1599.57921
461.343	1569.96922
461.553	1601.69419
461.764	1618.61401
461.974	1677.83222
462.184	1671.48751
462.395	1785.6879
462.605	1942.16461
462.816	1656.68309
463.026	1794.14676
463.236	1889.30397
463.447	1948.50765
463.657	1851.24224
463.867	2176.8169
464.078	1933.70715
464.288	2039.4184
464.498	2145.11245
464.709	2193.72518
464.919	1995.02161
465.129	2185.27111
465.339	2288.82389
465.55	2538.09914
465.76	2255.01309
465.97	2318.40636
466.18	2341.64842
466.391	2685.89984
466.601	2347.98695
466.811	2749.22408
467.021	2666.90029
467.231	2814.64652
467.441	2360.66375
467.651	2951.77889
467.862	2814.64652
468.072	2987.6341
468.282	2913.80987
468.492	2877.94591
468.702	3198.45659
468.912	3339.61636
469.122	3312.23311
469.332	3221.63725
469.542	3221.63725
469.752	3482.80351
469.962	3402.79726
470.172	3581.72237
470.382	3718.45704
470.592	3743.69153
470.802	3623.80309
471.012	3880.32941
471.222	3752.10241
471.432	3806.76551
471.642	3951.76803
471.852	4207.91135
472.062	4163.84324
472.272	4247.77443
472.482	4222.59864
472.691	4610.37852
472.901	4283.43487
473.111	4235.18692
473.321	4558.01976
473.531	4694.12345
473.741	4700.40287
473.95	4963.95402
474.16	4643.88079
474.37	4922.14471
474.58	4878.23507
474.79	5296.00861
474.999	5318.95915
475.209	5020.38196
475.419	5348.16484
475.628	5689.94542
475.838	5231.31457
476.048	5389.87927
476.258	5544.14094
476.467	5908.43536
476.677	6151.58936
476.886	6031.09177
477.096	6236.72101
477.306	6379.90249
477.515	5925.07155
477.725	6301.06269
477.935	6305.21299
478.144	6394.42193
478.354	6278.23434
478.563	6692.8554
478.773	6649.36369
478.982	6943.25403
479.192	6883.27149
479.401	7063.16218
479.611	7023.89025
479.82	7112.75727
480.03	7366.73155
480.239	7438.93998
480.449	7401.80755
480.658	7748.10636
480.868	7517.30766
481.077	7678.0706
481.287	7851.05611
481.496	8038.29206
481.705	7832.529
481.915	8286.99488
482.124	8019.78176
482.333	8284.94067
482.543	8262.34312
482.752	8523.09906
482.961	8344.50467
483.171	8826.58725
483.38	8348.61193
483.589	8947.46096
483.799	8832.73488
484.008	9123.5397
484.217	9021.18405
484.426	9119.4463
484.636	9279.03833
484.845	9393.55444
485.054	9373.10893
485.263	9781.71646
485.472	9587.70634
485.682	9724.54894
485.891	9657.15754
486.1	9867.44563
486.309	10002.1103
486.518	10112.24384
486.727	9942.94728
486.936	10256.98706
487.146	10401.66204
487.355	10448.51435
487.564	10381.28932
487.773	10572.74196
487.982	10643.999
488.191	10825.12844
488.4	10623.64139
488.609	11105.79963
488.818	10892.26504
489.027	11085.46823
489.236	11012.2662
489.445	11231.8305
489.654	11164.75461
489.863	11676.69581
490.072	11274.50927
490.281	11558.92213
490.49	11674.66549
490.698	12070.41683
490.907	11703.08919
491.116	12192.1252
491.325	12076.50289
491.534	12186.04042
491.743	12001.43648
491.952	12157.64391
492.16	12224.57624
492.369	12538.85313
492.578	12599.66265
492.787	12619.93125
492.996	12782.05858
493.204	12522.6363
493.413	12818.53216
493.622	13055.56815
493.831	12747.60964
494.039	13205.45331
494.248	12698.97302
494.457	13264.18529
494.665	13326.96375
494.874	13235.83239
495.083	13533.49781
495.291	13677.23919
495.5	13717.72669
495.709	13689.38558
495.917	13333.03887
496.126	13472.75665
496.335	13624.6035
496.543	13713.678
496.752	13624.6035
496.96	14063.84739
497.169	13993.01027
497.377	14252.0585
497.586	13812.86741
497.794	14100.27679
498.003	14195.39467
498.211	14511.07585
498.42	14381.57044
498.628	14438.22979
498.837	14434.18274
499.045	14577.84991
499.254	14502.98193
499.462	14853.02819
499.671	14697.23075
499.879	14879.33125
500.087	15130.21857
500.296	15358.8487
500.504	15170.68399
500.713	15332.54599
500.921	15134.26512
501.129	15164.61417
501.338	14822.67838
501.546	15702.81562
501.754	15344.68569
501.962	15532.85313
502.171	15488.33999
502.379	15963.84303
502.587	15480.24673
502.795	15893.0197
503.004	15712.93263
503.212	16105.49479
503.42	15773.63517
503.628	16206.67924
503.837	15700.79223
504.045	15822.19789
504.253	16388.82222
504.461	16101.44749
504.669	16065.02212
504.877	16415.13302
505.085	16492.04347
505.294	16599.31838
505.502	16427.27658
505.71	16623.6079
505.918	16447.51601
506.126	16649.9219
506.334	16366.55949
506.542	17064.928
506.75	16789.59514
506.958	16678.26049
507.166	16846.27742
507.374	17295.76073
507.582	17216.78742
507.79	17107.44704
507.998	17172.24033
508.206	17220.83723
508.414	16937.3781
508.622	17212.73763
508.83	17392.96489
509.037	17585.36919
509.245	17030.50872
509.453	17739.31362
509.661	17247.16124
509.869	17546.88604
510.077	17540.80986
510.285	17879.09577
510.492	17761.59665
510.7	17958.11035
510.908	17747.4165
511.116	17877.06983
511.324	17646.13445
511.531	17822.37062
511.739	18114.1293
511.947	18160.73651
512.155	17826.42233
512.362	18091.83958
512.57	17729.18511
512.778	18148.57792
512.985	18160.73651
513.193	18412.04383
513.401	18146.5515
513.608	18515.42092
513.816	18176.94816
514.024	18466.77164
514.231	18365.42602
514.439	18410.01692
514.646	18718.15028
514.854	18825.61276
515.061	18470.82566
515.269	18438.39391
515.477	18882.3899
515.684	18979.72944
515.892	18748.56306
516.099	18898.61251
516.307	18764.78357
516.514	19093.304
516.722	19208.91979
516.929	19022.31841
517.136	18927.0027
517.344	18856.02869
517.551	19160.23784
517.759	19073.0219
517.966	19223.11914
518.173	19340.77862
518.381	19434.10465
518.588	19537.58507
518.796	19671.517
519.003	19967.85552
519.21	19689.78186
519.418	19708.04706
519.625	19539.6142
519.832	19655.28186
520.039	19998.30633
520.247	19874.47893
520.454	19982.06578
520.661	20231.79398
520.868	20313.02012
521.076	20625.80336
521.283	20404.40755
521.49	20402.37662
521.697	20629.86614
521.904	20601.42708
522.112	20463.30617
522.319	20794.4224
522.526	20544.55142
522.733	20688.77821
522.94	20611.58379
523.147	20609.55244
523.354	20469.39933
523.561	20967.13411
523.768	20798.48586
523.975	21186.62237
524.183	20887.88621
524.39	21280.12252
524.597	21141.90794
524.804	21367.53255
525.011	21219.14319
525.218	21282.15522
525.425	21215.07803
525.632	21206.94776
525.838	21406.15795
526.045	21566.77373
526.252	21696.91092
526.459	21674.54245
526.666	21825.03034
526.873	21981.64152
527.08	21745.7165
527.287	21951.13107
527.494	21493.57865
527.701	21999.9482
527.907	22113.86332
528.114	21942.9951
528.321	21945.02908
528.528	22122.00057
528.735	22345.79811
528.941	22683.6122
529.148	22060.97269
529.355	22467.8882
529.562	22087.41769
529.768	22537.07834
529.975	21989.77779
530.182	22817.95084
530.388	22632.73031
530.595	22944.16138
530.802	22459.74845
531.008	23117.21298
531.215	22938.05412
531.422	23188.47646
531.628	23084.63673
531.835	22966.55493
532.042	22854.59126
532.248	23216.98297
532.455	22944.16138
532.661	23320.83346
532.868	23371.74359
533.074	23766.87199
533.281	23294.36097
533.487	23449.13076
533.694	23292.32465
533.9	23970.59025
534.107	23192.54878
534.313	23738.35376
534.52	23897.24835
534.726	24076.53503
534.933	23880.95066
535.139	23717.98395
535.345	23740.39076
535.552	24162.11132
535.758	24062.2728
535.965	24231.39089
536.171	24100.9849
536.377	24457.58981
536.584	24592.10161
536.79	24520.76822
536.996	24510.57799
537.203	24078.57251
537.409	24394.41388
537.615	24388.30022
537.821	24447.39998
538.028	25022.20334
538.234	24769.42921
538.44	25032.39659
538.646	24371.99722
538.853	24753.12245
539.059	25069.09276
539.265	24997.73976
539.471	24871.34992
539.677	24618.59765
539.883	25062.97668
540.09	25103.75093
540.296	25134.33221
540.502	25385.11715
540.708	25115.98338
540.914	25330.06402
541.12	25224.04014
541.326	25919.41246
541.532	25876.5824
541.738	25737.90023
541.944	25580.87379
542.15	25693.03436
542.356	25637.97297
542.562	26135.61442
542.768	25819.47692
542.974	26478.31361
543.18	26003.03536
543.386	26192.72767
543.592	26249.84225
543.798	26094.82007
544.004	26162.13112
544.21	26510.95403
544.415	25982.63925
544.621	26459.95355
544.827	26408.95407
545.033	26594.59693
545.239	26478.31361
545.445	27155.68086
545.651	26488.51369
545.856	26827.17847
546.062	26704.76471
546.268	26570.11581
546.474	26282.47975
546.679	26280.4399
546.885	26580.31625
547.091	26600.71725
547.297	26455.87356
547.502	27010.80889
547.708	27006.72809
547.914	27029.17256
548.119	27253.62632
548.325	27116.91163
548.531	26816.97712
548.736	27223.01804
548.942	27104.66882
549.147	26923.07292
549.353	27174.0454
549.559	27700.53995
549.764	27218.93696
549.97	27280.15375
550.175	27498.50309
550.381	28392.44934
550.586	27296.47842
550.792	28069.95044
550.997	28000.55555
551.203	28414.9028
551.408	27825.03317
551.614	27804.62414
551.819	27806.66504
552.025	27792.37879
552.23	27982.18653
552.435	28223.03195
552.641	28231.19647
552.846	28082.19673
553.052	28316.925
553.257	28543.5024
553.462	28465.93389
553.668	28314.88383
553.873	28570.03935
554.078	28802.75559
554.283	28766.01002
554.489	29010.98686
554.694	28902.78691
554.899	28806.83845
555.105	28949.74125
555.31	28874.20628
555.515	28725.182
555.72	29296.81208
555.925	29098.77387
556.131	29117.14814
556.336	28898.70395
556.541	29157.98014
556.746	29629.62017
556.951	28955.86577
557.156	29527.5288
557.361	29125.3145
557.567	29413.18963
557.772	29327.43742
557.977	29441.77411
558.182	29396.85573
558.387	29343.77103
558.592	29345.81274
558.797	29486.693
559.002	29705.16951
559.207	29519.36161
559.412	29654.1225
559.617	29380.5219
559.822	29560.19775
560.027	29739.88187
560.232	29841.97887
560.437	29274.35364
560.642	29572.44868
560.847	29496.90191
561.051	29558.15593
561.256	29972.66707
561.461	30199.34046
561.666	30252.4372
561.871	29976.75115
562.076	29991.04546
562.281	30254.4794
562.485	29570.40685
562.69	29850.14675
562.895	29858.31464
563.1	29974.70911
563.305	29986.96137
563.509	30720.13291
563.714	30178.91884
563.919	30517.9332
564.123	30205.46696
564.328	30221.80437
564.533	30458.70536
564.737	29925.70047
564.942	30405.60543
565.147	30769.15296
565.351	30746.68534
565.556	30344.33732
565.761	30507.72143
565.965	30407.64772
566.17	30221.80437
566.374	30599.62852
566.579	30869.23799
566.784	30511.80613
566.988	30571.03493
567.193	30863.11024
567.397	30626.17994
567.602	30777.32304
567.806	30354.5486
568.011	30769.15296
568.215	30785.49315
568.42	30650.68914
568.624	30852.89735
568.828	31012.2224
569.033	30897.83432
569.237	31420.78932
569.442	31206.28405
569.646	31006.09436
569.85	31618.96725
570.055	31447.34834
570.259	31447.34834
570.463	31729.3001
570.668	31447.34834
570.872	31169.51344
571.076	31322.72761
571.281	31524.98399
571.485	31433.04729
571.689	31571.97517
571.893	31678.21944
572.098	31898.89603
572.302	31988.80753
572.506	31905.02624
572.71	31813.07482
572.914	31749.73268
573.119	31494.33805
573.323	31821.24813
573.527	31905.02624
573.731	32107.333
573.935	32164.55461
574.139	32319.87858
574.343	32135.94361
574.547	32287.17779
574.751	32387.32573
574.955	32389.36962
575.159	32364.84308
575.364	32264.6963
575.568	32176.81659
575.772	31731.34335
575.976	31721.12712
576.18	31788.55508
576.383	32215.64668
576.587	32440.46759
576.791	32274.91513
576.995	32417.98431
577.199	32254.47753
577.403	32262.65255
577.607	32462.95114
577.811	32959.70624
578.015	31935.67756
578.219	32581.50531
578.422	32967.88451
578.626	33250.06145
578.83	32546.75587
579.034	32632.60866
579.238	32810.46002
579.442	33090.56372
579.645	32589.68175
579.849	32877.9258
580.053	32941.30527
580.257	32996.5088
580.46	32800.23817
580.664	33276.64608
580.868	32935.17167
581.071	33025.13361
581.275	33350.2676
581.479	32971.97366
581.682	32759.35141
581.886	33231.65699
582.09	33393.21525
582.293	33487.29568
582.497	33497.5222
582.7	33824.8128
582.904	33875.95957
583.107	33759.34801
583.311	33485.25038
583.515	33697.97785
583.718	33618.20103
583.922	33687.74978
584.125	33491.38628
584.329	33605.92811
584.532	33794.12575
584.735	34375.2693
584.939	33734.79959
585.142	34266.79386
585.346	34078.52212
585.549	34403.92501
585.753	34274.98031
585.956	33939.38455
586.159	34436.67535
586.363	34082.61465
586.566	34622.96255
586.769	33988.49005
586.973	34135.8189
587.176	34360.94173
587.379	34164.46836
587.582	35257.83713
587.786	34631.15178
587.989	34604.53703
588.192	34227.90906
588.395	34860.47796
588.599	34410.06562
588.802	34430.53458
589.005	34047.82859
589.208	34768.33146
589.411	35114.43982
589.615	34534.93252
589.818	34698.7155
590.021	34954.68143
590.224	34829.76147
590.427	35071.42517
590.63	35007.93111
590.833	34817.47515
591.036	34856.38237
591.239	35247.59368
591.442	35022.26809
591.645	35286.51944
591.848	35360.27837
592.051	35897.28141
592.254	35190.23261
592.457	35475.02739
592.66	35645.13152
592.863	36200.79446
593.066	36063.37752
593.269	35694.32503
593.472	36151.56743
593.675	36100.2929
593.878	35723.02268
594.081	35460.68289
594.284	35358.22942
594.486	36061.32672
594.689	36129.00618
594.892	36001.85606
595.095	36276.69291
595.298	35714.82324
595.5	36024.41332
595.703	36252.07629
595.906	35852.17531
596.109	35872.67775
596.311	36247.97361
596.514	35969.04673
596.717	35770.17112
596.92	36143.36326
597.122	36188.48738
597.325	36237.717
597.528	36256.179
597.73	36627.57696
597.933	36276.69291
598.136	36596.79022
598.338	36151.56743
598.541	36533.1689
598.743	36705.57661
598.946	36211.05053
599.148	36580.37122
599.351	36340.2899
599.554	36795.90393
599.756	36853.39172
599.959	36609.10474
600.161	36615.26209
600.363	36668.62823
600.566	36676.83879
600.768	36888.29761
600.971	36592.68543
601.173	37331.98417
601.376	37457.34589
601.578	37268.28634
601.78	37103.93712
601.983	36715.84043
602.185	36988.91982
602.388	36968.38333
602.59	37093.66682
602.792	37440.90342
602.995	36849.28527
603.197	36880.08428
603.399	37251.84933
603.601	37025.88726
603.804	36471.60573
604.006	37502.56519
604.208	36773.32089
604.41	36993.0272
604.613	36756.89737
604.815	36869.81778
605.017	37362.80825
605.219	36960.16892
605.421	36816.43468
605.623	37190.2147
605.826	37214.86777
606.028	37019.72587
606.23	37683.47946
606.432	37708.15425
606.634	37901.47969
606.836	37479.95508
607.038	37712.26683
607.24	37233.35826
607.442	37438.84815
607.644	37110.09939
607.846	37346.36853
608.048	37101.88305
608.25	37716.37944
608.452	37340.20376
608.654	37864.45444
608.856	37410.07509
609.058	37607.40594
609.26	37399.79935
609.462	37743.11215
609.664	38016.68623
609.866	38061.953
610.067	37864.45444
610.269	37584.79154
610.471	37560.12234
610.673	38255.41125
610.875	38348.05087
611.077	37784.24202
611.278	37445.014
611.48	38206.01055
611.682	37767.78969
611.884	37983.76745
612.085	37508.73174
612.287	37714.32313
612.489	38168.96324
612.69	38547.80076
612.892	38033.14641
613.094	38393.34773
613.295	37769.8462
613.497	37634.13326
613.699	37977.59542
613.9	37979.65275
614.102	38175.1376
614.304	37827.43181
614.505	37708.15425
614.707	38255.41125
614.908	37671.14249
615.11	38177.19574
615.311	37810.97814
615.513	37607.40594
615.714	37313.49052
615.916	37660.86189
616.117	37800.69486
616.319	38070.18376
616.52	37611.51775
616.722	38327.46278
616.923	38251.29434
617.124	38378.93464
617.326	37274.45033
617.527	37808.92147
617.729	37547.78816
617.93	37975.53809
618.131	37969.36615
618.333	38041.3767
618.534	38584.87691
618.735	38236.88541
618.937	37806.8648
619.138	37669.08635
619.339	37965.25157
619.54	37928.22178
619.742	37983.76745
619.943	37936.45039
620.144	37638.24527
620.345	37664.97411
620.546	37636.18926
620.748	37934.39323
620.949	37504.6207
621.15	37870.62514
621.351	37819.20491
621.552	38304.81688
621.753	38016.68623
621.954	38191.60294
622.155	37389.5238
622.356	37685.53565
622.558	37936.45039
622.759	38037.26154
622.96	37899.42266
623.161	37810.97814
623.362	37251.84933
623.563	38016.68623
623.764	38236.88541
623.965	38341.87435
624.166	38263.64518
624.366	38096.93463
624.567	38304.81688
624.768	38189.54474
624.969	37235.41279
625.17	37901.47969
625.371	38273.93778
625.572	38016.68623
625.773	37442.95871
625.973	37975.53809
626.174	38119.57108
626.375	38012.57127
626.576	38224.53524
626.777	38420.11604
626.977	38024.91625
627.178	38191.60294
627.379	37769.8462
627.58	37837.71561
627.78	38541.62168
627.981	38568.39826
628.182	38537.50234
628.382	38613.71593
628.583	38300.69955
628.784	38368.63983
628.984	38302.75821
629.185	38576.63752
629.386	38348.05087
629.586	38720.84777
629.787	38409.82036
629.987	38053.72238
630.188	38273.93778
630.388	38041.3767
630.589	37590.95901
630.79	38319.22778
630.99	38434.53036
631.191	38656.97776
631.391	38133.97663
631.591	38173.07947
631.792	38628.1361
631.992	38518.96575
632.193	38031.08886
632.393	37913.82202
632.594	38502.48938
632.794	38222.47691
632.994	38832.12622
633.195	38640.49659
633.395	38578.69735
633.595	38444.82656
633.796	38541.62168
633.996	38444.82656
634.196	38183.3702
634.397	38543.68136
634.597	38187.48655
634.797	38924.8789
634.997	38642.55671
635.198	38302.75821
635.398	38160.73088
635.598	38992.90959
635.798	38741.45287
635.998	38739.39232
636.199	39001.15643
636.399	38918.6948
636.599	38525.14453
636.799	37959.07975
636.999	37730.77381
637.199	38012.57127
637.399	38366.5809
637.599	38341.87435
637.799	38072.24147
637.999	38838.30915
638.199	38358.34524
638.399	38492.19194
638.599	38521.02534
638.799	38724.96872
638.999	38776.48364
639.199	38815.63883
639.399	38465.41963
639.599	38652.85741
639.799	38343.93318
639.999	38609.59596
640.199	37975.53809
640.399	37991.99695
640.599	37266.23168
640.799	39129.00198
640.998	38906.32685
641.198	38959.92373
641.398	38502.48938
641.598	38673.45951
641.798	38902.20427
641.997	38516.90617
642.197	38807.39536
642.397	39360.043
642.597	39157.87543
642.796	38889.83678
642.996	38432.47114
643.196	39230.06736
643.395	39180.56304
643.595	39308.4607
643.795	39093.94389
643.994	39079.50902
644.194	39459.09842
644.394	39694.44804
644.593	39490.05795
644.793	39157.87543
644.992	38898.08174
645.192	38955.80066
645.392	39207.37718
645.591	39170.25034
645.791	39366.23329
645.99	39228.00457
646.19	38764.11954
646.389	39312.58705
646.589	39046.51678
646.788	39089.8196
646.987	39091.88174
647.187	39781.18932
647.386	39318.77666
647.586	39585.01468
647.785	39273.38824
647.984	39754.33888
648.184	39677.92795
648.383	39901.00508
648.582	39628.37163
648.782	39669.66815
648.981	39166.12533
649.18	39339.40934
649.38	38918.6948
649.579	39277.51427
649.778	39397.18609
649.977	39744.01225
650.177	39979.52424
650.376	39770.86202
650.575	39739.88167
650.774	39535.46937
650.973	39475.60989
651.173	39372.42368
651.372	38809.45621
651.571	39091.88174
651.77	39343.53599
651.969	39465.29014
652.168	39009.40342
652.367	39605.66029
652.566	39485.92988
652.765	39673.79803
652.964	40151.08007
653.163	39405.44055
653.362	39337.34603
653.561	38865.10279
653.76	39376.55065
653.959	39562.30569
654.158	39570.56336
654.357	39122.81505
654.556	39339.40934
654.755	39737.8164
654.954	39737.8164
655.153	38733.21072
655.352	39471.48196
655.551	39419.88624
655.749	39649.01938
655.948	39566.43451
656.147	39646.95456
656.346	39820.43544
656.545	39316.71345
656.743	39133.12664
656.942	39865.88302
657.141	40078.72825
657.34	39624.24221
657.538	39613.91882
657.737	39003.21816
657.936	39805.97591
658.135	39562.30569
658.333	39735.75114
658.532	39706.83853
658.731	39781.18932
658.929	39419.88624
659.128	39543.72652
659.326	39684.1229
659.525	40268.93856
659.724	39797.71355
659.922	39624.24221
660.121	39636.63061
660.319	39135.18899
660.518	38904.26556
660.716	39242.44431
660.915	39793.58243
661.113	40080.79526
661.312	40020.85625
661.51	39898.93899
661.709	39913.40183
661.907	39574.69226
662.105	39558.17691
662.304	39797.71355
662.502	39558.17691
662.701	39467.35407
662.899	39440.52377
663.097	39454.97065
663.296	39638.69538
663.494	39626.30691
663.692	38964.04683
663.891	39380.67766
664.089	39207.37718
664.287	39063.01259
664.485	39578.8212
664.684	40368.21534
664.882	39880.34468
665.08	39537.53364
665.278	39690.31795
665.476	39339.40934
665.675	39551.98383
665.873	39615.98347
666.071	39651.08421
666.269	39364.16985
666.467	39294.01875
666.665	39446.71523
666.863	38692.00217
667.061	39801.84471
667.259	39657.27877
667.457	39622.17751
667.655	39382.74118
667.853	38964.04683
668.051	39038.2691
668.249	39013.52698
668.447	38786.78732
668.645	38846.55318
668.843	39593.2728
669.041	39360.043
669.239	38564.27869
669.437	39186.75077
669.635	39298.14497
669.833	38838.30915
670.031	38889.83678
670.229	39459.09842
670.426	39360.043
670.624	39479.73786
670.822	38945.49317
671.02	39516.89138
671.218	39409.56784
671.415	39162.00036
671.613	39370.36021
671.811	39067.13664
672.009	39510.6989
672.206	39201.18916
672.404	39015.58877
672.602	38739.39232
672.799	39576.75673
672.997	39110.44147
673.195	38654.91758
673.392	38815.63883
673.59	38518.96575
673.788	38337.75672
673.985	38451.00439
674.183	39157.87543
674.38	39091.88174
674.578	39038.2691
674.775	38970.23155
674.973	38673.45951
675.17	38881.59196
675.368	38418.05689
675.565	38436.58958
675.763	38189.54474
675.96	38453.06369
676.158	38066.06836
676.355	38442.76731
676.553	38924.8789
676.75	38984.66289
676.947	39252.75871
677.145	38543.68136
677.342	38473.65711
677.539	38498.37038
677.737	39017.65057
677.934	38488.07303
678.131	39019.71238
678.329	39258.94747
678.526	38838.30915
678.723	39135.18899
678.92	38955.80066
679.118	38220.41858
679.315	38418.05689
679.512	38739.39232
679.709	38739.39232
679.906	38834.18719
680.104	38692.00217
680.301	38245.11903
680.498	38121.62899
680.695	38064.01068
680.892	38453.06369
681.089	38321.28652
681.286	37796.5816
681.483	37416.24062
681.68	37895.30863
681.877	37948.79356
682.075	38288.34778
682.272	37827.43181
682.469	38156.61475
682.665	37656.74971
682.862	37479.95508
683.059	38022.85874
683.256	37683.47946
683.453	37463.51195
683.65	36744.58001
683.847	37348.42347
684.044	37348.42347
684.241	37346.36853
684.438	37874.73897
684.635	37693.76049
684.831	37854.17012
685.028	36949.90108
685.225	37284.72381
685.422	37436.79288
685.619	37196.37787
685.815	37089.55875
686.012	37564.2338
686.209	37181.99724
686.405	37782.18545
686.602	37153.23705
686.799	36970.43695
686.996	37334.03906
687.192	37325.81955
687.389	37093.66682
687.586	37307.32611
687.782	36789.74484
687.979	37134.74909
688.175	36364.90968
688.372	36465.44973
688.568	36658.36516
688.765	36896.51105
688.962	37358.69828
689.158	37229.24921
689.355	36888.29761
689.551	36993.0272
689.748	37253.90393
689.944	37288.83325
690.14	37027.94108
690.337	37177.88856
690.533	37056.6952
690.73	36278.74433
690.926	36849.28527
691.123	36674.78614
691.319	36668.62823
691.515	36689.15484
691.712	36194.6409
691.908	36627.57696
692.104	36110.54751
692.301	36243.87094
692.497	36040.81904
692.693	36715.84043
692.889	36697.36567
693.086	36126.9552
693.282	36317.72255
693.478	36299.25891
693.674	35796.82151
693.87	36295.15595
694.067	36492.12615
694.263	36496.23031
694.459	36309.51643
694.655	36225.40927
694.851	36473.65775
695.047	36660.41776
695.243	36243.87094
695.439	36057.22514
695.635	36184.38507
695.831	36200.79446
696.027	36338.23829
696.224	35852.17531
696.42	35700.47444
696.615	36438.77437
696.811	36395.68565
697.007	36477.76179
697.203	35903.43245
697.399	35846.02469
697.595	35446.33864
697.791	35210.71828
697.987	35290.61699
698.183	35899.33175
698.379	35677.92685
698.575	36053.12358
698.77	35858.32599
698.966	35630.78399
699.162	35682.02636
699.358	35874.72802
699.554	35755.82129
699.749	35604.13927
699.945	35245.54501
700.141	35286.51944
700.337	35208.66969
700.532	35600.04016
700.728	35604.13927
700.924	35057.08741
701.119	34780.61715
701.315	35268.0807
701.511	35218.91268
701.706	35139.02056
701.902	35036.60529
702.097	35204.57253
702.293	35149.26273
702.489	35132.87531
702.684	34874.81266
702.88	34966.96954
703.075	34917.81807
703.271	34903.48271
703.466	35257.83713
703.662	35384.86611
703.857	35493.47068
704.053	35370.52317
704.248	35139.02056
704.443	35141.06898
704.639	35196.37826
704.834	34958.77745
705.03	34844.09571
705.225	34711.00031
705.42	34682.336
705.616	35040.70168
705.811	34559.49827
706.006	34563.59262
706.202	34741.71301
706.397	34670.05154
706.592	35186.13554
706.787	35052.99095
706.983	35229.15578
707.178	35540.60544
707.373	35091.90808
707.568	34622.96255
707.763	34453.0509
707.959	34999.73865
708.154	35098.05304
708.349	34731.47534
708.544	35014.0755
708.739	34320.00687
708.934	34766.28386
709.129	34858.43016
709.324	34448.95699
709.519	35014.0755
709.714	34475.5677
709.909	34919.866
710.104	33777.75963
710.299	34211.53693
710.494	34465.33273
710.689	34534.93252
710.884	34584.06462
711.079	34547.21532
711.274	34121.49443
711.469	34215.62994
711.664	34101.03123
711.859	34487.8498
712.054	34297.49336
712.249	33773.66814
712.443	34074.4296
712.638	33665.24831
712.833	33325.72667
713.028	33507.7488
713.223	33176.445
713.417	33472.97868
713.612	33370.7187
713.807	33761.39373
714.002	33806.40048
714.196	33925.06249
714.391	33231.65699
714.586	33714.34294
714.78	33458.66183
714.975	33800.2631
715.17	33417.75735
715.364	33620.24653
715.559	34389.59706
715.754	33700.02348
715.948	33569.11002
716.143	33200.98341
716.337	33033.31222
716.532	33702.06911
716.726	33293.00609
716.921	33198.93852
717.115	32933.12714
717.31	33012.86577
717.504	33436.16422
717.699	33200.98341
717.893	33162.13111
718.088	33517.97548
718.282	32773.66166
718.476	33282.78106
718.671	32978.10741
718.865	32843.17036
719.059	32863.61464
719.254	32826.81511
719.448	33014.9104
719.642	32875.88134
719.837	32391.41351
720.031	32955.61711
720.225	32718.46563
720.419	33237.79179
720.614	32675.53661
720.808	32722.55416
721.002	31996.98149
721.196	32346.44839
721.39	32417.98431
721.585	32268.78383
721.779	32262.65255
721.973	32665.31558
722.167	32201.34077
722.361	32442.51154
722.555	32238.12761
722.749	31941.80788
722.943	32248.3463
723.137	31806.94486
723.331	32346.44839
723.525	32046.02589
723.719	31661.87386
723.913	32111.42021
724.107	31974.50318
724.301	32516.09516
724.495	32260.60879
724.689	31941.80788
724.883	31935.67756
725.077	32127.76911
725.271	31898.89603
725.465	31878.46211
725.659	31631.22621
725.853	31941.80788
726.046	31531.11323
726.24	31014.26509
726.434	31112.31569
726.628	31600.57894
726.822	31230.79807
727.015	31749.73268
727.209	31377.88687
727.403	32287.17779
727.596	31900.93943
727.79	31939.76443
727.984	31802.85823
728.177	31841.68153
728.371	31776.2953
728.565	31804.90154
728.758	32221.77782
728.952	31751.77595
729.146	31257.35517
729.339	31849.85494
729.533	31451.43436
729.726	31627.13988
729.92	31169.51344
730.113	31345.19976
730.307	31637.35571
730.5	30987.7103
730.694	31004.05168
730.887	30969.32635
731.081	31236.92661
731.274	30881.49353
731.468	30456.66304
731.661	30773.238
731.854	30832.47168
732.048	31069.41814
732.241	31063.28997
732.435	31157.25668
732.628	31093.93094
732.821	30930.51618
733.014	31265.52664
733.208	31337.02805
733.401	31185.85588
733.594	31130.70055
733.788	31189.9415
733.981	31230.79807
734.174	31623.05356
734.367	31222.62671
734.56	31046.94825
734.754	30689.49576
734.947	30889.66391
735.14	31006.09436
735.333	31022.43584
735.526	31006.09436
735.719	30646.60426
735.912	31010.17972
736.105	31316.59888
736.298	31175.64185
736.491	31204.24123
736.684	31194.02713
736.877	30679.28345
737.07	30961.15574
737.263	31026.52123
737.456	30726.26037
737.649	30779.36557
737.842	31006.09436
738.035	31108.23018
738.228	30660.90137
738.421	31065.33269
738.614	31002.009
738.807	31279.82676
739	30558.7806
739.192	30763.02541
739.385	30942.77197
739.578	31120.48672
739.771	31245.09801
739.964	31202.19841
740.156	31404.44544
740.349	30848.8122
740.542	30822.25889
740.735	30405.60543
740.927	30587.37409
741.12	30556.73822
741.313	30401.52086
741.505	30748.72784
741.698	30556.73822
741.891	30199.34046
742.083	30950.94252
742.276	30895.79172
742.468	30483.2133
742.661	29966.54096
742.854	29470.3588
743.046	29919.57443
743.239	30299.40807
743.431	30748.72784
743.624	30421.94378
743.816	30348.42183
744.009	30140.1181
744.201	29862.3986
744.393	29811.34948
744.586	29647.9969
744.778	30005.33984
744.971	30107.44412
745.163	30262.6482
745.355	30558.7806
745.548	29848.10477
745.74	30191.1718
745.932	29925.70047
746.125	30221.80437
746.317	29958.37282
746.509	29711.2952
746.702	29799.09779
746.894	29549.98868
747.086	29074.27498
747.278	29347.85444
747.471	29135.52249
747.663	29598.99248
747.855	29362.14642
748.047	29229.43715
748.239	29609.20168
748.431	29162.06337
748.623	29656.16437
748.815	29515.27802
749.008	29731.71423
749.2	29480.56767
749.392	29288.64536
749.584	28719.05783
749.776	29155.93853
749.968	28921.16028
750.16	29200.8542
750.352	29021.19456
750.544	29192.68768
750.736	29092.64913
750.928	29372.35501
751.12	29113.06496
751.311	29251.89534
751.503	29470.3588
751.695	28900.74543
751.887	28861.9575
752.079	28733.34757
752.271	28245.48443
752.463	28825.21138
752.654	28751.72017
752.846	28866.04042
753.038	28423.06773
753.23	28659.85804
753.421	28751.72017
753.613	28782.34134
753.805	28984.44698
753.997	28002.59655
754.188	28125.05906
754.38	28076.07358
754.572	28129.14122
754.763	28031.17078
754.955	27800.54235
755.146	28188.33293
755.338	28125.05906
755.53	28116.89477
755.721	28337.33684
755.913	27963.8176
756.104	27827.07408
756.296	28145.46987
756.487	27906.67043
756.679	28427.1502
756.87	27916.87521
757.062	27890.34283
757.253	28055.66315
757.445	28110.77156
757.636	28243.44329
757.827	28347.5428
758.019	28035.25283
758.21	27869.93343
758.401	27941.36682
758.593	27469.93319
758.784	27516.86958
758.975	27559.72512
759.167	27363.81859
759.358	27947.48975
759.549	27578.09194
759.74	27447.48559
759.932	27335.24986
760.123	27100.58789
760.314	26847.58128
760.505	26888.38732
760.696	26925.11326
760.888	27357.6967
761.079	26965.92039
761.27	27529.11396
761.461	27172.00489
761.652	27461.77041
761.843	26974.08189
762.034	27163.84286
762.225	26631.31903
762.416	27129.15449
762.607	26757.81002
762.798	26459.95355
762.989	26837.37985
763.18	26668.04162
763.371	26470.15357
763.562	26594.59693
763.753	26453.83356
763.944	26386.51462
764.135	25870.46388
764.326	26670.08178
764.517	26362.03544
764.708	26133.57468
764.899	25856.18742
765.089	26394.6744
765.28	26341.63631
765.471	26211.08578
765.662	26082.5819
765.853	25637.97297
766.043	25295.40173
766.234	25568.63845
766.425	25122.09964
766.615	25513.58033
766.806	25915.33337
766.997	25593.1092
767.187	25470.75836
767.378	25797.04303
767.569	25503.38454
767.759	25970.40167
767.95	25654.28731
768.141	25572.71689
768.331	25595.14844
768.522	25682.8377
768.712	25678.75905
768.903	25970.40167
769.093	25429.97638
769.284	25291.32386
769.474	25328.02505
769.665	25499.30624
769.855	25444.24998
770.046	25246.46779
770.236	25138.40975
770.426	24906.00431
770.617	25768.49114
770.807	25187.34093
770.998	25411.62475
771.188	25148.60364
771.378	25118.02213
771.569	24959.00645
771.759	24757.19913
771.949	24390.3381
772.139	24853.00376
772.33	23866.69032
772.52	24510.57799
772.71	24677.70572
772.9	24184.52495
773.09	24573.75844
773.281	24402.56548
773.471	24249.73013
773.661	24422.94464
773.851	24090.79741
774.041	23901.3228
774.231	23972.62758
774.421	23726.13184
774.611	23612.06577
774.802	23679.28214
774.992	23923.7325
775.182	23701.68832
775.372	23864.65314
775.562	23591.69782
775.752	23746.50177
775.942	23650.7657
776.131	24035.78614
776.321	23972.62758
776.511	24215.08954
776.701	24088.75992
776.891	24100.9849
777.081	23852.43013
777.271	23901.3228
777.461	23948.17983
777.651	23646.69197
777.84	23803.53913
778.03	23500.04584
778.22	23426.72875
778.41	23752.6128
778.599	23520.41241
778.789	23406.36361
778.979	23388.03525
779.169	23530.59581
779.358	23286.2157
779.548	23540.77928
779.738	23214.94677
779.927	23276.03419
780.117	23157.93448
780.307	22699.89486
780.496	22630.69508
780.686	23011.34326
780.875	22457.71352
781.065	22730.42546
781.254	22699.89486
781.444	22793.52451
781.633	22630.69508
781.823	22712.10701
782.012	22461.78338
782.202	22683.6122
782.391	22447.53894
782.581	22162.68769
782.77	21898.24832
782.96	22498.41275
783.149	21798.59174
783.338	22345.79811
783.528	22425.15518
783.717	22105.72613
783.906	21969.43724
784.096	21977.57341
784.285	21975.53936
784.474	22351.90231
784.663	22484.16786
784.853	22239.99733
785.042	21922.65542
785.231	21873.84178
785.42	21993.84594
785.61	22162.68769
785.799	21581.0067
785.988	21361.43393
786.177	20959.00583
786.366	21019.96952
786.555	21422.42171
786.744	21365.49967
786.933	21637.94051
787.122	21753.85098
787.312	21825.03034
787.501	21463.08222
787.69	21656.24132
787.879	21778.2548
788.068	21074.83999
788.257	20898.04585
788.445	20796.45413
788.634	20944.78151
788.823	20944.78151
789.012	21367.53255
789.201	21223.20836
789.39	20696.90428
789.579	21044.35603
789.768	20727.37767
789.957	20572.98884
790.145	20595.3331
790.334	20751.75705
790.523	20721.28292
790.712	20717.21977
790.9	20522.20831
791.089	20839.12139
791.278	20768.0103
791.467	20804.58108
791.655	20788.32724
791.844	20461.27512
792.033	20487.67904
792.221	20158.69621
792.41	20656.27456
792.599	19876.50876
792.787	20300.83577
792.976	20507.99023
793.164	20313.02012
793.353	20373.94412
793.541	20162.75706
793.73	20375.97499
793.918	20369.88241
794.107	19710.07654
794.295	20120.11903
794.484	19961.76547
794.672	20132.30114
794.861	19996.27624
795.049	20363.78986
795.238	19919.13619
795.426	20420.65509
795.614	20154.63539
795.803	19925.22597
795.991	19777.05197
796.179	20097.78557
796.368	19904.92684
796.556	19911.01653
796.744	19269.77555
796.932	19296.14753
797.121	19249.48989
797.309	19639.04698
797.497	19943.49555
797.685	19775.02234
797.874	19525.41034
798.062	19340.77862
798.25	19531.49768
798.438	19632.95897
798.626	19202.83442
798.814	19097.36047
799.002	19529.46856
799.19	19655.28186
799.378	19296.14753
799.566	19415.84452
799.755	19245.4328
799.943	19395.55588
800.131	19754.72632
800.318	19539.6142
800.506	19354.97984
800.694	19016.23417
800.882	18912.80751
801.07	19251.51843
801.258	18929.03061
801.446	19052.7402
801.634	18975.67344
801.822	19184.57852
802.01	19306.29079
802.197	19655.28186
802.385	19135.89775
802.573	19468.59692
802.761	19602.51949
802.949	19363.09492
803.136	19342.80736
803.324	18878.33428
803.512	18651.24528
803.699	18716.12279
803.887	18876.30648
804.075	19221.09065
804.262	18900.64036
804.45	19239.34721
804.638	19066.93735
804.825	19200.80597
805.013	18953.36573
805.201	19371.21006
805.388	18931.05851
805.576	18904.69606
805.763	19030.4308
805.951	19438.1625
806.138	19115.61479
806.326	19275.86133
806.513	18959.44961
806.701	18778.97673
806.888	19217.03368
807.075	19350.92233
807.263	19188.63536
807.45	19488.88705
807.638	19081.13469
807.825	19221.09065
808.012	18929.03061
808.2	18929.03061
808.387	19200.80597
808.574	19081.13469
808.761	19028.4027
808.949	19000.00968
809.136	19038.54325
809.323	18995.9536
809.51	18922.94691
809.698	19107.50172
809.885	19062.881
810.072	19182.55011
810.259	19164.29458
810.446	19324.5489
810.633	18973.64545
810.82	18762.756
811.008	18803.30831
811.195	18762.756
811.382	18566.09962
811.569	18902.6682
811.756	18590.42625
811.943	19135.89775
812.13	19026.3746
812.317	18803.30831
812.504	18819.52968
812.691	19241.37574
812.878	19225.14763
813.064	19221.09065
813.251	19156.18112
813.438	19247.46134
813.625	18815.47431
813.812	18890.50117
813.999	18657.32738
814.186	18671.51907
814.372	18410.01692
814.559	18183.02759
814.746	17929.74553
814.933	18249.90352
815.12	18140.47227
815.306	18428.25919
815.493	18783.03195
815.68	18849.94543
815.866	18513.39382
816.053	18562.04523
816.24	18326.91717
816.426	18685.71096
816.613	18474.8797
816.799	18681.65611
816.986	18440.42086
817.173	18708.01288
817.359	18738.42537
817.546	18596.50799
817.732	18501.23132
817.919	18424.20532
818.105	18521.50224
818.292	18438.39391
818.478	18203.2926
818.665	18312.73004
818.851	18166.81585
819.037	18253.95674
819.224	18381.64069
819.41	18255.98335
819.597	18154.6572
819.783	18466.77164
819.969	18379.61384
820.156	18069.55029
820.342	18412.04383
820.528	18456.63665
820.714	18002.68503
820.901	18247.87692
821.087	18191.13355
821.273	18754.64572
821.459	18525.55647
821.646	18531.63784
821.832	18239.77055
822.018	18387.72125
822.204	17690.69753
822.39	17603.59846
822.576	17261.33592
822.762	17702.85137
822.948	17631.95563
823.134	17755.51942
823.32	17682.59503
823.507	17619.80248
823.693	17605.62395
823.879	17887.19959
824.065	17747.4165
824.25	17686.64627
824.436	17447.64533
824.622	17654.23671
824.808	17512.45473
824.994	17858.83648
825.18	17712.97967
825.366	17741.33934
825.552	17536.75909
825.738	17552.96225
825.923	17417.26703
826.109	17842.62929
826.295	17585.36919
826.481	17777.80274
826.667	17676.51819
826.852	18051.31392
827.038	17950.00605
827.224	17627.90457
827.409	17737.28792
827.595	17781.8543
827.781	17332.21147
827.966	17599.54749
828.152	16803.76553
828.338	17494.22676
828.523	16832.10667
828.709	17186.41426
828.894	16579.07737
829.08	16714.69649
829.266	16830.08228
829.451	17206.66296
829.637	16710.64801
829.822	16655.99442
830.008	16485.97149
830.193	16682.3089
830.378	16178.34718
830.564	16664.09114
830.749	16791.61947
830.935	16473.82757
831.12	16372.63112
831.305	16992.04104
831.491	16490.01948
831.676	17064.928
831.861	16445.49206
832.047	16809.83859
832.232	16510.25954
832.417	16755.18184
832.602	16579.07737
832.788	16771.37625
832.973	16556.8125
833.158	16815.91167
833.343	16487.99548
833.528	16526.45175
833.714	16277.51086
833.899	16483.9475
834.084	16261.32059
834.269	16354.41628
834.454	16360.48788
834.639	16058.95127
834.824	16504.1875
835.009	16143.9444
835.194	15971.93723
835.379	16409.06127
835.564	16113.5894
835.749	16186.44202
835.934	16285.60605
836.119	16348.3447
836.304	16113.5894
836.489	16048.83322
836.674	15668.41798
836.859	15664.37122
837.044	15925.39588
837.228	15870.76126
837.413	15785.7758
837.598	16113.5894
837.783	15678.53491
837.968	15882.90221
838.152	15373.01172
838.337	15583.43663
838.522	15356.82541
838.707	15544.99313
838.891	15124.14876
839.076	15354.80212
839.261	15130.21857
839.445	15494.40995
839.63	15441.80383
839.815	15387.17476
839.999	15277.91743
840.184	15658.30108
840.368	15077.61349
840.553	15476.2001
840.737	15188.89342
840.922	15571.29655
841.106	15215.19595
841.291	15219.24249
841.475	15079.63677
841.66	15209.12613
841.844	14950.14675
842.029	15166.63744
842.213	14907.65752
842.397	14759.95495
842.582	14749.8382
842.766	14658.78646
842.951	14324.90984
843.135	14515.1228
843.319	14288.48446
843.504	14505.00541
843.688	14434.18274
843.872	14511.07585
844.056	14741.74478
844.241	15067.49712
844.425	14701.2775
844.609	15010.84534
844.793	14701.2775
844.977	14636.52908
845.161	14351.21671
845.346	14531.31056
845.53	14541.42786
845.714	14525.24016
845.898	13897.88131
846.082	14116.46741
846.266	14140.75306
846.45	14233.84529
846.634	14215.63193
846.818	14250.03482
847.002	14252.0585
847.186	14207.53705
847.37	14241.94007
847.554	14118.49122
847.738	14203.4896
847.922	14502.98193
848.106	14409.90027
848.29	14650.69289
848.473	14420.01799
848.657	14078.01447
848.841	14092.18144
849.025	13893.83314
849.209	13786.55256
849.392	13559.81797
849.576	13367.46385
849.76	13203.42801
849.944	13264.18529
850.127	13600.30934
850.311	13484.90515
850.495	13861.44739
850.678	13659.0194
850.862	13988.96234
851.046	13531.47316
851.229	13806.7948
851.413	13395.81295
851.596	13632.70145
851.78	13561.84257
851.964	13703.55621
852.147	13355.31399
852.331	13513.25113
852.514	13158.87011
852.698	13124.43749
852.881	13166.97171
853.065	13551.71952
853.248	12992.77061
853.431	13059.61944
853.615	13021.13138
853.798	13069.74758
853.982	12749.6361
854.165	12778.00585
854.348	12936.04608
854.532	12751.66255
854.715	12688.83996
854.898	12875.26527
855.081	12540.88021
855.265	12753.68899
855.448	12544.93434
855.631	12524.66343
855.814	12344.22357
855.997	12863.10854
856.181	12798.26928
856.364	13023.15711
856.547	12611.82388
856.73	12840.82068
856.913	12623.9849
857.096	12923.8903
857.279	12214.43549
857.462	12230.6606
857.645	11873.59552
857.828	12368.55563
858.011	12516.55489
858.194	12376.6661
858.377	12364.50036
858.56	12826.63715
858.743	12321.9183
858.926	12119.10344
859.109	11928.38846
859.292	11944.62226
859.475	12263.10944
859.658	11975.05923
859.841	11632.02664
860.023	11889.83109
860.206	11304.99135
860.389	11796.46921
860.572	11467.52447
860.755	11806.61811
860.937	11741.66143
861.12	11500.02361
861.303	11451.27398
861.486	11638.11815
861.668	11524.39637
861.851	11355.78975
862.034	11304.99135
862.216	11597.50655
862.399	11069.20234
862.581	11174.91836
862.764	10987.86235
862.947	11270.44482
863.129	11083.43503
863.312	11142.39343
863.494	11258.25123
863.677	11162.72183
863.859	11176.95107
864.042	11378.13907
864.224	11193.21244
864.406	11376.10736
864.589	11026.50104
864.771	11057.00246
864.954	10515.72532
865.136	10751.874
865.318	10322.20099
865.501	10513.68883
865.683	10664.35538
865.865	10615.498
866.048	10428.14462
866.23	10603.28255
866.412	10316.08777
866.594	10440.36661
866.777	10568.66967
866.959	10707.09982
867.141	10511.65232
867.323	10519.79826
867.505	10511.65232
867.687	10448.51435
867.869	10546.27118
868.052	10713.20573
868.234	10641.9633
868.416	10692.85227
868.598	10601.2466
868.78	10694.88767
868.962	10505.54273
869.144	10615.498
869.326	10666.39095
869.508	10468.88278
869.69	10281.4439
869.872	10474.99306
870.054	10269.21572
870.236	10326.2764
870.417	10197.87497
870.599	10293.67159
870.781	10030.66742
870.963	10067.37961
871.145	10216.22133
871.327	10216.22133
871.508	9879.69051
871.69	10214.1829
871.872	10222.33654
872.054	10285.51985
872.235	9920.50294
872.417	9932.74553
872.599	9983.75066
872.78	10195.83642
872.962	10191.75927
873.144	9883.77201
873.325	9869.48648
873.507	9938.86662
873.689	9916.42196
873.87	10038.82609
874.052	9728.63273
874.233	9928.66472
874.415	9695.96069
874.596	9891.93485
874.778	9683.70767
874.959	10006.19006
875.141	9951.10842
875.322	9898.05683
875.503	10075.53725
875.685	10201.95204
875.866	9959.26933
876.048	10256.98706
876.229	9824.58434
876.41	9640.8177
876.592	9687.79207
876.773	10028.62772
876.954	9826.6255
877.136	9910.30038
877.317	9806.2132
877.498	10106.1264
877.679	9526.4108
877.86	9883.77201
878.042	9793.9651
878.223	9800.08922
878.404	9800.08922
878.585	9636.73259
878.766	9638.77515
878.947	9873.56813
879.128	9877.64973
879.309	9906.21926
879.49	9889.89417
879.672	10183.60481
879.853	9822.54316
880.034	10153.02362
880.215	9908.25983
880.396	10102.04803
880.576	9889.89417
880.757	9859.28208
880.938	10038.82609
881.119	10301.82311
881.3	10024.54827
881.481	10362.95275
881.662	10356.84033
881.843	10322.20099
882.023	10275.32987
882.204	10377.21462
882.385	10069.41904
882.566	9912.34092
882.747	9622.43419
882.927	10126.5174
883.108	10014.34941
883.289	10014.34941
883.469	9904.17867
883.65	9979.67059
883.831	9853.15926
884.011	9975.59045
884.192	9973.55036
884.373	10297.74738
884.553	10065.34017
884.734	10285.51985
884.914	10053.1032
885.095	10106.1264
885.275	9806.2132
885.456	10287.5578
885.636	9865.40476
885.817	10275.32987
885.997	10326.2764
886.178	10112.24384
886.358	10077.57663
886.538	10071.45846
886.719	9830.70778
886.899	9936.82627
887.08	9830.70778
887.26	9720.46508
887.44	9871.52731
887.621	10246.79614
887.801	9922.54341
887.981	9767.4257
888.161	9691.87641
888.342	9781.71646
888.522	10038.82609
888.702	10309.97442
888.882	10051.06365
889.062	10177.48882
889.242	10087.77329
889.423	10028.62772
889.603	9726.59084
889.783	9998.03048
889.963	9832.7489
890.143	10012.30959
890.323	9522.32392
890.503	9861.32299
890.683	9810.29578
890.863	9651.03022
891.043	9708.21316
891.223	9944.98759
891.403	9595.87801
891.583	9924.58386
891.763	9736.80012
891.943	10087.77329
892.122	9855.20021
892.302	9902.13807
892.482	9800.08922
892.662	9716.38117
892.842	9726.59084
893.022	9961.30952
893.201	9818.46076
893.381	9832.7489
893.561	9961.30952
893.741	10130.59544
893.92	9857.24115
894.1	9985.79068
894.28	9949.06816
894.459	9885.81275
894.639	9706.17112
894.819	9961.30952
894.998	9552.97395
895.178	9565.23296
895.357	9418.08691
895.537	9514.14997
895.716	9712.2972
895.896	9947.02788
896.075	9303.58187
896.255	9661.24234
896.434	9642.86024
896.614	9640.8177
896.793	9434.44059
896.973	9687.79207
897.152	9548.88748
897.331	9840.91322
897.511	9642.86024
897.69	9565.23296
897.87	9407.86533
898.049	9458.96916
898.228	9389.46547
898.407	9346.5273
898.587	9348.57214
898.766	9481.45164
898.945	9182.88626
899.124	9608.13504
899.304	9567.27607
899.483	9614.26334
899.662	9227.89824
899.841	9555.01715
900.02	9045.75336
900.199	9422.17543
900.378	8941.31634
900.557	8967.94189
900.737	8783.54929
900.916	9033.46902
901.095	8877.81254
901.274	8857.32377
901.453	8767.15177
901.632	8832.73488
901.811	8758.95257
901.989	8791.74762
902.168	8795.84667
902.347	9107.1657
902.526	8574.39258
902.705	8783.54929
902.884	9008.89845
903.063	9146.05215
903.242	8689.24754
903.42	8937.21984
903.599	8605.16304
903.778	8508.73475
903.957	8151.37501
904.135	8352.71911
904.314	8126.70755
904.493	8334.23619
904.672	8083.53255
904.85	8348.61193
905.029	8282.88645
905.207	8547.72142
905.386	8393.78664
905.565	8317.8056
905.743	8202.75633
905.922	8323.96722
906.1	8104.09318
906.279	8362.98672
906.457	8208.92125
906.636	8457.42605
906.814	8278.77794
906.993	8371.20046
907.171	7945.72408
907.35	7988.92761
907.528	7879.87272
907.707	7941.60898
907.885	7583.27739
908.063	7733.68922
908.242	7678.0706
908.42	7846.93912
908.598	7566.78701
908.777	7842.82204
908.955	7519.36954
909.133	8028.00876
909.311	7550.29527
909.49	7682.19102
909.668	7521.43141
909.846	7700.73189
910.024	7527.61688
910.202	7533.80215
910.38	7251.14238
910.559	7220.16928
910.737	7079.6953
910.915	7356.41388
911.093	7164.40515
911.271	7102.42602
911.449	7032.1587
911.627	7073.49555
911.805	7034.22575
911.983	7203.64826
912.161	6932.91357
912.339	7071.42892
912.517	6740.47755
912.695	7195.38722
912.872	6955.66183
913.05	7191.25656
913.228	6974.27202
913.406	7001.15017
913.584	6823.26987
913.762	6682.50115
913.939	6570.63858
914.117	6618.29197
914.295	6547.84351
914.473	6903.95727
914.65	6498.09909
914.828	6757.03894
915.006	6292.7618
915.184	6676.28832
915.361	6344.63622
915.539	6649.36369
915.716	6164.05011
915.894	6450.41482
916.072	6325.96311
916.249	6572.71072
916.427	6384.05101
916.604	6556.13295
916.782	6429.67869
916.959	6622.43516
917.137	6616.22033
917.314	6788.0876
917.492	6120.43377
917.669	6060.18464
917.847	5966.65541
918.024	6139.12776
918.201	5997.83712
918.379	6232.56916
918.556	5964.57644
918.733	6240.87276
918.911	5677.45242
919.088	5956.26033
919.265	5654.54638
919.442	5966.65541
919.62	5521.2183
919.797	5960.41843
919.974	5694.10956
920.151	5885.55814
920.328	5877.23844
920.506	5912.59455
920.683	5612.89173
920.86	5519.13428
921.037	5525.38627
921.214	5560.81015
921.391	5381.53713
921.568	5702.43757
921.745	5504.5455
921.922	5677.45242
922.099	5462.85692
922.276	5573.31108
922.453	5331.47644
922.63	5375.28029
922.807	5225.05267
922.984	5166.5981
923.161	4901.23662
923.338	5139.45228
923.514	4748.53835
923.691	5026.6507
923.868	4712.9611
924.045	4963.95402
924.222	4901.23662
924.399	5001.57452
924.575	4629.22425
924.752	4991.12513
924.929	4825.94853
925.105	4989.03518
925.282	4591.53097
925.459	4920.05401
925.635	4874.05267
925.812	4917.96328
925.989	4798.7539
926.165	4677.37734
926.342	4725.51852
926.518	4725.51852
926.695	4367.31728
926.871	4694.12345
927.048	4335.86542
927.224	4415.53395
927.401	3844.60141
927.577	4048.3829
927.754	4075.67921
927.93	4174.33649
928.107	3836.19398
928.283	4218.40238
928.459	3882.43088
928.636	4168.0406
928.812	3792.04982
928.988	3752.10241
929.165	3752.10241
929.341	3865.61858
929.517	3676.39338
929.693	3810.96981
929.87	3550.15694
930.046	3789.9475
930.222	3478.5933
930.398	3886.63375
930.574	3503.85347
930.751	3588.03496
930.927	3251.137
931.103	3718.45704
931.279	3518.58735
931.455	3697.42617
931.631	3379.63276
931.807	3636.42584
931.983	3461.75174
932.159	3819.37819
932.335	3653.25512
932.511	3400.69148
932.687	3240.60175
932.863	3493.32872
933.039	3217.42273
933.215	3489.11869
933.391	3181.59667
933.566	3131.01067
933.742	2947.56034
933.918	2998.17893
934.094	2774.55044
934.27	2989.7431
934.445	2666.90029
934.621	2723.8958
934.797	2356.43819
934.973	2394.46678
935.148	2386.01627
935.324	2445.16632
935.5	2303.61536
935.675	2208.51948
935.851	2075.35644
936.027	2147.22613
936.202	2016.1633
936.378	2102.83707
936.553	1980.22204
936.729	1973.87927
936.904	1658.79801
937.08	1813.17895
937.255	1743.39264
937.431	1847.01306
937.606	1601.69419
937.782	1622.84394
937.957	1402.88092
938.133	1557.27913
938.308	1256.94593
938.483	1297.13008
938.659	1155.43277
938.834	1195.61413
939.009	1119.48227
939.185	1193.49929
939.36	1168.12147
939.535	973.58077
939.71	1096.22088
939.886	1017.98265
940.061	876.33038
940.236	1009.52493
940.411	783.32462
940.586	810.80176
940.761	563.57345
940.937	664.98142
941.112	664.98142
941.287	728.37539
941.462	610.0485
941.637	836.16667
941.812	686.11162
941.987	688.2247
942.162	550.89955
942.337	677.6594
942.512	567.79819
942.687	626.95005
942.862	550.89955
943.037	514.99288
943.212	472.75504
943.386	578.36028
943.561	508.65683
943.736	476.97856
943.911	472.75504
944.086	559.34876
944.26	531.88963
944.435	544.56279
944.61	270.10273
944.785	441.0806
944.959	441.0806
945.134	483.31395
945.309	460.08485
945.483	525.55324
945.658	453.74996
945.833	525.55324
946.007	576.24783
946.182	534.00179
946.357	578.36028
946.531	563.57345
946.706	521.32906
946.88	398.85351
947.055	481.20214
947.229	605.82323
947.404	574.1354
947.578	510.76883
947.752	504.43287
947.927	544.56279
948.101	502.32091
948.276	519.21698
948.45	386.18665
948.624	495.98513
948.799	432.63468
948.973	620.61188
949.147	546.67503
949.321	593.14775
949.496	586.81018
949.67	582.5852
949.844	540.33835
950.018	426.3004
950.193	510.76883
950.367	563.57345
950.541	441.0806
950.715	512.88085
950.889	453.74996
951.063	779.09752
951.237	521.32906
951.411	715.6958
951.585	660.75553
951.759	796.00618
951.933	597.37286
952.107	641.73957
952.281	451.63837
952.455	559.34876
952.629	542.45056
952.803	586.81018
952.977	563.57345
953.151	711.46935
953.325	593.14775
953.499	576.24783
953.672	572.02299
953.846	652.30387
954.02	582.5852
954.194	567.79819
954.368	595.2603
954.541	599.48543
954.715	453.74996
954.889	586.81018
955.062	567.79819
955.236	648.07811
955.41	500.20897
955.583	694.56402
955.757	643.8524
955.93	698.79028
956.104	569.91058
956.278	755.84914
956.451	550.89955
956.625	603.71062
956.798	536.11396
956.972	745.2821
957.145	567.79819
957.319	542.45056
957.492	500.20897
957.665	686.11162
957.839	580.47273
958.012	601.59802
958.185	565.68581
958.359	622.72459
958.532	559.34876
958.705	597.37286
958.879	631.17557
959.052	536.11396
959.225	451.63837
959.398	597.37286
959.572	555.12413
959.745	595.2603
959.918	542.45056
960.091	595.2603
960.264	451.63837
960.438	597.37286
960.611	462.19651
960.784	534.00179
960.957	464.30819
961.13	508.65683
961.303	517.10492
961.476	595.2603
961.649	466.41988
961.822	544.56279
961.995	422.07762
962.168	508.65683
962.341	483.31395
962.514	525.55324
962.686	362.96564
962.859	470.64331
963.032	409.40968
963.205	542.45056
963.378	396.74233
963.551	512.88085
963.723	375.63139
963.896	629.0628
964.069	422.07762
964.242	534.00179
964.414	610.0485
964.587	487.53762
964.76	367.18749
964.932	500.20897
965.105	381.9645
965.278	415.74358
965.45	451.63837
965.623	525.55324
965.795	407.29842
965.968	517.10492
966.14	483.31395
966.313	479.09034
966.485	400.96472
966.658	498.09704
966.83	377.74241
967.003	605.82323
967.175	352.41131
967.348	489.64947
967.52	398.85351
967.692	483.31395
967.865	316.52984
968.037	474.86679
968.209	424.189
968.382	405.18717
968.554	432.63468
968.726	460.08485
968.898	419.96626
969.071	434.74613
969.243	365.07655
969.415	400.96472
969.587	339.74668
969.759	324.97208
969.932	276.43317
970.104	474.86679
970.276	350.30049
970.448	346.07892
970.62	255.33235
970.792	339.74668
970.964	346.07892
971.136	379.85345
971.308	403.07593
971.48	341.85741
971.652	341.85741
971.824	339.74668
971.996	335.52528
972.168	369.29844
972.339	263.77245
972.511	308.08789
972.683	249.00247
972.855	297.53586
973.027	221.57502
973.199	289.09456
973.37	265.88252
973.542	272.21286
973.714	331.30395
973.886	234.23344
974.057	280.65356
974.229	272.21286
974.401	225.79441
974.572	200.47924
974.744	278.54336
974.915	276.43317
975.087	177.27622
975.259	274.323
975.43	291.20486
975.602	249.00247
975.773	230.01389
975.945	308.08789
976.116	230.01389
976.288	227.90414
976.459	261.6624
976.63	257.44235
976.802	240.56291
976.973	301.75662
977.145	274.323
977.316	265.88252
977.487	234.23344
977.659	221.57502
977.83	244.78265
978.001	194.1509
978.172	238.45306
978.344	297.53586
978.515	234.23344
978.686	314.41933
978.857	181.49477
979.028	272.21286
979.2	196.26033
979.371	183.60407
979.542	128.76891
979.713	198.36978
979.884	213.13647
980.055	202.58873
980.226	177.27622
980.397	147.7487
980.568	196.26033
980.739	244.78265
980.91	187.82274
981.081	236.34324
981.252	145.63975
981.423	223.68471
981.594	124.55141
981.765	154.07568
981.936	208.91732
982.106	234.23344
982.277	175.16697
982.448	179.38548
982.619	137.20416
982.79	135.09531
982.96	175.16697
983.131	192.04149
983.302	128.76891
983.472	170.94855
983.643	168.83937
983.814	162.51195
983.984	122.44269
984.155	221.57502
984.326	173.05775
984.496	181.49477
984.667	103.46523
984.837	120.334
985.008	105.57375
985.178	78.16474
985.349	128.76891
985.519	183.60407
985.69	54.97546
985.86	137.20416
986.031	132.98649
986.201	90.81458
986.371	132.98649
986.542	137.20416
986.712	147.7487
986.882	111.89944
987.053	86.59788
987.223	76.05651
987.393	137.20416
987.563	63.4076
987.734	116.11668
987.904	137.20416
988.074	82.38126
988.244	160.40285
988.414	111.89944
988.585	130.87769
988.755	73.9483
988.925	99.24826
989.095	97.13981
989.265	73.9483
989.435	145.63975
989.605	164.62107
989.775	82.38126
989.945	50.75953
990.115	149.85767
990.285	95.03138
990.455	52.86748
990.625	8.60532
990.795	73.9483
990.965	80.27299
991.134	52.86748
991.304	111.89944
991.474	88.70622
991.644	2.283
991.814	116.11668
991.984	52.86748
992.153	44.4358
992.323	99.24826
992.493	69.73195
992.662	-10.36097
992.832	65.5157
993.002	154.07568
993.171	90.81458
993.341	65.5157
993.511	71.84011
993.68	6.49786
993.85	118.22533
994.019	52.86748
994.189	95.03138
994.358	21.25059
994.528	86.59788
994.697	44.4358
994.867	105.57375
995.036	95.03138
995.206	95.03138
995.375	40.22009
995.544	44.4358
995.714	59.19149
995.883	162.51195
996.052	84.48956
996.222	71.84011
996.391	92.92297
996.56	90.81458
996.73	65.5157
996.899	44.4358
997.068	29.68125
997.237	38.11228
997.406	-10.36097
997.576	46.54368
997.745	86.59788
997.914	-29.32529
998.083	156.18471
998.252	164.62107
998.421	44.4358
998.59	95.03138
998.759	71.84011
998.928	27.57355
999.097	36.00449
999.266	42.32793
999.435	10.7128
999.604	44.4358
999.773	-29.32529
999.942	103.46523
1000.111	88.70622
1000.28	65.5157
1000.448	40.22009
1000.617	61.29953
1000.786	12.82031
1000.955	69.73195
1001.124	12.82031
1001.292	48.65159
1001.461	10.7128
1001.63	-54.60793
1001.798	63.4076
1001.967	57.08346
1002.136	52.86748
1002.304	76.05651
1002.473	99.24826
1002.642	52.86748
1002.81	31.78897
1002.979	31.78897
1003.147	-39.86016
1003.316	48.65159
1003.484	52.86748
1003.653	78.16474
1003.821	92.92297
1003.99	33.89672
1004.158	19.14299
1004.327	27.57355
1004.495	48.65159
1004.663	54.97546
1004.832	-27.21824
1005	21.25059
1005.168	63.4076
1005.337	2.283
1005.505	-1.93175
1005.673	12.82031
1005.842	40.22009
1006.01	-18.7898
1006.178	27.57355
1006.346	27.57355
1006.514	71.84011
1006.683	48.65159
1006.851	59.19149
1007.019	12.82031
1007.187	-12.46822
1007.355	27.57355
1007.523	10.7128
1007.691	-1.93175
1007.859	44.4358
1008.027	-16.68263
1008.195	-27.21824
1008.363	120.334
1008.531	19.14299
1008.699	82.38126
1008.867	-23.00407
1009.035	6.49786
1009.203	-46.18078
1009.37	44.4358
1009.538	69.73195
1009.706	36.00449
1009.874	38.11228
1010.042	2.283
1010.209	38.11228
1010.377	10.7128
1010.545	78.16474
1010.713	-31.43231
1010.88	-4.03909
1011.048	59.19149
1011.216	36.00449
1011.383	23.35822
1011.551	-20.89695
1011.718	86.59788
1011.886	48.65159
1012.054	-44.07393
1012.221	61.29953
1012.389	2.283
1012.556	52.86748
1012.724	-29.32529
1012.891	21.25059
1013.058	92.92297
1013.226	-6.14641
1013.393	14.92785
1013.561	-48.28761
1013.728	29.68125
1013.895	57.08346
1014.063	-37.75323
1014.23	78.16474
1014.397	0.17561
1014.565	10.7128
1014.732	31.78897
1014.899	19.14299
1015.066	-6.14641
1015.233	25.46587
1015.401	-6.14641
1015.568	10.7128
1015.735	0.17561
1015.902	2.283
1016.069	40.22009
1016.236	31.78897
1016.403	29.68125
1016.57	31.78897
1016.737	21.25059
1016.904	-48.28761
1017.071	38.11228
1017.238	-23.00407
1017.405	23.35822
1017.572	-6.14641
1017.739	29.68125
1017.906	44.4358
1018.073	44.4358
1018.24	-14.57544
1018.407	-6.14641
1018.573	-6.14641
1018.74	-23.00407
1018.907	-16.68263
1019.074	36.00449
1019.241	-67.24789
1019.407	69.73195
1019.574	38.11228
1019.741	-46.18078
1019.907	73.9483
1020.074	27.57355
1020.241	-56.71465
1020.407	-10.36097
1020.574	14.92785
1020.74	4.39042
1020.907	78.16474
1021.073	52.86748
1021.24	4.39042
1021.406	27.57355
1021.573	44.4358
1021.739	78.16474
1021.906	-14.57544
1022.072	46.54368
1022.239	29.68125
1022.405	14.92785
1022.571	29.68125
1022.738	-56.71465
1022.904	21.25059
1023.07	-37.75323
1023.237	61.29953
1023.403	-12.46822
1023.569	101.35674
1023.735	-18.7898
1023.902	4.39042
1024.068	-4.03909
1024.234	-25.11117
1024.4	8.60532
1024.566	46.54368
1024.732	36.00449
1024.898	-12.46822
1025.065	19.14299
1025.231	86.59788
1025.397	69.73195
1025.563	19.14299
1025.729	14.92785
1025.895	-29.32529
1026.061	6.49786
1026.227	27.57355
1026.392	38.11228
1026.558	57.08346
1026.724	42.32793
1026.89	-6.14641
1027.056	29.68125
1027.222	14.92785
1027.388	-14.57544
1027.553	-98.84375
1027.719	36.00449
1027.885	-35.64629
1028.051	52.86748
1028.216	21.25059
1028.382	61.29953
1028.548	-6.14641
1028.713	-20.89695
1028.879	-4.03909
1029.045	-39.86016
1029.21	10.7128
1029.376	36.00449
1029.541	-20.89695
1029.707	105.57375
1029.873	-27.21824
1030.038	12.82031
1030.204	54.97546
1030.369	-14.57544
1030.534	-1.93175
1030.7	2.283
1030.865	71.84011
1031.031	44.4358
1031.196	88.70622
1031.361	14.92785
1031.527	69.73195
1031.692	6.49786
1031.857	-6.14641
1032.023	-71.461
1032.188	54.97546
1032.353	12.82031
1032.518	19.14299
1032.684	92.92297
1032.849	-50.3944
1033.014	-20.89695
1033.179	2.283
1033.344	-4.03909
1033.509	-12.46822
1033.674	92.92297
1033.839	19.14299
1034.004	-14.57544
1034.17	36.00449
1034.335	12.82031
1034.5	8.60532
1034.664	19.14299
1034.829	44.4358
1034.994	33.89672
1035.159	2.283
1035.324	38.11228
1035.489	46.54368
1035.654	36.00449
1035.819	63.4076
1035.984	71.84011
1036.148	-4.03909
1036.313	82.38126
1036.478	78.16474
1036.643	46.54368
1036.807	-25.11117
1036.972	-1.93175
1037.137	-46.18078
1037.301	38.11228
1037.466	-6.14641
1037.631	-48.28761
1037.795	59.19149
1037.96	27.57355
1038.124	19.14299
1038.289	44.4358
1038.454	-31.43231
1038.618	48.65159
1038.783	14.92785
1038.947	-48.28761
1039.111	78.16474
1039.276	-54.60793
1039.44	-25.11117
1039.605	-37.75323
1039.769	-29.32529
1039.933	-39.86016
1040.098	-44.07393
1040.262	-4.03909
1040.426	80.27299
1040.591	17.0354
1040.755	-23.00407
1040.919	-20.89695
1041.083	10.7128
1041.248	8.60532
1041.412	-20.89695
1041.576	50.75953
1041.74	-14.57544
1041.904	4.39042
1042.068	12.82031
1042.232	65.5157
1042.397	-39.86016
1042.561	44.4358
1042.725	10.7128
1042.889	21.25059
1043.053	2.283
1043.217	31.78897
1043.381	111.89944
1043.544	-14.57544
1043.708	-1.93175
1043.872	19.14299
1044.036	-52.50118
1044.2	-14.57544
1044.364	40.22009
1044.528	61.29953
1044.691	-10.36097
1044.855	80.27299
1045.019	82.38126
1045.183	27.57355
1045.346	-39.86016
1045.51	-35.64629
1045.674	-20.89695
1045.837	19.14299
1046.001	2.283
1046.165	12.82031
1046.328	-54.60793
1046.492	8.60532
1046.655	-8.2537
1046.819	6.49786
1046.983	-65.14129
1047.146	-27.21824
1047.31	-1.93175
1047.473	19.14299
1047.636	-10.36097
1047.8	6.49786
1047.963	57.08346
1048.127	-41.96706
1048.29	-50.3944
