Data from mixed_try1_USB4F045381__27__00175.txt Node

Date: Thu Apr 03 20:12:32 EDT 2025
User: mmckonesweet
Spectrometer: USB4F04538
Trigger mode: 4
Integration Time (sec): 2.700000E-3
Scans to average: 1
Electric dark correction enabled: true
Nonlinearity correction enabled: true
Boxcar width: 0
XAxis mode: Wavelengths
Number of Pixels in Spectrum: 3648
>>>>>Begin Spectral Data<<<<<
345.52	-20.19457
345.736	-20.19457
345.952	-20.19457
346.168	-56.01241
346.384	-24.40881
346.6	-9.65855
346.816	2.98547
347.032	13.52282
347.248	15.63036
347.464	-9.65855
347.68	-37.05092
347.896	-1.2293
348.112	2.98547
348.328	53.57014
348.544	-5.44397
348.76	-22.3017
348.975	-3.33665
349.191	-9.65855
349.407	-39.15785
349.623	19.84552
349.839	5.09289
350.055	30.38382
350.27	7.20034
350.486	-58.11912
350.702	-30.72997
350.918	66.2184
351.133	-39.15785
351.349	-43.37164
351.565	-56.01241
351.781	-60.2258
351.996	11.4153
352.212	19.84552
352.428	11.4153
352.644	-18.08741
352.859	-39.15785
353.075	-22.3017
353.291	-11.7658
353.506	-56.01241
353.722	7.20034
353.938	-53.90568
354.153	28.27611
354.369	15.63036
354.584	-26.51589
354.8	0.87808
355.016	-39.15785
355.231	11.4153
355.447	-43.37164
355.662	-123.41424
355.878	-20.19457
356.093	-5.44397
356.309	-60.2258
356.524	-45.4785
356.74	36.70708
356.955	43.03055
357.171	-3.33665
357.386	-13.87303
357.602	-30.72997
357.817	-68.65227
358.033	-70.75882
358.248	-53.90568
358.464	-30.72997
358.679	-64.43909
358.895	-22.3017
359.11	-43.37164
359.325	-39.15785
359.541	-56.01241
359.756	-34.94396
359.972	30.38382
360.187	-13.87303
360.402	-72.86535
360.618	-37.05092
360.833	-20.19457
361.048	-70.75882
361.264	-60.2258
361.479	-34.94396
361.694	-60.2258
361.909	-56.01241
362.125	5.09289
362.34	-13.87303
362.555	11.4153
362.77	-22.3017
362.986	-64.43909
363.201	-51.79892
363.416	-41.26476
363.631	-15.98024
363.847	-22.3017
364.062	-13.87303
364.277	5.09289
364.492	-1.2293
364.707	-47.58533
364.922	-45.4785
365.138	-81.29121
365.353	-51.79892
365.568	-51.79892
365.783	-26.51589
365.998	-47.58533
366.213	-68.65227
366.428	11.4153
366.643	78.86748
366.858	17.73793
367.073	-34.94396
367.288	-39.15785
367.503	-11.7658
367.718	-51.79892
367.933	-30.72997
368.148	-22.3017
368.363	11.4153
368.578	5.09289
368.793	-9.65855
369.008	30.38382
369.223	-13.87303
369.438	47.24632
369.653	-1.2293
369.868	-26.51589
370.083	-18.08741
370.298	-39.15785
370.513	-51.79892
370.728	78.86748
370.943	-15.98024
371.157	-22.3017
371.372	-22.3017
371.587	-1.2293
371.802	32.49155
372.017	-28.62294
372.232	-39.15785
372.446	-49.69214
372.661	2.98547
372.876	0.87808
373.091	-22.3017
373.306	-30.72997
373.52	11.4153
373.735	-30.72997
373.95	-20.19457
374.165	-5.44397
374.379	-32.83698
374.594	-5.44397
374.809	-7.55127
375.023	70.43467
375.238	2.98547
375.453	-28.62294
375.667	-89.71665
375.882	-9.65855
376.097	62.00222
376.311	-64.43909
376.526	2.98547
376.741	5.09289
376.955	-41.26476
377.17	-3.33665
377.384	-53.90568
377.599	5.09289
377.813	30.38382
378.028	2.98547
378.242	-51.79892
378.457	2.98547
378.672	-5.44397
378.886	-22.3017
379.101	19.84552
379.315	-64.43909
379.53	21.95313
379.744	-66.54569
379.958	13.52282
380.173	-96.03546
380.387	-26.51589
380.602	28.27611
380.816	7.20034
381.031	40.92271
381.245	-51.79892
381.459	-30.72997
381.674	-9.65855
381.888	-45.4785
382.103	-62.33245
382.317	-13.87303
382.531	-37.05092
382.746	-30.72997
382.96	40.92271
383.174	-85.50398
383.388	-39.15785
383.603	38.81488
383.817	-39.15785
384.031	-56.01241
384.246	53.57014
384.46	-1.2293
384.674	-30.72997
384.888	-5.44397
385.103	-30.72997
385.317	19.84552
385.531	40.92271
385.745	-28.62294
385.959	-45.4785
386.174	-85.50398
386.388	-11.7658
386.602	-58.11912
386.816	28.27611
387.03	-1.2293
387.244	-60.2258
387.458	0.87808
387.672	32.49155
387.887	-5.44397
388.101	-9.65855
388.315	-9.65855
388.529	-5.44397
388.743	-41.26476
388.957	53.57014
389.171	-13.87303
389.385	-30.72997
389.599	13.52282
389.813	7.20034
390.027	-26.51589
390.241	-3.33665
390.455	-47.58533
390.669	-22.3017
390.883	-89.71665
391.097	36.70708
391.311	-5.44397
391.525	-15.98024
391.738	-1.2293
391.952	47.24632
392.166	-30.72997
392.38	53.57014
392.594	-5.44397
392.808	13.52282
393.022	87.30066
393.236	19.84552
393.449	-64.43909
393.663	-18.08741
393.877	28.27611
394.091	-34.94396
394.305	7.20034
394.518	-22.3017
394.732	-60.2258
394.946	19.84552
395.16	-53.90568
395.373	-26.51589
395.587	38.81488
395.801	-5.44397
396.015	40.92271
396.228	-70.75882
396.442	-93.92922
396.656	7.20034
396.869	62.00222
397.083	30.38382
397.297	-49.69214
397.51	45.13842
397.724	-22.3017
397.938	-62.33245
398.151	-28.62294
398.365	-81.29121
398.578	-60.2258
398.792	-11.7658
399.005	24.06077
399.219	-3.33665
399.433	-26.51589
399.646	-39.15785
399.86	-45.4785
400.073	66.2184
400.287	-64.43909
400.5	-39.15785
400.714	-49.69214
400.927	-20.19457
401.141	-24.40881
401.354	53.57014
401.567	-72.86535
401.781	-70.75882
401.994	-93.92922
402.208	-47.58533
402.421	57.78613
402.635	-110.77844
402.848	-5.44397
403.061	-5.44397
403.275	45.13842
403.488	-34.94396
403.701	-45.4785
403.915	-13.87303
404.128	47.24632
404.341	45.13842
404.555	-51.79892
404.768	89.40901
404.981	11.4153
405.195	72.54284
405.408	-47.58533
405.621	-3.33665
405.834	-30.72997
406.048	-5.44397
406.261	32.49155
406.474	-5.44397
406.687	-39.15785
406.9	5.09289
407.114	-74.97185
407.327	-11.7658
407.54	5.09289
407.753	-47.58533
407.966	-87.61033
408.179	-53.90568
408.392	-53.90568
408.605	11.4153
408.819	11.4153
409.032	0.87808
409.245	-3.33665
409.458	-96.03546
409.671	-3.33665
409.884	-3.33665
410.097	55.67812
410.31	-3.33665
410.523	-49.69214
410.736	-96.03546
410.949	-30.72997
411.162	-39.15785
411.375	-30.72997
411.588	13.52282
411.801	11.4153
412.014	-45.4785
412.227	-43.37164
412.44	-121.30834
412.653	-13.87303
412.865	-39.15785
413.078	-18.08741
413.291	-49.69214
413.504	21.95313
413.717	-22.3017
413.93	45.13842
414.143	-3.33665
414.356	-37.05092
414.568	-28.62294
414.781	17.73793
414.994	-45.4785
415.207	-1.2293
415.42	62.00222
415.632	-60.2258
415.845	-11.7658
416.058	-30.72997
416.271	7.20034
416.483	19.84552
416.696	-18.08741
416.909	-11.7658
417.121	2.98547
417.334	30.38382
417.547	28.27611
417.759	34.5993
417.972	30.38382
418.185	-56.01241
418.397	32.49155
418.61	24.06077
418.823	-20.19457
419.035	11.4153
419.248	-49.69214
419.46	-9.65855
419.673	15.63036
419.885	-39.15785
420.098	5.09289
420.311	7.20034
420.523	-3.33665
420.736	-5.44397
420.948	-28.62294
421.161	-13.87303
421.373	-43.37164
421.586	-22.3017
421.798	-37.05092
422.01	38.81488
422.223	38.81488
422.435	30.38382
422.648	15.63036
422.86	-39.15785
423.073	-72.86535
423.285	-26.51589
423.497	-9.65855
423.71	32.49155
423.922	-28.62294
424.134	62.00222
424.347	5.09289
424.559	-22.3017
424.771	13.52282
424.984	-28.62294
425.196	-3.33665
425.408	-15.98024
425.621	47.24632
425.833	45.13842
426.045	19.84552
426.257	-60.2258
426.47	28.27611
426.682	85.19233
426.894	15.63036
427.106	-47.58533
427.318	-64.43909
427.531	-45.4785
427.743	-28.62294
427.955	5.09289
428.167	2.98547
428.379	15.63036
428.591	36.70708
428.804	51.46218
429.016	-43.37164
429.228	-5.44397
429.44	24.06077
429.652	-53.90568
429.864	-28.62294
430.076	-39.15785
430.288	-13.87303
430.5	-9.65855
430.712	-28.62294
430.924	21.95313
431.136	59.89417
431.348	74.65103
431.56	30.38382
431.772	-68.65227
431.984	24.06077
432.196	7.20034
432.408	17.73793
432.62	19.84552
432.832	-20.19457
433.044	-64.43909
433.256	38.81488
433.468	11.4153
433.679	-102.35404
433.891	76.75925
434.103	21.95313
434.315	-22.3017
434.527	43.03055
434.739	-20.19457
434.95	-13.87303
435.162	-15.98024
435.374	62.00222
435.586	-30.72997
435.798	11.4153
436.009	5.09289
436.221	24.06077
436.433	-13.87303
436.645	-22.3017
436.856	76.75925
437.068	83.08402
437.28	-39.15785
437.491	-39.15785
437.703	32.49155
437.915	7.20034
438.126	28.27611
438.338	36.70708
438.55	9.30781
438.761	45.13842
438.973	-7.55127
439.184	-43.37164
439.396	-7.55127
439.608	74.65103
439.819	49.35423
440.031	36.70708
440.242	11.4153
440.454	57.78613
440.665	11.4153
440.877	-13.87303
441.088	11.4153
441.3	15.63036
441.511	21.95313
441.723	-45.4785
441.934	-5.44397
442.146	15.63036
442.357	9.30781
442.569	19.84552
442.78	36.70708
442.991	-22.3017
443.203	19.84552
443.414	28.27611
443.626	-62.33245
443.837	-22.3017
444.048	-26.51589
444.26	19.84552
444.471	87.30066
444.682	36.70708
444.894	34.5993
445.105	104.16807
445.316	83.08402
445.528	43.03055
445.739	-13.87303
445.95	-5.44397
446.161	36.70708
446.373	-47.58533
446.584	-39.15785
446.795	-1.2293
447.006	11.4153
447.217	21.95313
447.429	19.84552
447.64	26.16843
447.851	5.09289
448.062	57.78613
448.273	11.4153
448.484	-26.51589
448.695	-11.7658
448.907	-5.44397
449.118	47.24632
449.329	5.09289
449.54	21.95313
449.751	-13.87303
449.962	40.92271
450.173	-64.43909
450.384	53.57014
450.595	21.95313
450.806	19.84552
451.017	24.06077
451.228	24.06077
451.439	7.20034
451.65	78.86748
451.861	-45.4785
452.072	-9.65855
452.283	34.5993
452.494	15.63036
452.705	11.4153
452.915	-7.55127
453.126	49.35423
453.337	2.98547
453.548	-37.05092
453.759	85.19233
453.97	66.2184
454.181	99.95108
454.391	-13.87303
454.602	80.97574
454.813	72.54284
455.024	5.09289
455.235	47.24632
455.445	-93.92922
455.656	53.57014
455.867	13.52282
456.078	72.54284
456.288	7.20034
456.499	-9.65855
456.71	-39.15785
456.921	2.98547
457.131	-5.44397
457.342	53.57014
457.553	36.70708
457.763	15.63036
457.974	83.08402
458.184	-1.2293
458.395	32.49155
458.606	59.89417
458.816	91.51738
459.027	70.43467
459.237	38.81488
459.448	62.00222
459.659	15.63036
459.869	104.16807
460.08	21.95313
460.29	106.2766
460.501	64.1103
460.711	36.70708
460.922	83.08402
461.132	53.57014
461.343	53.57014
461.553	91.51738
461.764	121.0369
461.974	-34.94396
462.184	38.81488
462.395	106.2766
462.605	87.30066
462.816	70.43467
463.026	36.70708
463.236	36.70708
463.447	89.40901
463.657	47.24632
463.867	28.27611
464.078	83.08402
464.288	45.13842
464.498	72.54284
464.709	97.84262
464.919	83.08402
465.129	-3.33665
465.339	129.47183
465.55	13.52282
465.76	66.2184
465.97	28.27611
466.18	51.46218
466.391	85.19233
466.601	70.43467
466.811	55.67812
467.021	114.71092
467.231	112.60231
467.441	49.35423
467.651	-13.87303
467.862	131.58062
468.072	118.92822
468.282	64.1103
468.492	76.75925
468.702	49.35423
468.912	32.49155
469.122	163.21498
469.332	49.35423
469.542	68.32652
469.752	137.90711
469.962	24.06077
470.172	55.67812
470.382	148.45169
470.592	104.16807
470.802	66.2184
471.012	142.12488
471.222	228.60739
471.432	161.10588
471.642	131.58062
471.852	232.82691
472.062	137.90711
472.272	129.47183
472.482	173.76082
472.691	215.94929
472.901	156.88773
473.111	140.01598
473.321	154.77869
473.531	218.05892
473.741	137.90711
473.95	173.76082
474.16	140.01598
474.37	203.2919
474.58	365.78019
474.79	205.40141
474.999	251.81573
475.209	296.12896
475.419	296.12896
475.628	342.56099
475.838	266.58589
476.048	323.56502
476.258	283.46719
476.467	420.67004
476.677	351.00409
476.886	348.89329
477.096	346.78251
477.306	348.89329
477.515	374.22406
477.725	448.11907
477.935	386.89035
478.144	315.12283
478.354	439.67293
478.563	522.03308
478.773	382.66819
478.982	492.4653
479.192	408.00217
479.401	496.6891
479.611	500.91295
479.82	515.69689
480.03	547.37911
480.239	602.30222
480.449	458.67709
480.658	627.6543
480.868	631.87982
481.077	729.07982
481.287	581.17689
481.496	672.02469
481.705	631.87982
481.915	729.07982
482.124	648.7824
482.333	733.30644
482.543	765.00745
482.752	881.26297
482.961	796.71072
483.171	809.39263
483.38	978.51417
483.589	965.82836
483.799	932.00077
484.008	986.97151
484.217	967.94264
484.426	1046.17573
484.636	974.28554
484.845	1058.86295
485.054	932.00077
485.263	1063.09206
485.472	1109.61373
485.682	1170.9412
485.891	1080.00875
486.1	1154.02292
486.309	1240.73153
486.518	1477.6127
486.727	1287.26021
486.936	1238.61662
487.146	1329.55995
487.355	1278.80036
487.564	1232.27191
487.773	1549.52405
487.982	1365.51526
488.191	1492.41805
488.4	1505.10832
488.609	1458.57724
488.818	1562.21417
489.027	1644.69846
489.236	1541.06395
489.445	1769.4749
489.654	1579.13425
489.863	1680.65209
490.072	1689.11165
490.281	1777.93389
490.49	1765.24539
490.698	1866.74907
490.907	1887.8943
491.116	2042.23714
491.325	1947.09809
491.534	2042.23714
491.743	1873.09269
491.952	1993.61214
492.16	1881.55079
492.369	2107.76935
492.578	2099.31398
492.787	2162.72626
492.996	2183.86208
493.204	2124.67973
493.413	2297.98057
493.622	2361.36801
493.831	2133.13474
494.039	2295.8675
494.248	2135.24847
494.457	2382.49517
494.665	2454.31975
494.874	2564.14452
495.083	2441.64572
495.291	2424.74641
495.5	2519.79592
495.709	2557.80932
495.917	2496.56367
496.126	2568.36792
496.335	2631.71324
496.543	2678.15941
496.752	2678.15941
496.96	2644.38098
497.169	2614.82223
497.377	2963.02805
497.586	2657.04827
497.794	2787.91635
498.003	2610.59935
498.211	2775.25393
498.42	2783.6956
498.628	3028.40532
498.837	2918.73205
499.045	2821.68041
499.254	2903.96528
499.462	2986.2281
499.671	2973.57375
499.879	3009.42633
500.087	3159.11516
500.296	3281.33571
500.504	3121.17342
500.713	3323.46762
500.921	3251.83934
501.129	3163.33058
501.338	3163.33058
501.546	3374.0168
501.754	3064.25113
501.962	3291.86933
502.171	3308.72223
502.379	3502.45019
502.587	3331.89318
502.795	3620.29665
503.004	3378.22878
503.212	3483.50521
503.42	3534.02189
503.628	3630.81581
503.837	3420.34469
504.045	3595.04874
504.253	3555.06739
504.461	3601.36097
504.669	3677.09451
504.877	3965.07265
505.085	3685.50783
505.294	3744.39245
505.502	3773.82907
505.71	3908.34733
505.918	3794.85289
506.126	3895.73971
506.334	3799.05741
506.542	3925.15637
506.75	3674.99113
506.958	4057.48206
507.166	3855.81081
507.374	4240.08215
507.582	3845.30201
507.79	4141.45587
507.998	3990.27915
508.206	4376.40246
508.414	4055.38229
508.622	4279.93902
508.83	4168.74015
509.037	4273.64635
509.245	4286.23151
509.453	4426.71299
509.661	4235.88625
509.869	4370.11276
510.077	4172.93742
510.285	4424.61696
510.492	4261.06042
510.7	4349.14569
510.908	4361.72619
511.116	4518.91617
511.324	4378.49898
511.531	4541.96029
511.739	4344.95201
511.947	4583.85182
512.155	4521.0112
512.362	4575.47423
512.57	4527.29616
512.778	4567.09628
512.985	4525.2012
513.193	4606.88837
513.401	4701.10057
513.608	5002.27112
513.816	4416.23266
514.024	4728.30895
514.231	4590.13478
514.439	4878.93213
514.646	4776.43749
514.854	4993.91169
515.061	4711.56578
515.269	5052.41997
515.477	4962.56052
515.684	5002.27112
515.892	4818.27864
516.099	4914.47868
516.307	5023.16809
516.514	5100.46679
516.722	5069.1333
516.929	5144.3249
517.136	4878.93213
517.344	5240.35918
517.551	4960.47026
517.759	5144.3249
517.966	5102.5555
518.173	5067.04421
518.381	5229.92306
518.588	5075.40041
518.796	5286.27116
519.003	5386.40342
519.21	5336.34404
519.418	5599.00475
519.625	5340.51617
519.832	5386.40342
520.039	5371.80417
520.247	5538.5842
520.454	5398.91616
520.661	5707.2954
520.868	5653.15805
521.076	5840.48859
521.283	5494.81901
521.49	5696.88561
521.697	5703.13155
521.904	5896.65048
522.112	5703.13155
522.319	5626.08339
522.526	5592.75527
522.733	5890.41112
522.94	5732.27649
523.147	5936.1615
523.354	5828.00584
523.561	5990.21541
523.768	5994.37275
523.975	6119.04896
524.183	5807.19936
524.39	6141.89708
524.597	5998.52999
524.804	6239.48886
525.011	5902.88963
525.218	6177.20221
525.425	6021.39312
525.632	6160.58888
525.838	6075.42192
526.045	6337.02888
526.252	5919.52632
526.459	6316.28001
526.666	6287.22767
526.873	6368.14781
527.08	6343.25309
527.287	6496.71711
527.494	6368.14781
527.701	6552.67906
527.907	6411.7055
528.114	6676.97865
528.321	6550.6067
528.528	6550.6067
528.735	6635.55467
528.941	6411.7055
529.148	6384.74243
529.355	6741.16764
529.562	6328.72962
529.768	6914.98877
529.975	6542.31701
530.182	6823.95965
530.388	6629.34028
530.595	6782.56821
530.802	6660.41016
531.008	6757.72897
531.215	6886.02972
531.422	6974.96125
531.628	6823.95965
531.835	6734.95677
532.042	6921.1937
532.248	6962.55471
532.455	7082.45069
532.661	7125.84271
532.868	7034.91477
533.074	7026.64644
533.281	7051.45035
533.487	7311.69767
533.694	7043.18274
533.9	7297.24869
534.107	7239.44201
534.313	7406.62141
534.52	7313.76172
534.726	7559.22847
534.933	7315.82575
535.139	7517.99496
535.345	7305.50538
535.552	7542.73609
535.758	7427.2509
535.965	7538.61278
536.171	7643.73043
536.377	7872.3259
536.584	7462.31606
536.79	7717.89784
536.996	7643.73043
537.203	7600.45341
537.409	7517.99496
537.615	7684.93793
537.821	7660.21444
538.028	7999.8985
538.234	7666.3956
538.44	7744.6738
538.646	7641.66983
538.853	7839.39109
539.059	7901.13953
539.265	8047.20384
539.471	8104.7785
539.677	7792.03796
539.883	7814.68648
540.09	7917.60264
540.296	7849.68379
540.502	8152.06018
540.708	7779.68316
540.914	8201.38632
541.12	8160.282
541.326	8283.57119
541.532	8248.64648
541.738	8211.66116
541.944	8150.00467
542.15	8456.05766
542.356	8283.57119
542.562	8258.91904
542.768	8521.73107
542.974	8468.37291
543.18	8495.0536
543.386	8575.07641
543.592	8390.36464
543.798	8628.40904
544.004	8408.84279
544.21	8390.36464
544.415	8464.2679
544.621	8657.12138
544.827	8451.95242
545.033	8659.17212
545.239	8737.08661
545.445	8907.17664
545.651	8827.27033
545.856	8972.72052
546.062	8894.88514
546.268	8944.04731
546.474	8677.62796
546.679	8657.12138
546.885	8587.38507
547.091	8819.07327
547.297	8726.83622
547.502	8997.29481
547.708	8636.61294
547.914	8911.27367
548.119	8919.4675
548.325	8913.32215
548.531	8911.27367
548.736	8993.19927
548.942	8739.13663
549.147	9097.61369
549.353	9054.625
549.559	9283.81088
549.764	9308.35394
549.97	9101.70746
550.175	9007.53335
550.381	9435.12197
550.586	9306.30878
550.792	9463.73833
550.997	9163.10567
551.203	9361.52241
551.408	9289.94687
551.614	9623.11509
551.819	9516.87465
552.025	9759.93976
552.23	9433.07782
552.435	9480.08912
552.641	9210.16723
552.846	9516.87465
553.052	9670.09254
553.257	9898.73704
553.462	9766.06463
553.668	9827.30589
553.873	9637.41344
554.078	9661.92314
554.283	9523.00507
554.489	9896.6964
554.694	9749.73134
554.899	9725.22957
555.105	10010.94971
555.31	9986.47068
555.515	9851.79862
555.72	10100.68856
555.925	9902.81827
556.131	10123.119
556.336	9988.51068
556.541	10239.32258
556.746	9974.23039
556.951	9915.06162
557.156	10157.7809
557.361	10008.90987
557.567	10280.08523
557.772	10214.86238
557.977	10141.46992
558.182	10367.70678
558.387	10208.74702
558.592	10365.66935
558.797	10151.66439
559.002	10273.97118
559.207	10119.04086
559.412	10381.96843
559.617	10092.53161
559.822	10286.19917
560.027	10229.13107
560.232	10555.09501
560.437	10400.3039
560.642	10614.14075
560.847	10557.13124
561.051	10711.84887
561.256	10487.89216
561.461	10764.76247
561.666	10793.25107
561.871	10736.27153
562.076	10697.60152
562.281	10907.18258
562.485	10420.6754
562.69	10724.06042
562.895	10601.92525
563.1	10673.1761
563.305	10498.0753
563.509	10711.84887
563.714	10491.96546
563.919	10713.88416
564.123	10736.27153
564.328	10825.80665
564.533	10823.77201
564.737	10752.55235
564.942	10508.25812
565.147	11061.7469
565.351	10968.20252
565.556	10852.25585
565.761	10646.71326
565.965	10996.67503
566.17	10884.80603
566.374	10736.27153
566.579	10842.08331
566.784	11183.72672
566.988	10909.21674
567.193	11285.3476
567.397	10925.48963
567.602	11141.03816
567.806	11118.67562
568.011	11012.94406
568.215	11242.66998
568.42	11252.83173
568.624	11193.88998
568.828	11055.64689
569.033	11171.53047
569.237	11342.24412
569.442	11419.44831
569.646	11104.44423
569.85	11226.41065
570.055	11472.26408
570.259	11139.00526
570.463	11764.66793
570.668	11285.3476
570.872	11378.8163
571.076	11334.11653
571.281	11545.38294
571.485	11443.82563
571.689	11606.30604
571.893	11384.91136
572.098	11585.99927
572.302	11423.51129
572.506	11640.82546
572.71	11663.16016
572.914	11776.8474
573.119	11293.47616
573.323	11665.19053
573.527	11809.32444
573.731	11784.96686
573.935	11525.07337
574.139	12182.65996
574.343	11784.96686
574.547	11979.79371
574.751	12140.06438
574.955	12024.43094
575.159	11823.53246
575.364	11888.47815
575.568	11811.35418
575.772	11880.3604
575.976	11738.27803
576.18	12097.46549
576.383	11908.77192
576.587	11815.41364
576.791	11681.43319
576.995	12113.69403
577.199	11762.63799
577.403	11894.56637
577.607	12184.68824
577.811	12178.60338
578.015	12050.80569
578.219	12158.32003
578.422	12028.48868
578.626	12328.67756
578.83	12200.91421
579.034	12192.80129
579.238	12235.39284
579.442	12697.62195
579.645	12239.44901
579.849	12385.45232
580.053	12673.30233
580.257	12501.01323
580.46	12612.4995
580.664	12734.0998
580.868	12555.74523
581.071	12703.70173
581.275	12241.47709
581.479	12612.4995
581.682	12298.26027
581.886	12462.49531
582.09	12557.77225
582.293	12829.3388
582.497	12361.12094
582.7	12954.95471
582.904	12719.9142
583.107	13033.96093
583.311	12638.84806
583.515	12914.43567
583.718	12630.74092
583.922	12831.36502
584.125	12596.28449
584.329	12845.54846
584.532	12576.01517
584.735	13106.88308
584.939	12620.60686
585.142	12786.78674
585.346	12535.47466
585.549	12811.1025
585.753	12944.82514
585.956	13123.08716
586.159	12849.60082
586.363	13487.6048
586.566	13212.2043
586.769	13202.0778
586.973	13175.74836
587.176	13331.68884
587.379	13163.59605
587.582	13392.4381
587.786	13224.35596
587.989	13445.08456
588.192	13307.38811
588.395	13378.2636
588.599	12912.40967
588.802	13386.36334
589.005	13193.97651
589.208	13511.90133
589.411	13066.37155
589.615	13479.50583
589.818	13358.01397
590.021	13473.43157
590.224	13351.939
590.427	13461.28294
590.63	13388.38826
590.833	13473.43157
591.036	13258.78481
591.239	13937.01307
591.442	13566.56663
591.645	13831.75982
591.848	13605.03324
592.051	13961.30125
592.254	13892.48375
592.457	13783.17882
592.66	13355.98898
592.863	14109.04673
593.066	13813.54214
593.269	13872.24272
593.472	14222.37764
593.675	13779.13033
593.878	13963.32525
594.081	14127.26107
594.284	14050.35483
594.486	14390.33923
594.689	14264.87511
594.892	14151.54659
595.095	14258.8041
595.298	14226.42505
595.5	13896.53193
595.703	14230.47246
595.906	14094.87989
596.109	14115.11819
596.311	14266.89878
596.514	14139.40387
596.717	14078.68909
596.92	14564.36031
597.122	14234.51986
597.325	14509.72687
597.528	14398.43347
597.73	14521.86771
597.933	14319.51352
598.136	14544.12581
598.338	14475.32755
598.541	14465.21003
598.743	14548.17272
598.946	14208.21163
599.148	14386.2921
599.351	14590.66498
599.554	14805.14287
599.756	14671.60127
599.959	14819.30617
600.161	14600.78211
600.363	14538.05543
600.566	14718.13891
600.768	14877.98238
600.971	14618.99287
601.173	14853.70263
601.376	14884.05231
601.578	14815.25951
601.78	15074.24137
601.983	14920.47176
602.185	14772.76947
602.388	14855.72595
602.59	14801.0962
602.792	14906.30866
602.995	14726.23236
603.197	14590.66498
603.399	14894.16884
603.601	14752.536
603.804	14952.84447
604.006	14916.42516
604.208	14952.84447
604.41	14531.98505
604.613	15013.54305
604.815	14718.13891
605.017	14987.24037
605.219	14799.07287
605.421	14914.40186
605.623	14744.44259
605.826	15102.5672
606.028	15138.98608
606.23	15084.35774
606.432	14989.26366
606.634	15128.86973
606.836	14936.65813
607.038	15078.28792
607.24	14956.89105
607.442	15228.01
607.644	14898.21544
607.846	15043.89224
608.048	15252.28928
608.25	15240.14964
608.452	15260.38238
608.654	15628.62495
608.856	15082.33447
609.058	15507.22432
609.26	15039.84568
609.462	15319.05744
609.664	15448.54819
609.866	15450.57149
610.067	15240.14964
610.269	15507.22432
610.471	15183.49803
610.673	15355.47655
610.875	15039.84568
611.077	15480.92117
611.278	15155.17225
611.48	15379.75602
611.682	15393.91907
611.884	15713.6071
612.085	15300.84791
612.287	15806.68473
612.489	15402.01225
612.69	15446.52488
612.892	15205.75401
613.094	15717.65391
613.295	15296.80136
613.497	15687.30293
613.699	15272.52203
613.9	15705.51349
614.102	15715.6305
614.304	15395.94237
614.505	15268.47548
614.707	15616.48476
614.908	15476.87454
615.11	15582.08773
615.311	15545.66758
615.513	15201.70747
615.714	15533.52757
615.916	15681.23276
616.117	15357.49984
616.319	15675.1626
616.52	15618.50812
616.722	15917.97631
616.923	15837.03663
617.124	15472.82791
617.326	15260.38238
617.527	15703.49009
617.729	15541.62091
617.93	15681.23276
618.131	15828.94276
618.333	15798.59094
618.534	15658.97554
618.735	15616.48476
618.937	15636.71842
619.138	15689.32632
619.339	15466.75797
619.54	15701.46669
619.742	15616.48476
619.943	15812.75509
620.144	15567.92431
620.345	15839.0601
620.546	16132.47691
620.748	16045.46055
620.949	15877.50623
621.15	15824.89584
621.351	16049.50776
621.552	15794.54405
621.753	15470.80459
621.954	15946.30568
622.155	15845.13051
622.356	16063.67304
622.558	15946.30568
622.759	16057.6022
622.96	15626.60158
623.161	15814.77855
623.362	15721.70072
623.563	15932.14096
623.764	16013.08308
623.965	16253.90008
624.166	16136.52425
624.366	16007.01234
624.567	15808.70818
624.768	15806.68473
624.969	15665.04568
625.17	15790.49716
625.371	15580.06438
625.572	15802.63783
625.773	15456.64142
625.973	16069.7439
626.174	16037.36615
626.375	16011.0595
626.576	15932.14096
626.777	16057.6022
626.977	15792.5206
627.178	16284.25685
627.379	16029.27177
627.58	15816.802
627.78	15889.6472
627.981	15790.49716
628.182	15970.5882
628.382	16181.04545
628.583	15940.23508
628.784	16041.41335
628.984	16004.98877
629.185	16245.80501
629.386	15924.04687
629.586	16004.98877
629.787	16023.201
629.987	16055.57859
630.188	15859.29485
630.388	16199.2589
630.589	15774.30965
630.79	15875.48274
630.99	15932.14096
631.191	16211.40128
631.391	16183.06916
631.591	16492.71814
631.792	16276.16167
631.992	16512.95823
632.193	16549.39094
632.393	16274.13788
632.594	16227.59121
632.794	16215.44875
632.994	16365.21024
633.195	16349.01932
633.395	16322.70934
633.595	16450.21462
633.796	16543.31878
633.996	16476.52621
634.196	16183.06916
634.397	16646.54829
634.597	16482.59817
634.797	16474.50223
634.997	16395.56855
635.198	16624.28261
635.398	16506.88618
635.598	16897.56309
635.798	16755.8566
635.998	16624.28261
636.199	16288.30445
636.399	16838.85463
636.599	16320.6855
636.799	16828.7327
636.999	16373.30575
637.199	16245.80501
637.399	16361.1625
637.599	16440.09486
637.799	16185.09287
637.999	16925.90588
638.199	16733.58954
638.399	16612.13781
638.599	16300.44729
638.799	16699.17736
638.999	16788.24559
639.199	17381.48903
639.399	16818.61083
639.599	16828.7327
639.799	16470.45428
639.999	16948.17557
640.199	16644.52412
640.399	16976.51927
640.599	16057.6022
640.799	17140.51826
640.998	17118.24572
641.198	16986.64214
641.398	16944.12651
641.598	16968.42101
641.798	17138.49347
641.997	16604.04132
642.197	16857.07427
642.397	17010.93732
642.597	16725.49249
642.796	16984.61756
642.996	16664.76587
643.196	16822.65957
643.395	16855.04985
643.595	16853.02544
643.795	16859.09869
643.994	16944.12651
644.194	16871.24524
644.394	17019.0358
644.593	16739.66234
644.793	17217.46239
644.992	17203.28816
645.192	17049.40548
645.392	16660.7175
645.591	17023.08506
645.791	17397.69027
645.99	16968.42101
646.19	16727.51675
646.389	17166.84078
646.589	16682.98363
646.788	16889.46524
646.987	17162.79113
647.187	17288.3357
647.386	17278.21072
647.586	17320.73613
647.785	17332.88649
647.984	17274.16075
648.184	17286.31069
648.383	17385.53932
648.582	17033.20824
648.782	17525.28197
648.981	17454.39616
649.18	17227.58693
649.38	17367.31311
649.579	17292.38571
649.778	17413.8917
649.977	17505.02848
650.177	17284.2857
650.376	17373.38849
650.575	17124.32002
650.774	17087.87463
650.973	16964.3719
651.173	17290.3607
651.372	17247.83622
651.571	17399.71544
651.77	17338.96172
651.969	17421.99249
652.168	16968.42101
652.367	17361.23776
652.566	16984.61756
652.765	17262.0109
652.964	17478.69943
653.163	17549.58657
653.362	17434.14377
653.561	17523.25661
653.76	17276.18573
653.959	17160.76631
654.158	17308.58588
654.357	17403.76578
654.556	17365.28799
654.755	17792.65852
654.954	17375.41362
655.153	17201.26328
655.352	17401.74061
655.551	17893.95281
655.749	17796.71012
655.948	17707.5779
656.147	17995.2558
656.346	17446.29517
656.545	17450.34566
656.743	17697.44965
656.942	17401.74061
657.141	17656.93748
657.34	17551.61198
657.538	17766.3234
657.737	17575.91708
657.936	17861.5377
658.135	17219.48729
658.333	17677.1934
658.532	17515.15519
658.731	17636.68189
658.929	17515.15519
659.128	17314.66099
659.326	17426.04291
659.525	17754.16893
659.724	17355.16244
659.922	17792.65852
660.121	18060.09436
660.319	18009.43892
660.518	17365.28799
660.716	17450.34566
660.915	17620.47765
661.113	18250.57906
661.312	18011.4651
661.51	17983.09898
661.709	17981.07285
661.907	17719.73191
662.105	17715.68056
662.304	17873.69326
662.502	17579.96798
662.701	17656.93748
662.899	17539.4596
663.097	17636.68189
663.296	17689.34711
663.494	17638.70743
663.692	17772.40069
663.891	17742.01458
664.089	18023.62222
664.287	17916.23872
664.485	17498.9525
664.684	18201.94159
664.882	17559.71363
665.08	17693.39837
665.278	17972.96839
665.476	17713.65489
665.675	17733.91174
665.873	17707.5779
666.071	17859.51178
666.269	17622.50317
666.467	17503.00315
666.665	17729.86034
666.863	17160.76631
667.061	17369.33823
667.259	17403.76578
667.457	17853.43406
667.655	17298.46075
667.853	17812.91669
668.051	17519.20589
668.249	17744.04029
668.447	17650.86077
668.645	17879.77109
668.843	17600.22265
669.041	17912.1867
669.239	17739.98886
669.437	17898.00476
669.635	18272.87194
669.833	17800.76175
670.031	17616.42663
670.229	17873.69326
670.426	17614.40112
670.624	17742.01458
670.822	17681.24462
671.02	17891.92684
671.218	17948.65533
671.415	17772.40069
671.613	17606.29912
671.811	18033.75325
672.009	17891.92684
672.206	18396.50434
672.404	17622.50317
672.602	17835.20107
672.799	17750.11746
672.997	18159.38555
673.195	17814.94253
673.392	17908.1347
673.59	17588.06981
673.788	17754.16893
673.985	17377.43875
674.183	17833.1752
674.38	17660.98863
674.578	17594.14622
674.775	17332.88649
674.973	17551.61198
675.17	17610.35011
675.368	17553.63739
675.565	17557.68821
675.763	17624.52869
675.96	17328.83636
676.158	17563.76447
676.355	17634.65635
676.553	18007.41275
676.75	17731.88604
676.947	17778.478
677.145	17085.84992
677.342	17482.75002
677.539	17367.31311
677.737	17687.32148
677.934	17521.23125
678.131	17298.46075
678.329	17551.61198
678.526	17855.45996
678.723	17701.50094
678.92	17715.68056
679.118	17699.47529
679.315	17677.1934
679.512	17454.39616
679.709	17693.39837
679.906	17521.23125
680.104	17579.96798
680.301	17373.38849
680.498	17533.38345
680.695	17189.11407
680.892	17440.21946
681.089	17012.96194
681.286	17300.48577
681.483	16901.61203
681.68	17438.19423
681.877	17361.23776
682.075	17136.46868
682.272	17413.8917
682.469	17537.43421
682.665	17697.44965
682.862	17249.86117
683.059	17577.94253
683.256	17324.78624
683.453	17241.7614
683.65	17389.58963
683.847	17176.96496
684.044	17195.18866
684.241	17300.48577
684.438	17191.13893
684.635	17029.15896
684.831	17685.29586
685.028	17229.61184
685.225	17310.61091
685.422	17302.51079
685.619	17306.56085
685.815	17164.81596
686.012	17081.80049
686.209	16867.19638
686.405	17436.169
686.602	16879.34299
686.799	17000.81428
686.996	16899.58756
687.192	17136.46868
687.389	17124.32002
687.586	16940.07746
687.782	17274.16075
687.979	16923.88137
688.175	16808.48902
688.372	16660.7175
688.568	16788.24559
688.765	17118.24572
688.962	16964.3719
689.158	16990.69131
689.355	16907.68545
689.551	16911.73442
689.748	17122.29525
689.944	17033.20824
690.14	16798.36727
690.337	17229.61184
690.533	17259.98594
690.73	17136.46868
690.926	17243.78634
691.123	17039.28219
691.319	16725.49249
691.515	16907.68545
691.712	16646.54829
691.908	16687.03205
692.104	16652.62079
692.301	16608.08956
692.497	16670.83844
692.693	16990.69131
692.889	16966.39646
693.086	16984.61756
693.282	17045.35616
693.478	17021.06043
693.674	16859.09869
693.87	17126.34479
694.067	17211.3877
694.263	16923.88137
694.459	16855.04985
694.655	16782.1726
694.851	16796.34293
695.047	16790.26992
695.243	16561.53533
695.439	16620.23433
695.635	16543.31878
695.831	16859.09869
696.027	16472.47825
696.224	16292.35205
696.42	16359.13863
696.615	16693.1047
696.811	16622.25847
697.007	16954.24917
697.203	16456.28649
697.399	16510.93422
697.595	16535.22258
697.791	16919.83238
697.987	16806.46466
698.183	16721.44398
698.379	16464.38236
698.575	16512.95823
698.77	16731.56527
698.966	16668.81424
699.162	16595.94486
699.358	16682.98363
699.554	16346.99546
699.749	16614.16194
699.945	16739.66234
700.141	16660.7175
700.337	16482.59817
700.532	16660.7175
700.728	16255.92385
700.924	16824.68394
701.119	16579.75206
701.315	16120.33492
701.511	15932.14096
701.706	16395.56855
701.902	16215.44875
702.097	16565.58348
702.293	16247.82878
702.489	16620.23433
702.684	16606.06544
702.88	16397.59245
703.075	16272.11409
703.271	16233.66246
703.466	16409.73591
703.662	16786.22126
703.857	16478.5502
704.053	16440.09486
704.248	16334.85237
704.443	16765.97809
704.639	16326.75701
704.834	16567.60756
705.03	16312.5902
705.225	16510.93422
705.42	16393.54465
705.616	16355.0909
705.811	16172.95063
706.006	16328.78084
706.202	16164.85583
706.397	16069.7439
706.592	16057.6022
706.787	15964.51755
706.983	16314.61402
707.178	16438.07092
707.373	15879.52972
707.568	16126.40591
707.763	15561.85428
707.959	16089.98019
708.154	16371.28187
708.349	16474.50223
708.544	16523.07836
708.739	15875.48274
708.934	16320.6855
709.129	16476.52621
709.324	16000.94162
709.519	16543.31878
709.714	16387.47296
709.909	16474.50223
710.104	16284.25685
710.299	16357.11477
710.494	16164.85583
710.689	16444.14276
710.884	16288.30445
711.079	16181.04545
711.274	16067.72028
711.469	16624.28261
711.664	16314.61402
711.859	16626.30675
712.054	16284.25685
712.249	16310.56637
712.443	15958.44691
712.638	16514.98226
712.833	16075.81477
713.028	16351.04318
713.223	15903.81173
713.417	16112.24029
713.612	15634.69505
713.807	16079.86203
714.002	15772.28622
714.196	15762.16907
714.391	15464.73466
714.586	15802.63783
714.78	15820.84892
714.975	15713.6071
715.17	15669.09244
715.364	16126.40591
715.559	16069.7439
715.754	15863.34181
715.948	15754.07537
716.143	15940.23508
716.337	15786.45028
716.532	15988.80021
716.726	15828.94276
716.921	16069.7439
717.115	15905.83523
717.31	15828.94276
717.504	15725.74754
717.699	15875.48274
717.893	15636.71842
718.088	15737.88801
718.282	15665.04568
718.476	15822.87238
718.671	15624.57822
718.865	15608.39132
719.059	15620.53149
719.254	15373.68615
719.448	14946.7746
719.642	15491.03775
719.837	15456.64142
720.031	15632.67168
720.225	15134.93954
720.419	15468.78128
720.614	15155.17225
720.808	15359.52313
721.002	15114.70683
721.196	15430.33844
721.39	15319.05744
721.585	15531.50424
721.779	15126.84645
721.973	15414.15204
722.167	14962.96092
722.361	15472.82791
722.555	15387.84919
722.749	15349.40669
722.943	15019.61289
723.137	15005.44992
723.331	15001.40336
723.525	15147.07916
723.719	15333.22041
723.913	15432.36175
724.107	15033.77585
724.301	15128.86973
724.495	14956.89105
724.689	15369.63957
724.883	14956.89105
725.077	15264.42893
725.271	14958.91434
725.465	15395.94237
725.659	15205.75401
725.853	15406.05885
726.046	15076.26464
726.24	15116.7301
726.434	14967.0075
726.628	15444.50157
726.822	14825.37615
727.015	15054.00862
727.209	14875.95907
727.403	15076.26464
727.596	15145.05589
727.79	15306.91775
727.984	15306.91775
728.177	15238.12637
728.371	15070.19482
728.565	14920.47176
728.758	15302.87119
728.952	15489.01443
729.146	15302.87119
729.339	15377.73273
729.533	15365.59299
729.726	15569.94765
729.92	15165.2886
730.113	15096.49738
730.307	14837.51608
730.5	14776.81615
730.694	14882.029
730.887	15147.07916
731.081	15062.10172
731.274	14930.58824
731.468	14728.25573
731.661	15060.07845
731.854	14952.84447
732.048	15033.77585
732.241	15058.05517
732.435	15074.24137
732.628	15130.893
732.821	15051.98534
733.014	15102.5672
733.208	14886.07561
733.401	14748.48929
733.594	14509.72687
733.788	14831.44612
733.981	15230.03328
734.174	15327.15056
734.367	15102.5672
734.56	15054.00862
734.754	15108.63701
734.947	15155.17225
735.14	15347.38341
735.333	15286.68497
735.526	15205.75401
735.719	14969.03079
735.912	15288.70824
736.105	14726.23236
736.298	14790.97953
736.491	14499.60946
736.684	14693.85846
736.877	14807.1662
737.07	15106.61374
737.263	14693.85846
737.456	14944.7513
737.649	14509.72687
737.842	14629.10993
738.035	14718.13891
738.228	14475.32755
738.421	14877.98238
738.614	14914.40186
738.807	14817.28284
739	14991.28694
739.192	14851.67931
739.385	14875.95907
739.578	14596.73526
739.771	14463.18652
739.964	14685.76495
740.156	14849.656
740.349	14637.20355
740.542	14772.76947
740.735	14596.73526
740.927	14718.13891
741.12	14467.23353
741.313	14449.02192
741.505	14382.24496
741.698	14428.78665
741.891	14461.16301
742.083	14748.48929
742.276	14428.78665
742.468	14200.11672
742.661	14461.16301
742.854	14718.13891
743.046	14564.36031
743.239	14762.65274
743.431	14877.98238
743.624	15066.14827
743.816	14693.85846
744.009	14815.25951
744.201	14641.25036
744.393	14600.78211
744.586	14525.91465
744.778	14618.99287
744.971	14604.82895
745.163	14582.57126
745.355	14402.48058
745.548	14629.10993
745.74	14378.19782
745.932	15023.65945
746.125	14843.58604
746.317	14770.74613
746.509	14580.54782
746.702	14701.95196
746.894	14218.33022
747.086	14327.60799
747.278	14420.6925
747.471	14351.89124
747.663	14398.43347
747.855	14499.60946
748.047	14341.77325
748.239	14119.16583
748.431	14159.64169
748.623	14297.25359
748.815	14426.76312
749.008	14323.56076
749.2	14246.66201
749.392	14337.72604
749.584	14026.06796
749.776	13991.66096
749.968	14078.68909
750.16	13896.53193
750.352	13730.54746
750.544	13926.89288
750.736	14088.80836
750.928	14248.6857
751.12	14187.9743
751.311	13884.38737
751.503	14104.99907
751.695	14032.13971
751.887	14137.38007
752.079	14177.85556
752.271	14121.18964
752.463	13963.32525
752.654	13918.79669
752.846	14153.57037
753.038	13758.88768
753.23	14046.30704
753.421	13738.64473
753.613	13550.36977
753.805	13544.2959
753.997	13611.10681
754.188	13671.84077
754.38	13839.85649
754.572	14003.80469
754.763	13833.78399
754.955	13625.27833
755.146	13777.10608
755.338	13655.64534
755.53	13607.05777
755.721	13864.14623
755.913	14001.78074
756.104	13864.14623
756.296	13686.01159
756.487	13631.35179
756.679	13726.49881
756.87	13428.88593
757.062	13515.95071
757.253	13586.81237
757.445	13262.83517
757.636	13256.75961
757.827	13317.51349
758.019	13390.41318
758.21	13305.36302
758.401	13550.36977
758.593	13165.62145
758.784	13281.06162
758.975	13042.0637
759.167	13106.88308
759.358	13451.15898
759.549	13266.88553
759.74	13317.51349
759.932	13035.98663
760.123	13208.15372
760.314	13335.73891
760.505	13183.84981
760.696	13360.03895
760.888	13447.10937
761.079	13157.51984
761.27	13347.889
761.461	13208.15372
761.652	13206.12841
761.843	13191.95118
762.034	13191.95118
762.225	13198.02717
762.416	13035.98663
762.607	12835.41746
762.798	12985.34262
762.989	13169.67223
763.18	12930.64354
763.371	12486.82269
763.562	12873.91453
763.753	12875.94064
763.944	13426.86108
764.135	13082.57639
764.326	13171.69761
764.517	12774.62856
764.708	12646.9551
764.899	12296.2324
765.089	12742.20574
765.28	12742.20574
765.471	13033.96093
765.662	12738.15278
765.853	12782.73404
766.043	12277.9812
766.234	12547.63708
766.425	12233.36474
766.615	12634.7945
766.806	12444.24915
766.997	12565.88028
767.187	12330.70532
767.378	12531.42047
767.569	12267.8414
767.759	12452.35862
767.95	12369.23151
768.141	12533.44757
768.331	12478.71367
768.522	12533.44757
768.712	12387.4799
768.903	12454.38597
769.093	12401.6727
769.284	12551.69116
769.474	12198.88599
769.665	12385.45232
769.855	12432.08475
770.046	12442.22177
770.236	12314.48302
770.426	12324.62201
770.617	12261.75744
770.807	12052.83446
770.998	12176.57508
771.188	12253.64538
771.378	11868.18354
771.569	11841.79931
771.759	11650.97773
771.949	11880.3604
772.139	12280.00914
772.33	12115.72257
772.52	12330.70532
772.71	12133.97903
772.9	11819.47307
773.09	11730.15776
773.281	11902.68388
773.471	12004.14176
773.661	12000.08383
773.851	11929.06488
774.041	11876.30148
774.231	12304.34386
774.421	11588.02998
774.611	11701.73572
774.802	11433.66858
774.992	11659.09939
775.182	11699.7055
775.372	11492.57611
775.562	11527.10437
775.752	11484.45141
775.942	11305.6687
776.131	11724.06747
776.321	11382.87968
776.511	11630.67296
776.701	11370.68943
776.891	11590.06069
777.081	11734.21791
777.271	11616.45909
777.461	11862.095
777.651	11756.54812
777.84	11687.52404
778.03	11979.79371
778.22	11825.56214
778.41	11811.35418
778.599	11825.56214
778.789	11502.73176
778.979	11311.76483
779.169	11285.3476
779.358	11124.77462
779.548	11555.53737
779.738	11260.96095
779.927	11356.46702
780.117	11157.30102
780.307	11130.87353
780.496	11299.57248
780.686	11330.05268
780.875	11000.74236
781.065	11120.70863
781.254	11029.21238
781.444	11204.05298
781.633	10882.77173
781.823	11151.20253
782.012	11173.5632
782.202	10831.91048
782.391	11143.07106
782.581	10964.13484
782.77	11006.84326
782.96	11265.02549
783.149	10919.38738
783.338	10980.40529
783.528	11134.93942
783.717	11041.41315
783.906	10880.73742
784.096	10776.97215
784.285	10624.32
784.474	10662.99833
784.663	10980.40529
784.853	10858.35924
785.042	10730.16603
785.231	11090.21232
785.42	10809.52923
785.61	10882.77173
785.799	10884.80603
785.988	10630.4274
786.177	10428.82364
786.366	10475.67197
786.555	10544.91364
786.744	10630.4274
786.933	10343.25673
787.122	10375.85638
787.312	10728.13084
787.501	10660.96274
787.69	10622.28418
787.879	10833.94507
788.068	10569.34839
788.257	10353.44448
788.445	10104.76695
788.634	10390.11766
788.823	10227.09272
789.012	10190.40021
789.201	9998.71046
789.39	10170.01356
789.579	9913.0211
789.768	10061.94106
789.957	9908.94001
790.145	10451.23021
790.334	10194.47738
790.523	9923.22356
790.712	9857.92146
790.9	10110.88442
791.089	9692.55713
791.278	10255.62829
791.467	9900.77767
791.655	10461.41451
791.844	10271.93314
792.033	10194.47738
792.221	9970.15018
792.41	10035.42667
792.599	9868.12591
792.787	10202.63154
792.976	9837.51145
793.164	10080.29577
793.353	9884.45226
793.541	10176.1297
793.73	10021.14869
793.918	10410.48981
794.107	9741.56433
794.295	9894.65575
794.484	9986.47068
794.672	10027.26791
794.861	9614.94425
795.049	9966.06991
795.238	9602.68754
795.426	9874.2484
795.614	9702.76769
795.803	9627.20041
795.991	9910.98056
796.179	9878.32999
796.368	9635.37087
796.556	9533.22212
796.744	9294.03745
796.932	9504.61338
797.121	9461.69441
797.309	9586.34437
797.497	9719.10379
797.685	9590.43026
797.874	9484.17666
798.062	9304.2636
798.25	9132.40849
798.438	9478.04533
798.626	9410.59113
798.814	9494.39522
799.002	9316.53443
799.19	9345.16407
799.378	9488.26413
799.566	9343.1192
799.755	9187.66064
799.943	9484.17666
800.131	9312.44422
800.318	9478.04533
800.506	9224.48853
800.694	9533.22212
800.882	9302.2184
801.07	9431.03365
801.258	9520.96161
801.446	9463.73833
801.634	9077.14384
801.822	9476.00152
802.01	9246.99177
802.197	9612.90151
802.385	9473.9577
802.573	9500.52617
802.761	9298.12796
802.949	9739.52253
803.136	9508.70054
803.324	9218.35093
803.512	9099.66058
803.699	9261.31096
803.887	9643.54108
804.075	9500.52617
804.262	9484.17666
804.45	9343.1192
804.638	9197.89116
804.825	9431.03365
805.013	9422.85684
805.201	9659.88075
805.388	9201.98325
805.576	9621.0724
805.763	9488.26413
805.951	9461.69441
806.138	9504.61338
806.326	9447.38651
806.513	9633.32828
806.701	9686.43061
806.888	9253.12866
807.075	9240.85472
807.263	9034.1515
807.45	9294.03745
807.638	9220.39681
807.825	9355.38815
808.012	9334.93957
808.2	9341.07432
808.387	9300.17319
808.574	9627.20041
808.761	9273.58389
808.949	9614.94425
809.136	9471.91386
809.323	9463.73833
809.51	9318.57952
809.698	9482.1329
809.885	9367.65651
810.072	9643.54108
810.259	9572.04327
810.446	9357.43292
810.633	9459.65047
810.82	9510.74409
811.008	9386.05794
811.195	9549.56856
811.382	9291.99216
811.569	9426.94528
811.756	9302.2184
811.943	9647.62609
812.13	9107.84797
812.317	9455.56255
812.504	9447.38651
812.691	9831.38816
812.878	9670.09254
813.064	9774.23092
813.251	9635.37087
813.438	9578.17241
813.625	9437.1661
813.812	9459.65047
813.999	9312.44422
814.186	9328.80467
814.372	9263.35649
814.559	9666.00787
814.746	9185.61449
814.933	9435.12197
815.12	9214.25911
815.306	9240.85472
815.493	9281.76551
815.68	9482.1329
815.866	9161.05931
816.053	9267.4475
816.24	9079.1909
816.426	9480.08912
816.613	8958.38434
816.799	9381.96885
816.986	9480.08912
817.173	9283.81088
817.359	8997.29481
817.546	9214.25911
817.732	8982.96011
817.919	9058.71949
818.105	8980.91223
818.292	8911.27367
818.478	9007.53335
818.665	8978.86433
818.851	9089.42596
819.037	9165.15201
819.224	8872.34904
819.41	9185.61449
819.597	9111.94156
819.783	8835.46711
819.969	8915.37062
820.156	9246.99177
820.342	9175.38346
820.528	9210.16723
820.714	8866.20246
820.901	9124.22193
821.087	9003.43798
821.273	8985.00798
821.459	8841.6145
821.646	9068.95541
821.832	8878.49546
822.018	9189.70678
822.204	8810.87591
822.39	8874.39787
822.576	8704.28376
822.762	8966.57655
822.948	8833.41794
823.134	8989.10366
823.32	8843.6636
823.507	8923.56431
823.693	8833.41794
823.879	9021.86657
824.065	8798.57933
824.25	8956.33625
824.436	8751.43638
824.622	8974.76847
824.808	8999.34255
824.994	8835.46711
825.18	8474.53028
825.366	8866.20246
825.552	8769.88477
825.738	8773.98421
825.923	8833.41794
826.109	9013.67626
826.295	8718.63558
826.481	8743.23662
826.667	8845.71268
826.852	8841.6145
827.038	8529.93888
827.224	8685.83008
827.409	8458.11025
827.595	8720.68577
827.781	8287.67961
827.966	8636.61294
828.152	8201.38632
828.338	8478.63509
828.523	8254.81007
828.709	8540.19821
828.894	8295.8962
829.08	8509.41879
829.266	8406.78974
829.451	8570.97338
829.637	8057.48619
829.822	8318.49023
830.008	8168.5035
830.193	8295.8962
830.378	8199.33129
830.564	8464.2679
830.749	8300.00438
830.935	8349.29646
831.12	8164.39279
831.305	8470.42538
831.491	8102.72253
831.676	8308.22051
831.861	7890.84941
832.047	8193.16609
832.232	8078.04937
832.417	8069.82434
832.602	7757.03074
832.788	7785.86066
832.973	7816.74532
833.158	7915.54482
833.343	7816.74532
833.528	8119.1697
833.714	7843.50823
833.899	7973.15593
834.084	7874.38415
834.269	7907.31335
834.454	7742.61424
834.639	7934.06443
834.824	7781.74235
835.009	8065.71171
835.194	7859.97597
835.379	8049.26035
835.564	7841.44967
835.749	7925.8337
835.934	7940.23727
836.119	7946.40992
836.304	7701.41856
836.489	7818.80413
836.674	7794.09703
836.859	7964.92676
837.044	7919.66043
837.228	7946.40992
837.413	7851.74226
837.598	8073.9369
837.783	7798.21508
837.968	7892.90748
838.152	7724.07722
838.337	7750.85236
838.522	7443.75293
838.707	7579.84201
838.891	7189.87966
839.076	7328.20947
839.261	7565.41275
839.445	7734.37577
839.63	7538.61278
839.815	7818.80413
839.999	7319.95374
840.184	7253.8953
840.368	7222.92264
840.553	7334.40103
840.737	7183.68347
840.922	7377.73646
841.106	7022.51214
841.291	7233.24741
841.475	7082.45069
841.66	7336.46484
841.844	7113.446
842.029	7517.99496
842.213	7270.41202
842.397	7319.95374
842.582	7218.79258
842.766	7266.28297
842.951	6933.60295
843.135	7264.21842
843.319	6995.63701
843.504	7074.18442
843.688	6786.70777
843.872	7187.81428
844.056	7010.10871
844.241	7101.04847
844.425	6782.56821
844.609	6933.60295
844.793	7059.7176
844.977	7043.18274
845.161	6823.95965
845.346	7084.5172
845.53	6705.96995
845.714	7156.831
845.898	6573.40143
846.082	6859.1352
846.266	6658.339
846.45	6732.88643
846.634	6873.61735
846.818	6741.16764
847.002	6618.98251
847.186	6755.65888
847.37	6478.05937
847.554	6921.1937
847.738	6585.83374
847.922	6689.40404
848.106	6844.65195
848.29	6741.16764
848.473	6567.18496
848.657	6577.54563
848.841	6395.1133
849.025	6206.27194
849.209	6312.12996
849.392	6527.80917
849.576	6247.79215
849.76	6471.83971
849.944	6256.09507
850.127	6672.83666
850.311	6469.76644
850.495	6650.05411
850.678	6509.15456
850.862	7036.98179
851.046	6380.59391
851.229	6558.89602
851.413	6345.32778
851.596	6289.30299
851.78	6114.89445
851.964	6160.58888
852.147	6235.33707
852.331	6285.15232
852.514	6077.49963
852.698	6160.58888
852.881	6015.158
853.065	6087.88785
853.248	5911.20816
853.431	6089.96542
853.615	5986.05799
853.798	6289.30299
853.982	5946.55772
854.165	6123.20337
854.348	6131.51192
854.532	5961.11144
854.715	5796.79523
854.898	6083.73263
855.081	6035.9409
855.265	6002.68713
855.448	6023.47144
855.631	5894.57072
855.814	5784.3095
855.997	6054.64349
856.181	5803.03778
856.364	6123.20337
856.547	5921.6058
856.73	5863.37144
856.913	5823.84473
857.096	6054.64349
857.279	5757.25417
857.462	5671.8997
857.645	5819.68353
857.828	5734.35809
858.011	5825.9253
858.194	5815.52223
858.377	5742.68427
858.56	5877.93176
858.743	5680.22872
858.926	5540.66799
859.109	5567.75521
859.292	5648.99298
859.475	5386.40342
859.658	5678.1465
859.841	5446.8738
860.023	5578.17232
860.206	5419.76884
860.389	5626.08339
860.572	5330.08567
860.755	5455.21299
860.937	5282.09781
861.12	5663.57032
861.303	5227.83576
861.486	5505.24023
861.668	5221.57374
861.851	5319.65458
862.034	4960.47026
862.216	5194.43589
862.399	4889.38768
862.581	5127.61825
862.764	4952.10898
862.947	5062.86598
863.129	4881.02328
863.312	5146.41312
863.494	4991.82177
863.677	5048.24141
863.859	4726.21613
864.042	4981.37184
864.224	4851.74501
864.406	5079.57837
864.589	4768.06817
864.771	4945.83778
864.954	4583.85182
865.136	4954.19933
865.318	4845.47051
865.501	5087.93402
865.683	4788.99079
865.865	4893.56974
866.048	4805.72725
866.23	4826.64578
866.412	4809.91114
866.594	4910.29708
866.777	4876.84095
866.959	4868.476
867.141	4433.00092
867.323	4669.70155
867.505	4516.82112
867.687	4814.09494
867.869	4701.10057
868.052	4807.81921
868.234	4814.09494
868.416	4874.74975
868.598	4550.33931
868.78	4690.63479
868.962	4583.85182
869.144	4675.98176
869.326	4625.73444
869.508	4799.45125
869.69	4640.39124
869.872	4730.40174
870.054	4596.41754
870.236	4569.1908
870.417	4449.76777
870.599	4554.52869
870.781	4340.75825
870.963	4399.46301
871.145	4441.38452
871.327	4581.75746
871.508	4300.91322
871.69	4464.43762
871.872	4286.23151
872.054	4684.35506
872.235	4147.75256
872.417	4378.49898
872.599	4403.65555
872.78	4619.45262
872.962	4433.00092
873.144	4340.75825
873.325	4107.87035
873.507	4422.52092
873.689	4282.03654
873.87	4535.6758
874.052	4158.24662
874.233	4355.43604
874.415	4231.69025
874.596	4608.98246
874.778	4357.53278
874.959	4445.57619
875.141	4311.39951
875.322	4575.47423
875.503	4430.90496
875.685	4583.85182
875.866	4428.80898
876.048	4602.7001
876.229	4315.59387
876.41	4353.33928
876.592	4097.37378
876.773	4581.75746
876.954	4164.5428
877.136	4424.61696
877.317	4357.53278
877.498	4726.21613
877.679	4401.55929
877.86	4284.13403
878.042	4510.53583
878.223	4518.91617
878.404	4294.62119
878.585	4527.29616
878.766	4426.71299
878.947	4558.71797
879.128	4445.57619
879.309	4483.29726
879.49	4191.82407
879.672	4671.79498
879.853	4135.159
880.034	4401.55929
880.215	4449.76777
880.396	4684.35506
880.576	4328.17645
880.757	4426.71299
880.938	4156.14785
881.119	4412.04038
881.3	4147.75256
881.481	4273.64635
881.662	4116.26723
881.843	4376.40246
882.023	4424.61696
882.204	4655.04695
882.385	4240.08215
882.566	4225.3961
882.747	4189.72564
882.927	4158.24662
883.108	4025.98332
883.289	4516.82112
883.469	4393.17403
883.65	4502.15513
883.831	4179.23316
884.011	4474.91542
884.192	4414.13653
884.373	4650.85971
884.553	4466.53322
884.734	4575.47423
884.914	4391.07766
885.095	4648.76606
885.275	4275.74393
885.456	4521.0112
885.636	4315.59387
885.817	4684.35506
885.997	4682.26177
886.178	4644.5787
886.358	4636.2037
886.538	4805.72725
886.719	4458.15067
886.899	4696.91433
887.08	4548.24459
887.26	4466.53322
887.44	4164.5428
887.621	4502.15513
887.801	4225.3961
887.981	4485.39267
888.161	4487.48805
888.342	4558.71797
888.522	4646.67239
888.702	4594.32331
888.882	4466.53322
889.062	4588.04049
889.242	4361.72619
889.423	4294.62119
889.603	4147.75256
889.783	4282.03654
889.963	4151.95025
890.143	4552.43401
890.323	4240.08215
890.503	4558.71797
890.683	4277.84149
890.863	4558.71797
891.043	4533.58092
891.223	4565.00173
891.403	4317.69102
891.583	4684.35506
891.763	4311.39951
891.943	4579.66307
892.122	4600.60594
892.302	4667.6081
892.482	4529.3911
892.662	4338.66134
892.842	4248.47372
893.022	4393.17403
893.201	4271.54875
893.381	4588.04049
893.561	4290.42639
893.741	4479.10639
893.92	4347.04886
894.1	4661.32763
894.28	4315.59387
894.459	4370.11276
894.639	4097.37378
894.819	4487.48805
894.998	4049.08285
895.178	4378.49898
895.357	4179.23316
895.537	4055.38229
895.716	3920.95423
895.896	4254.76716
896.075	3849.50559
896.255	4118.3664
896.434	3954.56907
896.614	4172.93742
896.793	4109.9696
896.973	4275.74393
897.152	3944.06499
897.331	4189.72564
897.511	3902.04361
897.69	4040.68331
897.87	4017.58287
898.049	4133.05999
898.228	3731.77559
898.407	3914.65087
898.587	3778.03399
898.766	4202.31591
898.945	3517.18416
899.124	3811.67052
899.304	3529.81257
899.483	3853.70909
899.662	3613.98493
899.841	3954.56907
900.02	3586.63217
900.199	3710.74594
900.378	3567.69381
900.557	3754.90597
900.737	3576.11105
900.916	3647.64549
901.095	3538.23114
901.274	3559.27627
901.453	3414.02776
901.632	3483.50521
901.811	3319.25474
901.989	3622.40052
902.168	3268.69481
902.347	3651.85272
902.526	3041.0573
902.705	3435.08359
902.884	3348.74346
903.063	3586.63217
903.242	3382.44069
903.42	3293.976
903.599	3074.79317
903.778	3374.0168
903.957	3032.62271
904.135	3243.41119
904.314	2931.38871
904.493	3144.36066
904.672	3022.07913
904.85	3091.6596
905.029	2709.82371
905.207	3038.94867
905.386	2707.71285
905.565	2992.55507
905.743	2692.93644
905.922	2868.10017
906.1	2737.26374
906.279	2699.26927
906.457	2386.72048
906.636	2777.36436
906.814	2568.36792
906.993	2661.2706
907.171	2479.66664
907.35	2507.12396
907.528	2327.56246
907.707	2473.33006
907.885	2312.77175
908.063	2540.91494
908.242	2175.40785
908.42	2469.10563
908.598	2238.81126
908.777	2665.49287
908.955	2266.28362
909.133	2505.01192
909.311	2336.01409
909.49	2483.89096
909.668	2245.15117
909.846	2378.26982
910.024	2323.33659
910.202	2412.07148
910.38	2116.22461
910.559	2464.88115
910.737	2158.49899
910.915	2390.94575
911.093	2329.67539
911.271	2293.75443
911.449	2147.93069
911.627	2380.3825
911.805	2154.2717
911.983	2471.21785
912.161	2221.90444
912.339	2591.5958
912.517	2306.43273
912.695	2403.62131
912.872	2509.23598
913.05	2352.91686
913.228	2293.75443
913.406	2469.10563
913.584	2479.66664
913.762	2619.04505
913.939	2217.67765
914.117	2403.62131
914.295	2321.22365
914.473	2388.83312
914.65	2329.67539
914.828	2600.04195
915.006	2355.02966
915.184	2545.1386
915.361	2310.65875
915.539	2555.69756
915.716	2249.37773
915.894	2707.71285
916.072	2336.01409
916.249	2262.0572
916.427	2211.3374
916.604	2475.44227
916.782	2355.02966
916.959	2308.54575
917.137	2297.98057
917.314	2401.50875
917.492	2014.75388
917.669	2084.51679
917.847	2071.8332
918.024	2135.24847
918.201	2012.63973
918.379	2177.52142
918.556	1964.01264
918.733	2002.06891
918.911	1769.4749
919.088	1976.69829
919.265	1870.97816
919.442	2202.88361
919.62	1932.29756
919.797	2207.11052
919.974	2042.23714
920.151	2202.88361
920.328	1879.43627
920.506	2171.18068
920.683	1964.01264
920.86	2025.3245
921.037	1940.75504
921.214	2145.81701
921.391	1864.63452
921.568	2073.94715
921.745	1997.84054
921.922	2109.88318
922.099	1767.36015
922.276	1811.76917
922.453	1756.78631
922.63	1756.78631
922.807	1737.75316
922.984	1877.32175
923.161	1553.7541
923.338	1902.69566
923.514	1617.20403
923.691	1731.40872
923.868	1735.63835
924.045	1811.76917
924.222	1678.53719
924.399	1761.01585
924.575	1653.1582
924.752	1752.55675
924.929	1399.35585
925.105	1672.19248
925.282	1333.78997
925.459	1604.51417
925.635	1454.34714
925.812	1678.53719
925.989	1568.55921
926.165	1511.45345
926.342	1524.14369
926.518	1536.83389
926.695	1285.14525
926.871	1617.20403
927.048	1287.26021
927.224	1416.27622
927.401	1325.32995
927.577	1388.78064
927.754	1139.21965
927.93	1278.80036
928.107	1092.69648
928.283	1435.31167
928.459	1433.19661
928.636	1390.89568
928.812	1173.056
928.988	1253.42105
929.165	1209.0082
929.341	1173.056
929.517	1143.44913
929.693	1304.18002
929.87	1020.80191
930.046	1109.61373
930.222	1006.00091
930.398	1236.50171
930.574	999.65772
930.751	1160.36725
930.927	1130.76072
931.103	1204.77848
931.279	955.25704
931.455	1033.48871
931.631	925.6583
931.807	1025.03082
931.983	815.73372
932.159	1052.51931
932.335	817.84743
932.511	830.52991
932.687	750.21336
932.863	889.71896
933.039	855.89582
933.215	972.17123
933.391	862.23749
933.566	919.3159
933.742	805.16529
933.918	777.68849
934.094	733.30644
934.27	792.48349
934.445	570.61472
934.621	701.60782
934.797	551.60365
934.973	579.06443
935.148	600.18963
935.324	600.18963
935.5	460.78874
935.675	551.60365
935.851	416.44736
936.027	585.40185
936.202	446.00751
936.378	486.12972
936.553	410.11344
936.729	509.36083
936.904	357.33661
937.08	391.11258
937.255	397.44606
937.431	458.67709
937.606	283.46719
937.782	334.11816
937.957	338.33954
938.133	357.33661
938.308	192.74463
938.483	207.51095
938.659	213.83967
938.834	264.47581
939.009	171.65161
939.185	186.41651
939.36	289.79799
939.535	161.10588
939.71	188.52586
939.886	211.73008
940.061	125.25432
940.236	222.27825
940.411	129.47183
940.586	180.08857
940.761	167.43326
940.937	205.40141
941.112	173.76082
941.287	135.79826
941.462	121.0369
941.637	163.21498
941.812	171.65161
941.987	142.12488
942.162	112.60231
942.337	123.1456
942.512	36.70708
942.687	21.95313
942.862	129.47183
943.037	97.84262
943.212	57.78613
943.386	110.49372
943.561	89.40901
943.736	76.75925
943.911	15.63036
944.086	123.1456
944.26	28.27611
944.435	110.49372
944.61	95.73419
944.785	150.56067
944.959	137.90711
945.134	64.1103
945.309	137.90711
945.483	131.58062
945.658	137.90711
945.833	99.95108
946.007	62.00222
946.182	150.56067
946.357	80.97574
946.531	13.52282
946.706	38.81488
946.88	95.73419
947.055	104.16807
947.229	123.1456
947.404	146.34273
947.578	70.43467
947.752	133.68943
947.927	137.90711
948.101	140.01598
948.276	154.77869
948.45	80.97574
948.624	125.25432
948.799	78.86748
948.973	114.71092
949.147	64.1103
949.321	95.73419
949.496	137.90711
949.67	38.81488
949.844	78.86748
950.018	95.73419
950.193	144.23379
950.367	74.65103
950.541	85.19233
950.715	62.00222
950.889	68.32652
951.063	137.90711
951.237	104.16807
951.411	108.38515
951.585	99.95108
951.759	110.49372
951.933	87.30066
952.107	137.90711
952.281	148.45169
952.455	99.95108
952.629	137.90711
952.803	192.74463
952.977	36.70708
953.151	68.32652
953.325	146.34273
953.499	163.21498
953.672	64.1103
953.846	184.30718
954.02	24.06077
954.194	135.79826
954.368	87.30066
954.541	165.32411
954.715	180.08857
954.889	121.0369
955.062	173.76082
955.236	184.30718
955.41	87.30066
955.583	104.16807
955.757	180.08857
955.93	165.32411
956.104	55.67812
956.278	146.34273
956.451	30.38382
956.625	146.34273
956.798	57.78613
956.972	59.89417
957.145	70.43467
957.319	201.1824
957.492	190.63523
957.665	89.40901
957.839	104.16807
958.012	112.60231
958.185	114.71092
958.359	127.36306
958.532	104.16807
958.705	64.1103
958.879	72.54284
959.052	133.68943
959.225	116.81956
959.398	112.60231
959.572	112.60231
959.745	135.79826
959.918	154.77869
960.091	173.76082
960.264	171.65161
960.438	140.01598
960.611	68.32652
960.784	114.71092
960.957	87.30066
961.13	106.2766
961.303	83.08402
961.476	112.60231
961.649	68.32652
961.822	70.43467
961.995	28.27611
962.168	95.73419
962.341	83.08402
962.514	68.32652
962.686	49.35423
962.859	114.71092
963.032	57.78613
963.205	72.54284
963.378	68.32652
963.551	121.0369
963.723	62.00222
963.896	68.32652
964.069	19.84552
964.242	182.19786
964.414	129.47183
964.587	95.73419
964.76	72.54284
964.932	45.13842
965.105	99.95108
965.278	114.71092
965.45	106.2766
965.623	125.25432
965.795	137.90711
965.968	78.86748
966.14	57.78613
966.313	99.95108
966.485	95.73419
966.658	49.35423
966.83	78.86748
967.003	154.77869
967.175	114.71092
967.348	55.67812
967.52	137.90711
967.692	83.08402
967.865	118.92822
968.037	150.56067
968.209	53.57014
968.382	137.90711
968.554	47.24632
968.726	66.2184
968.898	80.97574
969.071	38.81488
969.243	129.47183
969.415	32.49155
969.587	104.16807
969.759	78.86748
969.932	99.95108
970.104	102.05957
970.276	64.1103
970.448	55.67812
970.62	106.2766
970.792	38.81488
970.964	87.30066
971.136	62.00222
971.308	32.49155
971.48	15.63036
971.652	43.03055
971.824	123.1456
971.996	40.92271
972.168	87.30066
972.339	34.5993
972.511	64.1103
972.683	85.19233
972.855	28.27611
973.027	24.06077
973.199	116.81956
973.37	32.49155
973.542	40.92271
973.714	89.40901
973.886	140.01598
974.057	36.70708
974.229	45.13842
974.401	13.52282
974.572	2.98547
974.744	70.43467
974.915	95.73419
975.087	125.25432
975.259	24.06077
975.43	62.00222
975.602	53.57014
975.773	140.01598
975.945	30.38382
976.116	45.13842
976.288	28.27611
976.459	95.73419
976.63	28.27611
976.802	28.27611
976.973	51.46218
977.145	34.5993
977.316	-5.44397
977.487	64.1103
977.659	45.13842
977.83	-9.65855
978.001	-7.55127
978.172	110.49372
978.344	47.24632
978.515	112.60231
978.686	112.60231
978.857	47.24632
979.028	-3.33665
979.2	62.00222
979.371	55.67812
979.542	47.24632
979.713	13.52282
979.884	62.00222
980.055	45.13842
980.226	30.38382
980.397	57.78613
980.568	32.49155
980.739	53.57014
980.91	-5.44397
981.081	53.57014
981.252	36.70708
981.423	62.00222
981.594	76.75925
981.765	36.70708
981.936	-20.19457
982.106	43.03055
982.277	-22.3017
982.448	95.73419
982.619	34.5993
982.79	26.16843
982.96	45.13842
983.131	85.19233
983.302	-18.08741
983.472	19.84552
983.643	28.27611
983.814	57.78613
983.984	19.84552
984.155	45.13842
984.326	-26.51589
984.496	62.00222
984.667	53.57014
984.837	11.4153
985.008	-32.83698
985.178	45.13842
985.349	45.13842
985.519	17.73793
985.69	36.70708
985.86	7.20034
986.031	13.52282
986.201	68.32652
986.371	112.60231
986.542	70.43467
986.712	-3.33665
986.882	-3.33665
987.053	-20.19457
987.223	7.20034
987.393	2.98547
987.563	2.98547
987.734	-3.33665
987.904	-18.08741
988.074	32.49155
988.244	95.73419
988.414	-37.05092
988.585	-3.33665
988.755	7.20034
988.925	7.20034
989.095	-51.79892
989.265	55.67812
989.435	13.52282
989.605	-60.2258
989.775	64.1103
989.945	53.57014
990.115	72.54284
990.285	17.73793
990.455	11.4153
990.625	-34.94396
990.795	53.57014
990.965	9.30781
991.134	11.4153
991.304	17.73793
991.474	11.4153
991.644	64.1103
991.814	17.73793
991.984	-3.33665
992.153	47.24632
992.323	62.00222
992.493	53.57014
992.662	-22.3017
992.832	-43.37164
993.002	-26.51589
993.171	-3.33665
993.341	2.98547
993.511	68.32652
993.68	-13.87303
993.85	7.20034
994.019	-5.44397
994.189	5.09289
994.358	64.1103
994.528	-34.94396
994.697	-22.3017
994.867	85.19233
995.036	-5.44397
995.206	-43.37164
995.375	80.97574
995.544	19.84552
995.714	15.63036
995.883	70.43467
996.052	24.06077
996.222	19.84552
996.391	38.81488
996.56	11.4153
996.73	87.30066
996.899	45.13842
997.068	-22.3017
997.237	45.13842
997.406	-11.7658
997.576	53.57014
997.745	9.30781
997.914	-37.05092
998.083	13.52282
998.252	7.20034
998.421	-1.2293
998.59	-22.3017
998.759	-13.87303
998.928	-1.2293
999.097	5.09289
999.266	-13.87303
999.435	15.63036
999.604	45.13842
999.773	87.30066
999.942	-3.33665
1000.111	62.00222
1000.28	80.97574
1000.448	-13.87303
1000.617	5.09289
1000.786	-11.7658
1000.955	62.00222
1001.124	38.81488
1001.292	-37.05092
1001.461	-1.2293
1001.63	5.09289
1001.798	-5.44397
1001.967	-5.44397
1002.136	-24.40881
1002.304	45.13842
1002.473	-9.65855
1002.642	-11.7658
1002.81	-30.72997
1002.979	2.98547
1003.147	-22.3017
1003.316	9.30781
1003.484	57.78613
1003.653	45.13842
1003.821	-7.55127
1003.99	57.78613
1004.158	-11.7658
1004.327	24.06077
1004.495	21.95313
1004.663	-43.37164
1004.832	-85.50398
1005	-13.87303
1005.168	-72.86535
1005.337	2.98547
1005.505	21.95313
1005.673	83.08402
1005.842	-22.3017
1006.01	7.20034
1006.178	57.78613
1006.346	7.20034
1006.514	5.09289
1006.683	62.00222
1006.851	-22.3017
1007.019	59.89417
1007.187	-39.15785
1007.355	-20.19457
1007.523	-64.43909
1007.691	7.20034
1007.859	-13.87303
1008.027	70.43467
1008.195	30.38382
1008.363	62.00222
1008.531	15.63036
1008.699	-3.33665
1008.867	-30.72997
1009.035	40.92271
1009.203	-47.58533
1009.37	-49.69214
1009.538	36.70708
1009.706	-34.94396
1009.874	5.09289
1010.042	-13.87303
1010.209	-30.72997
1010.377	66.2184
1010.545	-22.3017
1010.713	-37.05092
1010.88	-20.19457
1011.048	15.63036
1011.216	38.81488
1011.383	-39.15785
1011.551	5.09289
1011.718	-1.2293
1011.886	57.78613
1012.054	-5.44397
1012.221	-43.37164
1012.389	53.57014
1012.556	-39.15785
1012.724	-26.51589
1012.891	70.43467
1013.058	28.27611
1013.226	-1.2293
1013.393	-1.2293
1013.561	-39.15785
1013.728	-43.37164
1013.895	-30.72997
1014.063	-13.87303
1014.23	59.89417
1014.397	-24.40881
1014.565	-62.33245
1014.732	2.98547
1014.899	-11.7658
1015.066	17.73793
1015.233	-22.3017
1015.401	-26.51589
1015.568	15.63036
1015.735	-3.33665
1015.902	-5.44397
1016.069	28.27611
1016.236	-11.7658
1016.403	2.98547
1016.57	-34.94396
1016.737	-30.72997
1016.904	5.09289
1017.071	-13.87303
1017.238	26.16843
1017.405	5.09289
1017.572	66.2184
1017.739	-28.62294
1017.906	-66.54569
1018.073	-18.08741
1018.24	-56.01241
1018.407	11.4153
1018.573	-39.15785
1018.74	-18.08741
1018.907	-28.62294
1019.074	-56.01241
1019.241	-22.3017
1019.407	-56.01241
1019.574	-13.87303
1019.741	-7.55127
1019.907	-37.05092
1020.074	28.27611
1020.241	-5.44397
1020.407	-5.44397
1020.574	-68.65227
1020.74	95.73419
1020.907	91.51738
1021.073	-11.7658
1021.24	72.54284
1021.406	-1.2293
1021.573	-11.7658
1021.739	45.13842
1021.906	36.70708
1022.072	-60.2258
1022.239	-5.44397
1022.405	13.52282
1022.571	-9.65855
1022.738	36.70708
1022.904	11.4153
1023.07	28.27611
1023.237	-3.33665
1023.403	-3.33665
1023.569	13.52282
1023.735	7.20034
1023.902	-20.19457
1024.068	-20.19457
1024.234	36.70708
1024.4	-30.72997
1024.566	-49.69214
1024.732	-24.40881
1024.898	11.4153
1025.065	11.4153
1025.231	55.67812
1025.397	-13.87303
1025.563	32.49155
1025.729	9.30781
1025.895	-51.79892
1026.061	47.24632
1026.227	9.30781
1026.392	70.43467
1026.558	-9.65855
1026.724	11.4153
1026.89	28.27611
1027.056	-13.87303
1027.222	-5.44397
1027.388	13.52282
1027.553	-9.65855
1027.719	7.20034
1027.885	-9.65855
1028.051	45.13842
1028.216	-119.20241
1028.382	-5.44397
1028.548	15.63036
1028.713	2.98547
1028.879	11.4153
1029.045	17.73793
1029.21	-11.7658
1029.376	0.87808
1029.541	-20.19457
1029.707	-5.44397
1029.873	-5.44397
1030.038	-5.44397
1030.204	38.81488
1030.369	-22.3017
1030.534	-60.2258
1030.7	13.52282
1030.865	-39.15785
1031.031	24.06077
1031.196	-9.65855
1031.361	74.65103
1031.527	2.98547
1031.692	11.4153
1031.857	-22.3017
1032.023	-22.3017
1032.188	-22.3017
1032.353	13.52282
1032.518	-13.87303
1032.684	40.92271
1032.849	2.98547
1033.014	-11.7658
1033.179	-51.79892
1033.344	-20.19457
1033.509	7.20034
1033.674	-39.15785
1033.839	-39.15785
1034.004	11.4153
1034.17	-11.7658
1034.335	11.4153
1034.5	-45.4785
1034.664	28.27611
1034.829	-11.7658
1034.994	-34.94396
1035.159	-62.33245
1035.324	7.20034
1035.489	2.98547
1035.654	66.2184
1035.819	5.09289
1035.984	53.57014
1036.148	-22.3017
1036.313	21.95313
1036.478	17.73793
1036.643	-30.72997
1036.807	-22.3017
1036.972	36.70708
1037.137	-43.37164
1037.301	15.63036
1037.466	72.54284
1037.631	-77.07833
1037.795	2.98547
1037.96	11.4153
1038.124	-5.44397
1038.289	-22.3017
1038.454	-30.72997
1038.618	9.30781
1038.783	21.95313
1038.947	-85.50398
1039.111	76.75925
1039.276	13.52282
1039.44	-53.90568
1039.605	-22.3017
1039.769	-28.62294
1039.933	-26.51589
1040.098	-96.03546
1040.262	21.95313
1040.426	-26.51589
1040.591	-41.26476
1040.755	-5.44397
1040.919	-9.65855
1041.083	30.38382
1041.248	-39.15785
1041.412	-32.83698
1041.576	-3.33665
1041.74	26.16843
1041.904	76.75925
1042.068	-5.44397
1042.232	-3.33665
1042.397	-11.7658
1042.561	-22.3017
1042.725	-18.08741
1042.889	-72.86535
1043.053	-11.7658
1043.217	11.4153
1043.381	-3.33665
1043.544	15.63036
1043.708	-87.61033
1043.872	-5.44397
1044.036	-51.79892
1044.2	-114.99048
1044.364	24.06077
1044.528	7.20034
1044.691	-5.44397
1044.855	-7.55127
1045.019	-56.01241
1045.183	-41.26476
1045.346	-47.58533
1045.51	2.98547
1045.674	9.30781
1045.837	55.67812
1046.001	-30.72997
1046.165	47.24632
1046.328	19.84552
1046.492	32.49155
1046.655	15.63036
1046.819	-22.3017
1046.983	-43.37164
1047.146	5.09289
1047.31	-1.2293
1047.473	5.09289
1047.636	28.27611
1047.8	15.63036
1047.963	32.49155
1048.127	45.13842
1048.29	5.09289
