Data from mixed_try1_USB4F045381__4__00152.txt Node

Date: Thu Apr 03 20:07:27 EDT 2025
User: mmckonesweet
Spectrometer: USB4F04538
Trigger mode: 4
Integration Time (sec): 2.700000E-3
Scans to average: 1
Electric dark correction enabled: true
Nonlinearity correction enabled: true
Boxcar width: 0
XAxis mode: Wavelengths
Number of Pixels in Spectrum: 3648
>>>>>Begin Spectral Data<<<<<
345.52	9.13219
345.736	9.13219
345.952	9.13219
346.168	38.63923
346.384	-14.04863
346.6	21.7775
346.816	-14.04863
347.032	-14.04863
347.248	-41.44034
347.464	-56.18797
347.68	70.25899
347.896	0.70246
348.112	-16.15583
348.328	-14.04863
348.544	-45.65407
348.76	17.5623
348.975	91.34168
349.191	47.07066
349.407	17.5623
349.623	-39.33343
349.839	-22.47729
350.055	-56.18797
350.27	-11.94141
350.486	-22.47729
350.702	-16.15583
350.918	-22.47729
351.133	85.01664
351.349	-7.72688
351.565	51.28651
351.781	28.10047
351.996	-56.18797
352.212	36.53143
352.428	76.58356
352.644	-3.51226
352.859	-30.90556
353.075	40.74705
353.291	0.70246
353.506	-11.94141
353.722	-3.51226
353.938	0.70246
354.153	-16.15583
354.369	11.23968
354.584	34.42366
354.8	59.7185
355.016	-58.29468
355.231	-121.48383
355.447	78.6918
355.662	-11.94141
355.878	47.07066
356.093	55.50246
356.309	-22.47729
356.524	9.13219
356.74	0.70246
356.955	9.13219
357.171	13.34719
357.386	17.5623
357.602	11.23968
357.817	28.10047
358.033	36.53143
358.248	-16.15583
358.464	36.53143
358.679	-11.94141
358.895	-28.79853
359.11	68.15085
359.325	-7.72688
359.541	55.50246
359.756	42.8549
359.972	13.34719
360.187	42.8549
360.402	-66.72124
360.618	-96.21098
360.833	-28.79853
361.048	34.42366
361.264	-28.79853
361.479	34.42366
361.694	34.42366
361.909	57.61047
362.125	63.93463
362.34	85.01664
362.555	42.8549
362.77	21.7775
362.986	-7.72688
363.201	59.7185
363.416	66.04272
363.631	-64.61464
363.847	-28.79853
364.062	-3.51226
364.277	78.6918
364.492	15.45473
364.707	-28.79853
364.922	4.91728
365.138	-22.47729
365.353	19.66988
365.568	47.07066
365.783	19.66988
365.998	32.3159
366.213	0.70246
366.428	-16.15583
366.643	55.50246
366.858	0.70246
367.073	17.5623
367.288	9.13219
367.503	-41.44034
367.718	30.20817
367.933	-30.90556
368.148	-54.08124
368.363	17.5623
368.578	68.15085
368.793	9.13219
369.008	-5.61958
369.223	7.02472
369.438	68.15085
369.653	4.91728
369.868	-30.90556
370.083	55.50246
370.298	23.88513
370.513	44.96277
370.728	15.45473
370.943	34.42366
371.157	-75.1474
371.372	9.13219
371.587	28.10047
371.802	25.99279
372.017	13.34719
372.232	-20.37016
372.446	0.70246
372.661	-5.61958
372.876	19.66988
373.091	-20.37016
373.306	51.28651
373.52	34.42366
373.735	-11.94141
373.95	82.90833
374.165	34.42366
374.379	11.23968
374.594	15.45473
374.809	17.5623
375.023	9.13219
375.238	68.15085
375.453	32.3159
375.667	55.50246
375.882	-7.72688
376.097	-33.01256
376.311	42.8549
376.526	-41.44034
376.741	80.80005
376.955	2.80986
377.17	-18.26301
377.384	17.5623
377.599	36.53143
377.813	11.23968
378.028	28.10047
378.242	-3.51226
378.457	42.8549
378.672	-45.65407
378.886	-3.51226
379.101	-30.90556
379.315	34.42366
379.53	40.74705
379.744	-3.51226
379.958	9.13219
380.173	30.20817
380.387	11.23968
380.602	-3.51226
380.816	-9.83416
381.031	9.13219
381.245	25.99279
381.459	51.28651
381.674	53.39447
381.888	40.74705
382.103	-11.94141
382.317	68.15085
382.531	30.20817
382.746	49.17857
382.96	13.34719
383.174	0.70246
383.388	2.80986
383.603	-70.93437
383.817	72.36716
384.031	-5.61958
384.246	61.82655
384.46	17.5623
384.674	70.25899
384.888	-56.18797
385.103	-39.33343
385.317	-5.61958
385.531	59.7185
385.745	-33.01256
385.959	53.39447
386.174	-22.47729
386.388	-7.72688
386.602	21.7775
386.816	-11.94141
387.03	-47.7609
387.244	51.28651
387.458	25.99279
387.672	70.25899
387.887	15.45473
388.101	2.80986
388.315	-16.15583
388.529	-1.40491
388.743	38.63923
388.957	-26.69148
389.171	-16.15583
389.385	2.80986
389.599	87.12496
389.813	34.42366
390.027	17.5623
390.241	4.91728
390.455	17.5623
390.669	55.50246
390.883	-22.47729
391.097	4.91728
391.311	-5.61958
391.525	55.50246
391.738	42.8549
391.952	95.55848
392.166	-14.04863
392.38	51.28651
392.594	59.7185
392.808	51.28651
393.022	101.88386
393.236	25.99279
393.449	13.34719
393.663	17.5623
393.877	68.15085
394.091	-60.40135
394.305	-22.47729
394.518	2.80986
394.732	13.34719
394.946	42.8549
395.16	-20.37016
395.373	34.42366
395.587	42.8549
395.801	-7.72688
396.015	-62.50801
396.228	110.318
396.442	11.23968
396.656	63.93463
396.869	66.04272
397.083	25.99279
397.297	-5.61958
397.51	34.42366
397.724	42.8549
397.938	30.20817
398.151	40.74705
398.365	78.6918
398.578	7.02472
398.792	72.36716
399.005	76.58356
399.219	70.25899
399.433	11.23968
399.646	82.90833
399.86	150.38492
400.073	11.23968
400.287	59.7185
400.5	68.15085
400.714	38.63923
400.927	36.53143
401.141	135.62252
401.354	19.66988
401.567	51.28651
401.781	55.50246
401.994	7.02472
402.208	40.74705
402.421	13.34719
402.635	93.45007
402.848	118.75249
403.061	55.50246
403.275	17.5623
403.488	34.42366
403.701	59.7185
403.915	-22.47729
404.128	23.88513
404.341	-30.90556
404.555	4.91728
404.768	7.02472
404.981	28.10047
405.195	17.5623
405.408	49.17857
405.621	63.93463
405.834	17.5623
406.048	76.58356
406.261	59.7185
406.474	42.8549
406.687	2.80986
406.9	9.13219
407.114	25.99279
407.327	57.61047
407.54	34.42366
407.753	38.63923
407.966	47.07066
408.179	55.50246
408.392	0.70246
408.605	61.82655
408.819	2.80986
409.032	7.02472
409.245	-54.08124
409.458	44.96277
409.671	25.99279
409.884	68.15085
410.097	32.3159
410.31	135.62252
410.523	53.39447
410.736	66.04272
410.949	51.28651
411.162	0.70246
411.375	25.99279
411.588	25.99279
411.801	34.42366
412.014	44.96277
412.227	9.13219
412.44	2.80986
412.653	-37.2265
412.865	101.88386
413.078	78.6918
413.291	21.7775
413.504	13.34719
413.717	80.80005
413.93	57.61047
414.143	53.39447
414.356	34.42366
414.568	76.58356
414.781	42.8549
414.994	28.10047
415.207	68.15085
415.42	21.7775
415.632	25.99279
415.845	80.80005
416.058	4.91728
416.271	-22.47729
416.483	42.8549
416.696	44.96277
416.909	120.86117
417.121	122.96987
417.334	114.5352
417.547	120.86117
417.759	68.15085
417.972	34.42366
418.185	57.61047
418.397	9.13219
418.61	59.7185
418.823	76.58356
419.035	95.55848
419.248	74.47535
419.46	23.88513
419.673	129.2961
419.885	53.39447
420.098	66.04272
420.311	70.25899
420.523	70.25899
420.736	72.36716
420.948	118.75249
421.161	116.64384
421.373	68.15085
421.586	80.80005
421.798	76.58356
422.01	87.12496
422.223	59.7185
422.435	118.75249
422.648	9.13219
422.86	89.23331
423.073	93.45007
423.285	91.34168
423.497	53.39447
423.71	93.45007
423.922	118.75249
424.134	106.10089
424.347	61.82655
424.559	112.42659
424.771	70.25899
424.984	99.77538
425.196	122.96987
425.408	110.318
425.621	72.36716
425.833	59.7185
426.045	63.93463
426.257	110.318
426.47	144.05805
426.682	122.96987
426.894	158.82104
427.106	93.45007
427.318	76.58356
427.531	70.25899
427.743	135.62252
427.955	169.36666
428.167	160.93012
428.379	205.22562
428.591	95.55848
428.804	101.88386
429.016	129.2961
429.228	169.36666
429.44	165.14835
429.652	188.35008
429.864	160.93012
430.076	194.67826
430.288	163.03922
430.5	146.16698
430.712	186.24073
430.924	177.80353
431.136	215.77348
431.348	129.2961
431.56	152.49392
431.772	127.18734
431.984	257.96985
432.196	194.67826
432.408	160.93012
432.62	135.62252
432.832	186.24073
433.044	175.69428
433.256	222.10244
433.468	219.99277
433.679	186.24073
433.891	219.99277
434.103	266.41005
434.315	201.00661
434.527	196.78769
434.739	224.21213
434.95	129.2961
435.162	262.18991
435.374	211.55428
435.586	304.39463
435.798	224.21213
436.009	241.09037
436.221	228.43158
436.433	298.06345
436.645	276.96072
436.856	300.17382
437.068	257.96985
437.28	300.17382
437.491	196.78769
437.703	215.77348
437.915	302.28422
438.126	355.04985
438.338	270.63026
438.55	272.74039
438.761	340.27436
438.973	279.07091
439.184	329.72097
439.396	350.82819
439.608	285.40159
439.819	388.82553
440.031	232.6511
440.242	241.09037
440.454	355.04985
440.665	450.05468
440.877	325.49973
441.088	355.04985
441.3	304.39463
441.511	329.72097
441.723	295.95309
441.934	344.49584
442.146	405.71498
442.357	477.5065
442.569	412.04879
442.78	384.60334
442.991	352.93901
443.203	405.71498
443.414	473.28298
443.626	456.38949
443.837	447.94311
444.048	443.72001
444.26	374.04814
444.471	473.28298
444.682	407.82623
444.894	365.60428
445.105	397.27012
445.316	418.38275
445.528	450.05468
445.739	473.28298
445.95	454.27787
446.161	469.05951
446.373	509.18483
446.584	464.83611
446.795	498.62502
447.006	511.29683
447.217	513.40885
447.429	494.4012
447.64	469.05951
447.851	600.01358
448.062	585.22581
448.273	625.3655
448.484	441.60848
448.695	523.96917
448.907	500.73695
449.118	477.5065
449.329	568.32629
449.54	650.7192
449.751	439.49697
449.962	507.07284
450.173	557.76452
450.384	557.76452
450.595	678.18766
450.806	574.66351
451.017	652.83209
451.228	616.91466
451.439	676.07463
451.65	745.81045
451.861	676.07463
452.072	728.90371
452.283	733.13033
452.494	705.65806
452.705	667.62264
452.915	752.15065
453.126	813.44387
453.337	638.04213
453.548	741.5837
453.759	811.33018
453.97	908.56921
454.181	847.26422
454.391	891.6568
454.602	832.46754
454.813	912.79739
455.024	1039.65598
455.235	855.71966
455.445	1026.96908
455.656	912.79739
455.867	1003.71031
456.078	904.34106
456.288	988.90967
456.499	963.53789
456.71	1056.57218
456.921	1124.24035
457.131	1155.96146
457.342	1029.08355
457.553	1092.52026
457.763	1048.11404
457.974	1198.25768
458.184	1145.38765
458.395	1223.6361
458.606	1238.44038
458.816	1437.25046
459.027	1255.35973
459.237	1333.61372
459.448	1471.0913
459.659	1318.8087
459.869	1445.71067
460.08	1335.72873
460.29	1568.38296
460.501	1502.81702
460.711	1523.96743
460.922	1445.71067
461.132	1576.843
461.343	1507.04711
461.553	1680.47585
461.764	1581.073
461.974	1532.42757
462.184	1652.98196
462.395	1845.42712
462.605	1839.0833
462.816	1752.38051
463.026	1813.70762
463.236	1707.96925
463.447	1801.01954
463.657	2039.94691
463.867	2181.57241
464.078	2069.54308
464.288	1938.46448
464.498	2190.02654
464.709	2141.41348
464.919	2050.51713
465.129	2422.45791
465.339	2151.9819
465.55	2375.98107
465.76	2293.57834
465.97	2439.35731
466.18	2359.07917
466.391	2578.75026
466.601	2310.48267
466.811	2701.20427
467.021	2627.31461
467.231	2739.19853
467.441	2671.65027
467.651	2943.86907
467.862	2992.37932
468.072	3161.04723
468.282	3042.99019
468.492	2990.27035
468.702	3163.15494
468.912	3325.3985
469.122	3211.62766
469.332	3312.75974
469.542	3230.59288
469.752	3477.01446
469.962	3363.31104
470.172	3744.21722
470.382	3601.18564
470.592	3763.14122
470.802	3630.6405
471.012	3735.80605
471.222	3859.83905
471.432	4048.90786
471.642	3784.16602
471.852	4296.54377
472.062	4069.90528
472.272	4298.64112
472.482	4384.61371
472.691	4514.55145
472.901	4311.22474
473.111	4478.93176
473.321	4447.49734
473.531	4786.72428
473.741	4728.13455
473.95	4924.75806
474.16	4648.59159
474.37	5131.62102
474.58	5075.22633
474.79	5323.65323
474.999	5110.73607
475.209	5033.44159
475.419	5208.87511
475.628	5548.82931
475.838	5427.93549
476.048	5594.66486
476.258	5784.13608
476.467	6129.26172
476.677	5896.47717
476.886	6228.93622
477.096	6085.63712
477.306	6133.41591
477.515	6168.72268
477.725	6463.37372
477.935	6278.7532
478.144	6533.85424
478.354	6210.25137
478.563	6832.0644
478.773	6763.76659
478.982	6929.29427
479.192	6925.15785
479.401	7214.49034
479.611	7253.72324
479.82	7202.09934
480.03	7544.62591
480.239	7608.52563
480.449	7412.63857
480.658	7507.5134
480.868	7682.70607
481.077	7812.45606
481.287	7839.21954
481.496	7886.56171
481.705	8036.7496
481.915	8256.69336
482.124	8141.61115
482.333	8248.47526
482.543	8503.09138
482.752	8478.46406
482.961	8478.46406
483.171	8894.71442
483.38	8503.09138
483.589	8689.76015
483.799	8904.95739
484.008	8835.29635
484.217	9064.6905
484.426	9361.35201
484.636	9387.93209
484.845	9584.13116
485.054	9506.48667
485.263	9453.34823
485.472	9410.42076
485.682	10124.98812
485.891	9772.01924
486.1	9720.97557
486.309	10161.68861
486.518	10078.08647
486.727	10196.34606
486.936	10165.76616
487.146	10124.98812
487.355	10440.87585
487.564	10367.537
487.773	10575.28712
487.982	10387.9106
488.191	10711.67926
488.4	11012.77459
488.609	11047.34394
488.818	10970.06686
489.027	10953.79595
489.236	11189.65532
489.445	11374.58358
489.654	11368.48838
489.863	11618.32045
490.072	11650.80853
490.281	11717.80792
490.49	11656.89979
490.698	11865.98491
490.907	11699.53632
491.116	12231.16763
491.325	11985.71174
491.534	12275.78426
491.743	11979.62462
491.952	11985.71174
492.16	12310.25839
492.369	12180.46265
492.578	12561.65736
492.787	12675.16011
492.996	12713.66569
493.204	12817.01246
493.413	12885.90226
493.622	13003.40601
493.831	12658.94659
494.039	13072.2796
494.248	12683.26672
494.457	13367.97009
494.665	13214.06082
494.874	13382.14473
495.083	13357.84522
495.291	13785.03438
495.5	13637.25652
495.709	13540.07791
495.917	13400.36899
496.126	13617.01163
496.335	13738.47604
496.543	14007.68392
496.752	13687.86729
496.96	14017.8036
497.169	14104.83042
497.377	13973.27654
497.586	14001.61208
497.794	14276.84846
498.003	14110.9019
498.211	14491.34689
498.42	14418.50033
498.628	14402.31195
498.837	14491.34689
499.045	14560.1448
499.254	14734.15719
499.462	14849.48739
499.671	14845.44075
499.879	14853.53402
500.087	15246.05085
500.296	15086.21241
500.504	14956.72245
500.713	15276.39998
500.921	15187.37597
501.129	15195.46905
501.338	15205.58541
501.546	15608.22271
501.754	15486.82251
501.962	15490.86914
502.171	15399.82035
502.379	15899.59609
502.587	15681.06414
502.795	15776.16447
503.004	15768.07074
503.212	16083.74065
503.42	16023.03237
503.628	16340.75525
503.837	16027.07954
504.045	16122.18994
504.253	16130.2846
504.461	16326.58835
504.669	16087.78792
504.877	16603.87264
505.085	16389.32819
505.294	16555.29445
505.502	16156.59242
505.71	16885.24763
505.918	16658.52464
506.126	16860.9544
506.334	16660.54882
506.542	16913.5902
506.75	16616.01739
506.958	16814.3934
507.166	17174.77138
507.374	17095.8048
507.582	17010.7686
507.79	17103.90374
507.998	17288.16695
508.206	17486.63184
508.414	17350.94348
508.622	17498.78372
508.83	17148.44871
509.037	17545.36699
509.245	17168.69688
509.453	17160.59757
509.661	17324.61749
509.869	17583.8501
510.077	17573.72285
510.285	17865.42071
510.492	17764.12884
510.7	17916.06988
510.908	17914.04387
511.116	17950.51256
511.324	17835.03225
511.531	17982.93013
511.739	17914.04387
511.947	17946.46043
512.155	18035.61062
512.362	17879.60226
512.57	17970.77344
512.778	18193.66668
512.985	18023.45337
513.193	18203.79923
513.401	18270.67641
513.608	18268.64977
513.816	18396.33543
514.024	18467.27839
514.231	18205.82575
514.439	18513.9006
514.646	18611.20569
514.854	18807.87054
515.061	18369.98637
515.269	18576.74245
515.477	18742.98732
515.684	18769.34564
515.892	18538.22604
516.099	18781.51124
516.307	18941.70508
516.514	19276.36848
516.722	18805.84288
516.929	19187.11404
517.136	19172.9152
517.344	19160.74493
517.551	19008.62891
517.759	19219.56928
517.966	19588.82203
518.173	19252.02557
518.381	19420.40952
518.588	19639.55432
518.796	19588.82203
519.003	19937.91314
519.21	19803.9449
519.418	19803.9449
519.625	19631.43698
519.832	19665.93614
520.039	20021.14505
520.247	20004.90413
520.454	19694.34813
520.661	20307.4356
520.868	20471.93816
521.076	20461.78288
521.283	20116.56595
521.49	20451.62771
521.697	20656.78242
521.904	20815.24782
522.112	20441.47265
522.319	20916.84145
522.526	20496.31125
522.733	20924.96939
522.94	20567.40286
523.147	20882.29846
523.354	20910.74554
523.561	21107.86532
523.768	21160.70808
523.975	21235.91214
524.183	20908.71358
524.39	21227.7817
524.597	21156.64316
524.804	21162.74055
525.011	21272.4999
525.218	21402.60029
525.425	21203.39079
525.632	21189.16302
525.838	21532.71705
526.045	21124.12434
526.252	21815.37
526.459	21807.23505
526.666	21372.10653
526.873	21864.181
527.08	21654.71624
527.287	22004.52492
527.494	21795.03275
527.701	22222.1953
527.907	22122.50914
528.114	22340.20263
528.321	22061.48124
528.528	22216.09181
528.735	21990.2863
528.941	22089.96051
529.148	22342.23735
529.355	22800.13993
529.562	22281.19742
529.768	22344.27207
529.975	22226.26431
530.182	22309.68231
530.388	22411.41991
530.595	22800.13993
530.802	22997.60122
531.008	23264.32554
531.215	22952.81339
531.422	23268.3981
531.628	22940.59881
531.835	23068.85791
532.042	23347.81558
532.248	23343.74277
532.455	23195.09399
532.661	22946.70608
532.868	23103.46977
533.074	23417.05527
533.281	23386.5079
533.487	23702.19756
533.694	23115.68595
533.9	23956.83836
534.107	23624.79589
534.313	23863.12526
534.52	24005.73455
534.726	23975.17424
534.933	23912.0183
535.139	23973.13691
535.345	23689.97595
535.552	24325.63649
535.758	24038.33292
535.965	24386.7718
536.171	24311.37193
536.377	24562.0393
536.584	24523.31578
536.79	24535.54416
536.996	24500.89732
537.203	24604.84003
537.409	24017.95886
537.615	24125.94456
537.821	24417.34034
538.028	24871.85954
538.234	24598.72558
538.44	24900.39841
538.646	24759.74706
538.853	24706.75096
539.059	24843.32113
539.265	24788.28409
539.471	25077.75725
539.677	24988.05636
539.883	24835.16739
540.09	24910.59097
540.296	25265.3276
540.502	25501.85518
540.708	25020.67435
540.914	25183.77299
541.12	25667.03297
541.326	25638.48279
541.532	25681.3082
541.738	25740.44946
541.944	25924.00144
542.15	26115.72709
542.356	25791.43459
542.562	26168.76033
542.768	25877.09227
542.974	26429.86374
543.18	25968.87198
543.386	26356.42567
543.592	26225.87436
543.798	26187.11827
544.004	25873.01326
544.21	26160.6013
544.415	25991.30758
544.621	26462.50355
544.827	26064.73469
545.033	26280.94986
545.239	26672.63198
545.445	27060.28903
545.651	26588.98666
545.856	26721.59628
546.062	26521.66425
546.268	26401.30424
546.474	26246.27255
546.679	26229.95399
546.885	26276.87015
547.091	26650.1903
547.297	26293.18903
547.502	26994.99582
547.708	26682.83281
547.914	26780.76263
548.119	27445.95507
548.325	27035.80391
548.531	26688.95332
548.736	26803.20536
548.942	27217.40655
549.147	26811.36639
549.353	27070.49122
549.559	27823.50249
549.764	27215.36601
549.97	27188.83914
550.175	27223.52817
550.381	27954.12293
550.586	27650.02962
550.792	28101.07651
550.997	27899.01686
551.203	28045.96823
551.408	27539.82783
551.614	27931.67221
551.819	27882.68929
552.025	28060.25548
552.23	28052.09133
552.435	28086.7891
552.641	28017.39389
552.846	28339.88833
553.052	28554.21923
553.257	28366.4239
553.462	28546.05403
553.668	28654.24432
553.873	28721.60957
554.078	28693.03023
554.283	28905.33876
554.489	28803.26595
554.694	29303.44755
554.899	28827.76319
555.105	28768.56178
555.31	28862.46787
555.515	28927.79513
555.72	28874.71665
555.925	28584.83888
556.131	29215.65606
556.336	28846.13621
556.541	29387.15751
556.746	28989.04041
556.951	29121.74172
557.156	29291.19746
557.361	29254.44741
557.567	29397.36617
557.772	29264.65572
557.977	29303.44755
558.182	29450.45159
558.387	29405.53311
558.592	29709.76378
558.797	29229.94757
559.002	29828.19561
559.207	29675.05169
559.412	29487.20345
559.617	29393.2827
559.822	29438.20104
560.027	29470.86924
560.232	29666.88419
560.437	29564.79184
560.642	29517.83026
560.847	29726.09898
561.051	29713.84757
561.256	29585.2101
561.461	30169.21862
561.666	30032.39719
561.871	29956.8413
562.076	30046.69173
562.281	30030.35512
562.485	29538.24827
562.69	29642.38178
562.895	29670.96794
563.1	29926.21097
563.305	30079.36516
563.509	30577.6727
563.714	29830.23757
563.919	30042.60757
564.123	30301.96085
564.328	30077.32306
564.533	30532.74032
564.737	29822.06974
564.942	30214.1462
565.147	30818.68442
565.351	30716.55856
565.556	30350.97465
565.761	30569.50313
565.965	30197.80883
566.17	30328.5099
566.374	30473.51222
566.579	30373.43954
566.784	30549.0793
566.988	30971.87967
567.193	31225.18026
567.397	30610.35118
567.602	30749.23847
567.806	30626.69055
568.011	31049.50164
568.215	30849.32285
568.42	30585.84229
568.624	30493.93559
568.828	31024.98921
569.033	30908.55801
569.237	31284.42325
569.442	31404.95619
569.646	31074.01427
569.85	31249.69444
570.055	31619.47804
570.259	31184.32377
570.463	31531.624
570.668	31306.89507
570.872	31290.55191
571.076	31409.04215
571.281	31310.98088
571.485	31746.15697
571.689	31374.31169
571.893	31523.45169
572.098	32118.06193
572.302	31711.42175
572.506	31885.10311
572.71	31836.06232
572.914	31697.11916
573.119	31578.6153
573.323	31613.34859
573.527	31936.18842
573.731	32193.67693
573.935	32391.92449
574.139	32334.69632
574.343	32236.59481
574.547	32633.1197
574.751	32269.29477
574.955	31991.36189
575.159	32430.75887
575.364	32481.85797
575.568	32306.08287
575.772	31550.01179
575.976	31913.71074
576.18	32032.23204
576.383	32038.36263
576.587	32412.36353
576.791	32492.07796
576.995	32344.91551
577.199	32706.71115
577.403	32179.37118
577.607	32712.84391
577.811	32851.85915
578.015	32181.41485
578.219	32798.7049
578.422	33009.28767
578.626	32817.10426
578.83	32404.18789
579.034	32328.56483
579.238	32706.71115
579.442	32982.70774
579.645	32802.79363
579.849	32943.86095
580.053	33215.80889
580.257	32776.21708
580.46	33025.64477
580.664	33250.57269
580.868	33099.25387
581.071	33234.21315
581.275	33271.02237
581.479	33115.61192
581.682	32815.05987
581.886	32997.01995
582.09	33136.05974
582.293	33414.17827
582.497	33226.03345
582.7	33645.30415
582.904	33845.78272
583.107	34076.98742
583.311	33639.16754
583.515	33862.14973
583.718	33628.93994
583.922	33643.25861
584.125	33608.48496
584.329	33757.81372
584.532	34255.02595
584.735	34410.57734
584.939	34371.68739
585.142	34304.14503
585.346	33993.0938
585.549	33978.77109
585.753	33823.27843
585.956	34426.95249
586.159	33815.09515
586.363	34334.84558
586.566	34113.82069
586.769	34361.45342
586.973	34109.72804
587.176	34322.56525
587.379	34875.32461
587.582	34660.32646
587.786	34124.05236
587.989	34914.23421
588.192	34398.29615
588.395	34713.55967
588.599	34631.66361
588.802	34768.84336
589.005	34373.73419
589.208	34752.46268
589.411	35424.31046
589.615	34586.62364
589.818	35172.30805
590.021	35041.21373
590.224	35049.40656
590.427	35080.13035
590.63	34592.76534
590.833	34605.04884
591.036	34846.65541
591.239	35303.42196
591.442	34877.37245
591.645	35188.69621
591.848	35493.983
592.051	35559.56259
592.254	35252.20322
592.457	35748.13399
592.66	35723.53514
592.863	35988.01444
593.066	36322.33854
593.269	36000.31809
593.472	35793.23391
593.675	36094.65293
593.878	35598.503
594.081	35246.05718
594.284	35709.18618
594.486	36004.41935
594.689	36174.64217
594.892	35922.39848
595.095	35996.21685
595.298	36158.23339
595.5	35903.94504
595.703	36420.8204
595.906	35657.94203
596.109	35823.98537
596.311	36299.77178
596.514	36053.63627
596.717	35680.48904
596.92	36385.93978
597.122	36420.8204
597.325	36147.97809
597.528	36728.67044
597.73	36909.34477
597.933	36406.45758
598.136	36628.09008
598.338	36279.25719
598.541	36632.1951
598.743	36773.83413
598.946	36213.61457
599.148	36392.09505
599.351	36377.73283
599.554	36975.05761
599.756	36324.3901
599.959	37133.20846
600.161	36691.72072
600.363	36958.62874
600.566	36892.91766
600.768	37166.07625
600.971	37118.82937
601.173	37067.47835
601.376	36743.04035
601.578	37014.07797
601.78	37055.15477
601.983	36570.62264
602.185	36792.31112
602.388	36985.32588
602.59	36855.95826
602.792	37094.18033
602.995	36933.98626
603.197	36894.97102
603.399	37024.34691
603.601	36646.56284
603.804	36812.84175
604.006	36956.57516
604.208	36868.27781
604.41	36831.31989
604.613	36909.34477
604.815	37149.64212
605.017	37447.58312
605.219	37427.03046
605.421	37316.05905
605.623	37020.23931
605.826	37279.07338
606.028	37083.9102
606.23	37971.93778
606.432	37478.41352
606.634	37636.70326
606.836	37692.21832
607.038	37659.31982
607.24	37669.60039
607.442	37669.60039
607.644	37336.60768
607.846	37316.05905
608.048	37305.78501
608.25	37398.25801
608.452	37768.30382
608.654	38066.58279
608.856	37398.25801
609.058	37747.7391
609.26	37260.58143
609.462	37609.97582
609.664	37926.67893
609.866	37542.13509
610.067	37476.3581
610.269	37842.34339
610.471	37237.98097
610.673	37885.53794
610.875	38013.08564
611.077	38132.43316
611.278	37048.99307
611.48	37607.91991
611.682	37661.37592
611.884	38500.94475
612.085	37642.87132
612.287	37513.3567
612.489	38146.83907
612.69	37885.53794
612.892	38354.74219
613.094	38048.06391
613.295	37593.52881
613.497	38006.91325
613.699	37891.70888
613.9	38056.29444
614.102	38058.35209
614.304	37830.00274
614.505	37322.22356
614.707	37920.50758
614.908	37605.86402
615.11	38455.63782
615.311	38008.9707
615.513	37535.96816
615.714	38080.98682
615.916	37963.70861
616.117	37803.26566
616.319	37906.10803
616.52	37887.59492
616.722	37686.0497
616.923	38389.74442
617.124	37957.53681
617.326	37531.85692
617.527	37716.89352
617.729	37501.02356
617.93	37727.17518
618.131	38091.27567
618.333	37980.16709
618.534	38249.7505
618.735	38459.75645
618.937	37825.88926
619.138	38113.91187
619.339	38074.81361
619.54	38002.79836
619.742	37817.66238
619.943	37669.60039
620.144	37733.34427
620.345	37830.00274
620.546	37834.11626
620.748	38052.17916
620.949	38000.74093
621.15	37893.76588
621.351	38023.37312
621.552	38365.0367
621.753	38144.78106
621.954	38136.54909
622.155	37657.26373
622.356	38089.21789
622.558	38093.33347
622.759	38037.77593
622.96	37733.34427
623.161	37922.56469
623.362	37825.88926
623.563	38344.44789
623.764	38237.40001
623.965	38449.45993
624.166	38847.06843
624.366	38070.69818
624.567	38190.05929
624.768	37959.59407
624.969	37583.24968
625.17	37778.58647
625.371	38101.56473
625.572	38062.46742
625.773	37461.97043
625.973	38292.97966
626.174	37947.25065
626.375	37879.36708
626.576	38134.49112
626.777	38315.62502
626.977	37867.02556
627.178	38046.0063
627.379	37899.93692
627.58	37745.68268
627.78	38017.2006
627.981	38190.05929
628.182	38676.03483
628.382	38482.40958
628.583	38202.40861
628.784	38150.95512
628.984	38080.98682
629.185	38546.25598
629.386	38381.50837
629.586	39028.47518
629.787	38614.23093
629.987	38268.27682
630.188	38332.09502
630.388	38095.39127
630.589	37930.79321
630.79	38270.33534
630.99	38488.58789
631.191	38698.69831
631.391	38445.34138
631.591	38194.1757
631.792	38426.80835
631.992	38395.92154
632.193	38735.78638
632.393	38410.33514
632.594	38206.52512
632.794	38210.64166
632.994	38255.92587
633.195	38321.80121
633.395	38344.44789
633.595	38426.80835
633.796	38535.9576
633.996	38698.69831
634.196	38568.91321
634.397	38360.91887
634.597	38080.98682
634.797	39003.7336
634.997	38521.54023
635.198	38369.15457
635.398	38208.58338
635.598	38865.61807
635.798	38336.21261
635.998	38709.00026
636.199	38723.42336
636.399	39174.89103
636.599	38496.82576
636.799	38587.45175
636.999	38367.09563
637.199	37667.54426
637.399	38249.7505
637.599	38309.44891
637.799	38321.80121
637.999	38717.24198
638.199	38690.45692
638.399	38737.84691
638.599	38315.62502
638.799	38365.0367
638.999	38698.69831
639.199	38826.45861
639.399	38591.57153
639.599	38865.61807
639.799	38439.16362
639.999	38449.45993
640.199	37659.31982
640.399	37751.85198
640.599	37065.4244
640.799	39110.95703
640.998	38591.57153
641.198	38367.09563
641.398	38577.15247
641.598	38410.33514
641.798	38756.39214
641.997	39005.79534
642.197	39465.80612
642.397	39230.58306
642.597	38845.00741
642.796	39110.95703
642.996	38857.37369
643.196	38847.06843
643.395	38857.37369
643.595	39341.98849
643.795	38845.00741
643.994	39298.66075
644.194	39767.24753
644.394	39490.57397
644.593	39207.89286
644.793	39059.40408
644.992	38919.21013
645.192	39119.20606
645.392	38904.78088
645.591	39273.90399
645.791	39207.89286
645.99	39393.57482
646.19	38651.31229
646.389	38993.42501
646.589	38603.93106
646.788	39323.41893
646.987	39304.85017
647.187	39680.50917
647.386	39139.8293
647.586	39548.37123
647.785	39304.85017
647.984	39579.33732
648.184	39977.97437
648.383	39831.28043
648.582	39829.21469
648.782	39895.32337
648.981	39255.33735
649.18	39325.48217
649.38	39024.35149
649.579	39678.44419
649.778	39230.58306
649.977	39975.90789
650.177	39581.40181
650.376	39661.92474
650.575	39232.64586
650.774	39587.59533
650.973	39143.95406
651.173	39172.8285
651.372	39216.1437
651.571	38877.98491
651.77	39135.70457
651.969	39550.43557
652.168	39110.95703
652.367	39519.47161
652.566	39422.46587
652.765	39794.09882
652.964	39721.81088
653.163	39754.85522
653.362	39474.06191
653.561	39084.14875
653.76	39581.40181
653.959	39255.33735
654.158	39655.73012
654.357	39719.74569
654.556	39176.95357
654.755	39474.06191
654.954	39395.6384
655.153	39214.08098
655.352	39725.94128
655.551	39649.53559
655.749	39146.01646
655.948	39721.81088
656.147	40048.24106
656.346	39701.15951
656.545	39911.85222
656.743	39389.44768
656.942	39461.67829
657.141	40017.23953
657.34	39839.54347
657.538	39525.66422
657.737	39133.64223
657.936	39641.27636
658.135	39666.05454
658.333	40288.06805
658.532	39895.32337
658.731	39944.91194
658.929	39550.43557
659.128	39459.61439
659.326	39901.52161
659.525	40254.97979
659.724	39953.17729
659.922	39649.53559
660.121	39282.15609
660.319	39247.08576
660.518	39438.97592
660.716	39511.21494
660.915	39860.2018
661.113	39932.51423
661.312	39769.31295
661.51	39841.60925
661.709	40126.78906
661.907	39938.71303
662.105	39513.27909
662.304	39703.2246
662.502	40035.84016
662.701	39895.32337
662.899	39341.98849
663.097	39924.24929
663.296	39670.18439
663.494	39754.85522
663.692	39174.89103
663.891	39358.49544
664.089	39523.60001
664.287	39587.59533
664.485	39870.53136
664.684	40288.06805
664.882	39554.56427
665.08	39257.40027
665.278	39823.01755
665.476	39936.64675
665.675	39474.06191
665.873	39610.30569
666.071	39701.15951
666.269	39451.35888
666.467	39469.934
666.665	39011.98064
666.863	38750.21032
667.061	39323.41893
667.259	39701.15951
667.457	40093.71433
667.655	39775.50927
667.853	39150.14128
668.051	38861.49586
668.249	39119.20606
668.447	38669.85408
668.645	38950.13151
668.843	38981.05501
669.041	39280.09305
669.239	38496.82576
669.437	39080.02454
669.635	38913.02611
669.833	39271.84099
670.031	39164.57846
670.229	39100.64596
670.426	39119.20606
670.624	39467.87006
670.822	38974.87014
671.02	39075.90037
671.218	39325.48217
671.415	38665.73362
671.613	39185.20383
671.811	39102.70815
672.009	39465.80612
672.206	39566.95061
672.404	38711.06067
672.602	39465.80612
672.799	39063.5281
672.997	39055.2801
673.195	38816.15405
673.392	38898.59705
673.59	38828.51955
673.788	38688.39659
673.985	38593.63143
674.183	39148.07887
674.38	39220.26918
674.578	39257.40027
674.775	38964.56222
674.973	38560.67409
675.17	38950.13151
675.368	38297.09692
675.565	38935.70127
675.763	38311.5076
675.96	38391.80345
676.158	38272.39388
676.355	38441.22287
676.553	39230.58306
676.75	38822.33676
676.947	39082.08664
677.145	38735.78638
677.342	38622.47098
677.539	38667.79384
677.737	38455.63782
677.934	38505.06378
678.131	38900.65832
678.329	38597.75125
678.526	38818.21495
678.723	38888.29086
678.92	38818.21495
679.118	38257.98434
679.315	38202.40861
679.512	38725.48384
679.709	38785.24175
679.906	38698.69831
680.104	38754.33152
680.301	38181.82658
680.498	37883.48098
680.695	37957.53681
680.892	38237.40001
681.089	38227.10817
681.286	37739.51344
681.483	37334.55278
681.68	38087.16011
681.877	37799.15238
682.075	38406.21693
682.272	37943.13624
682.469	38467.99383
682.665	37758.02136
682.862	37821.7758
683.059	37799.15238
683.256	37663.43202
683.453	37044.8853
683.65	37233.87189
683.847	37221.54482
684.044	37470.19191
684.241	37560.63627
684.438	37753.90843
684.635	37332.49789
684.831	38122.14347
685.028	37470.19191
685.225	37190.7283
685.422	37178.40214
685.619	36946.30737
685.815	37198.94588
686.012	37311.94941
686.209	37291.40167
686.405	37702.49951
686.602	36927.82579
686.799	36917.55849
686.996	37164.02196
687.192	37572.97074
687.389	36911.39819
687.586	37028.45453
687.782	36944.25383
687.979	37161.96767
688.175	36533.68195
688.372	36431.07976
688.568	36821.05419
688.765	36954.52159
688.962	36989.43324
689.158	37022.29311
689.355	37003.80921
689.551	37003.80921
689.748	36652.72055
689.944	37342.77241
690.14	36997.64804
690.337	37100.3425
690.533	36962.73591
690.73	36621.93261
690.926	36886.7576
691.123	36689.66802
691.319	36864.17127
691.515	36839.53257
691.712	36488.53503
691.908	36396.1986
692.104	36572.67496
692.301	36316.1839
692.497	36242.33245
692.693	36810.78865
692.889	36271.05152
693.086	36180.79557
693.282	36457.75481
693.478	35998.26746
693.674	35981.8627
693.87	36667.08876
694.067	36312.08083
694.263	36613.72275
694.459	36123.36598
694.655	36106.95838
694.851	36314.13236
695.047	36548.04752
695.243	36266.94873
695.439	36232.07593
695.635	36125.41696
695.831	36061.83942
696.027	35990.06504
696.224	36106.95838
696.42	36090.55116
696.615	36125.41696
696.811	36299.77178
697.007	36244.38378
697.203	36248.48644
697.399	35639.49496
697.595	35401.7706
697.791	35391.52541
697.987	35405.86871
698.183	35998.26746
698.379	35526.77213
698.575	36240.28114
698.77	35871.14005
698.966	35957.25624
699.162	36014.6726
699.358	35737.88437
699.554	35280.88534
699.749	35815.78486
699.945	35227.61931
700.141	35200.98753
700.337	35231.71658
700.532	35352.59484
700.728	35805.53434
700.924	35188.69621
701.119	35043.26193
701.315	35483.73667
701.511	34912.1863
701.706	34910.13839
701.902	34938.80953
702.097	34844.60765
702.293	34973.62567
702.489	35125.19381
702.684	34963.38549
702.88	35266.54416
703.075	35264.49544
703.271	34615.28521
703.466	34729.93969
703.662	35033.02097
703.857	34826.17795
704.053	35162.06561
704.248	35086.27523
704.443	35168.21106
704.639	35008.44314
704.834	34734.03474
705.03	34656.23172
705.225	34641.90025
705.42	34750.41512
705.616	35057.59947
705.811	34691.03758
706.006	34230.46723
706.202	34899.89891
706.397	35014.58753
706.592	34641.90025
706.787	35018.68382
706.983	34656.23172
707.178	35457.0968
707.373	34963.38549
707.568	34529.30295
707.763	34122.00602
707.959	34797.51023
708.154	34830.2734
708.349	34650.08963
708.544	35096.5168
708.739	35299.32435
708.934	34453.56264
709.129	34955.19343
709.324	34298.00502
709.519	34807.7486
709.714	34232.51377
709.909	34807.7486
710.104	34199.7696
710.299	34076.98742
710.494	34210.00205
710.689	34517.02036
710.884	34560.01006
711.079	34300.05169
711.274	34293.91171
711.469	34453.56264
711.664	33886.70066
711.859	34085.17249
712.054	34261.16571
712.249	33939.89605
712.443	33886.70066
712.638	33943.9881
712.833	33340.55343
713.028	33248.52774
713.223	32837.54822
713.417	33575.75766
713.612	33622.80341
713.807	33937.85003
714.002	33549.16732
714.196	34029.9244
714.391	33258.75252
714.586	33655.53188
714.78	33487.807
714.975	33784.40834
715.17	33215.80889
715.364	33774.17957
715.559	33841.691
715.754	33604.394
715.948	33667.80527
716.143	33571.6668
716.337	33344.6436
716.532	33455.08264
716.726	33403.95237
716.921	33078.80654
717.115	33268.97738
717.31	33450.99214
717.504	33465.30892
717.699	33643.25861
717.893	33540.98578
718.088	33232.16822
718.282	33334.4182
718.476	32667.87083
718.671	32855.94801
718.865	32808.92674
719.059	32823.23742
719.254	32872.30354
719.448	33037.91271
719.642	33211.71909
719.837	32547.26689
720.031	32688.31299
720.225	32743.50805
720.419	32905.01511
720.614	32539.09065
720.808	32639.2522
721.002	32058.79806
721.196	32541.1347
721.39	32463.46213
721.585	32577.92813
721.779	32083.32084
721.973	32692.40146
722.167	32236.59481
722.361	32236.59481
722.555	32263.16349
722.749	32060.84162
722.943	31858.53922
723.137	31897.36348
723.331	32109.88751
723.525	32297.90768
723.719	31756.37331
723.913	32232.50735
724.107	31825.84563
724.301	32420.53922
724.495	31782.936
724.689	31817.6723
724.883	31964.79671
725.077	32232.50735
725.271	31586.7878
725.465	31441.73006
725.659	31737.98393
725.853	31597.00345
726.046	31480.5475
726.24	31212.92325
726.434	31176.15255
726.628	31251.7373
726.822	31325.28125
727.015	31529.58092
727.209	31421.30007
727.403	31750.2435
727.596	31889.18989
727.79	31972.97058
727.984	31838.10567
728.177	31713.46498
728.371	31615.39174
728.565	31958.66633
728.758	31545.9256
728.952	31686.90308
729.146	31774.76283
729.339	32107.8439
729.533	31468.2893
729.726	31445.81608
729.92	31402.91321
730.113	31535.71016
730.307	31578.6153
730.5	31247.65158
730.694	31686.90308
730.887	31114.86913
731.081	31433.55804
731.274	31266.03735
731.468	30297.8764
731.661	30724.7285
731.854	30816.64187
732.048	31102.61261
732.241	31310.98088
732.435	31411.08513
732.628	31746.15697
732.821	31341.62463
733.014	31239.48017
733.208	30783.96125
733.401	31364.09694
733.594	31094.44163
733.788	31347.75342
733.981	31347.75342
734.174	31411.08513
734.367	31780.89271
734.56	31435.60104
734.754	30971.87967
734.947	30926.94158
735.14	30751.28097
735.333	31345.71049
735.526	31176.15255
735.719	30479.63922
735.912	30967.79436
736.105	30922.85633
736.298	31182.28096
736.491	30961.66641
736.684	31024.98921
736.877	31018.86114
737.07	31057.67249
737.263	30920.81371
737.456	30937.15472
737.649	30773.74863
737.842	31033.16
738.035	31268.08023
738.228	30837.06744
738.421	30951.45318
738.614	30794.17391
738.807	30949.41054
739	30810.51423
739.192	30571.54552
739.385	31055.62977
739.578	30765.57855
739.771	31329.36709
739.964	31098.52712
740.156	31024.98921
740.349	31088.31341
740.542	30773.74863
740.735	30653.2422
740.927	30510.27437
741.12	30837.06744
741.313	30634.86026
741.505	30759.45101
741.698	30602.18153
741.891	30779.8762
742.083	30694.09132
742.276	31047.45893
742.468	30596.05431
742.661	30040.56549
742.854	30179.42938
743.046	29742.43426
743.239	30420.41206
743.431	31047.45893
743.624	30259.07435
743.816	30540.9098
744.009	30265.20096
744.201	30042.60757
744.393	30003.80829
744.586	29952.75724
744.778	30330.55215
744.971	30032.39719
745.163	30549.0793
745.355	30285.62307
745.548	30036.48134
745.74	30312.172
745.932	30459.21594
746.125	30279.49643
746.317	30036.48134
746.509	29423.90879
746.702	29511.70488
746.894	29268.73906
747.086	29142.15769
747.278	29321.82276
747.471	29664.84231
747.663	29856.78316
747.855	29481.07811
748.047	29401.44963
748.239	29409.61658
748.431	29528.03925
748.623	29901.70689
748.815	29385.11579
749.008	29881.28695
749.2	29121.74172
749.392	29244.23912
749.584	28893.08989
749.776	28829.80463
749.968	29158.49055
750.16	29150.32411
750.352	29140.11609
750.544	28954.33464
750.736	29015.58032
750.928	29278.9474
751.12	29136.03289
751.311	29342.23975
751.503	29111.53377
751.695	29258.53073
751.887	28909.42173
752.079	28960.45916
752.271	28768.56178
752.463	28880.84105
752.654	29011.49725
752.846	28982.91584
753.038	28646.07891
753.23	28656.28567
753.421	28684.86474
753.613	28713.44402
753.805	28646.07891
753.997	28290.90007
754.188	28470.52672
754.38	27911.26258
754.572	28154.1445
754.763	28062.29652
754.955	27609.21373
755.146	28413.37188
755.338	28325.60002
755.53	28382.75357
755.721	28099.03544
755.913	28611.37611
756.104	28015.35288
756.296	27866.3618
756.487	27794.9299
756.679	28015.35288
756.87	28184.76099
757.062	27784.72546
757.253	27999.02479
757.445	28190.88432
757.636	27996.98379
757.827	28458.27918
758.019	28366.4239
758.21	28160.26778
758.401	27905.13971
758.593	27778.60281
758.784	27568.39833
758.975	27264.33929
759.167	27425.5483
759.358	27672.47857
759.549	27621.45845
759.74	27162.31249
759.932	27370.45065
760.123	27027.64225
760.314	27099.05754
760.505	26882.77646
760.696	26711.39531
760.888	27046.00602
761.079	27119.46222
761.27	27174.55553
761.461	27348.00373
761.652	27562.27606
761.843	27364.32875
762.034	27015.39979
762.225	26739.95812
762.416	26946.02684
762.607	26637.94946
762.798	26684.87298
762.989	26805.24561
763.18	26819.52745
763.371	26327.86699
763.562	26654.27059
763.753	26768.52121
763.944	26682.83281
764.135	26399.26428
764.326	26505.34393
764.517	26382.94473
764.708	26331.94678
764.899	26030.06049
765.089	26034.13978
765.28	26199.35697
765.471	25979.06995
765.662	25793.47402
765.853	25701.70155
766.043	25175.61772
766.234	25377.47079
766.425	25092.02825
766.615	25334.65172
766.806	25746.56761
766.997	25766.96158
767.187	25563.03061
767.378	25603.81524
767.569	25691.50485
767.759	25852.61832
767.95	26113.68737
768.141	26070.85372
768.331	25801.63176
768.522	25350.96364
768.712	25544.67779
768.903	25552.83458
769.093	25534.48185
769.284	25138.91944
769.474	25605.85449
769.665	25120.57057
769.855	25220.47213
770.046	25257.17198
770.236	24835.16739
770.426	24908.55246
770.617	25760.84337
770.807	25242.89973
770.998	25393.78306
771.188	25249.0164
771.378	24941.16901
771.569	25000.28804
771.759	24745.47871
771.949	24492.74523
772.139	24928.93773
772.33	23928.31634
772.52	24527.3919
772.71	24221.71194
772.9	23954.80106
773.09	24072.96946
773.281	24388.80969
773.471	24044.44519
773.661	24305.25858
773.851	24339.90119
774.041	24321.56089
774.231	24160.58313
774.421	23630.90639
774.611	23577.94963
774.802	23765.34421
774.992	23520.92157
775.182	23567.76587
775.372	24156.50796
775.562	23877.38556
775.752	24038.33292
775.942	23789.78884
776.131	24309.33414
776.321	24077.0444
776.511	24189.1096
776.701	23997.58508
776.891	23964.98762
777.081	23999.62244
777.271	23889.60878
777.461	23802.01132
777.651	23883.49716
777.84	23802.01132
778.03	23694.04981
778.22	23343.74277
778.41	23467.96911
778.599	23191.02166
778.789	23280.61586
778.979	23382.43497
779.169	23203.23868
779.358	23026.1034
779.548	23211.38343
779.738	23262.28927
779.927	23353.92482
780.117	23325.41529
780.307	22836.77981
780.496	22806.2465
780.686	23036.28292
780.875	22637.30959
781.065	22842.88656
781.254	22596.60551
781.444	22759.43026
781.633	22771.64301
781.823	22639.34483
782.012	22539.62217
782.202	22533.51698
782.391	22429.73364
782.581	22370.72378
782.77	21974.01383
782.96	22338.16792
783.149	21906.89244
783.338	22268.98983
783.528	22146.92125
783.717	22301.54369
783.906	22114.3719
784.096	21817.40375
784.285	22059.44703
784.474	22505.02651
784.663	22458.22226
784.853	22128.61212
785.042	21705.55341
785.231	21740.12408
785.42	21878.41796
785.61	21636.41546
785.799	21420.89697
785.988	21770.62854
786.177	20870.1071
786.366	21327.38399
786.555	21723.85539
786.744	21601.84818
786.933	21654.71624
787.122	22014.69547
787.312	22041.13936
787.501	21673.01734
787.69	21402.60029
787.879	21445.29305
788.068	21120.05956
788.257	20677.09709
788.445	20478.03137
788.634	20957.48179
788.823	21046.89632
789.012	21276.56529
789.201	21394.46853
789.39	20861.97961
789.579	20827.43851
789.768	20868.07522
789.957	20801.02553
790.145	20772.58157
790.334	20502.40461
790.523	20518.65377
790.712	20520.68493
790.9	20559.27784
791.089	20587.71569
791.278	20731.94876
791.467	20837.59753
791.655	21006.25237
791.844	20754.2966
792.033	20400.85343
792.221	20272.91387
792.41	20508.49801
792.599	20161.23424
792.787	20307.4356
792.976	20561.30909
793.164	20404.91528
793.353	20234.3322
793.541	20461.78288
793.73	20443.50365
793.918	20471.93816
794.107	20112.50529
794.295	20171.38641
794.484	19903.40442
794.672	19734.9381
794.861	19897.31477
795.049	20374.45184
795.238	20112.50529
795.426	20547.09045
795.614	20222.14883
795.803	20130.77836
795.991	19789.73722
796.179	20130.77836
796.368	20039.41642
796.556	19724.79045
796.744	19333.17091
796.932	19355.48703
797.121	19410.2651
797.309	19521.8594
797.497	20149.05178
797.685	19984.60334
797.874	19728.8495
798.062	19667.96554
798.25	19473.16216
798.438	19489.39431
798.626	19394.03425
798.814	19430.55404
799.002	19294.62605
799.19	19292.59742
799.378	19047.1628
799.566	19128.29159
799.755	19134.37651
799.943	18992.40454
800.131	19574.61746
800.318	19353.45827
800.506	19389.97657
800.694	19223.62626
800.882	18992.40454
801.07	19385.91892
801.258	18915.34235
801.446	19154.65985
801.634	19252.02557
801.822	19398.09193
802.01	19410.2651
802.197	19249.99702
802.385	19189.14246
802.573	19387.94775
802.761	19422.43841
802.949	19688.25978
803.136	19166.83005
803.324	19075.55714
803.512	18809.89821
803.699	18807.87054
803.887	18732.84968
804.075	19191.17089
804.262	18753.12505
804.45	18935.62131
804.638	19187.11404
804.825	19254.05413
805.013	18945.76094
805.201	19260.13981
805.388	19140.46147
805.576	19325.05608
805.763	19440.69866
805.951	19122.20671
806.138	19227.68326
806.326	19412.29397
806.513	18878.84123
806.701	19154.65985
806.888	19069.47257
807.075	19505.62672
807.263	19211.45537
807.45	19434.61188
807.638	18921.426
807.825	19270.2827
808.012	18959.9566
808.2	18763.26289
808.387	19085.69817
808.574	19247.96848
808.761	19217.5408
808.949	19179.0004
809.136	19166.83005
809.323	19118.15014
809.51	19172.9152
809.698	19278.39708
809.885	18935.62131
810.072	19554.32557
810.259	19243.9114
810.446	18629.45139
810.633	18714.60218
810.82	18528.09037
811.008	18818.00891
811.195	18548.3618
811.382	18489.57571
811.569	19168.85843
811.756	18667.97113
811.943	18742.98732
812.13	18984.29246
812.317	19110.03705
812.504	18976.18044
812.691	19187.11404
812.878	19016.74118
813.064	19446.78549
813.251	19037.02216
813.438	19209.42691
813.625	18935.62131
813.812	18970.09647
813.999	18801.78757
814.186	18530.11749
814.372	18416.60437
814.559	18524.03613
814.746	18264.5965
814.933	17950.51256
815.12	18297.02308
815.306	18126.79411
815.493	18491.60277
815.68	18623.36945
815.866	18242.30378
816.053	18594.98755
816.24	18347.69152
816.426	18509.84641
816.613	18684.19039
816.799	18475.38645
816.986	18635.53336
817.173	18738.93225
817.359	18578.76967
817.546	18824.09198
817.732	18493.62982
817.919	18469.3054
818.105	18380.12055
818.292	18248.38357
818.478	18256.49001
818.665	18459.17039
818.851	18380.12055
819.037	18294.99639
819.224	18264.5965
819.41	18205.82575
819.597	18157.19024
819.783	18584.85135
819.969	18536.19889
820.156	18461.19738
820.342	18592.9603
820.528	18347.69152
820.714	18339.58441
820.901	18722.71214
821.087	18297.02308
821.273	18515.9277
821.459	18513.9006
821.646	18882.89685
821.832	18392.28169
822.018	18254.46339
822.204	17656.76868
822.39	17587.90102
822.576	17340.81804
822.762	17462.32842
822.948	17448.15164
823.134	17820.85123
823.32	17478.53065
823.507	17794.5155
823.693	17705.38344
823.879	17608.15582
824.065	17537.26543
824.25	17743.87148
824.436	17537.26543
824.622	17699.30649
824.808	17448.15164
824.994	17754.00012
825.18	17624.3599
825.366	17863.39479
825.552	17545.36699
825.738	17754.00012
825.923	17713.48608
826.109	17991.03467
826.295	17563.59569
826.481	17920.12191
826.667	17754.00012
826.852	17869.47257
827.038	17681.07582
827.224	17784.38653
827.409	17786.41232
827.595	17699.30649
827.781	17314.49224
827.966	17502.83438
828.152	16820.4665
828.338	17379.29513
828.523	16719.25105
828.709	17174.77138
828.894	16609.945
829.08	16814.3934
829.266	16818.44213
829.451	17033.03952
829.637	16472.30959
829.822	16622.08979
830.008	16383.25651
830.193	16909.54123
830.378	16421.71078
830.564	16484.45349
830.749	16561.36666
830.935	16721.2753
831.12	16686.86337
831.305	17079.60706
831.491	16409.56725
831.676	16913.5902
831.861	16709.12983
832.047	16692.93601
832.232	16767.83371
832.417	16828.564
832.602	16731.39658
832.788	16569.46296
832.973	16694.96023
833.158	16605.89676
833.343	16108.02435
833.528	16363.01771
833.714	16061.48079
833.899	16571.48704
834.084	16239.56508
834.269	16282.0644
834.454	16375.16097
834.639	16225.39882
834.824	16197.06654
835.009	16332.65987
835.194	16075.64614
835.379	16217.30384
835.564	15820.6803
835.749	16395.39989
835.934	16057.43356
836.119	16243.6126
836.304	15942.08998
836.489	16047.31552
836.674	15867.22016
836.859	15921.85472
837.044	15927.92529
837.228	16010.89087
837.413	15721.5321
837.598	16099.92976
837.783	15826.75068
837.968	15642.61992
838.152	15329.00524
838.337	15409.93683
838.522	15320.91211
838.707	15563.70901
838.891	15381.61071
839.076	15282.46981
839.261	14995.1649
839.445	15395.77376
839.63	15664.87706
839.815	15517.17233
839.999	15482.77587
840.184	15583.94247
840.368	15472.6593
840.553	15355.30794
840.737	15209.63195
840.922	15567.7557
841.106	15205.58541
841.291	15300.67931
841.475	15074.07276
841.66	15331.02852
841.844	14819.13756
842.029	15231.88794
842.213	15003.25803
842.397	14999.21147
842.582	14554.07445
842.766	14319.34489
842.951	14307.20313
843.135	14756.41409
843.319	14400.2884
843.504	14390.1706
843.688	14404.3355
843.872	14740.22726
844.056	15019.44429
844.241	15068.00294
844.425	14928.39634
844.609	14819.13756
844.793	14813.06758
844.977	14724.04039
845.161	14400.2884
845.346	14602.63691
845.53	14487.2999
845.714	14655.24553
845.898	14062.32948
846.082	14274.8248
846.266	14284.94308
846.45	14323.39213
846.634	14189.82939
846.818	14325.41574
847.002	14080.54429
847.186	14181.73441
847.37	13957.08458
847.554	14622.87108
847.738	13989.46834
847.922	14473.13542
848.106	14687.61971
848.29	14503.4878
848.473	14076.49657
848.657	14023.87538
848.841	14029.94714
849.025	13975.30052
849.209	13720.25711
849.392	13635.23205
849.576	13700.01357
849.76	13619.03613
849.944	13392.26936
850.127	13621.06064
850.311	13576.52083
850.495	13987.44437
850.678	13558.29951
850.862	13983.39643
851.046	13655.47663
851.229	13938.86843
851.413	13600.81547
851.596	13841.71197
851.78	13367.97009
851.964	13446.94064
852.147	13519.83134
852.331	13388.21952
852.514	13112.79085
852.698	13282.918
852.881	13301.14407
853.065	13448.96544
853.248	13291.01852
853.431	13317.34473
853.615	13027.71499
853.798	13049.99759
853.982	12977.07047
854.165	12810.93364
854.348	12713.66569
854.532	12975.04462
854.715	12764.32772
854.898	12861.58893
855.081	12729.87793
855.265	12806.88107
855.448	12395.42115
855.631	12735.95742
855.814	12717.71878
855.997	12968.96706
856.181	12612.3306
856.364	12849.43197
856.547	12545.4411
856.73	12735.95742
856.913	12796.74955
857.096	12628.54522
857.279	12158.151
857.462	12068.8953
857.645	12178.43436
857.828	12257.53242
858.011	12257.53242
858.194	12383.25578
858.377	12362.97962
858.56	12358.92431
858.743	12265.64442
858.926	12245.36421
859.109	11930.92502
859.292	12322.42525
859.475	11906.57347
859.658	11993.8278
859.841	11693.44563
860.023	11496.46914
860.206	11595.98355
860.389	11819.30393
860.572	11423.342
860.755	11606.13682
860.937	11524.90412
861.12	11504.59361
861.303	11378.647
861.486	11583.79931
861.668	11250.63004
861.851	11323.78749
862.034	11453.81316
862.216	11514.74898
862.399	11116.47318
862.581	11191.68796
862.764	10990.40449
862.947	11167.29557
863.129	11067.67737
863.312	11059.54413
863.494	11244.53299
863.677	11075.81044
863.859	11453.81316
864.042	11508.65579
864.224	11398.9635
864.406	11240.46824
864.589	11102.24171
864.771	10986.33705
864.954	10668.9354
865.136	10752.38276
865.318	10271.7633
865.501	10660.7931
865.683	10473.4655
865.865	10687.25485
866.048	10339.01173
866.23	10432.72793
866.412	10542.70764
866.594	10432.72793
866.777	10589.53963
866.959	10668.9354
867.141	10595.64767
867.323	10693.36112
867.505	10449.02358
867.687	10286.02934
867.869	10469.39198
868.052	10558.99778
868.234	10636.36504
868.416	10644.50793
868.598	10583.43149
868.78	10534.56227
868.962	10603.79154
869.144	10701.50264
869.326	10385.8733
869.508	10489.75909
869.69	10328.82351
869.872	10326.78583
870.054	10453.09736
870.236	10343.08693
870.417	10029.13765
870.599	10412.3572
870.781	9982.22064
870.963	10104.59701
871.145	10023.01847
871.327	10432.72793
871.508	10071.96831
871.69	10273.80134
871.872	10206.53867
872.054	10398.09691
872.235	9943.45736
872.417	10010.77972
872.599	9939.37671
872.78	10294.18106
872.962	10173.92111
873.144	10139.26107
873.325	10041.37562
873.507	10216.73094
873.689	9653.58329
873.87	9933.25562
874.052	9698.51334
874.233	9943.45736
874.415	10049.53398
874.596	10112.75363
874.778	9872.03752
874.959	9933.25562
875.141	10057.69212
875.322	10090.3224
875.503	10055.65261
875.685	10228.96121
875.866	10076.0471
876.048	10145.37784
876.229	9888.36364
876.41	10029.13765
876.592	9790.39264
876.773	10002.62027
876.954	9635.20065
877.136	10004.66016
877.317	9831.21806
877.498	9849.58755
877.679	9739.35238
877.86	9763.85289
878.042	9698.51334
878.223	9910.81052
878.404	9708.72367
878.585	9743.43595
878.766	9559.61431
878.947	9878.15993
879.128	9686.26043
879.309	9927.13441
879.49	9563.70061
879.672	9929.17483
879.853	9955.69896
880.034	10159.64981
880.215	9959.77938
880.396	10216.73094
880.576	10059.73162
880.757	9986.30068
880.938	9898.56699
881.119	10208.57715
881.3	10053.61308
881.481	10096.44018
881.662	10283.99137
881.843	10188.19172
882.023	10394.02243
882.204	10167.80492
882.385	10074.00771
882.566	9778.14384
882.747	9767.93609
882.927	9974.06038
883.108	9731.18506
883.289	10147.41673
883.469	9982.22064
883.65	10071.96831
883.831	9686.26043
884.011	9916.93209
884.192	9912.85106
884.373	10210.61562
884.553	10131.10519
884.734	10061.7711
884.914	10131.10519
885.095	10127.02716
885.275	10025.05821
885.456	10310.48387
885.636	10124.98812
885.817	10440.87585
885.997	10118.87094
886.178	10175.95981
886.358	10110.71449
886.538	10247.30569
886.719	9972.02028
886.899	10243.22923
887.08	9857.75139
887.26	9955.69896
887.44	9808.76482
887.621	10204.50017
887.801	9847.54656
887.981	9953.65873
888.161	9837.34136
888.342	9910.81052
888.522	10008.73988
888.702	10202.46166
888.882	10212.65407
889.062	10188.19172
889.242	9884.2822
889.423	9947.53795
889.603	10018.93894
889.783	9951.61849
889.963	9890.40434
890.143	9927.13441
890.323	9694.42909
890.503	9976.10047
890.683	9869.99669
890.863	9690.34479
891.043	9379.7539
891.223	9918.97258
891.403	9827.13579
891.583	9925.09397
891.763	9737.31058
891.943	9890.40434
892.122	9600.47446
892.302	9906.7294
892.482	9727.10131
892.662	9776.10232
892.842	9763.85289
893.022	9829.17694
893.201	9947.53795
893.381	10120.91001
893.561	9882.24146
893.741	10047.49441
893.92	9735.26875
894.1	10053.61308
894.28	9904.68882
894.459	9998.54046
894.639	9698.51334
894.819	9861.83321
894.998	9631.11545
895.178	9767.93609
895.357	9445.17212
895.537	9645.41338
895.716	9592.30293
895.896	9592.30293
896.075	9479.91881
896.255	9545.31177
896.434	9324.54424
896.614	9545.31177
896.793	9637.24323
896.973	9761.81126
897.152	9537.13854
897.331	9610.68851
897.511	9602.5173
897.69	9518.74785
897.87	9443.12805
898.049	9283.64043
898.228	9396.11002
898.407	9304.09317
898.587	9328.63426
898.766	9690.34479
898.945	9422.68649
899.124	9312.27379
899.304	9404.28769
899.483	9763.85289
899.662	9557.57114
899.841	9488.09382
900.02	9126.09804
900.199	9173.16668
900.378	8765.61444
900.557	8855.78704
900.737	8851.68905
900.916	9013.50563
901.095	8755.36533
901.274	8974.59781
901.453	8765.61444
901.632	8769.71396
901.811	8825.05032
901.989	8708.21351
902.168	8679.50764
902.347	9017.60082
902.526	8904.95739
902.705	8747.16571
902.884	8609.77825
903.063	8970.50188
903.242	8734.86573
903.42	8978.69367
903.599	8355.28606
903.778	8330.6421
903.957	8205.32507
904.135	8472.3068
904.314	8260.80229
904.493	8427.14831
904.672	8260.80229
904.85	8316.26517
905.029	8299.83321
905.207	8546.1826
905.386	8266.96554
905.565	8322.42683
905.743	8240.25685
905.922	8275.18293
906.1	8303.94132
906.279	8441.51793
906.457	8310.10333
906.636	8507.19566
906.814	8297.77913
906.993	8223.81907
907.171	7938.00821
907.35	8151.88889
907.528	8061.42762
907.707	7763.03731
907.885	7666.2239
908.063	7954.46838
908.242	7754.79968
908.42	7919.48895
908.598	7585.85389
908.777	7905.08393
908.955	7878.32908
909.133	8079.93423
909.311	7740.38302
909.49	7824.80887
909.668	7604.40369
909.846	7750.68074
910.024	7501.32731
910.202	7392.00753
910.38	7144.26413
910.559	7195.90354
910.737	7152.52737
910.915	7534.31758
911.093	7284.69097
911.271	7453.89412
911.449	6968.58577
911.627	7071.94558
911.805	7030.60839
911.983	7049.21124
912.161	6645.73892
912.339	7067.81226
912.517	6995.46472
912.695	7111.20761
912.872	6852.75581
913.05	7183.51135
913.228	6796.88378
913.406	6949.97502
913.584	6598.09257
913.762	6865.16956
913.939	6622.95306
914.117	6506.90897
914.295	6589.805
914.473	6865.16956
914.65	6604.308
914.828	6579.44502
915.006	6444.71261
915.184	6726.50274
915.361	6533.85424
915.539	6589.805
915.716	6270.45131
915.894	6575.30087
916.072	6332.70639
916.249	6631.23915
916.427	6421.90204
916.604	6641.59624
916.782	6287.05472
916.959	6627.09615
917.137	6678.87702
917.314	6680.94796
917.492	6274.6023
917.669	6170.79934
917.847	5925.5914
918.024	6079.40418
918.201	5992.12087
918.379	6316.1071
918.556	5996.27816
918.733	6201.94638
918.911	5692.54802
919.088	6058.62621
919.265	5890.2378
919.442	5888.15797
919.62	5680.0552
919.797	5919.35303
919.974	5602.99737
920.151	6116.79861
920.328	5779.97398
920.506	5960.93819
920.683	5813.26816
920.86	5792.46001
921.037	5363.2874
921.214	5602.99737
921.391	5217.22499
921.568	5484.2235
921.745	5659.23194
921.922	5617.57835
922.099	5434.19056
922.276	5509.23488
922.453	5254.79485
922.63	5346.60036
922.807	5133.70939
922.984	5200.52485
923.161	5117.0018
923.338	5142.06262
923.514	4862.02777
923.691	4926.84872
923.868	4734.41287
924.045	5054.33512
924.222	4675.80731
924.399	4983.2877
924.575	4673.71393
924.752	4995.82742
924.929	4780.44766
925.105	4893.39549
925.282	4675.80731
925.459	5002.09697
925.635	4832.74659
925.812	5050.1566
925.989	4679.99401
926.165	4638.123
926.342	4501.98053
926.518	4740.69099
926.695	4416.05798
926.871	4761.61657
927.048	4281.86175
927.224	4361.55147
927.401	3996.40528
927.577	4197.94438
927.754	4097.19883
927.93	4237.80938
928.107	4053.10751
928.283	4212.63237
928.459	4036.30842
928.636	4279.76423
928.812	3912.37461
928.988	4174.86114
929.165	3807.29105
929.341	4130.78605
929.517	3721.08576
929.693	3805.18887
929.87	3674.81585
930.046	3843.02504
930.222	3805.18887
930.398	4036.30842
930.574	3554.89202
930.751	3676.91923
930.927	3298.01374
931.103	3700.05513
931.279	3392.79467
931.455	3607.4977
931.631	3338.03664
931.807	3735.80605
931.983	3333.82399
932.159	3535.95114
932.335	3260.09163
932.511	3567.51844
932.687	3325.3985
932.863	3489.64495
933.039	3072.50909
933.215	3523.32305
933.391	3245.34267
933.566	3327.5049
933.742	2948.08766
933.918	2920.66574
934.094	2709.64781
934.27	2933.32232
934.445	2705.42607
934.621	2791.96119
934.797	2437.24492
934.973	2572.41531
935.148	2316.82164
935.324	2500.61181
935.5	2228.06845
935.675	2365.41746
935.851	2151.9819
936.027	2257.65464
936.202	2037.83285
936.378	2149.86823
936.553	1930.00698
936.729	1997.66436
936.904	1771.41342
937.08	1910.97725
937.255	1568.38296
937.431	1767.18392
937.606	1521.8524
937.782	1555.69287
937.957	1327.2687
938.133	1578.958
938.308	1160.19102
938.483	1397.06455
938.659	1090.40563
938.834	1251.12988
939.009	1174.99458
939.185	1244.78512
939.36	1075.60333
939.535	1141.15816
939.71	1048.11404
939.886	1100.97885
940.061	760.60439
940.236	836.69512
940.411	800.76185
940.586	773.28531
940.761	671.84861
940.937	781.73945
941.112	646.49347
941.287	737.357
941.462	642.26777
941.637	840.92273
941.812	646.49347
941.987	711.99765
942.162	593.67589
942.337	635.92933
942.512	638.04213
942.687	616.91466
942.862	460.61277
943.037	559.87685
943.212	511.29683
943.386	629.59099
943.561	509.18483
943.736	475.39473
943.911	426.82825
944.086	498.62502
944.26	447.94311
944.435	585.22581
944.61	464.83611
944.785	456.38949
944.959	414.16009
945.134	466.9478
945.309	469.05951
945.483	426.82825
945.658	458.50112
945.833	616.91466
946.007	490.17744
946.182	481.73009
946.357	523.96917
946.531	515.52089
946.706	405.71498
946.88	466.9478
947.055	523.96917
947.229	574.66351
947.404	545.09085
947.578	549.31535
947.752	581.00085
947.927	494.4012
948.101	426.82825
948.276	591.56335
948.45	424.71685
948.624	557.76452
948.799	500.73695
948.973	523.96917
949.147	523.96917
949.321	498.62502
949.496	509.18483
949.67	602.12617
949.844	612.68931
950.018	523.96917
950.193	540.8664
950.367	583.11332
950.541	466.9478
950.715	549.31535
950.889	433.16254
951.063	589.45082
951.237	549.31535
951.411	635.92933
951.585	504.96086
951.759	690.86607
951.933	587.33831
952.107	705.65806
952.281	608.46402
952.455	646.49347
952.629	553.53991
952.803	678.18766
952.977	625.3655
953.151	591.56335
953.325	536.64201
953.499	642.26777
953.672	540.8664
953.846	646.49347
954.02	502.8489
954.194	629.59099
954.368	521.85708
954.541	650.7192
954.715	540.8664
954.889	669.73562
955.062	536.64201
955.236	614.80198
955.41	553.53991
955.583	779.6259
955.757	589.45082
955.93	676.07463
956.104	583.11332
956.278	714.11087
956.451	532.41767
956.625	623.25277
956.798	523.96917
956.972	591.56335
957.145	633.81654
957.319	661.28376
957.492	509.18483
957.665	644.38061
957.839	536.64201
958.012	752.15065
958.185	600.01358
958.359	616.91466
958.532	507.07284
958.705	578.88839
958.879	564.10154
959.052	557.76452
959.225	523.96917
959.398	667.62264
959.572	523.96917
959.745	591.56335
959.918	458.50112
960.091	612.68931
960.264	500.73695
960.438	566.21391
960.611	502.8489
960.784	669.73562
960.957	526.08127
961.13	600.01358
961.303	532.41767
961.476	547.20309
961.649	424.71685
961.822	557.76452
961.995	540.8664
962.168	625.3655
962.341	511.29683
962.514	568.32629
962.686	401.49252
962.859	523.96917
963.032	490.17744
963.205	633.81654
963.378	426.82825
963.551	452.16626
963.723	490.17744
963.896	498.62502
964.069	466.9478
964.242	652.83209
964.414	534.52983
964.587	507.07284
964.76	363.49336
964.932	388.82553
965.105	380.38121
965.278	481.73009
965.45	363.49336
965.623	481.73009
965.795	422.60547
965.968	481.73009
966.14	431.05109
966.313	502.8489
966.485	443.72001
966.658	540.8664
966.83	390.93666
967.003	435.274
967.175	298.06345
967.348	395.15895
967.52	447.94311
967.692	494.4012
967.865	433.16254
968.037	507.07284
968.209	355.04985
968.382	517.63294
968.554	405.71498
968.726	532.41767
968.898	452.16626
969.071	407.82623
969.243	323.38914
969.415	431.05109
969.587	249.52996
969.759	363.49336
969.932	319.16801
970.104	321.27857
970.276	338.16365
970.448	431.05109
970.62	350.82819
970.792	346.60661
970.964	382.49226
971.136	333.94227
971.308	342.38509
971.48	382.49226
971.652	365.60428
971.824	314.94696
971.996	365.60428
972.168	350.82819
972.339	255.85985
972.511	312.83645
972.683	279.07091
972.855	331.83161
973.027	236.87069
973.199	342.38509
973.37	179.9128
973.542	293.84276
973.714	346.60661
973.886	333.94227
974.057	163.03922
974.229	338.16365
974.401	287.51185
974.572	300.17382
974.744	196.78769
974.915	340.27436
975.087	264.29997
975.259	338.16365
975.43	289.62213
975.602	230.54133
975.773	209.44471
975.945	295.95309
976.116	295.95309
976.288	329.72097
976.459	245.31013
976.63	289.62213
976.802	241.09037
976.973	194.67826
977.145	186.24073
977.316	238.98052
977.487	213.66387
977.659	156.71198
977.83	177.80353
978.001	266.41005
978.172	146.16698
978.344	226.32184
978.515	238.98052
978.686	331.83161
978.857	152.49392
979.028	205.22562
979.2	211.55428
979.371	182.02209
979.542	219.99277
979.713	205.22562
979.884	182.02209
980.055	245.31013
980.226	253.74986
980.397	211.55428
980.568	158.82104
980.739	217.88312
980.91	182.02209
981.081	264.29997
981.252	205.22562
981.423	89.23331
981.594	253.74986
981.765	135.62252
981.936	127.18734
982.106	255.85985
982.277	207.33515
982.448	135.62252
982.619	175.69428
982.79	179.9128
982.96	241.09037
983.131	228.43158
983.302	230.54133
983.472	182.02209
983.643	148.27594
983.814	167.25749
983.984	114.5352
984.155	163.03922
984.326	160.93012
984.496	148.27594
984.667	203.11611
984.837	110.318
985.008	87.12496
985.178	133.51369
985.349	186.24073
985.519	177.80353
985.69	127.18734
985.86	144.05805
986.031	72.36716
986.201	61.82655
986.371	120.86117
986.542	171.47585
986.712	146.16698
986.882	125.07859
987.053	219.99277
987.223	141.94913
987.393	133.51369
987.563	148.27594
987.734	106.10089
987.904	127.18734
988.074	203.11611
988.244	150.38492
988.414	103.99236
988.585	137.73137
988.755	160.93012
988.925	139.84024
989.095	114.5352
989.265	82.90833
989.435	144.05805
989.605	163.03922
989.775	110.318
989.945	131.40488
990.115	101.88386
990.285	108.20943
990.455	106.10089
990.625	108.20943
990.795	112.42659
990.965	163.03922
991.134	135.62252
991.304	106.10089
991.474	70.25899
991.644	108.20943
991.814	110.318
991.984	57.61047
992.153	63.93463
992.323	152.49392
992.493	137.73137
992.662	89.23331
992.832	165.14835
993.002	127.18734
993.171	101.88386
993.341	68.15085
993.511	120.86117
993.68	110.318
993.85	173.58505
994.019	135.62252
994.189	68.15085
994.358	137.73137
994.528	-30.90556
994.697	110.318
994.867	106.10089
995.036	80.80005
995.206	76.58356
995.375	101.88386
995.544	9.13219
995.714	80.80005
995.883	141.94913
996.052	85.01664
996.222	53.39447
996.391	118.75249
996.56	72.36716
996.73	17.5623
996.899	68.15085
997.068	110.318
997.237	47.07066
997.406	72.36716
997.576	97.66692
997.745	-3.51226
997.914	139.84024
998.083	74.47535
998.252	19.66988
998.421	95.55848
998.59	106.10089
998.759	120.86117
998.928	72.36716
999.097	42.8549
999.266	53.39447
999.435	51.28651
999.604	21.7775
999.773	-16.15583
999.942	89.23331
1000.111	51.28651
1000.28	61.82655
1000.448	9.13219
1000.617	53.39447
1000.786	61.82655
1000.955	30.20817
1001.124	91.34168
1001.292	59.7185
1001.461	78.6918
1001.63	21.7775
1001.798	55.50246
1001.967	21.7775
1002.136	25.99279
1002.304	76.58356
1002.473	93.45007
1002.642	82.90833
1002.81	53.39447
1002.979	63.93463
1003.147	25.99279
1003.316	21.7775
1003.484	68.15085
1003.653	76.58356
1003.821	15.45473
1003.99	144.05805
1004.158	-33.01256
1004.327	101.88386
1004.495	114.5352
1004.663	19.66988
1004.832	9.13219
1005	53.39447
1005.168	34.42366
1005.337	36.53143
1005.505	42.8549
1005.673	42.8549
1005.842	30.20817
1006.01	38.63923
1006.178	-1.40491
1006.346	17.5623
1006.514	76.58356
1006.683	76.58356
1006.851	-51.97449
1007.019	21.7775
1007.187	34.42366
1007.355	106.10089
1007.523	53.39447
1007.691	42.8549
1007.859	30.20817
1008.027	89.23331
1008.195	51.28651
1008.363	4.91728
1008.531	57.61047
1008.699	85.01664
1008.867	95.55848
1009.035	13.34719
1009.203	19.66988
1009.37	2.80986
1009.538	44.96277
1009.706	13.34719
1009.874	25.99279
1010.042	-3.51226
1010.209	25.99279
1010.377	-33.01256
1010.545	51.28651
1010.713	53.39447
1010.88	101.88386
1011.048	-7.72688
1011.216	51.28651
1011.383	76.58356
1011.551	38.63923
1011.718	0.70246
1011.886	80.80005
1012.054	36.53143
1012.221	38.63923
1012.389	32.3159
1012.556	34.42366
1012.724	70.25899
1012.891	51.28651
1013.058	89.23331
1013.226	89.23331
1013.393	0.70246
1013.561	28.10047
1013.728	4.91728
1013.895	32.3159
1014.063	-33.01256
1014.23	85.01664
1014.397	9.13219
1014.565	-7.72688
1014.732	0.70246
1014.899	-30.90556
1015.066	-16.15583
1015.233	19.66988
1015.401	42.8549
1015.568	23.88513
1015.735	87.12496
1015.902	-16.15583
1016.069	59.7185
1016.236	13.34719
1016.403	-20.37016
1016.57	63.93463
1016.737	42.8549
1016.904	44.96277
1017.071	28.10047
1017.238	-56.18797
1017.405	51.28651
1017.572	30.20817
1017.739	2.80986
1017.906	25.99279
1018.073	-41.44034
1018.24	42.8549
1018.407	38.63923
1018.573	34.42366
1018.74	59.7185
1018.907	13.34719
1019.074	34.42366
1019.241	30.20817
1019.407	4.91728
1019.574	21.7775
1019.741	34.42366
1019.907	-11.94141
1020.074	0.70246
1020.241	36.53143
1020.407	-3.51226
1020.574	-5.61958
1020.74	32.3159
1020.907	25.99279
1021.073	21.7775
1021.24	-37.2265
1021.406	-20.37016
1021.573	4.91728
1021.739	0.70246
1021.906	47.07066
1022.072	-16.15583
1022.239	-16.15583
1022.405	28.10047
1022.571	7.02472
1022.738	21.7775
1022.904	17.5623
1023.07	-24.5844
1023.237	30.20817
1023.403	11.23968
1023.569	-5.61958
1023.735	-28.79853
1023.902	30.20817
1024.068	99.77538
1024.234	30.20817
1024.4	38.63923
1024.566	63.93463
1024.732	44.96277
1024.898	30.20817
1025.065	57.61047
1025.231	19.66988
1025.397	34.42366
1025.563	-11.94141
1025.729	-24.5844
1025.895	11.23968
1026.061	38.63923
1026.227	0.70246
1026.392	44.96277
1026.558	74.47535
1026.724	0.70246
1026.89	11.23968
1027.056	17.5623
1027.222	4.91728
1027.388	42.8549
1027.553	21.7775
1027.719	-7.72688
1027.885	53.39447
1028.051	63.93463
1028.216	63.93463
1028.382	0.70246
1028.548	-28.79853
1028.713	25.99279
1028.879	68.15085
1029.045	101.88386
1029.21	76.58356
1029.376	0.70246
1029.541	51.28651
1029.707	42.8549
1029.873	17.5623
1030.038	-30.90556
1030.204	-41.44034
1030.369	25.99279
1030.534	28.10047
1030.7	7.02472
1030.865	34.42366
1031.031	2.80986
1031.196	-14.04863
1031.361	76.58356
1031.527	34.42366
1031.692	-66.72124
1031.857	38.63923
1032.023	51.28651
1032.188	68.15085
1032.353	-11.94141
1032.518	-45.65407
1032.684	28.10047
1032.849	57.61047
1033.014	9.13219
1033.179	-33.01256
1033.344	76.58356
1033.509	-54.08124
1033.674	9.13219
1033.839	114.5352
1034.004	11.23968
1034.17	28.10047
1034.335	-5.61958
1034.5	19.66988
1034.664	34.42366
1034.829	68.15085
1034.994	0.70246
1035.159	-28.79853
1035.324	93.45007
1035.489	15.45473
1035.654	-24.5844
1035.819	91.34168
1035.984	11.23968
1036.148	32.3159
1036.313	-33.01256
1036.478	53.39447
1036.643	55.50246
1036.807	42.8549
1036.972	57.61047
1037.137	9.13219
1037.301	59.7185
1037.466	4.91728
1037.631	-39.33343
1037.795	-1.40491
1037.96	-7.72688
1038.124	59.7185
1038.289	-62.50801
1038.454	9.13219
1038.618	28.10047
1038.783	-37.2265
1038.947	-5.61958
1039.111	0.70246
1039.276	0.70246
1039.44	78.6918
1039.605	89.23331
1039.769	25.99279
1039.933	25.99279
1040.098	-14.04863
1040.262	2.80986
1040.426	49.17857
1040.591	40.74705
1040.755	-30.90556
1040.919	76.58356
1041.083	-7.72688
1041.248	28.10047
1041.412	-9.83416
1041.576	-14.04863
1041.74	59.7185
1041.904	0.70246
1042.068	38.63923
1042.232	-41.44034
1042.397	19.66988
1042.561	25.99279
1042.725	36.53143
1042.889	17.5623
1043.053	-37.2265
1043.217	9.13219
1043.381	-20.37016
1043.544	-49.86771
1043.708	0.70246
1043.872	17.5623
1044.036	-3.51226
1044.2	51.28651
1044.364	40.74705
1044.528	53.39447
1044.691	-14.04863
1044.855	25.99279
1045.019	-14.04863
1045.183	-16.15583
1045.346	17.5623
1045.51	-22.47729
1045.674	-1.40491
1045.837	-3.51226
1046.001	-24.5844
1046.165	40.74705
1046.328	15.45473
1046.492	23.88513
1046.655	-45.65407
1046.819	59.7185
1046.983	-22.47729
1047.146	49.17857
1047.31	-16.15583
1047.473	-39.33343
1047.636	11.23968
1047.8	38.63923
1047.963	42.8549
1048.127	7.02472
1048.29	17.5623
