Data from mixed_try1_USB4F045381__32__00180.txt Node

Date: Thu Apr 03 20:13:14 EDT 2025
User: mmckonesweet
Spectrometer: USB4F04538
Trigger mode: 4
Integration Time (sec): 2.700000E-3
Scans to average: 1
Electric dark correction enabled: true
Nonlinearity correction enabled: true
Boxcar width: 0
XAxis mode: Wavelengths
Number of Pixels in Spectrum: 3648
>>>>>Begin Spectral Data<<<<<
345.52	3.33671
345.736	3.33671
345.952	3.33671
346.168	22.3044
346.384	56.02946
346.6	-5.09275
346.816	9.65906
347.032	39.16618
347.248	34.9506
347.464	15.98162
347.68	9.65906
347.896	-5.09275
348.112	-19.84338
348.328	-74.62077
348.544	3.33671
348.76	22.3044
348.975	-30.3788
349.191	85.54372
349.407	81.32712
349.623	26.51971
349.839	64.46165
350.055	1.22931
350.27	18.08919
350.486	-15.62904
350.702	-21.95051
350.918	47.59764
351.133	-21.95051
351.349	62.35357
351.565	41.27401
351.781	22.3044
351.996	-32.48582
352.212	34.9506
352.428	43.38186
352.644	43.38186
352.859	121.38835
353.075	51.8135
353.291	22.3044
353.506	28.62739
353.722	26.51971
353.938	-32.48582
354.153	20.19678
354.369	22.3044
354.584	47.59764
354.8	-2.98542
355.016	51.8135
355.231	93.97717
355.447	-24.05762
355.662	34.9506
355.878	-13.52183
356.093	53.92147
356.309	60.24551
356.524	26.51971
356.74	28.62739
356.955	-32.48582
357.171	47.59764
357.386	-30.3788
357.602	-53.55456
357.817	-53.55456
358.033	3.33671
358.248	-32.48582
358.464	34.9506
358.679	28.62739
358.895	3.33671
359.11	24.41204
359.325	28.62739
359.541	-57.768
359.756	53.92147
359.972	26.51971
360.187	-11.4146
360.402	79.21886
360.618	-11.4146
360.833	-36.69976
361.048	34.9506
361.264	96.08559
361.479	-40.91361
361.694	26.51971
361.909	58.13747
362.125	9.65906
362.34	37.05838
362.555	26.51971
362.77	-7.20006
362.986	45.48974
363.201	-47.2342
363.416	62.35357
363.631	9.65906
363.847	45.48974
364.062	22.3044
364.277	51.8135
364.492	49.70556
364.707	-13.52183
364.922	-0.87807
365.138	-45.12736
365.353	13.87408
365.568	-7.20006
365.783	-47.2342
365.998	26.51971
366.213	43.38186
366.428	-64.08798
366.643	60.24551
366.858	-5.09275
367.073	18.08919
367.288	3.33671
367.503	26.51971
367.718	28.62739
367.933	-49.34101
368.148	18.08919
368.363	26.51971
368.578	51.8135
368.793	26.51971
369.008	9.65906
369.223	5.44413
369.438	47.59764
369.653	18.08919
369.868	9.65906
370.083	24.41204
370.298	98.19403
370.513	-7.20006
370.728	-24.05762
370.943	-24.05762
371.157	119.27966
371.372	43.38186
371.587	1.22931
371.802	13.87408
372.017	72.8942
372.232	43.38186
372.446	-19.84338
372.661	-45.12736
372.876	26.51971
373.091	24.41204
373.306	91.86877
373.52	20.19678
373.735	-5.09275
373.95	-47.2342
374.165	9.65906
374.379	-15.62904
374.594	45.48974
374.809	3.33671
375.023	60.24551
375.238	79.21886
375.453	11.76656
375.667	30.7351
375.882	110.84515
376.097	47.59764
376.311	30.7351
376.526	-2.98542
376.741	5.44413
376.955	-0.87807
377.17	64.46165
377.384	9.65906
377.599	41.27401
377.813	-49.34101
378.028	3.33671
378.242	-5.09275
378.457	30.7351
378.672	51.8135
378.886	-2.98542
379.101	-15.62904
379.315	43.38186
379.53	24.41204
379.744	77.11062
379.958	34.9506
380.173	20.19678
380.387	106.62802
380.602	1.22931
380.816	22.3044
381.031	56.02946
381.245	-15.62904
381.459	20.19678
381.674	18.08919
381.888	121.38835
382.103	87.65205
382.317	-15.62904
382.531	28.62739
382.746	26.51971
382.96	26.51971
383.174	13.87408
383.388	85.54372
383.603	9.65906
383.817	-38.8067
384.031	30.7351
384.246	60.24551
384.46	15.98162
384.674	-43.0205
384.888	-7.20006
385.103	60.24551
385.317	60.24551
385.531	22.3044
385.745	43.38186
385.959	72.8942
386.174	62.35357
386.388	45.48974
386.602	11.76656
386.816	45.48974
387.03	62.35357
387.244	56.02946
387.458	56.02946
387.672	77.11062
387.887	64.46165
388.101	60.24551
388.315	56.02946
388.529	-28.27177
388.743	-9.30734
388.957	13.87408
389.171	9.65906
389.385	60.24551
389.599	79.21886
389.813	-21.95051
390.027	9.65906
390.241	64.46165
390.455	64.46165
390.669	37.05838
390.883	11.76656
391.097	77.11062
391.311	41.27401
391.525	96.08559
391.738	28.62739
391.952	93.97717
392.166	104.51949
392.38	34.9506
392.594	-5.09275
392.808	119.27966
393.022	53.92147
393.236	-36.69976
393.449	131.93208
393.663	9.65906
393.877	34.9506
394.091	-13.52183
394.305	11.76656
394.518	51.8135
394.732	26.51971
394.946	51.8135
395.16	24.41204
395.373	68.67788
395.587	89.7604
395.801	68.67788
396.015	72.8942
396.228	64.46165
396.442	28.62739
396.656	62.35357
396.869	22.3044
397.083	58.13747
397.297	-2.98542
397.51	43.38186
397.724	87.65205
397.938	13.87408
398.151	28.62739
398.365	51.8135
398.578	18.08919
398.792	30.7351
399.005	1.22931
399.219	43.38186
399.433	-7.20006
399.646	64.46165
399.86	-26.16471
400.073	70.78603
400.287	70.78603
400.5	53.92147
400.714	-61.98135
400.927	47.59764
401.141	51.8135
401.354	18.08919
401.567	85.54372
401.781	102.41098
401.994	26.51971
402.208	41.27401
402.421	5.44413
402.635	20.19678
402.848	39.16618
403.061	43.38186
403.275	30.7351
403.488	68.67788
403.701	34.9506
403.915	9.65906
404.128	13.87408
404.341	-28.27177
404.555	11.76656
404.768	9.65906
404.981	3.33671
405.195	34.9506
405.408	18.08919
405.621	53.92147
405.834	112.95374
406.048	34.9506
406.261	100.3025
406.474	5.44413
406.687	-21.95051
406.9	-40.91361
407.114	64.46165
407.327	51.8135
407.54	58.13747
407.753	60.24551
407.966	64.46165
408.179	-9.30734
408.392	11.76656
408.605	9.65906
408.819	72.8942
409.032	45.48974
409.245	-34.5928
409.458	18.08919
409.671	-30.3788
409.884	39.16618
410.097	26.51971
410.31	5.44413
410.523	9.65906
410.736	26.51971
410.949	20.19678
411.162	85.54372
411.375	-11.4146
411.588	30.7351
411.801	26.51971
412.014	30.7351
412.227	-19.84338
412.44	24.41204
412.653	45.48974
412.865	45.48974
413.078	1.22931
413.291	22.3044
413.504	-34.5928
413.717	45.48974
413.93	-7.20006
414.143	24.41204
414.356	3.33671
414.568	1.22931
414.781	1.22931
414.994	-5.09275
415.207	-7.20006
415.42	5.44413
415.632	-13.52183
415.845	56.02946
416.058	53.92147
416.271	34.9506
416.483	-11.4146
416.696	9.65906
416.909	64.46165
417.121	110.84515
417.334	53.92147
417.547	-7.20006
417.759	15.98162
417.972	45.48974
418.185	13.87408
418.397	108.73657
418.61	66.56975
418.823	87.65205
419.035	58.13747
419.248	85.54372
419.46	-7.20006
419.673	-11.4146
419.885	56.02946
420.098	-5.09275
420.311	-32.48582
420.523	43.38186
420.736	20.19678
420.948	22.3044
421.161	60.24551
421.373	34.9506
421.586	-13.52183
421.798	13.87408
422.01	79.21886
422.223	39.16618
422.435	-7.20006
422.648	1.22931
422.86	1.22931
423.073	34.9506
423.285	20.19678
423.497	72.8942
423.71	-15.62904
423.922	123.49705
424.134	34.9506
424.347	60.24551
424.559	51.8135
424.771	-40.91361
424.984	-13.52183
425.196	102.41098
425.408	53.92147
425.621	60.24551
425.833	51.8135
426.045	39.16618
426.257	28.62739
426.47	37.05838
426.682	9.65906
426.894	81.32712
427.106	77.11062
427.318	3.33671
427.531	68.67788
427.743	11.76656
427.955	53.92147
428.167	79.21886
428.379	81.32712
428.591	34.9506
428.804	11.76656
429.016	-2.98542
429.228	28.62739
429.44	53.92147
429.652	11.76656
429.864	9.65906
430.076	66.56975
430.288	9.65906
430.5	45.48974
430.712	34.9506
430.924	110.84515
431.136	-30.3788
431.348	-2.98542
431.56	43.38186
431.772	60.24551
431.984	64.46165
432.196	87.65205
432.408	-30.3788
432.62	-40.91361
432.832	98.19403
433.044	51.8135
433.256	13.87408
433.468	30.7351
433.679	123.49705
433.891	49.70556
434.103	98.19403
434.315	60.24551
434.527	-5.09275
434.739	9.65906
434.95	-7.20006
435.162	72.8942
435.374	77.11062
435.586	37.05838
435.798	93.97717
436.009	104.51949
436.221	-2.98542
436.433	75.0024
436.645	1.22931
436.856	60.24551
437.068	62.35357
437.28	108.73657
437.491	13.87408
437.703	51.8135
437.915	9.65906
438.126	18.08919
438.338	7.55158
438.55	77.11062
438.761	62.35357
438.973	39.16618
439.184	37.05838
439.396	68.67788
439.608	58.13747
439.819	81.32712
440.031	127.71452
440.242	72.8942
440.454	72.8942
440.665	66.56975
440.877	79.21886
441.088	47.59764
441.3	77.11062
441.511	43.38186
441.723	102.41098
441.934	110.84515
442.146	87.65205
442.357	-2.98542
442.569	26.51971
442.78	106.62802
442.991	87.65205
443.203	47.59764
443.414	43.38186
443.626	18.08919
443.837	123.49705
444.048	102.41098
444.26	127.71452
444.471	127.71452
444.682	-19.84338
444.894	66.56975
445.105	53.92147
445.316	51.8135
445.528	83.43541
445.739	51.8135
445.95	53.92147
446.161	75.0024
446.373	43.38186
446.584	77.11062
446.795	43.38186
447.006	47.59764
447.217	32.84284
447.429	20.19678
447.64	70.78603
447.851	112.95374
448.062	77.11062
448.273	131.93208
448.484	79.21886
448.695	5.44413
448.907	77.11062
449.118	127.71452
449.329	119.27966
449.54	41.27401
449.751	79.21886
449.962	37.05838
450.173	47.59764
450.384	104.51949
450.595	136.14973
450.806	64.46165
451.017	110.84515
451.228	70.78603
451.439	1.22931
451.65	20.19678
451.861	85.54372
452.072	81.32712
452.283	26.51971
452.494	51.8135
452.705	72.8942
452.915	77.11062
453.126	9.65906
453.337	121.38835
453.548	56.02946
453.759	-11.4146
453.97	96.08559
454.181	18.08919
454.391	56.02946
454.602	123.49705
454.813	85.54372
455.024	62.35357
455.235	47.59764
455.445	60.24551
455.656	43.38186
455.867	51.8135
456.078	81.32712
456.288	165.67563
456.499	121.38835
456.71	20.19678
456.921	43.38186
457.131	64.46165
457.342	85.54372
457.553	93.97717
457.763	60.24551
457.974	30.7351
458.184	119.27966
458.395	89.7604
458.606	102.41098
458.816	136.14973
459.027	102.41098
459.237	72.8942
459.448	163.5665
459.659	85.54372
459.869	136.14973
460.08	70.78603
460.29	68.67788
460.501	91.86877
460.711	87.65205
460.922	91.86877
461.132	56.02946
461.343	125.60578
461.553	56.02946
461.764	140.36746
461.974	58.13747
462.184	64.46165
462.395	60.24551
462.605	144.58528
462.816	56.02946
463.026	117.171
463.236	150.91217
463.447	127.71452
463.657	102.41098
463.867	153.02117
464.078	161.45739
464.288	87.65205
464.498	129.82329
464.709	142.47636
464.919	91.86877
465.129	75.0024
465.339	144.58528
465.55	77.11062
465.76	144.58528
465.97	123.49705
466.18	180.44012
466.391	178.33085
466.601	144.58528
466.811	222.62986
467.021	127.71452
467.231	89.7604
467.441	197.31505
467.651	119.27966
467.862	203.64348
468.072	178.33085
468.282	178.33085
468.492	102.41098
468.702	190.9868
468.912	237.39815
469.122	190.9868
469.332	186.76807
469.542	224.73956
469.752	172.00315
469.962	148.80318
470.172	146.69422
470.382	220.52019
470.592	180.44012
470.802	245.8376
471.012	243.72771
471.222	182.54942
471.432	279.59846
471.642	186.76807
471.852	188.87742
472.062	258.49735
472.272	241.61784
472.482	266.93757
472.691	317.58511
472.901	254.27736
473.111	275.37808
473.321	321.80621
473.531	254.27736
473.741	342.91278
473.95	355.57756
474.16	279.59846
474.37	345.02353
474.58	321.80621
474.79	431.57895
474.999	376.6869
475.209	473.81092
475.419	414.68792
475.628	516.0489
475.838	366.13202
476.048	448.471
476.258	471.69917
476.467	440.02485
476.677	554.06798
476.886	659.69906
477.096	634.34474
477.306	577.30405
477.515	541.39445
477.725	611.10482
477.935	560.40493
478.144	642.79598
478.354	608.99218
478.563	723.09218
478.773	697.73371
478.982	748.45219
479.192	748.45219
479.401	735.77199
479.611	761.13276
479.82	739.99868
480.03	756.90586
480.239	951.38093
480.449	818.19972
480.658	945.03827
480.868	991.55261
481.077	1050.7572
481.287	938.69566
481.496	1065.55906
481.705	921.78238
481.915	1082.47579
482.124	1023.26877
482.333	1160.71971
482.543	1074.01738
482.752	1186.09737
482.961	1190.32703
483.171	1258.0034
483.38	1222.04993
483.589	1285.49774
483.799	1287.61271
484.008	1334.14247
484.217	1217.82017
484.426	1393.36322
484.636	1551.99158
484.845	1482.19531
485.054	1406.05349
485.263	1437.77923
485.472	1549.87656
485.682	1723.30188
485.891	1676.77477
486.1	1537.18639
486.309	1670.43006
486.518	1826.9242
486.727	1793.08941
486.936	1951.67915
487.146	1735.99082
487.355	1911.50586
487.564	1907.27698
487.773	2012.99209
487.982	1873.44512
488.191	1905.16252
488.4	1888.24672
488.609	2017.22037
488.818	1936.87871
489.027	2186.32787
489.236	2023.56274
489.445	2131.37329
489.654	2008.76378
489.863	2302.55884
490.072	2101.78014
490.281	2321.5758
490.49	2266.63582
490.698	2418.76107
490.907	2258.18295
491.116	2532.81945
491.325	2427.21093
491.534	2572.94323
491.743	2397.63568
491.952	2600.39386
492.16	2549.71419
492.369	2642.6216
492.578	2560.27302
492.787	2851.5727
492.996	2781.93693
493.204	2891.65909
493.413	2760.83224
493.622	3032.97415
493.831	2893.76876
494.039	2891.65909
494.248	2946.5057
494.457	3049.84306
494.665	3077.25292
494.874	3016.10426
495.083	3129.95669
495.291	3148.92761
495.5	3191.0805
495.709	3104.66012
495.917	2969.70704
496.126	3336.45691
496.335	3288.00705
496.543	3399.63859
496.752	3218.47637
496.96	3448.06713
497.169	3172.11251
497.377	3471.22526
497.586	3271.15282
497.794	3561.73142
498.003	3266.93909
498.211	3530.16335
498.42	3351.2007
498.628	3675.3417
498.837	3650.09972
499.045	3734.22892
499.254	3599.60759
499.462	3645.89246
499.671	3675.3417
499.879	3973.82524
500.087	3755.25641
500.296	4112.4187
500.504	3809.91875
500.713	3969.62404
500.921	4137.6078
501.129	3858.26279
501.338	3986.42834
501.546	4284.48362
501.754	3820.42921
501.962	4087.2266
502.171	4143.90461
502.379	4173.28719
502.587	3919.20331
502.795	4299.16545
503.004	4215.25512
503.212	4294.97075
503.42	4259.31231
503.628	4303.36007
503.837	4108.22023
504.045	4215.25512
504.253	4305.45734
504.461	4498.31386
504.669	4343.20462
504.877	4494.12329
505.085	4357.88223
505.294	4674.23728
505.502	4370.46219
505.71	4559.06708
505.918	4485.7419
506.126	4749.58464
506.334	4590.48383
506.542	4822.81089
506.75	4492.02798
506.958	4651.20865
507.166	4628.17731
507.374	4826.9944
507.582	4688.89044
507.79	4956.63805
507.998	4655.39588
508.206	5050.67892
508.414	4768.4169
508.622	4952.45737
508.83	4808.16786
509.037	4992.17009
509.245	4864.64194
509.453	5067.3924
509.661	5067.3924
509.869	5167.6421
510.077	4958.72836
510.285	5008.88875
510.492	5031.87448
510.7	5094.54864
510.908	5019.33716
511.116	5267.83816
511.324	5246.96842
511.531	5332.51951
511.739	5061.12502
511.947	5418.0312
512.155	5459.7299
512.362	5305.39781
512.57	5276.18541
512.778	5286.61893
512.985	5409.69033
513.193	5384.66548
513.401	5192.69615
513.608	5518.09227
513.816	5317.91601
514.024	5568.10246
514.231	5626.43053
514.439	5528.51218
514.646	5455.56045
514.854	5851.23695
515.061	5586.85278
515.269	5676.4113
515.477	5620.18198
515.684	5663.91738
515.892	5518.09227
516.099	5684.74011
516.307	5720.13332
516.514	5753.43836
516.722	5795.06115
516.929	5938.58734
517.136	5680.57575
517.344	5784.65634
517.551	5680.57575
517.759	6015.5044
517.966	5876.19845
518.173	5878.27842
518.381	5872.03844
518.588	5971.85273
518.796	6038.36542
519.003	6109.00873
519.21	6017.58279
519.418	6219.075
519.625	6005.11209
519.832	6138.08925
520.039	6084.0789
520.247	6291.72416
520.454	6079.9236
520.661	6472.18525
520.868	6136.01223
521.076	6708.38569
521.283	6173.39512
521.49	6339.44943
521.697	6364.34467
521.904	6275.12117
522.112	6310.40074
522.319	6631.75702
522.526	6252.28961
522.733	6573.74678
522.94	6497.06261
523.147	6714.59745
523.354	6492.91661
523.561	6577.89097
523.768	6650.39932
523.975	6766.35408
524.183	6563.38591
524.39	6774.63381
524.597	6505.35432
524.804	6857.41106
525.011	6896.71751
525.218	6768.42405
525.425	6931.87949
525.632	6766.35408
525.838	6743.58293
526.045	7049.72796
526.252	6863.61789
526.459	6998.04904
526.666	6938.08387
526.873	7167.50358
527.08	7204.68086
527.287	7006.31861
527.494	6971.17045
527.701	7274.88506
527.907	7078.66203
528.114	7250.11002
528.321	7179.89681
528.528	7215.00661
528.735	7082.79511
528.941	7305.8494
529.148	7070.3956
529.355	7369.82674
529.562	7419.34318
529.768	7245.98054
529.975	7328.55345
530.182	7576.06302
530.388	7345.06381
530.595	7470.90951
530.802	7276.9495
531.008	7668.79933
531.215	7635.83135
531.422	7477.09656
531.628	7541.01806
531.835	7670.85965
532.042	7845.90986
532.248	7911.7721
532.455	7777.96716
532.661	7854.1438
532.868	7574.00172
533.074	7755.31454
533.281	7938.52261
533.487	7899.42454
533.694	7707.94177
533.9	7878.84363
534.107	7462.65981
534.313	8146.2362
534.52	7932.34972
534.726	8175.01196
534.933	8000.24133
535.139	7769.73014
535.345	7944.69531
535.552	8283.91356
535.758	8183.23289
535.965	8148.29174
536.171	8045.49006
536.377	8300.34673
536.584	8127.73542
536.79	8183.23289
536.996	8421.50285
537.203	8267.47914
537.409	8236.66119
537.615	8216.11343
537.821	8183.23289
538.028	8522.07307
538.234	8425.60865
538.44	8581.57273
538.646	8517.96906
538.853	8634.90382
539.059	8456.39976
539.265	8409.18497
539.471	8468.71499
539.677	8421.50285
539.883	8552.85074
540.09	8817.36551
540.296	8735.37825
540.502	8823.51338
540.708	8823.51338
540.914	8903.42097
541.12	8686.17183
541.326	8987.39713
541.532	8958.72569
541.738	8934.14741
541.944	8934.14741
542.15	9048.82435
542.356	9136.84276
542.562	9011.96991
542.768	9194.14002
542.974	9235.05849
543.18	9007.87462
543.386	9386.3987
543.592	9175.7245
543.798	9370.04196
544.004	9228.92115
544.21	9376.17586
544.415	9179.81696
544.621	9435.46266
544.827	9077.48502
545.033	9584.6419
545.239	9241.19568
545.445	9666.34826
545.651	9194.14002
545.856	9478.38596
546.062	9564.2114
546.268	9464.07898
546.474	9494.73583
546.679	9441.59499
546.885	9349.59455
547.091	9547.86586
547.297	9527.4325
547.502	9562.16826
547.708	9464.07898
547.914	9462.03507
548.119	9766.4049
548.325	9731.69553
548.531	9488.60475
548.736	9707.19215
548.942	9611.19921
549.147	9688.81316
549.353	9801.1099
549.559	10041.88553
549.764	9841.93375
549.97	9703.10803
550.175	9607.11364
550.381	10229.47079
550.586	9799.06855
550.792	10143.84866
550.997	9941.92712
551.203	9972.53031
551.408	9797.02718
551.614	9943.96744
551.819	10027.60786
552.025	10098.98921
552.23	10007.20999
552.435	10158.1207
552.641	10215.20212
552.846	10217.24054
553.052	10255.96798
553.257	10215.20212
553.462	10198.89424
553.668	10366.00892
553.873	10361.93402
554.078	10396.56898
554.283	10276.34888
554.489	10738.64587
554.694	10361.93402
554.899	10449.5328
555.105	10335.44589
555.31	10453.60658
555.515	10490.26826
555.72	10718.29391
555.925	10359.89655
556.131	10720.32916
556.336	10506.561
556.541	10742.71612
556.746	10567.65159
556.951	10653.15952
557.156	10306.91771
557.361	10567.65159
557.567	10533.03499
557.772	10661.302
557.977	10779.34621
558.182	10671.47983
558.387	10685.72827
558.592	10661.302
558.797	10885.14508
559.002	10899.38485
559.207	10640.94544
559.412	10826.14575
559.617	10616.51594
559.822	10978.71049
560.027	10557.47061
560.232	10905.48743
560.437	11031.58478
560.642	11072.25224
560.847	10889.21364
561.051	11127.14643
561.256	10828.18037
561.461	11092.58434
561.666	11108.84924
561.871	10982.77801
562.076	11035.65172
562.281	11316.16753
562.485	11037.68518
562.69	11066.1524
562.895	10799.6946
563.1	11251.13813
563.305	11019.38369
563.509	11273.49316
563.714	11291.78273
563.919	11295.84696
564.123	11060.05246
564.328	11366.96456
564.533	11316.16753
564.737	11277.55758
564.942	11080.38521
565.147	11616.79752
565.351	11218.61948
565.556	11655.37698
565.761	11320.23153
565.965	11576.18399
566.17	11303.97531
566.374	11870.55129
566.579	11366.96456
566.784	11515.25675
566.988	11385.24997
567.193	11511.19463
567.397	11352.74202
567.602	11531.50484
567.806	11434.00715
568.011	11561.96839
568.215	11608.67511
568.42	11718.31545
568.624	11580.24551
568.828	11762.97632
569.033	11734.55626
569.237	11829.95976
569.442	11931.43234
569.646	11582.27626
569.85	11685.83215
570.055	11842.13757
570.259	11568.06085
570.463	11744.70648
570.668	11742.67645
570.872	11880.69865
571.076	11990.27704
571.281	12109.97504
571.485	11905.05146
571.689	12097.80359
571.893	11712.22501
572.098	12014.6246
572.302	11785.30517
572.506	11787.33502
572.71	11858.37418
572.914	12028.82682
573.119	11773.12593
573.323	11986.219
573.527	11976.07376
573.731	12343.20971
573.935	11894.9046
574.139	12185.02629
574.343	11685.83215
574.547	12093.74638
574.751	12182.99801
574.955	12193.13933
575.159	12079.5459
575.364	12491.21503
575.568	12156.62972
575.772	12426.34037
575.976	12134.31711
576.18	12458.77854
576.383	12126.20321
576.587	12193.13933
576.791	12249.92732
576.995	12541.89374
577.199	12172.85651
577.403	12533.78542
577.607	12260.06744
577.811	12602.70298
578.015	12633.10551
578.219	12438.50488
578.422	12491.21503
578.626	12505.40547
578.83	12377.67991
579.034	12446.61443
579.238	12154.60134
579.442	12914.77334
579.645	12837.78137
579.849	12858.04317
580.053	12835.75516
580.257	12829.6765
580.46	12924.90329
580.664	12937.05906
580.868	12740.51701
581.071	12997.8351
581.275	12651.34638
581.479	12870.19999
581.682	12754.70221
581.886	12862.09547
582.09	12744.56995
582.293	12995.80931
582.497	12805.36135
582.7	13016.06703
582.904	12951.24055
583.107	13210.51656
583.311	12774.96629
583.515	13230.76928
583.718	12995.80931
583.922	12912.74733
584.125	12983.65444
584.329	13234.81977
584.532	13066.70915
584.735	13194.31407
584.939	13113.29723
585.142	13226.71877
585.346	13064.68353
585.549	13457.57083
585.753	13449.47164
585.956	13309.7507
586.159	13536.53478
586.363	13224.69351
586.566	13317.851
586.769	13370.50129
586.973	13325.95122
587.176	13524.38685
587.379	13212.54185
587.582	13469.7195
587.786	13386.70083
587.989	13771.37068
588.192	13269.24822
588.395	13834.12135
588.599	13575.0024
588.802	13680.2758
589.005	13621.56676
589.208	13803.75848
589.411	13471.74427
589.615	13512.23878
589.818	13530.46083
590.021	13459.59562
590.224	13708.61711
590.427	13945.44651
590.63	13653.9583
590.833	13660.03162
591.036	13591.1989
591.239	13886.74882
591.442	13615.49325
591.645	13830.07301
591.848	13884.72472
592.051	14145.81253
592.254	13615.49325
592.457	14083.07411
592.66	13702.54403
592.863	13915.08592
593.066	13868.53183
593.269	14331.99249
593.472	13868.53183
593.675	14340.08692
593.878	13961.63859
594.081	14153.90766
594.284	14089.14567
594.486	14412.93559
594.689	14222.71492
594.892	14125.57456
595.095	14336.0397
595.298	14336.0397
595.5	14198.43028
595.703	14493.87625
595.906	14297.59086
596.109	14427.10037
596.311	14251.04666
596.514	14279.37803
596.717	14315.80355
596.92	14562.6741
597.122	14321.87441
597.325	14311.7563
597.528	14192.35907
597.73	14546.4865
597.933	14200.45401
598.136	14546.4865
598.338	14342.11052
598.541	14453.40621
598.743	14503.99367
598.946	14532.32229
599.148	14965.32143
599.351	14831.78334
599.554	14558.62721
599.756	14534.34575
599.959	14621.35352
600.161	14582.90849
600.363	14831.78334
600.566	14858.08648
600.768	14951.1584
600.971	15040.18289
601.173	14439.24156
601.376	14635.51738
601.578	14823.69004
601.78	14771.08335
601.983	14811.55008
602.185	14756.91992
602.388	15100.88113
602.59	15050.29928
602.792	14973.41458
602.995	15088.7415
603.197	14659.79816
603.399	15094.81132
603.601	14773.10669
603.804	14671.9385
604.006	14896.52936
604.208	14924.85557
604.41	14675.98527
604.613	15009.8337
604.815	15121.11385
605.017	15100.88113
605.219	14991.62415
605.421	14841.89994
605.623	15001.74057
605.826	15021.97339
606.028	15050.29928
606.23	14999.71729
606.432	14983.53101
606.634	15539.93479
606.836	14700.26581
607.038	15204.06795
607.24	15092.78804
607.442	15315.34809
607.644	14849.99322
607.846	15234.41703
608.048	15250.60322
608.25	15131.23021
608.452	15143.36983
608.654	15651.21926
608.856	15048.276
609.058	15268.81269
609.26	15299.16185
609.462	15202.04468
609.664	15260.71959
609.866	15206.09123
610.067	15106.95095
610.269	15404.37277
610.471	15074.57858
610.673	15076.60186
610.875	15270.83597
611.077	15161.57927
611.278	15214.18431
611.48	15388.18641
611.682	15210.13777
611.884	15461.02526
612.085	15157.53273
612.287	15456.97864
612.489	15570.28488
612.69	15297.13857
612.892	15044.22945
613.094	15497.44493
613.295	14922.83227
613.497	15220.25413
613.699	15066.48548
613.9	15226.32394
614.102	15309.27825
614.304	15396.27958
614.505	15291.06873
614.707	15598.61177
614.908	15242.51012
615.11	15598.61177
615.311	15738.22525
615.513	15347.72062
615.714	15139.32329
615.916	15679.5466
616.117	15517.67816
616.319	15501.49157
616.52	15359.86034
616.722	15384.13982
616.923	15244.5334
617.124	15497.44493
617.326	15066.48548
617.527	15147.41637
617.729	15422.58245
617.93	15774.64689
618.131	15584.4483
618.333	15535.88813
618.534	15560.16817
618.735	15507.56154
618.937	15503.51489
619.138	15614.79863
619.339	15515.65484
619.54	15529.81813
619.742	15406.39606
619.943	15295.11529
620.144	14967.34472
620.345	15359.86034
620.546	15473.16513
620.748	15916.29005
620.949	15452.93202
621.15	15685.61677
621.351	15440.79218
621.552	15541.95813
621.753	15517.67816
621.954	15499.46825
622.155	15264.76614
622.356	15489.35165
622.558	15598.61177
622.759	15786.78752
622.96	15222.2774
623.161	15560.16817
623.362	15376.04666
623.563	15855.58513
623.764	15272.85924
623.965	15614.79863
624.166	15887.96095
624.366	15825.23308
624.567	15541.95813
624.768	15837.37387
624.969	15495.42161
625.17	15788.81096
625.371	15456.97864
625.572	15635.03228
625.773	15614.79863
625.973	15525.77147
626.174	15564.21485
626.375	16003.30245
626.576	15641.10239
626.777	15827.25654
626.977	15533.8648
627.178	15855.58513
627.379	15299.16185
627.58	15539.93479
627.78	15665.38291
627.981	15774.64689
628.182	15750.36576
628.382	15608.72855
628.583	15521.72482
628.784	15823.20962
628.984	15734.17842
629.185	16033.65622
629.386	15598.61177
629.586	15705.85072
629.787	15671.45306
629.987	15889.98445
630.188	15841.42081
630.388	16021.51467
630.589	15673.47644
630.79	15989.13747
630.99	15879.86697
631.191	15861.65558
631.391	15849.5147
631.591	15900.10196
631.792	15628.96217
631.992	15724.06136
632.193	15865.70254
632.393	16128.76685
632.594	15541.95813
632.794	15768.57659
632.994	15671.45306
633.195	15898.07846
633.395	15920.33708
633.595	16072.10479
633.796	16223.88101
633.996	16288.64175
634.196	16011.39676
634.397	16347.33277
634.597	15964.85481
634.797	15942.59586
634.997	15952.71355
635.198	16088.29383
635.398	15782.74064
635.598	16177.33532
635.798	16029.60903
635.998	16173.28791
636.199	15912.24302
636.399	15985.09035
636.599	15776.67033
636.799	16430.31248
636.999	15748.34234
637.199	15800.95163
637.399	15942.59586
637.599	16025.56185
637.799	15697.75713
637.999	16053.89224
638.199	16406.0254
638.399	16047.82142
638.599	15964.85481
638.799	16191.50131
638.999	16094.36474
639.199	16112.57757
639.399	16082.22293
639.599	16124.71952
639.799	15989.13747
639.999	16308.87986
640.199	16027.58544
640.399	16288.64175
640.599	15543.98146
640.799	16199.59619
640.998	16195.54874
641.198	16053.89224
641.398	16290.66555
641.598	16254.23738
641.798	16404.00149
641.997	16076.15204
642.197	16163.16942
642.397	16458.64778
642.597	16110.55391
642.796	16177.33532
642.996	16088.29383
643.196	16391.85806
643.395	16553.77641
643.595	16681.2968
643.795	16482.9355
643.994	16569.96898
644.194	16515.31959
644.394	16529.4878
644.593	16246.14231
644.793	16529.4878
644.992	16288.64175
645.192	16571.99306
645.392	16286.61795
645.591	16359.47594
645.791	16642.83732
645.99	16731.90265
646.19	16529.4878
646.389	16495.07947
646.589	16229.95225
646.788	16624.61997
646.987	16503.1755
647.187	16549.72828
647.386	16387.81027
647.586	16691.41785
647.785	16608.42691
647.984	16790.60731
648.184	16495.07947
648.383	16654.98233
648.582	16584.1376
648.782	16982.93042
648.981	16859.43609
649.18	16758.21828
649.38	16618.54755
649.579	16930.2923
649.778	16557.82454
649.977	17240.07396
650.177	16436.3843
650.376	16946.48846
650.575	16588.1858
650.774	16300.78459
650.973	16715.70862
651.173	16748.09683
651.372	16638.78901
651.571	16800.72901
651.77	16675.22419
651.969	16883.72929
652.168	16375.66694
652.367	16582.11351
652.566	16748.09683
652.765	16960.66023
652.964	16460.67175
653.163	16930.2923
653.362	16669.15161
653.561	16806.80206
653.76	16565.92082
653.959	16555.80047
654.158	17027.47176
654.357	16784.53432
654.556	16513.29557
654.755	17063.91566
654.954	16758.21828
655.153	16701.53896
655.352	16620.57169
655.551	16944.46393
655.749	17128.70702
655.948	16908.02287
656.147	17086.18737
656.346	17019.37324
656.545	16707.61166
656.743	16766.31548
656.942	16693.44207
657.141	17215.77497
657.34	17037.59498
657.538	17055.81694
657.737	16657.00651
657.936	16922.19429
658.135	16523.4157
658.333	16839.19203
658.532	16657.00651
658.731	16683.321
658.929	16598.30633
659.128	17059.86629
659.326	16877.65596
659.525	16721.78136
659.724	16922.19429
659.922	16908.02287
660.121	17009.25015
660.319	16804.7777
660.518	16590.2099
660.716	16806.80206
660.915	16760.24257
661.113	17100.36045
661.312	16719.75711
661.51	16908.02287
661.709	16877.65596
661.907	17088.21209
662.105	16851.33843
662.304	16699.51473
662.502	16855.38726
662.701	17167.17825
662.899	16735.95118
663.097	17122.63271
663.296	16926.24329
663.494	16948.51299
663.692	16887.7782
663.891	17203.62564
664.089	16739.99972
664.287	17100.36045
664.485	16877.65596
664.684	17560.0512
664.882	17339.29923
665.08	17191.4764
665.278	17106.43467
665.476	17011.27476
665.675	17120.60794
665.873	17126.68225
666.071	16630.6924
666.269	16895.87603
666.467	16875.63152
666.665	17009.25015
666.863	16901.94944
667.061	16960.66023
667.259	16938.39036
667.457	17213.75008
667.655	16966.73388
667.853	17260.32343
668.051	16661.05486
668.249	17120.60794
668.447	16784.53432
668.645	16889.80265
668.843	17177.30243
669.041	16841.21642
669.239	16576.04123
669.437	16784.53432
669.635	17161.10378
669.833	17126.68225
670.031	16905.99839
670.229	17045.6936
670.426	17169.20308
670.624	17181.35212
670.822	16954.5866
671.02	17021.39787
671.218	17086.18737
671.415	16839.19203
671.613	16794.65598
671.811	16671.1758
672.009	16881.70485
672.206	17100.36045
672.404	16778.46135
672.602	16739.99972
672.799	16853.36284
672.997	16968.75844
673.195	16910.04735
673.392	16810.85077
673.59	16610.45104
673.788	16679.27259
673.985	16515.31959
674.183	16756.19398
674.38	16822.99696
674.578	16685.34521
674.775	16675.22419
674.973	16691.41785
675.17	16592.234
675.368	16822.99696
675.565	16806.80206
675.763	16847.28962
675.96	17096.31098
676.158	16926.24329
676.355	16616.52342
676.553	16812.87513
676.75	16707.61166
676.947	17011.27476
677.145	16454.59986
677.342	16689.39363
677.539	16654.98233
677.737	16837.16764
677.934	16343.28507
678.131	17049.74293
678.329	16711.66013
678.526	16711.66013
678.723	16681.2968
678.92	16970.783
679.118	16547.70423
679.315	16800.72901
679.512	16416.14498
679.709	16849.31403
679.906	16507.22352
680.104	16675.22419
680.301	16602.35455
680.498	16369.5953
680.695	16430.31248
680.892	16845.26522
681.089	16489.00748
681.286	16719.75711
681.483	16377.69082
681.68	16960.66023
681.877	16505.19951
682.075	16640.81316
682.272	16282.57035
682.469	16750.12112
682.665	16325.07048
682.862	16547.70423
683.059	16563.89675
683.256	16333.16583
683.453	16486.98348
683.65	16383.76249
683.847	16404.00149
684.044	16462.69572
684.241	16347.33277
684.438	16278.52276
684.635	16262.33248
684.831	16408.04931
685.028	16476.86354
685.225	16578.06532
685.422	16045.79782
685.619	16268.40382
685.815	16088.29383
686.012	16318.99898
686.209	16100.43567
686.405	16410.07323
686.602	16213.7623
686.799	16177.33532
686.996	16108.53026
687.192	15974.97256
687.389	15392.23299
687.586	15914.26653
687.782	15883.91396
687.979	16213.7623
688.175	15867.72603
688.372	16003.30245
688.568	15859.63209
688.765	16209.71483
688.962	15962.83126
689.158	16094.36474
689.355	16013.42034
689.551	16047.82142
689.748	15944.6194
689.944	16165.19312
690.14	15906.17249
690.337	15788.81096
690.533	15679.5466
690.73	15865.70254
690.926	15991.16104
691.123	15942.59586
691.319	15717.99114
691.515	15979.01967
691.712	16159.12204
691.908	16017.4675
692.104	15946.64293
692.301	16136.86153
692.497	16001.27888
692.693	15930.45469
692.889	15786.78752
693.086	16108.53026
693.282	15748.34234
693.478	15829.28001
693.674	15802.97507
693.87	16035.67982
694.067	15558.14483
694.263	15867.72603
694.459	15764.52973
694.655	15902.12547
694.851	15616.82199
695.047	15976.99611
695.243	15396.27958
695.439	15736.20183
695.635	15655.26601
695.831	15685.61677
696.027	15562.19151
696.224	15637.05565
696.42	15467.09519
696.615	15910.21951
696.811	15894.03145
697.007	15546.0048
697.203	15408.41936
697.399	15562.19151
697.595	15659.31277
697.791	15722.03795
697.987	15537.91146
698.183	15736.20183
698.379	15363.90692
698.575	15550.05147
698.77	15169.67235
698.966	15380.09324
699.162	15679.5466
699.358	15436.74557
699.554	15444.83879
699.749	15804.99852
699.945	15363.90692
700.141	15428.65236
700.337	15410.44266
700.532	15600.63512
700.728	15446.8621
700.924	15671.45306
701.119	15323.44121
701.315	15388.18641
701.511	15242.51012
701.706	15357.83705
701.902	15005.78714
702.097	15398.30288
702.293	15487.32833
702.489	15546.0048
702.684	15278.92907
702.88	15398.30288
703.075	15104.92768
703.271	15125.1604
703.466	15177.76543
703.662	15222.2774
703.857	15266.78942
704.053	15602.65848
704.248	15374.02336
704.443	15519.70149
704.639	15357.83705
704.834	15309.27825
705.03	15556.12149
705.225	15422.58245
705.42	14926.87886
705.616	15347.72062
705.811	15242.51012
706.006	15590.51836
706.202	15135.27675
706.397	15600.63512
706.592	15293.09201
706.787	15501.49157
706.983	14914.73907
707.178	15276.9058
707.373	14945.08852
707.568	15066.48548
707.763	15042.20617
707.959	15448.8854
708.154	15195.97487
708.349	14991.62415
708.544	15001.74057
708.739	15133.25348
708.934	15038.15962
709.129	15287.02218
709.324	14807.50342
709.519	15082.67168
709.714	14716.45277
709.909	15226.32394
710.104	14752.87322
710.299	14566.72099
710.494	14789.29341
710.689	15133.25348
710.884	15026.01994
711.079	14884.38952
711.274	14943.06523
711.469	14876.29629
711.664	14712.40604
711.859	15159.556
712.054	15147.41637
712.249	15098.85786
712.443	14928.90216
712.638	15076.60186
712.833	14647.65779
713.028	14904.62257
713.223	14947.11181
713.417	14815.59674
713.612	14631.47057
713.807	15080.6484
714.002	14744.77981
714.196	15161.57927
714.391	14564.69755
714.586	14920.80897
714.78	14904.62257
714.975	14684.0788
715.17	14447.33565
715.364	14967.34472
715.559	14678.00865
715.754	14831.78334
715.948	14724.54623
716.143	14684.0788
716.337	14506.01716
716.532	14973.41458
716.726	14477.6883
716.921	14827.73669
717.115	14287.47264
717.31	14522.20496
717.504	14491.85276
717.699	14817.62006
717.893	14520.18149
718.088	14653.72798
718.282	14684.0788
718.476	14384.60579
718.671	14240.92823
718.865	14459.47675
719.059	14344.13412
719.254	14348.18132
719.448	14346.15772
719.642	14653.72798
719.837	14060.81157
720.031	14309.73267
720.225	14066.8832
720.419	14099.26488
720.614	13880.67652
720.808	14342.11052
721.002	13911.03779
721.196	14062.83545
721.39	14077.00254
721.585	14192.35907
721.779	13931.27831
721.973	13826.02465
722.167	13900.91743
722.361	14396.74717
722.555	14091.16951
722.749	14046.64436
722.943	13684.3246
723.137	14091.16951
723.331	14101.28871
723.525	13951.51856
723.719	14218.6675
723.913	14107.3602
724.107	13801.73426
724.301	14105.33638
724.495	14040.57266
724.689	13880.67652
724.883	13649.9094
725.077	13981.87845
725.271	13753.15221
725.465	14190.33533
725.659	13724.81187
725.853	13795.6616
726.046	14131.64598
726.24	14068.90708
726.434	13801.73426
726.628	13931.27831
726.822	13757.20078
727.015	14093.19336
727.209	13882.70062
727.403	13939.37444
727.596	13900.91743
727.79	13836.14552
727.984	13716.71452
728.177	14109.38403
728.371	13917.10997
728.565	14046.64436
728.758	13994.02225
728.952	14216.64379
729.146	14050.69215
729.339	14079.0264
729.533	14123.55075
729.726	13890.79701
729.92	13890.79701
730.113	13514.26347
730.307	13572.97782
730.5	13755.1765
730.694	13526.41151
730.887	13658.00718
731.081	13789.58891
731.274	13898.89335
731.468	13483.89278
731.661	13732.90917
731.854	13415.0494
732.048	13520.33751
732.241	13633.71369
732.435	13583.10068
732.628	13819.95209
732.821	13698.49529
733.014	13858.41119
733.208	13882.70062
733.401	13688.37338
733.594	13676.22699
733.788	13712.66582
733.981	13461.62041
734.174	13996.04621
734.367	13815.90371
734.56	13915.08592
734.754	13609.41971
734.947	13834.12135
735.14	13963.66258
735.333	13807.8069
735.526	13666.10491
735.719	13575.0024
735.912	13724.81187
736.105	13672.17817
736.298	13562.85487
736.491	13637.76264
736.684	13447.44684
736.877	13390.75067
737.07	13664.08048
737.263	13494.01643
737.456	13394.8005
737.649	13621.56676
737.842	13560.83027
738.035	13518.31283
738.228	13429.2234
738.421	13417.07427
738.614	13757.20078
738.807	13753.15221
739	13461.62041
739.192	13220.64297
739.385	13485.91752
739.578	13417.07427
739.771	13396.82541
739.964	13471.74427
740.156	13542.6087
740.349	13082.91399
740.542	13376.57615
740.735	13570.95323
740.927	13429.2234
741.12	13342.15148
741.313	13311.77578
741.505	13453.52125
741.698	13431.24824
741.891	13394.8005
742.083	13186.21272
742.276	13257.09715
742.468	13388.72575
742.661	13149.75572
742.854	13267.22306
743.046	13101.14406
743.239	12977.57693
743.431	13137.60306
743.624	13352.2765
743.816	13281.39915
744.009	13494.01643
744.201	13107.22067
744.393	13097.09297
744.586	13251.02155
744.778	12991.7577
744.971	13283.42429
745.163	13366.45137
745.355	13429.2234
745.548	13498.06587
745.74	13251.02155
745.932	13076.83721
746.125	13174.06055
746.317	13208.49127
746.509	12941.11094
746.702	13157.8574
746.894	13082.91399
747.086	13054.55532
747.278	13267.22306
747.471	12878.30443
747.663	13259.12234
747.855	13040.37563
748.047	13020.11851
748.239	12979.60277
748.431	12928.95523
748.623	13107.22067
748.815	12918.82534
749.008	13178.11129
749.2	12941.11094
749.392	13034.29855
749.584	12809.41393
749.776	13180.13665
749.968	12890.46092
750.16	13226.71877
750.352	12825.62403
750.544	12797.25613
750.736	12876.27833
750.928	13058.60662
751.12	13012.01552
751.311	13016.06703
751.503	13196.3394
751.695	13007.964
751.887	12612.83731
752.079	12789.15081
752.271	12618.91784
752.463	13297.60014
752.654	12708.09264
752.846	13022.14424
753.038	12608.7836
753.23	12791.17715
753.421	12610.81046
753.613	12606.75673
753.805	12598.6492
753.997	12742.54348
754.188	12963.39591
754.38	12716.19887
754.572	12864.1216
754.763	12639.18586
754.955	12541.89374
755.146	12602.70298
755.338	12712.14577
755.53	12732.41106
755.721	12511.487
755.913	12337.12653
756.104	12272.23534
756.296	12454.72386
756.487	12284.40299
756.679	12460.80587
756.87	12262.09544
757.062	12324.95998
757.253	12337.12653
757.445	12653.37311
757.636	12158.6581
757.827	12432.42266
758.019	12067.37376
758.21	12146.48774
758.401	12103.88935
758.593	12156.62972
758.784	11888.81638
758.975	12099.83218
759.167	12205.30866
759.358	12367.54182
759.549	12195.16757
759.74	12010.56675
759.932	11917.22742
760.123	11827.9301
760.314	11969.98653
760.505	12107.94648
760.696	12079.5459
760.888	12069.40247
761.079	11805.60323
761.27	12040.99984
761.461	11673.65032
761.652	11990.27704
761.843	11622.88923
762.034	11937.52003
762.225	11734.55626
762.416	12077.51723
762.607	11789.36485
762.798	11850.25595
762.989	11789.36485
763.18	11817.78165
763.371	11773.12593
763.562	12008.53782
763.753	11854.31508
763.944	11797.48411
764.135	11604.61385
764.326	11645.22481
764.517	11551.8141
764.708	11856.34464
764.899	11549.78322
765.089	11842.13757
765.28	11758.91641
765.471	11631.01138
765.662	11584.30699
765.853	11679.74128
766.043	11196.26137
766.234	11675.68065
766.425	11509.16356
766.615	11462.44626
766.806	11466.50883
766.997	11291.78273
767.187	11356.80565
767.378	11519.31883
767.569	11484.78994
767.759	11482.75875
767.95	11509.16356
768.141	11332.42326
768.331	11163.73822
768.522	11344.61464
768.712	11210.48941
768.903	11462.44626
769.093	11047.85229
769.284	11116.98143
769.474	11027.51779
769.665	11177.96743
769.855	11110.88231
770.046	11397.43979
770.236	11011.2494
770.426	10917.69229
770.617	10856.66386
770.807	10860.73275
770.998	10915.65818
771.188	10722.3644
771.378	10734.57557
771.569	10828.18037
771.759	10982.77801
771.949	10528.96221
772.139	11047.85229
772.33	10907.5216
772.52	10905.48743
772.71	10807.83363
772.9	10895.3164
773.09	10657.23079
773.281	10622.62348
773.471	10437.31116
773.661	10388.41992
773.851	10530.9986
774.041	10329.33293
774.231	10744.75122
774.421	10418.97783
774.611	10887.17937
774.802	10724.39962
774.992	10492.30489
775.182	10478.04816
775.372	10510.63406
775.562	10392.49448
775.752	10476.01143
775.942	10357.85907
776.131	10406.75502
776.321	10143.84866
776.511	10453.60658
776.701	10274.31085
776.891	10196.8557
777.081	10007.20999
777.271	10098.98921
777.461	10264.12051
777.651	9868.46605
777.84	10180.54683
778.03	10147.92646
778.22	10121.41978
778.41	10229.47079
778.599	10319.14439
778.789	10286.53883
778.979	10117.34162
779.169	10152.0042
779.358	9892.95519
779.548	10139.77081
779.738	9690.85533
779.927	10105.10681
780.117	10009.24984
780.307	9962.32961
780.496	10039.8459
780.686	9615.28471
780.875	9699.02386
781.065	9815.39892
781.254	9694.93963
781.444	9815.39892
781.633	9666.34826
781.823	9429.33017
782.012	9743.9464
782.202	10003.13025
782.391	9803.15123
782.581	9880.71089
782.77	9815.39892
782.96	9858.26162
783.149	9384.35416
783.338	9737.82103
783.528	9560.12511
783.717	9821.52257
783.906	9468.16677
784.096	9374.13124
784.285	9582.59892
784.474	9537.64938
784.663	9464.07898
784.853	9523.34564
785.042	9478.38596
785.231	9449.77122
785.42	9519.25872
785.61	9572.38379
785.799	9050.87166
785.988	9553.99555
786.177	9325.0555
786.366	9562.16826
786.555	9316.87528
786.744	9421.1533
786.933	9278.01564
787.122	9486.56103
787.312	9431.37435
787.501	9511.08468
787.69	9200.27822
787.879	9097.95484
788.068	9054.96621
788.257	9302.55927
788.445	8897.2752
788.634	9136.84276
788.823	9257.56077
789.012	9404.79878
789.201	8956.6776
789.39	8850.15228
789.579	9014.01753
789.768	8995.58834
789.957	8932.09911
790.145	9093.86102
790.334	9102.0486
790.523	8995.58834
790.712	8880.8857
790.9	8893.17793
791.089	8727.17791
791.278	8866.54394
791.467	8524.12504
791.655	8917.76048
791.844	8677.96972
792.033	8686.17183
792.221	8731.27811
792.41	8811.21747
792.599	8597.98364
792.787	8852.2013
792.976	8659.51391
793.164	8671.81795
793.353	8700.52479
793.541	8880.8857
793.73	8639.00568
793.918	8999.68384
794.107	8718.97728
794.295	8991.49277
794.484	8856.29929
794.672	8661.56463
794.861	8735.37825
795.049	9007.87462
795.238	8677.96972
795.426	8684.12133
795.614	8682.07081
795.803	8755.8778
795.991	8526.177
796.179	8716.92708
796.368	8454.34715
796.556	8493.34339
796.744	8177.06722
796.932	8308.56284
797.121	8267.47914
797.309	8593.88103
797.497	8427.66153
797.685	8700.52479
797.874	8649.26003
798.062	8524.12504
798.25	8209.94872
798.438	8388.65362
798.626	8111.28893
798.814	8495.39564
799.002	8290.07615
799.19	8398.91953
799.378	8261.3159
799.566	8421.50285
799.755	8111.28893
799.943	8355.79944
800.131	8339.37049
800.318	8329.10176
800.506	8195.56369
800.694	8205.83881
800.882	8164.73535
801.07	8546.69554
801.258	8156.5137
801.446	8351.69232
801.634	8255.15249
801.822	8236.66119
802.01	8423.55576
802.197	8351.69232
802.385	8084.56063
802.573	8283.91356
802.761	8078.39208
802.949	7959.09756
803.136	8055.7725
803.324	8388.65362
803.512	8232.5518
803.699	8035.20712
803.887	8113.34481
804.075	8351.69232
804.262	8066.05443
804.45	8442.03111
804.638	8212.00364
804.825	8394.81323
805.013	8117.45651
805.201	8374.28053
805.388	8212.00364
805.576	8421.50285
805.763	8329.10176
805.951	8425.60865
806.138	8043.43352
806.326	8248.9889
806.513	8123.62392
806.701	8322.94029
806.888	8125.67968
807.075	8224.33277
807.263	8082.50446
807.45	8232.5518
807.638	7940.5802
807.825	8216.11343
808.012	7961.15494
808.2	8230.49707
808.387	8207.89377
808.574	8347.58512
808.761	8063.99808
808.949	8513.86497
809.136	8244.87975
809.323	8448.18922
809.51	8199.6738
809.698	8263.37033
809.885	8259.26145
810.072	8257.20698
810.259	8292.1303
810.446	8251.04345
810.633	8222.27797
810.82	8466.6625
811.008	8248.9889
811.195	8288.02197
811.382	8101.00921
811.569	8400.97266
811.756	8088.6729
811.943	8322.94029
812.13	8349.63873
812.317	8199.6738
812.504	8314.72472
812.691	8474.87235
812.878	8160.62457
813.064	8279.80507
813.251	8314.72472
813.438	8597.98364
813.625	8051.65959
813.812	8437.92561
813.999	8133.90253
814.186	8466.6625
814.372	8374.28053
814.559	8242.82514
814.746	8012.58287
814.933	8269.53351
815.12	8084.56063
815.306	8216.11343
815.493	8084.56063
815.68	8470.76746
815.866	8197.61875
816.053	8259.26145
816.24	8166.79071
816.426	8294.18444
816.613	8076.33585
816.799	8220.22314
816.986	8059.88533
817.173	8150.34726
817.359	7870.61068
817.546	8037.26375
817.732	7850.02687
817.919	8061.94172
818.105	7749.13611
818.292	8002.2983
818.478	7878.84363
818.665	8072.22334
818.851	7854.1438
819.037	8107.1771
819.224	8043.43352
819.41	8029.03712
819.597	8175.01196
819.783	7926.17665
819.969	7885.01812
820.156	8094.84115
820.342	8078.39208
820.528	8014.63972
820.714	7672.91995
820.901	7804.73517
821.087	7860.31903
821.273	8105.12116
821.459	7714.12146
821.646	8014.63972
821.832	7458.53483
822.018	7697.64187
822.204	7468.84712
822.39	7685.28129
822.576	7907.65633
822.762	7815.02962
822.948	7567.8177
823.134	7782.08554
823.32	7611.1018
823.507	7800.61725
823.693	7677.04048
823.879	7920.0034
824.065	7615.22361
824.25	7590.4915
824.436	7508.0289
824.622	7784.14471
824.808	7786.20385
824.994	7773.84869
825.18	7454.40976
825.366	7720.30096
825.552	7654.37651
825.738	7796.49924
825.923	7530.70954
826.109	7740.89792
826.295	7439.97134
826.481	7701.76189
826.667	7668.79933
826.852	7932.34972
827.038	7508.0289
827.224	7666.73899
827.409	7602.85794
827.595	7623.46696
827.781	7343.00009
827.966	7322.3617
828.152	7411.09131
828.338	7367.76329
828.523	7113.79036
828.709	7351.25484
828.894	7349.19119
829.08	7411.09131
829.266	7417.28025
829.451	7444.09671
829.637	7039.3933
829.822	7365.69981
830.008	7006.31861
830.193	7318.23375
830.378	7029.05807
830.564	7299.65693
830.749	7140.64885
830.935	7264.56251
831.12	6896.71751
831.305	7126.18705
831.491	7029.05807
831.676	7307.91351
831.861	7171.63475
832.047	7115.85653
832.232	6847.0659
832.417	6948.42405
832.602	6799.47082
832.788	7045.59416
832.973	6948.42405
833.158	6886.3745
833.343	6849.13498
833.528	6739.44242
833.714	6681.46569
833.899	7080.72858
834.084	6650.39932
834.269	7062.12881
834.454	6480.47807
834.639	6666.9687
834.824	6789.12247
835.009	6828.44317
835.194	6675.25283
835.379	6956.69578
835.564	6594.4668
835.749	6809.8186
835.934	6631.75702
836.119	6791.19218
836.304	6393.38487
836.489	6561.31366
836.674	6300.0251
836.859	6333.2251
837.044	6241.91069
837.228	6731.16113
837.413	6370.56795
837.598	6577.89097
837.783	6374.71669
837.968	6503.28142
838.152	6376.79103
838.337	6441.08385
838.522	6320.7758
838.707	6598.61053
838.891	6422.42049
839.076	6494.98962
839.261	6385.08813
839.445	6243.98652
839.63	6268.89466
839.815	6175.47173
839.999	6096.54424
840.184	6501.20851
840.368	6297.9499
840.553	6329.07543
840.737	6140.16626
840.922	6283.42285
841.106	6239.83483
841.291	6194.16011
841.475	6065.37931
841.66	6387.16235
841.844	6027.9744
842.029	6383.01389
842.213	6158.85823
842.397	6358.12118
842.582	6034.20908
842.766	6208.69421
842.951	6038.36542
843.135	6302.10027
843.319	5986.40444
843.504	5994.71919
843.688	5892.83756
843.872	6044.59975
844.056	5990.56186
844.241	6167.16517
844.425	5826.27205
844.609	5801.30376
844.793	5909.47516
844.977	6075.76821
845.161	5753.43836
845.346	5801.30376
845.53	5795.06115
845.714	5959.37891
845.898	5822.11091
846.082	6069.53494
846.266	5992.64054
846.45	5853.31721
846.634	5765.92619
846.818	5915.71388
847.002	5720.13332
847.186	5884.5182
847.37	5584.76951
847.554	5780.49425
847.738	5591.01926
847.922	5896.9971
848.106	5813.78833
848.29	5855.39744
848.473	5572.26936
848.657	5728.46015
848.841	5603.51814
849.025	5801.30376
849.209	5488.91339
849.392	5670.16445
849.576	5428.45676
849.76	5601.43505
849.944	5509.75592
850.127	5882.43829
850.311	5426.37169
850.495	5686.82225
850.678	5516.00821
850.862	5490.99775
851.046	5201.04676
851.229	5336.69172
851.413	5153.02568
851.596	5411.77559
851.78	5226.09634
851.964	5403.43444
852.147	5328.3472
852.331	5382.57992
852.514	5006.79899
852.698	5284.53228
852.881	4969.17953
853.065	5082.01548
853.248	5163.46609
853.431	5372.15178
853.615	4870.91581
853.798	5121.70096
853.982	5102.90362
854.165	5336.69172
854.348	5042.32162
854.532	5244.88131
854.715	5134.23148
854.898	5044.41098
855.081	4942.00528
855.265	5150.93753
855.448	4816.53544
855.631	5173.90592
855.814	4868.82455
855.997	5201.04676
856.181	4925.28073
856.364	5100.81491
856.547	4933.64319
856.73	5025.60592
856.913	4757.95476
857.096	4979.63013
857.279	4741.21415
857.462	4824.90266
857.645	4718.19346
857.828	4929.46201
858.011	4636.55266
858.194	4942.00528
858.377	4665.86355
858.56	4783.06295
858.743	4714.00758
858.926	4824.90266
859.109	4502.50433
859.292	4824.90266
859.475	4554.8778
859.658	4835.36116
859.841	4623.98951
860.023	4812.3517
860.206	4332.71997
860.389	4391.42705
860.572	4255.11679
860.755	4341.10774
860.937	4450.11707
861.12	4380.9449
861.303	4477.36016
861.486	4485.7419
861.668	4248.82336
861.851	4376.75188
862.034	4120.81541
862.216	4217.3533
862.399	4255.11679
862.581	4351.59196
862.764	4116.6171
862.947	4366.26896
863.129	4213.15693
863.312	4297.06811
863.494	4013.73255
863.677	4303.36007
863.859	3809.91875
864.042	4036.83341
864.224	3946.51599
864.406	4200.56731
864.589	3847.75411
864.771	4114.51791
864.954	3786.79399
865.136	4139.70676
865.318	3864.56777
865.501	4250.92119
865.683	3858.26279
865.865	4125.01363
866.048	4049.43282
866.23	4070.43019
866.412	3893.98859
866.594	3963.32209
866.777	3708.99339
866.959	3795.20327
867.141	3677.44507
867.323	3921.30441
867.505	3763.66686
867.687	3881.38015
867.869	3730.02319
868.052	3898.19125
868.234	3643.7888
868.416	3961.22139
868.598	3687.96165
868.78	3990.62922
868.962	3671.13489
869.144	4072.52982
869.326	3702.68407
869.508	3860.36447
869.69	3837.24493
869.872	3904.49508
870.054	3820.42921
870.236	3683.75508
870.417	3763.66686
870.599	3902.39382
870.781	3624.85501
870.963	3851.95764
871.145	3822.53125
871.327	3656.41047
871.508	3637.47771
871.69	3658.51402
871.872	3591.19119
872.054	3650.09972
872.235	3593.29532
872.417	3751.05107
872.599	3464.90962
872.78	3790.99867
872.962	3456.48852
873.144	3736.33176
873.325	3629.06265
873.507	3692.16815
873.689	3525.95396
873.87	3744.74291
874.052	3591.19119
874.233	3671.13489
874.415	3363.83756
874.596	3515.43017
874.778	3323.81869
874.959	3403.85014
875.141	3448.06713
875.322	3620.6473
875.503	3224.79809
875.685	3435.4345
875.866	3492.27622
876.048	3692.16815
876.229	3321.71226
876.41	3641.68512
876.592	3155.25096
876.773	3700.58092
876.954	3186.86551
877.136	3647.9961
877.317	3325.9251
877.498	3460.69911
877.679	3515.43017
877.86	3793.10098
878.042	3302.75362
878.223	3547.00017
878.404	3469.12007
878.585	3500.69609
878.766	3349.0945
878.947	3662.72105
879.128	3549.10469
879.309	3498.59115
879.49	3309.07332
879.672	3549.10469
879.853	3296.43377
880.034	3483.85605
880.215	3359.62535
880.396	3631.16644
880.576	3437.53999
880.757	3624.85501
880.938	3405.95589
881.119	3622.75116
881.3	3673.2383
881.481	3679.54842
881.662	3422.80124
881.843	3519.63974
882.023	3342.77578
882.204	3578.56602
882.385	3608.0237
882.566	3532.26801
882.747	3422.80124
882.927	3492.27622
883.108	3555.41813
883.289	3534.37266
883.469	3664.82454
883.65	3652.20332
883.831	3549.10469
884.011	3662.72105
884.192	3374.3678
884.373	3582.77448
884.553	3351.2007
884.734	3748.94837
884.914	3494.38121
885.095	3803.61223
885.275	3241.65529
885.456	3685.85838
885.636	3414.3787
885.817	3912.8999
885.997	3509.11567
886.178	3683.75508
886.358	3591.19119
886.538	3839.34681
886.719	3502.80101
886.899	3572.25318
887.08	3342.77578
887.26	3793.10098
887.44	3420.69563
887.621	3776.28195
887.801	3683.75508
887.981	3837.24493
888.161	3530.16335
888.342	3753.15375
888.522	3725.81739
888.702	3812.02088
888.882	3734.22892
889.062	3746.84565
889.242	3692.16815
889.423	3660.61754
889.603	3469.12007
889.783	3919.20331
889.963	3296.43377
890.143	3694.27138
890.323	3382.79168
890.503	3725.81739
890.683	3264.8322
890.863	3601.71165
891.043	3559.62701
891.223	3700.58092
891.403	3410.16733
891.583	3736.33176
891.763	3473.33044
891.943	3595.39943
892.122	3340.66951
892.302	3582.77448
892.482	3523.84924
892.662	3654.30691
892.842	3574.35748
893.022	3666.92801
893.201	3395.42697
893.381	3525.95396
893.561	3332.24424
893.741	3694.27138
893.92	3376.4738
894.1	3304.86021
894.28	3509.11567
894.459	3525.95396
894.639	3277.47328
894.819	3528.05866
894.998	3528.05866
895.178	3346.98828
895.357	3241.65529
895.537	3395.42697
895.716	3325.9251
895.896	3325.9251
896.075	3102.55197
896.255	3405.95589
896.434	3212.15449
896.614	3129.95669
896.793	3138.38837
896.973	3239.5482
897.152	3098.33562
897.331	3121.52476
897.511	3161.57416
897.69	3408.06162
897.87	3193.18798
898.049	3319.60581
898.228	2971.81616
898.407	3266.93909
898.587	3037.19147
898.766	3119.41673
898.945	2849.46275
899.124	3049.84306
899.304	2938.0684
899.483	3167.89722
899.662	2933.84967
899.841	3056.16865
900.02	2914.86463
900.199	3085.68619
900.378	2904.31687
900.557	3013.99546
900.737	2750.27939
900.916	2982.36155
901.095	2889.54941
901.274	3068.8194
901.453	2729.17268
901.632	2562.38475
901.811	2537.04321
901.989	2760.83224
902.168	2401.86084
902.347	2809.371
902.526	2311.01092
902.705	2705.95379
902.884	2522.25986
903.063	2718.61883
903.242	2496.91569
903.42	2570.83155
903.599	2384.95994
903.778	2615.17413
903.957	2368.05839
904.135	2384.95994
904.314	2334.25335
904.493	2327.91462
904.672	2304.67187
904.85	2308.89791
905.029	2184.21434
905.207	2454.6718
905.386	2241.27679
905.565	2308.89791
905.743	2258.18295
905.922	2215.91648
906.1	2203.23585
906.279	2207.46276
906.457	1890.36121
906.636	2296.21968
906.814	1873.44512
906.993	2224.37006
907.171	1890.36121
907.35	2032.01914
907.528	1784.63054
907.707	2063.72965
907.885	1645.05095
908.063	1814.23629
908.242	1693.69389
908.42	1930.53557
908.598	1649.28083
908.777	1932.64996
908.955	1700.03851
909.133	1867.10149
909.311	1685.23436
909.49	1854.41412
909.668	1854.41412
909.846	1966.47931
910.024	1820.58026
910.202	1797.31882
910.38	1695.80877
910.559	1793.08941
910.737	1710.61282
910.915	1911.50586
911.093	1700.03851
911.271	1818.46561
911.449	1795.20411
911.627	1941.10744
911.805	1725.41671
911.983	1949.56482
912.161	1810.00694
912.339	2027.79095
912.517	1708.49796
912.695	2029.90505
912.872	1915.73473
913.05	1930.53557
913.228	1793.08941
913.406	2025.67685
913.584	1862.87239
913.762	1996.07871
913.939	1763.48308
914.117	1996.07871
914.295	1848.07036
914.473	1905.16252
914.65	1744.45004
914.828	1962.25072
915.006	1581.60175
915.184	1704.26825
915.361	1685.23436
915.539	2017.22037
915.716	1634.47622
915.894	1945.33614
916.072	1755.02399
916.249	1833.2681
916.427	1676.77477
916.604	1987.62186
916.782	1661.9704
916.959	1873.44512
917.137	1456.8147
917.314	1843.84117
917.492	1651.39576
917.669	1712.72767
917.847	1437.77923
918.024	1765.59785
918.201	1471.62006
918.379	1725.41671
918.556	1367.98279
918.733	1615.44155
918.911	1361.6377
919.088	1528.72626
919.265	1338.37249
919.442	1693.69389
919.62	1399.70835
919.797	1532.95633
919.974	1507.57587
920.151	1647.16589
920.328	1473.73511
920.506	1499.1157
920.683	1509.69092
920.86	1549.87656
921.037	1429.31902
921.214	1497.00065
921.391	1296.07259
921.568	1359.52268
921.745	1298.18757
921.922	1590.06175
922.099	1310.87747
922.276	1475.85016
922.453	1289.72768
922.63	1539.30142
922.807	1192.44187
922.984	1374.32789
923.161	1329.91245
923.338	1524.49619
923.514	1300.30255
923.691	1346.83255
923.868	1270.69304
924.045	1346.83255
924.222	1175.52328
924.399	1336.25748
924.575	1101.50751
924.752	1232.62439
924.929	1192.44187
925.105	1298.18757
925.282	1116.31023
925.459	1285.49774
925.635	1118.42492
925.812	1260.11833
925.989	1090.93428
926.165	1245.31384
926.342	1160.71971
926.518	1074.01738
926.695	1124.76903
926.871	1141.68685
927.048	926.01066
927.224	980.98088
927.401	1023.26877
927.577	1065.55906
927.754	921.78238
927.93	1181.86772
928.107	947.15248
928.283	959.83792
928.459	906.98365
928.636	1063.44449
928.812	735.77199
928.988	1031.72664
929.165	805.51757
929.341	1004.23891
929.517	904.86958
929.693	966.18074
929.87	739.99868
930.046	955.60942
930.222	729.43204
930.398	873.15945
930.574	731.54534
930.751	858.36202
930.927	647.02168
931.103	761.13276
931.279	670.26386
931.455	754.79243
931.631	583.64144
931.807	803.40391
931.983	752.679
932.159	744.22541
932.335	642.79598
932.511	659.69906
932.687	545.61891
932.863	695.62058
933.039	608.99218
933.215	720.97891
933.391	587.86644
933.566	706.18636
933.742	465.36403
933.918	513.93686
934.094	450.58257
934.27	608.99218
934.445	427.3561
934.621	619.55552
934.797	467.47573
934.973	459.02903
935.148	450.58257
935.324	494.92917
935.5	389.35331
935.675	450.58257
935.851	340.80204
936.027	448.471
936.202	304.92223
936.378	372.4649
936.553	345.02353
936.729	456.91739
936.904	296.48068
937.08	245.8376
937.255	304.92223
937.431	294.37034
937.606	188.87742
937.782	294.37034
937.957	290.14971
938.133	231.06877
938.308	256.38735
938.483	178.33085
938.659	163.5665
938.834	195.20561
939.009	205.753
939.185	245.8376
939.36	161.45739
939.535	140.36746
939.71	214.19127
939.886	224.73956
940.061	161.45739
940.236	178.33085
940.411	178.33085
940.586	161.45739
940.761	144.58528
940.937	180.44012
941.112	184.65873
941.287	102.41098
941.462	142.47636
941.637	182.54942
941.812	184.65873
941.987	72.8942
942.162	98.19403
942.337	153.02117
942.512	119.27966
942.687	129.82329
942.862	112.95374
943.037	79.21886
943.212	178.33085
943.386	108.73657
943.561	112.95374
943.736	125.60578
943.911	89.7604
944.086	138.25859
944.26	146.69422
944.435	127.71452
944.61	127.71452
944.785	140.36746
944.959	106.62802
945.134	115.06236
945.309	144.58528
945.483	93.97717
945.658	169.89395
945.833	115.06236
946.007	104.51949
946.182	104.51949
946.357	85.54372
946.531	110.84515
946.706	148.80318
946.88	178.33085
947.055	79.21886
947.229	144.58528
947.404	138.25859
947.578	104.51949
947.752	70.78603
947.927	60.24551
948.101	68.67788
948.276	136.14973
948.45	121.38835
948.624	138.25859
948.799	81.32712
948.973	161.45739
949.147	123.49705
949.321	87.65205
949.496	146.69422
949.67	89.7604
949.844	161.45739
950.018	77.11062
950.193	85.54372
950.367	79.21886
950.541	62.35357
950.715	169.89395
950.889	96.08559
951.063	117.171
951.237	144.58528
951.411	157.23924
951.585	119.27966
951.759	64.46165
951.933	165.67563
952.107	144.58528
952.281	161.45739
952.455	134.0409
952.629	98.19403
952.803	93.97717
952.977	43.38186
953.151	161.45739
953.325	79.21886
953.499	121.38835
953.672	172.00315
953.846	121.38835
954.02	157.23924
954.194	127.71452
954.368	144.58528
954.541	93.97717
954.715	134.0409
954.889	129.82329
955.062	190.9868
955.236	127.71452
955.41	60.24551
955.583	148.80318
955.757	96.08559
955.93	129.82329
956.104	70.78603
956.278	144.58528
956.451	106.62802
956.625	77.11062
956.798	100.3025
956.972	195.20561
957.145	161.45739
957.319	165.67563
957.492	117.171
957.665	91.86877
957.839	85.54372
958.012	144.58528
958.185	102.41098
958.359	110.84515
958.532	144.58528
958.705	77.11062
958.879	172.00315
959.052	121.38835
959.225	119.27966
959.398	186.76807
959.572	146.69422
959.745	129.82329
959.918	203.64348
960.091	142.47636
960.264	153.02117
960.438	127.71452
960.611	140.36746
960.784	157.23924
960.957	81.32712
961.13	87.65205
961.303	60.24551
961.476	47.59764
961.649	178.33085
961.822	58.13747
961.995	155.13019
962.168	85.54372
962.341	163.5665
962.514	140.36746
962.686	77.11062
962.859	144.58528
963.032	186.76807
963.205	153.02117
963.378	138.25859
963.551	85.54372
963.723	91.86877
963.896	159.34831
964.069	146.69422
964.242	142.47636
964.414	119.27966
964.587	93.97717
964.76	72.8942
964.932	148.80318
965.105	53.92147
965.278	161.45739
965.45	178.33085
965.623	119.27966
965.795	203.64348
965.968	106.62802
966.14	70.78603
966.313	178.33085
966.485	165.67563
966.658	77.11062
966.83	115.06236
967.003	148.80318
967.175	121.38835
967.348	136.14973
967.52	119.27966
967.692	87.65205
967.865	85.54372
968.037	93.97717
968.209	110.84515
968.382	150.91217
968.554	104.51949
968.726	85.54372
968.898	5.44413
969.071	106.62802
969.243	127.71452
969.415	89.7604
969.587	104.51949
969.759	150.91217
969.932	180.44012
970.104	81.32712
970.276	131.93208
970.448	134.0409
970.62	91.86877
970.792	136.14973
970.964	110.84515
971.136	148.80318
971.308	102.41098
971.48	85.54372
971.652	188.87742
971.824	53.92147
971.996	169.89395
972.168	93.97717
972.339	129.82329
972.511	53.92147
972.683	39.16618
972.855	106.62802
973.027	115.06236
973.199	81.32712
973.37	11.76656
973.542	79.21886
973.714	64.46165
973.886	129.82329
974.057	127.71452
974.229	37.05838
974.401	62.35357
974.572	96.08559
974.744	70.78603
974.915	102.41098
975.087	127.71452
975.259	83.43541
975.43	98.19403
975.602	87.65205
975.773	87.65205
975.945	79.21886
976.116	51.8135
976.288	49.70556
976.459	112.95374
976.63	155.13019
976.802	77.11062
976.973	96.08559
977.145	47.59764
977.316	79.21886
977.487	37.05838
977.659	110.84515
977.83	110.84515
978.001	110.84515
978.172	20.19678
978.344	93.97717
978.515	39.16618
978.686	89.7604
978.857	47.59764
979.028	148.80318
979.2	72.8942
979.371	62.35357
979.542	148.80318
979.713	108.73657
979.884	85.54372
980.055	157.23924
980.226	96.08559
980.397	30.7351
980.568	85.54372
980.739	131.93208
980.91	53.92147
981.081	56.02946
981.252	43.38186
981.423	53.92147
981.594	161.45739
981.765	-19.84338
981.936	91.86877
982.106	49.70556
982.277	83.43541
982.448	34.9506
982.619	64.46165
982.79	45.48974
982.96	18.08919
983.131	106.62802
983.302	64.46165
983.472	85.54372
983.643	37.05838
983.814	119.27966
983.984	119.27966
984.155	-32.48582
984.326	49.70556
984.496	136.14973
984.667	22.3044
984.837	85.54372
985.008	102.41098
985.178	89.7604
985.349	13.87408
985.519	60.24551
985.69	43.38186
985.86	56.02946
986.031	77.11062
986.201	20.19678
986.371	66.56975
986.542	24.41204
986.712	-2.98542
986.882	117.171
987.053	15.98162
987.223	51.8135
987.393	22.3044
987.563	144.58528
987.734	110.84515
987.904	22.3044
988.074	37.05838
988.244	26.51971
988.414	53.92147
988.585	22.3044
988.755	70.78603
988.925	37.05838
989.095	85.54372
989.265	123.49705
989.435	68.67788
989.605	-2.98542
989.775	28.62739
989.945	18.08919
990.115	68.67788
990.285	165.67563
990.455	87.65205
990.625	26.51971
990.795	68.67788
990.965	51.8135
991.134	11.76656
991.304	102.41098
991.474	41.27401
991.644	9.65906
991.814	102.41098
991.984	102.41098
992.153	39.16618
992.323	77.11062
992.493	119.27966
992.662	18.08919
992.832	28.62739
993.002	53.92147
993.171	89.7604
993.341	22.3044
993.511	68.67788
993.68	77.11062
993.85	79.21886
994.019	53.92147
994.189	20.19678
994.358	5.44413
994.528	81.32712
994.697	70.78603
994.867	43.38186
995.036	93.97717
995.206	91.86877
995.375	43.38186
995.544	64.46165
995.714	26.51971
995.883	127.71452
996.052	72.8942
996.222	34.9506
996.391	58.13747
996.56	26.51971
996.73	-15.62904
996.899	66.56975
997.068	37.05838
997.237	-38.8067
997.406	51.8135
997.576	51.8135
997.745	51.8135
997.914	37.05838
998.083	43.38186
998.252	51.8135
998.421	87.65205
998.59	56.02946
998.759	85.54372
998.928	93.97717
999.097	9.65906
999.266	5.44413
999.435	45.48974
999.604	62.35357
999.773	26.51971
999.942	68.67788
1000.111	45.48974
1000.28	62.35357
1000.448	1.22931
1000.617	79.21886
1000.786	51.8135
1000.955	18.08919
1001.124	89.7604
1001.292	11.76656
1001.461	110.84515
1001.63	79.21886
1001.798	-9.30734
1001.967	68.67788
1002.136	3.33671
1002.304	60.24551
1002.473	22.3044
1002.642	37.05838
1002.81	18.08919
1002.979	-21.95051
1003.147	85.54372
1003.316	9.65906
1003.484	51.8135
1003.653	104.51949
1003.821	49.70556
1003.99	-2.98542
1004.158	91.86877
1004.327	81.32712
1004.495	43.38186
1004.663	-40.91361
1004.832	1.22931
1005	18.08919
1005.168	1.22931
1005.337	56.02946
1005.505	18.08919
1005.673	24.41204
1005.842	15.98162
1006.01	15.98162
1006.178	5.44413
1006.346	13.87408
1006.514	37.05838
1006.683	24.41204
1006.851	70.78603
1007.019	18.08919
1007.187	-7.20006
1007.355	43.38186
1007.523	-11.4146
1007.691	96.08559
1007.859	81.32712
1008.027	102.41098
1008.195	-5.09275
1008.363	-24.05762
1008.531	15.98162
1008.699	77.11062
1008.867	5.44413
1009.035	22.3044
1009.203	-7.20006
1009.37	39.16618
1009.538	-24.05762
1009.706	22.3044
1009.874	-24.05762
1010.042	60.24551
1010.209	96.08559
1010.377	9.65906
1010.545	22.3044
1010.713	60.24551
1010.88	20.19678
1011.048	81.32712
1011.216	-19.84338
1011.383	37.05838
1011.551	51.8135
1011.718	87.65205
1011.886	62.35357
1012.054	75.0024
1012.221	-30.3788
1012.389	53.92147
1012.556	13.87408
1012.724	22.3044
1012.891	68.67788
1013.058	89.7604
1013.226	11.76656
1013.393	98.19403
1013.561	89.7604
1013.728	-9.30734
1013.895	119.27966
1014.063	93.97717
1014.23	-32.48582
1014.397	45.48974
1014.565	26.51971
1014.732	11.76656
1014.899	64.46165
1015.066	43.38186
1015.233	56.02946
1015.401	64.46165
1015.568	62.35357
1015.735	-30.3788
1015.902	34.9506
1016.069	68.67788
1016.236	-24.05762
1016.403	49.70556
1016.57	34.9506
1016.737	43.38186
1016.904	87.65205
1017.071	43.38186
1017.238	13.87408
1017.405	-13.52183
1017.572	13.87408
1017.739	129.82329
1017.906	11.76656
1018.073	30.7351
1018.24	60.24551
1018.407	34.9506
1018.573	96.08559
1018.74	9.65906
1018.907	-21.95051
1019.074	96.08559
1019.241	-24.05762
1019.407	72.8942
1019.574	-91.4719
1019.741	18.08919
1019.907	28.62739
1020.074	62.35357
1020.241	119.27966
1020.407	1.22931
1020.574	32.84284
1020.74	9.65906
1020.907	1.22931
1021.073	20.19678
1021.24	37.05838
1021.406	34.9506
1021.573	37.05838
1021.739	72.8942
1021.906	-38.8067
1022.072	125.60578
1022.239	72.8942
1022.405	45.48974
1022.571	72.8942
1022.738	-64.08798
1022.904	75.0024
1023.07	60.24551
1023.237	43.38186
1023.403	13.87408
1023.569	85.54372
1023.735	51.8135
1023.902	-7.20006
1024.068	-59.87469
1024.234	26.51971
1024.4	26.51971
1024.566	110.84515
1024.732	-11.4146
1024.898	28.62739
1025.065	34.9506
1025.231	68.67788
1025.397	20.19678
1025.563	28.62739
1025.729	9.65906
1025.895	-2.98542
1026.061	-17.73622
1026.227	45.48974
1026.392	-15.62904
1026.558	9.65906
1026.724	37.05838
1026.89	60.24551
1027.056	11.76656
1027.222	37.05838
1027.388	-19.84338
1027.553	24.41204
1027.719	-28.27177
1027.885	68.67788
1028.051	9.65906
1028.216	22.3044
1028.382	72.8942
1028.548	22.3044
1028.713	51.8135
1028.879	1.22931
1029.045	85.54372
1029.21	-9.30734
1029.376	41.27401
1029.541	47.59764
1029.707	22.3044
1029.873	39.16618
1030.038	-47.2342
1030.204	34.9506
1030.369	24.41204
1030.534	43.38186
1030.7	60.24551
1030.865	45.48974
1031.031	15.98162
1031.196	5.44413
1031.361	43.38186
1031.527	77.11062
1031.692	77.11062
1031.857	15.98162
1032.023	1.22931
1032.188	102.41098
1032.353	51.8135
1032.518	43.38186
1032.684	53.92147
1032.849	5.44413
1033.014	72.8942
1033.179	1.22931
1033.344	51.8135
1033.509	-9.30734
1033.674	39.16618
1033.839	26.51971
1034.004	53.92147
1034.17	24.41204
1034.335	3.33671
1034.5	-28.27177
1034.664	62.35357
1034.829	-0.87807
1034.994	-2.98542
1035.159	13.87408
1035.324	-5.09275
1035.489	72.8942
1035.654	37.05838
1035.819	51.8135
1035.984	53.92147
1036.148	9.65906
1036.313	37.05838
1036.478	43.38186
1036.643	53.92147
1036.807	-28.27177
1036.972	-24.05762
1037.137	41.27401
1037.301	13.87408
1037.466	20.19678
1037.631	43.38186
1037.795	30.7351
1037.96	79.21886
1038.124	96.08559
1038.289	-7.20006
1038.454	-24.05762
1038.618	51.8135
1038.783	60.24551
1038.947	93.97717
1039.111	47.59764
1039.276	28.62739
1039.44	13.87408
1039.605	60.24551
1039.769	-13.52183
1039.933	-40.91361
1040.098	20.19678
1040.262	72.8942
1040.426	9.65906
1040.591	75.0024
1040.755	157.23924
1040.919	26.51971
1041.083	37.05838
1041.248	13.87408
1041.412	41.27401
1041.576	-2.98542
1041.74	26.51971
1041.904	18.08919
1042.068	-61.98135
1042.232	20.19678
1042.397	15.98162
1042.561	110.84515
1042.725	34.9506
1042.889	34.9506
1043.053	15.98162
1043.217	47.59764
1043.381	41.27401
1043.544	66.56975
1043.708	11.76656
1043.872	-21.95051
1044.036	-53.55456
1044.2	22.3044
1044.364	62.35357
1044.528	51.8135
1044.691	34.9506
1044.855	62.35357
1045.019	75.0024
1045.183	30.7351
1045.346	34.9506
1045.51	-15.62904
1045.674	-11.4146
1045.837	45.48974
1046.001	51.8135
1046.165	-40.91361
1046.328	1.22931
1046.492	-9.30734
1046.655	-2.98542
1046.819	1.22931
1046.983	22.3044
1047.146	-24.05762
1047.31	-5.09275
1047.473	64.46165
1047.636	28.62739
1047.8	28.62739
1047.963	45.48974
1048.127	72.8942
1048.29	13.87408
