Data from mixed_try1_USB4F045381__9__00157.txt Node

Date: Thu Apr 03 20:08:19 EDT 2025
User: mmckonesweet
Spectrometer: USB4F04538
Trigger mode: 4
Integration Time (sec): 2.700000E-3
Scans to average: 1
Electric dark correction enabled: true
Nonlinearity correction enabled: true
Boxcar width: 0
XAxis mode: Wavelengths
Number of Pixels in Spectrum: 3648
>>>>>Begin Spectral Data<<<<<
345.52	36.00449
345.736	36.00449
345.952	36.00449
346.168	-75.67402
346.384	-6.14641
346.6	-39.86016
346.816	48.65159
347.032	-1.93175
347.248	6.49786
347.464	-10.36097
347.68	-14.57544
347.896	-29.32529
348.112	-23.00407
348.328	23.35822
348.544	36.00449
348.76	0.17561
348.975	4.39042
349.191	8.60532
349.407	8.60532
349.623	17.0354
349.839	-52.50118
350.055	0.17561
350.27	63.4076
350.486	-23.00407
350.702	-27.21824
350.918	-92.52504
351.133	-39.86016
351.349	40.22009
351.565	59.19149
351.781	25.46587
351.996	-20.89695
352.212	-56.71465
352.428	-25.11117
352.644	-35.64629
352.859	29.68125
353.075	-60.92802
353.291	-27.21824
353.506	-25.11117
353.722	42.32793
353.938	0.17561
354.153	-1.93175
354.369	-67.24789
354.584	23.35822
354.8	57.08346
355.016	-27.21824
355.231	-8.2537
355.447	2.283
355.662	-6.14641
355.878	8.60532
356.093	-41.96706
356.309	-18.7898
356.524	27.57355
356.74	23.35822
356.955	-33.53931
357.171	0.17561
357.386	6.49786
357.602	17.0354
357.817	-63.03467
358.033	-25.11117
358.248	-35.64629
358.464	36.00449
358.679	8.60532
358.895	23.35822
359.11	-39.86016
359.325	54.97546
359.541	-77.78048
359.756	-27.21824
359.972	14.92785
360.187	-1.93175
360.402	-20.89695
360.618	19.14299
360.833	12.82031
361.048	10.7128
361.264	-16.68263
361.479	48.65159
361.694	6.49786
361.909	-1.93175
362.125	-88.31244
362.34	-31.43231
362.555	-37.75323
362.77	-56.71465
362.986	-6.14641
363.201	23.35822
363.416	-41.96706
363.631	38.11228
363.847	-25.11117
364.062	-27.21824
364.277	-33.53931
364.492	82.38126
364.707	-1.93175
364.922	46.54368
365.138	78.16474
365.353	-18.7898
365.568	17.0354
365.783	36.00449
365.998	59.19149
366.213	-35.64629
366.428	-58.82135
366.643	23.35822
366.858	-18.7898
367.073	2.283
367.288	-1.93175
367.503	-44.07393
367.718	2.283
367.933	-18.7898
368.148	-35.64629
368.363	-16.68263
368.578	21.25059
368.793	-14.57544
369.008	6.49786
369.223	-35.64629
369.438	31.78897
369.653	-41.96706
369.868	-23.00407
370.083	-10.36097
370.298	57.08346
370.513	-46.18078
370.728	14.92785
370.943	40.22009
371.157	67.62381
371.372	-86.2061
371.587	-29.32529
371.802	92.92297
372.017	-8.2537
372.232	17.0354
372.446	107.68229
372.661	-56.71465
372.876	21.25059
373.091	-31.43231
373.306	-6.14641
373.52	-1.93175
373.735	14.92785
373.95	-14.57544
374.165	0.17561
374.379	-10.36097
374.594	33.89672
374.809	6.49786
375.023	-23.00407
375.238	-1.93175
375.453	-8.2537
375.667	-1.93175
375.882	-16.68263
376.097	8.60532
376.311	44.4358
376.526	-18.7898
376.741	-10.36097
376.955	-10.36097
377.17	-8.2537
377.384	95.03138
377.599	-23.00407
377.813	-4.03909
378.028	6.49786
378.242	-8.2537
378.457	-81.99334
378.672	10.7128
378.886	42.32793
379.101	65.5157
379.315	-6.14641
379.53	-65.14129
379.744	-6.14641
379.958	0.17561
380.173	40.22009
380.387	-44.07393
380.602	-27.21824
380.816	-48.28761
381.031	14.92785
381.245	-18.7898
381.459	29.68125
381.674	44.4358
381.888	2.283
382.103	31.78897
382.317	-12.46822
382.531	48.65159
382.746	21.25059
382.96	48.65159
383.174	-27.21824
383.388	10.7128
383.603	-1.93175
383.817	65.5157
384.031	-8.2537
384.246	-41.96706
384.46	-1.93175
384.674	-39.86016
384.888	76.05651
385.103	-69.35446
385.317	33.89672
385.531	23.35822
385.745	-12.46822
385.959	31.78897
386.174	31.78897
386.388	-27.21824
386.602	-12.46822
386.816	-39.86016
387.03	-35.64629
387.244	-1.93175
387.458	76.05651
387.672	-23.00407
387.887	-31.43231
388.101	-100.94993
388.315	31.78897
388.529	-10.36097
388.743	17.0354
388.957	17.0354
389.171	17.0354
389.385	-14.57544
389.599	-18.7898
389.813	-27.21824
390.027	31.78897
390.241	-4.03909
390.455	-10.36097
390.669	57.08346
390.883	25.46587
391.097	8.60532
391.311	-18.7898
391.525	-4.03909
391.738	-52.50118
391.952	-23.00407
392.166	-41.96706
392.38	-67.24789
392.594	-23.00407
392.808	-18.7898
393.022	-23.00407
393.236	-8.2537
393.449	-1.93175
393.663	0.17561
393.877	6.49786
394.091	-50.3944
394.305	-27.21824
394.518	4.39042
394.732	17.0354
394.946	59.19149
395.16	23.35822
395.373	14.92785
395.587	99.24826
395.801	23.35822
396.015	61.29953
396.228	-35.64629
396.442	-39.86016
396.656	-1.93175
396.869	12.82031
397.083	40.22009
397.297	-12.46822
397.51	-6.14641
397.724	17.0354
397.938	-33.53931
398.151	-46.18078
398.365	-31.43231
398.578	-8.2537
398.792	73.9483
399.005	-27.21824
399.219	-90.41875
399.433	-39.86016
399.646	48.65159
399.86	-56.71465
400.073	48.65159
400.287	-31.43231
400.5	-41.96706
400.714	-44.07393
400.927	23.35822
401.141	-81.99334
401.354	-31.43231
401.567	29.68125
401.781	59.19149
401.994	57.08346
402.208	14.92785
402.421	-18.7898
402.635	6.49786
402.848	19.14299
403.061	4.39042
403.275	6.49786
403.488	-37.75323
403.701	2.283
403.915	-10.36097
404.128	14.92785
404.341	-33.53931
404.555	33.89672
404.768	-10.36097
404.981	6.49786
405.195	25.46587
405.408	-60.92802
405.621	23.35822
405.834	-10.36097
406.048	6.49786
406.261	-52.50118
406.474	-52.50118
406.687	0.17561
406.9	50.75953
407.114	-58.82135
407.327	-56.71465
407.54	29.68125
407.753	48.65159
407.966	12.82031
408.179	-8.2537
408.392	-6.14641
408.605	-33.53931
408.819	-18.7898
409.032	-52.50118
409.245	-67.24789
409.458	40.22009
409.671	-50.3944
409.884	-41.96706
410.097	-12.46822
410.31	-4.03909
410.523	-33.53931
410.736	-6.14641
410.949	-4.03909
411.162	50.75953
411.375	27.57355
411.588	44.4358
411.801	10.7128
412.014	33.89672
412.227	19.14299
412.44	65.5157
412.653	-52.50118
412.865	2.283
413.078	-6.14641
413.291	-46.18078
413.504	-8.2537
413.717	-12.46822
413.93	-10.36097
414.143	36.00449
414.356	21.25059
414.568	-52.50118
414.781	40.22009
414.994	-44.07393
415.207	-41.96706
415.42	-103.05609
415.632	27.57355
415.845	2.283
416.058	-25.11117
416.271	57.08346
416.483	-39.86016
416.696	-1.93175
416.909	-18.7898
417.121	10.7128
417.334	-58.82135
417.547	-41.96706
417.759	-56.71465
417.972	14.92785
418.185	-69.35446
418.397	-1.93175
418.61	-94.6313
418.823	-14.57544
419.035	31.78897
419.248	-16.68263
419.46	-8.2537
419.673	-27.21824
419.885	-84.09974
420.098	6.49786
420.311	95.03138
420.523	2.283
420.736	-1.93175
420.948	25.46587
421.161	-18.7898
421.373	-20.89695
421.586	-33.53931
421.798	-35.64629
422.01	-44.07393
422.223	21.25059
422.435	-35.64629
422.648	-69.35446
422.86	21.25059
423.073	-1.93175
423.285	23.35822
423.497	-6.14641
423.71	-18.7898
423.922	40.22009
424.134	52.86748
424.347	40.22009
424.559	23.35822
424.771	-10.36097
424.984	29.68125
425.196	19.14299
425.408	0.17561
425.621	8.60532
425.833	27.57355
426.045	21.25059
426.257	-23.00407
426.47	-6.14641
426.682	-14.57544
426.894	-35.64629
427.106	-73.56752
427.318	-60.92802
427.531	-44.07393
427.743	29.68125
427.955	-8.2537
428.167	-33.53931
428.379	-1.93175
428.591	-29.32529
428.804	63.4076
429.016	25.46587
429.228	10.7128
429.44	25.46587
429.652	6.49786
429.864	-52.50118
430.076	33.89672
430.288	-23.00407
430.5	-25.11117
430.712	44.4358
430.924	10.7128
431.136	-56.71465
431.348	42.32793
431.56	-16.68263
431.772	10.7128
431.984	46.54368
432.196	2.283
432.408	-10.36097
432.62	25.46587
432.832	40.22009
433.044	23.35822
433.256	65.5157
433.468	-46.18078
433.679	0.17561
433.891	-58.82135
434.103	38.11228
434.315	65.5157
434.527	21.25059
434.739	10.7128
434.95	36.00449
435.162	-35.64629
435.374	19.14299
435.586	40.22009
435.798	42.32793
436.009	23.35822
436.221	-63.03467
436.433	40.22009
436.645	-41.96706
436.856	14.92785
437.068	-44.07393
437.28	-39.86016
437.491	-1.93175
437.703	0.17561
437.915	-33.53931
438.126	23.35822
438.338	17.0354
438.55	33.89672
438.761	6.49786
438.973	-6.14641
439.184	-18.7898
439.396	6.49786
439.608	31.78897
439.819	25.46587
440.031	-18.7898
440.242	-10.36097
440.454	40.22009
440.665	-39.86016
440.877	14.92785
441.088	-46.18078
441.3	19.14299
441.511	-52.50118
441.723	31.78897
441.934	-23.00407
442.146	-44.07393
442.357	-14.57544
442.569	-10.36097
442.78	-1.93175
442.991	-27.21824
443.203	57.08346
443.414	-23.00407
443.626	-37.75323
443.837	-33.53931
444.048	-23.00407
444.26	0.17561
444.471	-56.71465
444.682	2.283
444.894	42.32793
445.105	25.46587
445.316	25.46587
445.528	-41.96706
445.739	-48.28761
445.95	57.08346
446.161	42.32793
446.373	92.92297
446.584	-48.28761
446.795	-44.07393
447.006	14.92785
447.217	27.57355
447.429	-18.7898
447.64	6.49786
447.851	44.4358
448.062	33.89672
448.273	-8.2537
448.484	-52.50118
448.695	23.35822
448.907	31.78897
449.118	10.7128
449.329	40.22009
449.54	-14.57544
449.751	6.49786
449.962	-4.03909
450.173	25.46587
450.384	73.9483
450.595	-56.71465
450.806	14.92785
451.017	-39.86016
451.228	44.4358
451.439	-1.93175
451.65	-23.00407
451.861	19.14299
452.072	-27.21824
452.283	-27.21824
452.494	-4.03909
452.705	-4.03909
452.915	105.57375
453.126	10.7128
453.337	-35.64629
453.548	59.19149
453.759	-44.07393
453.97	-23.00407
454.181	25.46587
454.391	-18.7898
454.602	-10.36097
454.813	46.54368
455.024	-52.50118
455.235	10.7128
455.445	-23.00407
455.656	36.00449
455.867	-31.43231
456.078	-14.57544
456.288	40.22009
456.499	-100.94993
456.71	-46.18078
456.921	31.78897
457.131	6.49786
457.342	-12.46822
457.553	6.49786
457.763	40.22009
457.974	50.75953
458.184	-33.53931
458.395	25.46587
458.606	-58.82135
458.816	-56.71465
459.027	-1.93175
459.237	14.92785
459.448	-8.2537
459.659	-25.11117
459.869	21.25059
460.08	57.08346
460.29	6.49786
460.501	-50.3944
460.711	-1.93175
460.922	10.7128
461.132	-20.89695
461.343	36.00449
461.553	48.65159
461.764	-56.71465
461.974	14.92785
462.184	6.49786
462.395	48.65159
462.605	6.49786
462.816	-10.36097
463.026	31.78897
463.236	-16.68263
463.447	-18.7898
463.657	54.97546
463.867	23.35822
464.078	-18.7898
464.288	69.73195
464.498	10.7128
464.709	-39.86016
464.919	-14.57544
465.129	52.86748
465.339	19.14299
465.55	-1.93175
465.76	-77.78048
465.97	-69.35446
466.18	-31.43231
466.391	-14.57544
466.601	14.92785
466.811	-16.68263
467.021	-79.88693
467.231	-18.7898
467.441	59.19149
467.651	46.54368
467.862	14.92785
468.072	-10.36097
468.282	31.78897
468.492	8.60532
468.702	50.75953
468.912	23.35822
469.122	23.35822
469.332	65.5157
469.542	61.29953
469.752	33.89672
469.962	0.17561
470.172	10.7128
470.382	-69.35446
470.592	14.92785
470.802	63.4076
471.012	-8.2537
471.222	-67.24789
471.432	33.89672
471.642	-44.07393
471.852	-1.93175
472.062	-48.28761
472.272	-31.43231
472.482	69.73195
472.691	-10.36097
472.901	6.49786
473.111	-6.14641
473.321	-8.2537
473.531	-56.71465
473.741	-41.96706
473.95	27.57355
474.16	-27.21824
474.37	-10.36097
474.58	40.22009
474.79	14.92785
474.999	-16.68263
475.209	6.49786
475.419	6.49786
475.628	-14.57544
475.838	38.11228
476.048	0.17561
476.258	65.5157
476.467	61.29953
476.677	27.57355
476.886	10.7128
477.096	-1.93175
477.306	0.17561
477.515	48.65159
477.725	-23.00407
477.935	42.32793
478.144	12.82031
478.354	-25.11117
478.563	27.57355
478.773	23.35822
478.982	8.60532
479.192	17.0354
479.401	82.38126
479.611	-18.7898
479.82	8.60532
480.03	-16.68263
480.239	-14.57544
480.449	-27.21824
480.658	42.32793
480.868	40.22009
481.077	-50.3944
481.287	99.24826
481.496	-10.36097
481.705	88.70622
481.915	31.78897
482.124	42.32793
482.333	-18.7898
482.543	-27.21824
482.752	6.49786
482.961	25.46587
483.171	57.08346
483.38	46.54368
483.589	14.92785
483.799	61.29953
484.008	33.89672
484.217	31.78897
484.426	44.4358
484.636	54.97546
484.845	137.20416
485.054	40.22009
485.263	36.00449
485.472	-1.93175
485.682	-18.7898
485.891	-8.2537
486.1	73.9483
486.309	50.75953
486.518	76.05651
486.727	6.49786
486.936	44.4358
487.146	-16.68263
487.355	-41.96706
487.564	-37.75323
487.773	-10.36097
487.982	-119.90439
488.191	14.92785
488.4	14.92785
488.609	67.62381
488.818	17.0354
489.027	-6.14641
489.236	-29.32529
489.445	82.38126
489.654	71.84011
489.863	14.92785
490.072	73.9483
490.281	27.57355
490.49	2.283
490.698	23.35822
490.907	8.60532
491.116	10.7128
491.325	0.17561
491.534	27.57355
491.743	-6.14641
491.952	8.60532
492.16	17.0354
492.369	33.89672
492.578	-37.75323
492.787	19.14299
492.996	124.55141
493.204	84.48956
493.413	10.7128
493.622	10.7128
493.831	-18.7898
494.039	44.4358
494.248	6.49786
494.457	44.4358
494.665	-20.89695
494.874	-56.71465
495.083	65.5157
495.291	90.81458
495.5	69.73195
495.709	65.5157
495.917	-12.46822
496.126	44.4358
496.335	6.49786
496.543	48.65159
496.752	48.65159
496.96	73.9483
497.169	76.05651
497.377	-1.93175
497.586	44.4358
497.794	23.35822
498.003	2.283
498.211	-39.86016
498.42	59.19149
498.628	31.78897
498.837	50.75953
499.045	17.0354
499.254	88.70622
499.462	6.49786
499.671	65.5157
499.879	31.78897
500.087	97.13981
500.296	61.29953
500.504	69.73195
500.713	86.59788
500.921	-8.2537
501.129	78.16474
501.338	-35.64629
501.546	19.14299
501.754	-1.93175
501.962	82.38126
502.171	73.9483
502.379	141.42191
502.587	61.29953
502.795	8.60532
503.004	2.283
503.212	46.54368
503.42	40.22009
503.628	17.0354
503.837	160.40285
504.045	23.35822
504.253	61.29953
504.461	101.35674
504.669	25.46587
504.877	14.92785
505.085	31.78897
505.294	124.55141
505.502	40.22009
505.71	107.68229
505.918	40.22009
506.126	-37.75323
506.334	-33.53931
506.542	90.81458
506.75	99.24826
506.958	48.65159
507.166	76.05651
507.374	38.11228
507.582	61.29953
507.79	44.4358
507.998	118.22533
508.206	67.62381
508.414	82.38126
508.622	65.5157
508.83	99.24826
509.037	21.25059
509.245	84.48956
509.453	162.51195
509.661	84.48956
509.869	52.86748
510.077	84.48956
510.285	71.84011
510.492	95.03138
510.7	90.81458
510.908	120.334
511.116	52.86748
511.324	99.24826
511.531	78.16474
511.739	57.08346
511.947	27.57355
512.155	109.79086
512.362	65.5157
512.57	61.29953
512.778	29.68125
512.985	147.7487
513.193	67.62381
513.401	40.22009
513.608	154.07568
513.816	107.68229
514.024	99.24826
514.231	99.24826
514.439	99.24826
514.646	118.22533
514.854	92.92297
515.061	116.11668
515.269	111.89944
515.477	27.57355
515.684	137.20416
515.892	101.35674
516.099	80.27299
516.307	114.00805
516.514	90.81458
516.722	50.75953
516.929	101.35674
517.136	33.89672
517.344	175.16697
517.551	128.76891
517.759	149.85767
517.966	185.7134
518.173	82.38126
518.381	158.29377
518.588	158.29377
518.796	137.20416
519.003	95.03138
519.21	183.60407
519.418	107.68229
519.625	141.42191
519.832	107.68229
520.039	124.55141
520.247	82.38126
520.454	132.98649
520.661	105.57375
520.868	78.16474
521.076	132.98649
521.283	151.96666
521.49	76.05651
521.697	135.09531
521.904	90.81458
522.112	126.66015
522.319	57.08346
522.526	213.13647
522.733	137.20416
522.94	65.5157
523.147	132.98649
523.354	132.98649
523.561	166.73021
523.768	111.89944
523.975	65.5157
524.183	132.98649
524.39	122.44269
524.597	202.58873
524.804	114.00805
525.011	120.334
525.218	238.45306
525.425	162.51195
525.632	116.11668
525.838	166.73021
526.045	107.68229
526.252	158.29377
526.459	196.26033
526.666	116.11668
526.873	217.35571
527.08	90.81458
527.287	95.03138
527.494	202.58873
527.701	126.66015
527.907	132.98649
528.114	128.76891
528.321	168.83937
528.528	211.02688
528.735	213.13647
528.941	164.62107
529.148	143.53082
529.355	208.91732
529.562	168.83937
529.768	187.82274
529.975	101.35674
530.182	236.34324
530.388	107.68229
530.595	196.26033
530.802	189.93211
531.008	238.45306
531.215	272.21286
531.422	227.90414
531.628	118.22533
531.835	141.42191
532.042	202.58873
532.248	242.67277
532.455	166.73021
532.661	225.79441
532.868	183.60407
533.074	261.6624
533.281	223.68471
533.487	244.78265
533.694	181.49477
533.9	295.42551
534.107	217.35571
534.313	208.91732
534.52	352.41131
534.726	232.12365
534.933	301.75662
535.139	208.91732
535.345	221.57502
535.552	369.29844
535.758	234.23344
535.965	280.65356
536.171	276.43317
536.377	230.01389
536.584	230.01389
536.79	253.22237
536.996	293.31517
537.203	238.45306
537.409	213.13647
537.615	272.21286
537.821	246.89255
538.028	305.97745
538.234	242.67277
538.44	343.96815
538.646	244.78265
538.853	320.75093
539.059	350.30049
539.265	356.63299
539.471	291.20486
539.677	284.87402
539.883	346.07892
540.09	297.53586
540.296	301.75662
540.502	297.53586
540.708	234.23344
540.914	352.41131
541.12	289.09456
541.326	318.64038
541.532	352.41131
541.738	272.21286
541.944	386.18665
542.15	310.19835
542.356	337.63597
542.562	348.18969
542.768	386.18665
542.974	428.41181
543.18	293.31517
543.386	386.18665
543.592	396.74233
543.798	375.63139
544.004	360.85473
544.21	411.52097
544.415	386.18665
544.621	411.52097
544.827	394.63116
545.033	472.75504
545.239	388.29776
545.445	493.87323
545.651	377.74241
545.856	381.9645
546.062	472.75504
546.268	424.189
546.474	356.63299
546.679	491.76134
546.885	327.08269
547.091	443.19213
547.297	447.41521
547.502	447.41521
547.708	428.41181
547.914	453.74996
548.119	346.07892
548.325	438.9691
548.531	394.63116
548.736	470.64331
548.942	352.41131
549.147	521.32906
549.353	514.99288
549.559	445.30366
549.764	441.0806
549.97	476.97856
550.175	398.85351
550.381	567.79819
550.586	495.98513
550.792	576.24783
550.997	487.53762
551.203	658.64259
551.408	500.20897
551.614	584.69769
551.819	542.45056
552.025	538.22615
552.23	605.82323
552.435	652.30387
552.641	534.00179
552.846	529.77749
553.052	487.53762
553.257	658.64259
553.462	523.44114
553.668	622.72459
553.873	521.32906
554.078	648.07811
554.283	574.1354
554.489	622.72459
554.694	531.88963
554.899	588.92269
555.105	531.88963
555.31	690.3378
555.515	631.17557
555.72	690.3378
555.925	605.82323
556.131	648.07811
556.336	599.48543
556.541	675.54638
556.746	639.62674
556.951	664.98142
557.156	675.54638
557.361	679.77244
557.567	768.52992
557.772	588.92269
557.977	643.8524
558.182	745.2821
558.387	703.0166
558.592	724.14881
558.797	724.14881
559.002	741.05536
559.207	652.30387
559.412	772.75693
559.617	705.12977
559.822	715.6958
560.027	641.73957
560.232	730.48869
560.437	654.41676
560.642	779.09752
560.847	770.64342
561.051	817.14286
561.256	791.77895
561.461	796.00618
561.666	764.30296
561.871	889.01429
562.076	692.4509
562.281	872.10247
562.485	757.96258
562.69	859.41896
562.895	726.26209
563.1	791.77895
563.305	791.77895
563.509	971.46647
563.714	745.2821
563.919	924.95358
564.123	846.73576
564.328	732.602
564.533	817.14286
564.737	855.19119
564.942	791.77895
565.147	971.46647
565.351	800.23344
565.556	960.89506
565.761	886.90028
565.965	905.92662
566.17	914.38297
566.374	893.24232
566.579	884.78628
566.784	929.18188
566.988	1003.18171
567.193	1068.73092
567.397	903.81255
567.602	977.8094
567.806	819.25658
568.011	935.52439
568.215	886.90028
568.42	927.06773
568.624	937.63857
568.828	1020.09709
569.033	927.06773
569.237	1005.29611
569.442	918.61119
569.646	929.18188
569.85	935.52439
570.055	1197.72897
570.259	994.72417
570.463	1089.87697
570.668	920.72532
570.872	1087.76234
571.076	1041.24186
571.281	986.26673
571.485	1047.58541
571.689	1106.79417
571.893	1053.929
572.098	1087.76234
572.302	1104.6795
572.506	1024.326
572.71	1030.6694
572.914	1130.05582
573.119	1062.38721
573.323	1157.54755
573.527	1172.35107
573.731	1227.33715
573.935	1108.90884
574.139	1132.17054
574.343	1132.17054
574.547	1125.82639
574.751	1155.43277
574.955	1366.92527
575.159	1079.30388
575.364	1214.64785
575.568	1108.90884
575.772	1199.84382
575.976	1140.62947
576.18	1256.94593
576.383	1231.56694
576.587	1400.76588
576.791	1070.8455
576.995	1273.86547
577.199	1168.12147
577.403	1421.91635
577.607	1307.70499
577.811	1345.77504
578.015	1191.38445
578.219	1350.00508
578.422	1273.86547
578.626	1364.81025
578.83	1157.54755
579.034	1400.76588
579.238	1201.95867
579.442	1347.89006
579.645	1189.26961
579.849	1299.24506
580.053	1280.21034
580.257	1512.86348
580.46	1248.48622
580.664	1468.44748
580.868	1288.67019
581.071	1506.51835
581.275	1362.69522
581.479	1453.64212
581.682	1362.69522
581.886	1498.05817
582.09	1512.86348
582.293	1468.44748
582.497	1381.73051
582.7	1582.65925
582.904	1502.28826
583.107	1677.83222
583.311	1337.31498
583.515	1514.97852
583.718	1563.62418
583.922	1557.27913
584.125	1468.44748
584.329	1483.25284
584.532	1540.35894
584.735	1620.72898
584.939	1569.96922
585.142	1563.62418
585.346	1519.2086
585.549	1696.86621
585.753	1468.44748
585.956	1715.89994
586.159	1614.38407
586.363	1548.81904
586.566	1605.92416
586.769	1798.37617
586.973	1620.72898
587.176	1827.98152
587.379	1679.94712
587.582	1749.73703
587.786	1586.88925
587.989	1760.31093
588.192	1730.70378
588.395	1806.83493
588.599	1605.92416
588.802	1637.64864
589.005	1624.95891
589.208	1988.67897
589.411	1722.24446
589.615	1772.99949
589.818	1745.50744
590.021	1808.94961
590.224	1722.24446
590.427	1940.05026
590.63	1785.6879
590.833	1851.24224
591.036	1756.08138
591.239	1897.7619
591.442	1673.60242
591.645	1959.07927
591.848	1671.48751
592.051	1925.24959
592.254	1764.54046
592.457	2003.47836
592.66	1789.91734
592.863	2060.55867
593.066	1815.29362
593.269	1870.27331
593.472	1908.3342
593.675	2130.31642
593.878	1971.765
594.081	2069.01458
594.284	1954.85064
594.486	1959.07927
594.689	1863.92967
594.892	2128.20267
595.095	1821.63759
595.298	2024.6198
595.5	1925.24959
595.703	2178.93046
595.906	2071.12854
596.109	2119.74759
596.311	1792.03205
596.514	2024.6198
596.717	1969.65073
596.92	2147.22613
597.122	1910.44864
597.325	2102.83707
597.528	1956.96496
597.73	2305.72839
597.933	2132.43016
598.136	2307.84141
598.338	2162.02171
598.541	2314.18041
598.743	2043.64651
598.946	2233.88016
599.148	2229.65347
599.351	2109.17857
599.554	2309.95442
599.756	2335.30979
599.959	2252.89984
600.161	2373.34019
600.363	2252.89984
600.566	2339.53555
600.768	2267.69242
600.971	2436.71683
601.173	2449.39101
601.376	2521.20389
601.578	2219.08659
601.78	2415.59233
601.983	2261.35279
602.185	2312.06742
602.388	2197.95217
602.59	2415.59233
602.792	2322.63228
602.995	2550.77008
603.197	2347.98695
603.399	2677.45572
603.601	2438.82922
603.804	2525.42777
604.006	2271.91878
604.208	2436.71683
604.41	2221.19998
604.613	2510.64399
604.815	2259.23957
605.017	2430.37959
605.219	2284.59767
605.421	2550.77008
605.623	2339.53555
605.826	2609.89553
606.028	2297.27621
606.23	2500.0838
606.432	2599.33811
606.634	2586.6688
606.836	2221.19998
607.038	2491.63544
607.24	2434.60442
607.442	2462.0648
607.644	2242.33344
607.846	2662.67803
608.048	2445.16632
608.25	2755.55585
608.452	2586.6688
608.654	2728.11731
608.856	2525.42777
609.058	2628.89813
609.26	2451.50334
609.462	2434.60442
609.664	2597.22659
609.866	2846.2978
610.067	2738.67086
610.269	2563.44061
610.471	2698.56562
610.673	2660.56688
610.875	2502.19586
611.077	2582.4456
611.278	2571.88739
611.48	2702.78745
611.682	2512.75599
611.884	2797.76456
612.085	2595.11505
612.287	2820.97703
612.489	2584.55721
612.69	2757.66642
612.892	2679.56677
613.094	2837.85776
613.295	2529.65161
613.497	2595.11505
613.699	2593.00351
613.9	2856.84752
614.102	2867.39689
614.304	3038.24579
614.505	2468.40155
614.707	2882.16541
614.908	2753.44528
615.11	2892.71392
615.311	2675.34466
615.513	2869.50672
615.714	2563.44061
615.916	2873.72634
616.117	2730.22805
616.319	2884.27514
616.52	2890.60425
616.722	2804.0954
616.923	2763.99803
617.124	2955.99737
617.326	2713.34179
617.527	2934.90436
617.729	2763.99803
617.93	2932.79497
618.131	2730.22805
618.333	2829.41751
618.534	2761.8875
618.735	2911.70034
618.937	2745.00283
619.138	2924.3573
619.339	2831.52759
619.54	3006.61452
619.742	2690.12182
619.943	3023.48496
620.144	2723.8958
620.345	2987.6341
620.546	2820.97703
620.748	3118.36272
620.949	2728.11731
621.15	2871.61654
621.351	2884.27514
621.552	2966.54332
621.753	2871.61654
621.954	3086.74033
622.155	2890.60425
622.356	3139.44232
622.558	2972.87072
622.759	3080.41542
622.96	2793.54394
623.161	3012.94105
623.362	3000.28785
623.563	3293.27378
623.764	2863.17719
623.965	3126.79475
624.166	3109.93043
624.366	3122.57876
624.567	2871.61654
624.768	3050.89734
624.969	2877.94591
625.17	3095.17331
625.371	2884.27514
625.572	3025.5937
625.773	2924.3573
625.973	3168.95105
626.174	2981.30703
626.375	3057.2229
626.576	3023.48496
626.777	3301.70032
626.977	2949.66962
627.178	3126.79475
627.379	2842.07781
627.58	3267.99252
627.78	2854.7376
627.981	3141.55019
628.182	2985.52509
628.382	3057.2229
628.583	3031.91982
628.784	3109.93043
628.984	3048.78878
629.185	3236.38753
629.386	3097.28152
629.586	3419.64282
629.787	2989.7431
629.987	3253.244
630.188	3211.10083
630.388	3411.22018
630.589	3067.76519
630.79	3261.67183
630.99	3074.09038
631.191	3107.82232
631.391	3034.02849
631.591	3301.70032
631.792	3162.62802
631.992	3341.72264
632.193	3289.06041
632.393	3383.84464
632.594	3238.49465
632.794	3411.22018
632.994	3112.03852
633.195	3402.79726
633.395	2896.93323
633.595	3227.9589
633.796	3259.5649
633.996	3335.40374
634.196	3236.38753
634.397	3280.63346
634.597	3183.70422
634.797	3579.61814
634.997	3272.20624
635.198	3352.2538
635.398	3187.91926
635.598	3356.46614
635.798	3015.04986
635.998	3329.08469
636.199	3185.81175
636.399	3465.96224
636.599	3272.20624
636.799	3508.06324
636.999	3217.42273
637.199	3505.95836
637.399	3272.20624
637.599	3512.27294
637.799	3316.44611
637.999	3520.69212
638.199	3280.63346
638.399	3409.11448
638.599	3333.29741
638.799	3411.22018
638.999	3419.64282
639.199	3619.59536
639.399	3472.27785
639.599	3558.5748
639.799	3320.65904
639.999	3710.04492
640.199	3537.5296
640.399	3663.7728
640.599	3270.09939
640.799	3789.9475
640.998	3505.95836
641.198	3760.51298
641.398	3487.01365
641.598	3579.61814
641.798	3421.74844
641.997	3537.5296
642.197	3430.17072
642.397	3802.56113
642.597	3352.2538
642.796	3566.99236
642.996	3438.59272
643.196	3768.92323
643.395	3579.61814
643.595	3798.35666
643.795	3318.55258
643.994	3716.35404
644.194	3621.69923
644.394	3825.68426
644.593	3800.4589
644.793	3630.11455
644.992	3604.86769
645.192	3756.30773
645.392	3573.30533
645.591	3844.60141
645.791	3707.94184
645.99	3623.80309
646.19	3409.11448
646.389	3817.27612
646.589	3775.23072
646.788	3880.32941
646.987	3697.42617
647.187	3874.02489
647.386	3646.94428
647.586	3848.805
647.785	3510.1681
647.984	3968.57372
648.184	3657.46225
648.383	3976.97608
648.582	3672.1866
648.782	3911.84932
648.981	3764.71814
649.18	4042.08325
649.38	3865.61858
649.579	3905.5457
649.778	3848.805
649.977	4100.87269
650.177	3857.21195
650.376	3985.37811
650.575	3665.87628
650.774	3853.00851
650.973	3859.31364
651.173	3777.33318
651.372	3834.09208
651.571	3911.84932
651.77	3825.68426
651.969	4023.1832
652.168	4000.08088
652.367	3861.4153
652.566	3808.86767
652.765	4134.45933
652.964	3987.47857
653.163	4067.28072
653.362	3949.66723
653.561	3844.60141
653.76	3991.67942
653.959	3989.57901
654.158	4075.67921
654.357	4079.87833
654.556	3867.72018
654.755	4144.95406
654.954	3918.15276
655.153	4279.23985
655.352	3874.02489
655.551	4277.1423
655.749	3932.86008
655.948	4168.0406
656.147	4105.07132
656.346	4159.64579
656.545	4071.48001
656.743	4060.98163
656.942	4079.87833
657.141	4289.72725
657.34	3869.82177
657.538	4159.64579
657.737	4094.5746
657.936	4291.82466
658.135	3970.67434
658.333	4100.87269
658.532	4147.05294
658.731	4233.08893
658.929	4121.86497
659.128	4386.18604
659.326	3981.17714
659.525	4327.47744
659.724	3850.90677
659.922	4180.63219
660.121	4002.1812
660.319	4140.75623
660.518	4023.1832
660.716	4094.5746
660.915	4165.94193
661.113	4302.31142
661.312	4010.58225
661.51	4444.87758
661.709	4218.40238
661.907	4361.02729
662.105	4117.66668
662.304	4237.28489
662.502	4285.53235
662.701	4325.38039
662.899	4126.06317
663.097	4241.48077
663.296	4084.07737
663.494	4092.4752
663.692	4126.06317
663.891	4316.99198
664.089	4258.26344
664.287	4539.16721
664.485	4193.22301
664.684	4411.34166
664.882	4306.50597
665.08	4348.44675
665.278	4048.3829
665.476	4413.43782
665.675	3844.60141
665.873	4453.26069
666.071	4012.68246
666.269	4247.77443
666.467	4212.10782
666.665	4291.82466
666.863	4096.67399
667.061	4354.73712
667.259	4323.28332
667.457	4411.34166
667.655	3985.37811
667.853	4174.33649
668.051	4126.06317
668.249	4484.6942
668.447	4243.57868
668.645	4283.43487
668.843	4044.18316
669.041	4319.08911
669.239	4176.43508
669.437	4361.02729
669.635	4199.51814
669.833	4293.92206
670.031	4251.9701
670.229	4528.69279
670.426	4367.31728
670.624	4446.97339
670.822	4281.33737
671.02	4319.08911
671.218	4287.62981
671.415	4277.1423
671.613	4100.87269
671.811	4390.37886
672.009	4327.47744
672.206	4581.05933
672.404	4346.34992
672.602	4486.7896
672.799	4436.49413
672.997	4568.49263
673.195	4155.44826
673.392	4390.37886
673.59	4184.82921
673.788	4528.69279
673.985	3907.64693
674.183	4497.26622
674.38	4541.26203
674.578	4570.58713
674.775	4155.44826
674.973	4461.64344
675.17	4268.75191
675.368	4268.75191
675.565	4189.02616
675.763	4476.31242
675.96	4008.48201
676.158	4344.25306
676.355	4096.67399
676.553	4524.50287
676.75	4344.25306
676.947	4272.94715
677.145	4279.23985
677.342	4218.40238
677.539	4449.06918
677.737	4396.66793
677.934	4285.53235
678.131	4377.80014
678.329	4323.28332
678.526	4537.07237
678.723	4117.66668
678.92	4562.20898
679.118	4457.45211
679.315	4449.06918
679.512	4321.18623
679.709	4572.68162
679.906	4465.83469
680.104	4717.147
680.301	4390.37886
680.498	4455.35641
680.695	4354.73712
680.892	4354.73712
681.089	4210.00959
681.286	4453.26069
681.483	4016.88282
681.68	4507.7423
681.877	4434.39821
682.075	4664.81681
682.272	4144.95406
682.469	4656.44267
682.665	4379.89665
682.862	4415.53395
683.059	4344.25306
683.256	4549.64107
683.453	4298.11678
683.65	4470.02585
683.847	4428.11032
684.044	4442.78175
684.241	4346.34992
684.438	4629.22425
684.635	4335.86542
684.831	4656.44267
685.028	4226.79482
685.225	4388.28246
685.422	4262.45889
685.619	4457.45211
685.815	4298.11678
686.012	4522.40788
686.209	4155.44826
686.405	4463.73908
686.602	4331.67148
686.799	4419.72616
686.996	4262.45889
687.192	4495.17094
687.389	4296.01943
687.586	4402.9568
687.782	4149.1518
687.979	4558.01976
688.175	4233.08893
688.372	4356.83387
688.568	4018.98297
688.765	4495.17094
688.962	4400.86053
689.158	4654.34908
689.355	4377.80014
689.551	4583.1537
689.748	4220.50052
689.944	4243.57868
690.14	4405.05305
690.337	4444.87758
690.533	4210.00959
690.73	4436.49413
690.926	4377.80014
691.123	4182.73071
691.319	4205.81308
691.515	4224.69674
691.712	4067.28072
691.908	4312.79764
692.104	4312.79764
692.301	4488.88497
692.497	4226.79482
692.693	4495.17094
692.889	4077.77878
693.086	4344.25306
693.282	4363.12398
693.478	4358.93059
693.674	4189.02616
693.87	4354.73712
694.067	4159.64579
694.263	4272.94715
694.459	4218.40238
694.655	4549.64107
694.851	4281.33737
695.047	4279.23985
695.243	4254.0679
695.439	4258.26344
695.635	4241.48077
695.831	4478.4079
696.027	4176.43508
696.224	4329.57447
696.42	4264.55659
696.615	4461.64344
696.811	4423.91829
697.007	4398.76424
697.203	4117.66668
697.399	4470.02585
697.595	4084.07737
697.791	4501.45672
697.987	4375.70361
698.183	4526.59784
698.379	4346.34992
698.575	4675.28397
698.77	4528.69279
698.966	4386.18604
699.162	4329.57447
699.358	4534.97751
699.554	4245.67657
699.749	4666.91028
699.945	4207.91135
700.141	4312.79764
700.337	4077.77878
700.532	4386.18604
700.728	4256.16568
700.924	4415.53395
701.119	4298.11678
701.315	4434.39821
701.511	4044.18316
701.706	4335.86542
701.902	4159.64579
702.097	4373.60706
702.293	4147.05294
702.489	4170.13925
702.684	4180.63219
702.88	4446.97339
703.075	4218.40238
703.271	4210.00959
703.466	4281.33737
703.662	4388.28246
703.857	4170.13925
704.053	4411.34166
704.248	4260.36118
704.443	4549.64107
704.639	4331.67148
704.834	4377.80014
705.03	4298.11678
705.225	4369.41389
705.42	4335.86542
705.616	4314.89482
705.811	4264.55659
706.006	4298.11678
706.202	3983.27764
706.397	4193.22301
706.592	4218.40238
706.787	4637.59955
706.983	4285.53235
707.178	4589.43669
707.373	4377.80014
707.568	4541.26203
707.763	3976.97608
707.959	4352.64035
708.154	4268.75191
708.349	4446.97339
708.544	4262.45889
708.739	4331.67148
708.934	4134.45933
709.129	4549.64107
709.324	4107.1706
709.519	4377.80014
709.714	4092.4752
709.909	4354.73712
710.104	4251.9701
710.299	4386.18604
710.494	4119.76584
710.689	4365.22064
710.884	4251.9701
711.079	4369.41389
711.274	4260.36118
711.469	4373.60706
711.664	4186.92769
711.859	4532.88263
712.054	4121.86497
712.249	4207.91135
712.443	4195.32141
712.638	4247.77443
712.833	3903.44445
713.028	4394.5716
713.223	4126.06317
713.417	4377.80014
713.612	4142.85515
713.807	4426.01431
714.002	4214.20603
714.196	4159.64579
714.391	3924.45602
714.586	4239.38284
714.78	4010.58225
714.975	4247.77443
715.17	3983.27764
715.364	4218.40238
715.559	4071.48001
715.754	4168.0406
715.948	4016.88282
716.143	4168.0406
716.337	4042.08325
716.532	4331.67148
716.726	3991.67942
716.921	4354.73712
717.115	3974.87552
717.31	4375.70361
717.504	4189.02616
717.699	4423.91829
717.893	4018.98297
718.088	4337.96236
718.282	4117.66668
718.476	4440.6859
718.671	4052.58256
718.865	4224.69674
719.059	3922.35495
719.254	4390.37886
719.448	4006.38176
719.642	4419.72616
719.837	4033.68344
720.031	4352.64035
720.225	3937.06199
720.419	4222.59864
720.614	3924.45602
720.808	4067.28072
721.002	3876.12641
721.196	4230.99091
721.39	3941.26382
721.585	4063.08135
721.779	3823.58225
721.973	4155.44826
722.167	3945.46556
722.361	4159.64579
722.555	4153.34946
722.749	3976.97608
722.943	3756.30773
723.137	4092.4752
723.331	4012.68246
723.525	4008.48201
723.719	4025.28329
723.913	4230.99091
724.107	3920.25386
724.301	4016.88282
724.495	3932.86008
724.689	4163.84324
724.883	4069.38037
725.077	4182.73071
725.271	4069.38037
725.465	4180.63219
725.659	3884.53232
725.853	4138.65728
726.046	3979.07662
726.24	3945.46556
726.434	3829.88821
726.628	4052.58256
726.822	3953.86882
727.015	3983.27764
727.209	3951.76803
727.403	3951.76803
727.596	3989.57901
727.79	4113.46831
727.984	3985.37811
728.177	4323.28332
728.371	3806.76551
728.565	4121.86497
728.758	4058.88189
728.952	4275.04474
729.146	3951.76803
729.339	4046.28304
729.533	4058.88189
729.726	4144.95406
729.92	3976.97608
730.113	4180.63219
730.307	3838.29587
730.5	3869.82177
730.694	4033.68344
730.887	4063.08135
731.081	3974.87552
731.274	3916.05163
731.468	3916.05163
731.661	4008.48201
731.854	3714.25102
732.048	3983.27764
732.241	3882.43088
732.435	4054.68236
732.628	3943.3647
732.821	4067.28072
733.014	4050.48274
733.208	3928.65809
733.401	3981.17714
733.594	4218.40238
733.788	4165.94193
733.981	4100.87269
734.174	4033.68344
734.367	4170.13925
734.56	3890.83655
734.754	4023.1832
734.947	3874.02489
735.14	3907.64693
735.333	4115.56751
735.526	4153.34946
735.719	3953.86882
735.912	4067.28072
736.105	3907.64693
736.298	4117.66668
736.491	4096.67399
736.684	3813.07194
736.877	3966.47308
737.07	4010.58225
737.263	4117.66668
737.456	4050.48274
737.649	3958.07032
737.842	4044.18316
738.035	4058.88189
738.228	3979.07662
738.421	3981.17714
738.614	4115.56751
738.807	4075.67921
739	4186.92769
739.192	4149.1518
739.385	4123.96408
739.578	3897.14059
739.771	4016.88282
739.964	3926.55706
740.156	4056.78214
740.349	3884.53232
740.542	4126.06317
740.735	3777.33318
740.927	3974.87552
741.12	3905.5457
741.313	4018.98297
741.505	4142.85515
741.698	3960.17104
741.891	4050.48274
742.083	4379.89665
742.276	3920.25386
742.468	4000.08088
742.661	3825.68426
742.854	3945.46556
743.046	3878.22792
743.239	3874.02489
743.431	4079.87833
743.624	3985.37811
743.816	4123.96408
744.009	4067.28072
744.201	3970.67434
744.393	4006.38176
744.586	3714.25102
744.778	4092.4752
744.971	3745.79428
745.163	4254.0679
745.355	4096.67399
745.548	3983.27764
745.74	3846.70321
745.932	3962.27174
746.125	3926.55706
746.317	3834.09208
746.509	3777.33318
746.702	4079.87833
746.894	3773.12824
747.086	3937.06199
747.278	3911.84932
747.471	3855.11024
747.663	3815.17404
747.855	3953.86882
748.047	3689.01329
748.239	3874.02489
748.431	3819.37819
748.623	4136.55832
748.815	3949.66723
749.008	4088.27633
749.2	4134.45933
749.392	4037.88339
749.584	3817.27612
749.776	3993.77982
749.968	3810.96981
750.16	3871.92334
750.352	3909.74813
750.544	3989.57901
750.736	4102.97202
750.928	3886.63375
751.12	3976.97608
751.311	3918.15276
751.503	4008.48201
751.695	3928.65809
751.887	3781.53803
752.079	3939.16291
752.271	3918.15276
752.463	3890.83655
752.654	3892.93792
752.846	3960.17104
753.038	3794.15212
753.23	3997.98055
753.421	3882.43088
753.613	3863.51695
753.805	3897.14059
753.997	3949.66723
754.188	3775.23072
754.38	3773.12824
754.572	3682.70342
754.763	3947.56641
754.955	3609.07569
755.146	3760.51298
755.338	3640.63327
755.53	3731.07463
755.721	3655.35869
755.913	3659.56578
756.104	3655.35869
756.296	3693.21977
756.487	3634.3221
756.679	3800.4589
756.87	3642.73696
757.062	3762.61557
757.253	3726.86885
757.445	3810.96981
757.636	3590.13911
757.827	3819.37819
758.019	3632.21833
758.21	3726.86885
758.401	3617.49146
758.593	3514.37776
758.784	3461.75174
758.975	3684.80673
759.167	3520.69212
759.358	3653.25512
759.549	3596.45148
759.74	3758.41036
759.932	3588.03496
760.123	3480.69842
760.314	3484.90859
760.505	3665.87628
760.696	3335.40374
760.888	3451.22518
761.079	3491.22371
761.27	3556.47036
761.461	3480.69842
761.652	3752.10241
761.843	3482.80351
762.034	3590.13911
762.225	3535.42498
762.416	3632.21833
762.607	3438.59272
762.798	3512.27294
762.989	3463.857
763.18	3512.27294
763.371	3299.59371
763.562	3381.73871
763.753	3480.69842
763.944	3634.3221
764.135	3470.17267
764.326	3634.3221
764.517	3402.79726
764.708	3489.11869
764.899	3149.98151
765.089	3381.73871
765.28	3394.37405
765.471	3444.90903
765.662	3508.06324
765.853	3373.3148
766.043	3055.11439
766.234	3379.63276
766.425	3059.33139
766.615	3223.74448
766.806	3329.08469
766.997	3295.38044
767.187	3329.08469
767.378	3354.35998
767.569	3259.5649
767.759	3520.69212
767.95	3244.8159
768.141	3385.95056
768.331	3352.2538
768.522	3385.95056
768.712	3440.69818
768.903	3432.27625
769.093	3379.63276
769.284	3371.20878
769.474	3345.93516
769.665	3318.55258
769.855	3158.41258
770.046	3289.06041
770.236	3076.19874
770.426	3187.91926
770.617	3253.244
770.807	3326.9783
770.998	3023.48496
771.188	3263.77874
771.378	3061.43986
771.569	3185.81175
771.759	3143.65804
771.949	3099.38971
772.139	2932.79497
772.33	3048.78878
772.52	3095.17331
772.71	3050.89734
772.9	2937.01372
773.09	3065.65676
773.281	2909.5908
773.471	3310.12659
773.661	3141.55019
773.851	3244.8159
774.041	3048.78878
774.231	3238.49465
774.421	2985.52509
774.611	3044.57163
774.802	2789.32326
774.992	3048.78878
775.182	3067.76519
775.372	3156.30484
775.562	2886.38486
775.752	3025.5937
775.942	2861.06731
776.131	3023.48496
776.321	2797.76456
776.511	2985.52509
776.701	2858.95742
776.891	3059.33139
777.081	2787.2129
777.271	3181.59667
777.461	2812.53633
777.651	2977.0889
777.84	2905.37167
778.03	3074.09038
778.22	2804.0954
778.41	2854.7376
778.599	2905.37167
778.789	2947.56034
778.979	2660.56688
779.169	2998.17893
779.358	2738.67086
779.548	2993.96104
779.738	3101.49789
779.927	2968.65247
780.117	2772.43999
780.307	2770.32952
780.496	2820.97703
780.686	2932.79497
780.875	2688.01083
781.065	2787.2129
781.254	2647.89971
781.444	2901.15248
781.633	2732.33877
781.823	2763.99803
782.012	2685.89984
782.202	2692.23279
782.391	2647.89971
782.581	3118.36272
782.77	2761.8875
782.96	2926.46674
783.149	2863.17719
783.338	2981.30703
783.528	2761.8875
783.717	2964.43416
783.906	2702.78745
784.096	2831.52759
784.285	2692.23279
784.474	2690.12182
784.663	2704.89834
784.853	2766.10854
785.042	2521.20389
785.231	2656.34454
785.42	2641.56596
785.61	2690.12182
785.799	2419.81731
785.988	2620.45265
786.177	2362.77652
786.366	2497.97173
786.555	2736.56018
786.744	2797.76456
786.933	2489.52333
787.122	2770.32952
787.312	2586.6688
787.501	2565.55232
787.69	2430.37959
787.879	2654.23335
788.068	2206.40604
788.257	2400.80455
788.445	2373.34019
788.634	2529.65161
788.823	2394.46678
789.012	2593.00351
789.201	2324.74522
789.39	2476.8504
789.579	2204.29258
789.768	2605.6726
789.957	2305.72839
790.145	2586.6688
790.334	2451.50334
790.523	2455.72795
790.712	2468.40155
790.9	2426.15471
791.089	2533.87539
791.278	2483.18691
791.467	2369.11475
791.655	2677.45572
791.844	2415.59233
792.033	2601.44962
792.221	2449.39101
792.41	2489.52333
792.599	2347.98695
792.787	2390.24154
792.976	2476.8504
793.164	2436.71683
793.353	2612.00698
793.541	2432.49201
793.73	2288.82389
793.918	2326.85816
794.107	2352.21259
794.295	2364.88927
794.484	2259.23957
794.672	2309.95442
794.861	2174.70332
795.049	2426.15471
795.238	2250.78658
795.426	2432.49201
795.614	2335.30979
795.803	2383.90361
795.991	2360.66375
796.179	2354.3254
796.368	2322.63228
796.556	2276.14511
796.744	2162.02171
796.932	2119.74759
797.121	2100.72322
797.309	2271.91878
797.497	2062.67266
797.685	2200.06565
797.874	2128.20267
798.062	2252.89984
798.25	2090.15386
798.438	2229.65347
798.626	2271.91878
798.814	2364.88927
799.002	2250.78658
799.19	2309.95442
799.378	2001.36418
799.566	2303.61536
799.755	2147.22613
799.943	2181.04402
800.131	2069.01458
800.318	2379.67828
800.506	2269.8056
800.694	2326.85816
800.882	2100.72322
801.07	2343.76127
801.258	2020.39156
801.446	2181.04402
801.634	2069.01458
801.822	2153.56714
802.01	2018.27744
802.197	2168.36256
802.385	1882.96046
802.573	2263.46601
802.761	2178.93046
802.949	2314.18041
803.136	2003.47836
803.324	2170.47615
803.512	2299.38927
803.699	2170.47615
803.887	2085.92606
804.075	2324.74522
804.262	2030.96209
804.45	2347.98695
804.638	2111.29239
804.825	2398.69197
805.013	2121.86137
805.201	2246.56003
805.388	2242.33344
805.576	2339.53555
805.763	2240.22014
805.951	2263.46601
806.138	2172.58974
806.326	2301.50232
806.513	2003.47836
806.701	2238.10682
806.888	2233.88016
807.075	2345.87412
807.263	2132.43016
807.45	2229.65347
807.638	2263.46601
807.825	2322.63228
808.012	2145.11245
808.2	2223.31337
808.387	2043.64651
808.574	2367.00202
808.761	2227.54011
808.949	2377.56559
809.136	2174.70332
809.323	2238.10682
809.51	2187.38464
809.698	2318.40636
809.885	1969.65073
810.072	2265.57922
810.259	2094.38162
810.446	2145.11245
810.633	2235.9935
810.82	2314.18041
811.008	2208.51948
811.195	2356.43819
811.382	2274.03195
811.569	2398.69197
811.756	2293.05007
811.943	2214.85977
812.13	2263.46601
812.317	2263.46601
812.504	2288.82389
812.691	2451.50334
812.878	2187.38464
813.064	2347.98695
813.251	2208.51948
813.438	2424.04226
813.625	2271.91878
813.812	2411.3673
813.999	2113.4062
814.186	2392.35417
814.372	2153.56714
814.559	2145.11245
814.746	2140.88505
814.933	2263.46601
815.12	2039.4184
815.306	2174.70332
815.493	2221.19998
815.68	2229.65347
815.866	2045.76055
816.053	2261.35279
816.24	2098.60936
816.426	2305.72839
816.613	2166.24895
816.799	2322.63228
816.986	2162.02171
817.173	2113.4062
817.359	2102.83707
817.546	2377.56559
817.732	2037.30433
817.919	2297.27621
818.105	2140.88505
818.292	2181.04402
818.478	2107.06474
818.665	2157.79445
818.851	2088.03996
819.037	2276.14511
819.224	2003.47836
819.41	2210.63292
819.597	2123.97514
819.783	2187.38464
819.969	2043.64651
820.156	2339.53555
820.342	2102.83707
820.528	2208.51948
820.714	1971.765
820.901	2195.83868
821.087	2033.07618
821.273	2413.47982
821.459	2166.24895
821.646	2250.78658
821.832	1927.36399
822.018	2436.71683
822.204	1918.90636
822.39	2094.38162
822.576	1980.22204
822.762	2092.26775
822.948	1777.22897
823.134	2181.04402
823.32	1959.07927
823.507	2238.10682
823.693	2056.33067
823.879	2339.53555
824.065	2054.21666
824.25	2288.82389
824.436	2018.27744
824.622	2187.38464
824.808	1992.9074
824.994	2100.72322
825.18	1940.05026
825.366	2231.76682
825.552	1929.47838
825.738	2246.56003
825.923	2009.82086
826.109	2261.35279
826.295	2071.12854
826.481	2119.74759
826.667	2009.82086
826.852	2265.57922
827.038	2056.33067
827.224	2134.54389
827.409	1882.96046
827.595	2113.4062
827.781	1880.84595
827.966	2018.27744
828.152	1696.86621
828.338	2100.72322
828.523	1772.99949
828.709	1904.1053
828.894	1720.12963
829.08	1940.05026
829.266	1908.3342
829.451	1789.91734
829.637	1986.56475
829.822	1967.53645
830.008	1747.62224
830.193	1804.72024
830.378	1789.91734
830.564	1910.44864
830.749	1724.3593
830.935	1751.85182
831.12	1798.37617
831.305	1904.1053
831.491	1827.98152
831.676	1929.47838
831.861	1785.6879
832.047	1781.45845
832.232	1654.56816
832.417	1899.87637
832.602	1806.83493
832.788	1855.4714
832.973	1618.61401
833.158	1798.37617
833.343	1684.17691
833.528	1906.21975
833.714	1777.22897
833.899	1789.91734
834.084	1760.31093
834.269	1937.93589
834.454	1751.85182
834.639	1952.73632
834.824	1553.04909
835.009	1956.96496
835.194	1673.60242
835.379	1992.9074
835.564	1698.98108
835.749	1705.32568
835.934	1660.91294
836.119	1832.21079
836.304	1586.88925
836.489	1815.29362
836.674	1658.79801
836.859	1747.62224
837.044	1777.22897
837.228	1667.25769
837.413	1586.88925
837.598	1849.12766
837.783	1538.24391
837.968	1762.4257
838.152	1633.41874
838.337	1792.03205
838.522	1610.15412
838.707	1715.89994
838.891	1550.93407
839.076	1637.64864
839.261	1481.13779
839.445	1663.02786
839.63	1544.58899
839.815	1648.22336
839.999	1479.02274
840.184	1741.27784
840.368	1578.42925
840.553	1718.01479
840.737	1413.45615
840.922	1504.40331
841.106	1603.80918
841.291	1616.49904
841.475	1498.05817
841.66	1641.87854
841.844	1443.06686
842.029	1652.45323
842.213	1438.83675
842.397	1504.40331
842.582	1366.92527
842.766	1489.59798
842.951	1290.78516
843.135	1616.49904
843.319	1360.58019
843.504	1506.51835
843.688	1569.96922
843.872	1472.67759
844.056	1455.75717
844.241	1624.95891
844.425	1453.64212
844.609	1536.12888
844.793	1400.76588
844.977	1495.94313
845.161	1206.18839
845.346	1468.44748
845.53	1278.09538
845.714	1360.58019
845.898	1248.48622
846.082	1510.74844
846.266	1237.91165
846.45	1404.99596
846.634	1265.40568
846.818	1326.73995
847.002	1265.40568
847.186	1555.16411
847.37	1189.26961
847.554	1430.37655
847.738	1345.77504
847.922	1443.06686
848.106	1307.70499
848.29	1430.37655
848.473	1369.04031
848.657	1193.49929
848.841	1307.70499
849.025	1366.92527
849.209	1166.00668
849.392	1383.84555
849.576	1182.92513
849.76	1326.73995
849.944	1121.59697
850.127	1256.94593
850.311	1047.58541
850.495	1182.92513
850.678	1096.22088
850.862	1199.84382
851.046	1233.68184
851.229	1341.54501
851.413	1324.62495
851.596	1388.07562
851.78	1411.3411
851.964	1371.15534
852.147	1123.71168
852.331	1201.95867
852.514	1013.75377
852.698	1178.6955
852.881	1087.76234
853.065	1185.03996
853.248	1077.18928
853.431	1104.6795
853.615	1146.97372
853.798	1199.84382
853.982	1140.62947
854.165	1096.22088
854.348	979.92372
854.532	1075.07468
854.715	899.58443
854.898	1182.92513
855.081	979.92372
855.265	1290.78516
855.448	901.69849
855.631	1041.24186
855.814	1003.18171
855.997	1049.69993
856.181	918.61119
856.364	1100.45018
856.547	969.35217
856.73	996.83854
856.913	850.96346
857.096	1250.60115
857.279	963.00932
857.462	1026.44046
857.645	893.24232
857.828	903.81255
858.011	901.69849
858.194	1037.01286
858.377	882.67229
858.56	1083.5331
858.743	872.10247
858.926	994.72417
859.109	867.8746
859.292	1020.09709
859.475	838.28047
859.658	941.86696
859.841	804.46074
860.023	834.05287
860.206	842.5081
860.389	821.37031
860.572	869.98853
860.755	941.86696
860.937	825.5978
861.12	960.89506
861.303	821.37031
861.486	1083.5331
861.668	863.64677
861.851	895.35635
862.034	808.68807
862.216	908.04069
862.399	785.43819
862.581	850.96346
862.764	842.5081
862.947	808.68807
863.129	755.84914
863.312	825.5978
863.494	709.35615
863.677	812.91545
863.859	836.16667
864.042	800.23344
864.224	850.96346
864.406	884.78628
864.589	787.55177
864.771	884.78628
864.954	677.6594
865.136	770.64342
865.318	724.14881
865.501	643.8524
865.683	673.43336
865.865	664.98142
866.048	804.46074
866.23	743.16873
866.412	654.41676
866.594	713.58257
866.777	654.41676
866.959	844.62192
867.141	675.54638
867.323	734.71533
867.505	669.20737
867.687	760.07603
867.869	641.73957
868.052	804.46074
868.234	514.99288
868.416	760.07603
868.598	671.32036
868.78	711.46935
868.962	730.48869
869.144	796.00618
869.326	629.0628
869.508	698.79028
869.69	641.73957
869.872	694.56402
870.054	601.59802
870.236	667.09439
870.417	669.20737
870.599	677.6594
870.781	626.95005
870.963	760.07603
871.145	641.73957
871.327	732.602
871.508	593.14775
871.69	681.88549
871.872	641.73957
872.054	656.52967
872.235	525.55324
872.417	635.40113
872.599	531.88963
872.78	616.38649
872.962	605.82323
873.144	610.0485
873.325	559.34876
873.507	707.24295
873.689	605.82323
873.87	776.98398
874.052	546.67503
874.233	650.19098
874.415	686.11162
874.596	633.28834
874.778	506.54484
874.959	624.83732
875.141	521.32906
875.322	656.52967
875.503	635.40113
875.685	601.59802
875.866	525.55324
876.048	648.07811
876.229	521.32906
876.41	597.37286
876.592	542.45056
876.773	664.98142
876.954	601.59802
877.136	572.02299
877.317	618.49918
877.498	637.51393
877.679	576.24783
877.86	639.62674
878.042	624.83732
878.223	633.28834
878.404	618.49918
878.585	637.51393
878.766	559.34876
878.947	605.82323
879.128	626.95005
879.309	667.09439
879.49	580.47273
879.672	686.11162
879.853	614.27381
880.034	766.41643
880.215	574.1354
880.396	631.17557
880.576	595.2603
880.757	616.38649
880.938	703.0166
881.119	717.80903
881.3	514.99288
881.481	696.67715
881.662	555.12413
881.843	671.32036
882.023	597.37286
882.204	741.05536
882.385	576.24783
882.566	724.14881
882.747	641.73957
882.927	635.40113
883.108	540.33835
883.289	664.98142
883.469	593.14775
883.65	709.35615
883.831	591.03522
884.011	698.79028
884.192	690.3378
884.373	667.09439
884.553	734.71533
884.734	673.43336
884.914	707.24295
885.095	774.87045
885.275	591.03522
885.456	713.58257
885.636	673.43336
885.817	838.28047
885.997	534.00179
886.178	817.14286
886.358	700.90343
886.538	692.4509
886.719	707.24295
886.899	690.3378
887.08	614.27381
887.26	686.11162
887.44	755.84914
887.621	741.05536
887.801	741.05536
887.981	643.8524
888.161	599.48543
888.342	741.05536
888.522	660.75553
888.702	605.82323
888.882	597.37286
889.062	724.14881
889.242	607.93586
889.423	703.0166
889.603	574.1354
889.783	675.54638
889.963	586.81018
890.143	722.03554
890.323	658.64259
890.503	783.32462
890.683	660.75553
890.863	673.43336
891.043	607.93586
891.223	664.98142
891.403	593.14775
891.583	732.602
891.763	540.33835
891.943	683.99855
892.122	624.83732
892.302	669.20737
892.482	614.27381
892.662	732.602
892.842	519.21698
893.022	622.72459
893.201	660.75553
893.381	662.86847
893.561	624.83732
893.741	719.92228
893.92	616.38649
894.1	766.41643
894.28	588.92269
894.459	696.67715
894.639	679.77244
894.819	793.89256
894.998	512.88085
895.178	601.59802
895.357	548.78728
895.537	667.09439
895.716	612.16115
895.896	546.67503
896.075	548.78728
896.255	656.52967
896.434	563.57345
896.614	618.49918
896.793	504.43287
896.973	563.57345
897.152	500.20897
897.331	563.57345
897.511	567.79819
897.69	626.95005
897.87	517.10492
898.049	534.00179
898.228	449.52678
898.407	517.10492
898.587	508.65683
898.766	466.41988
898.945	396.74233
899.124	595.2603
899.304	521.32906
899.483	495.98513
899.662	449.52678
899.841	567.79819
900.02	390.40887
900.199	453.74996
900.378	481.20214
900.557	527.66536
900.737	436.85761
900.916	479.09034
901.095	422.07762
901.274	419.96626
901.453	371.40941
901.632	455.86158
901.811	278.54336
901.989	415.74358
902.168	481.20214
902.347	470.64331
902.526	335.52528
902.705	493.87323
902.884	413.63227
903.063	525.55324
903.242	479.09034
903.42	453.74996
903.599	394.63116
903.778	403.07593
903.957	367.18749
904.135	462.19651
904.314	365.07655
904.493	438.9691
904.672	331.30395
904.85	441.0806
905.029	413.63227
905.207	337.63597
905.386	246.89255
905.565	362.96564
905.743	343.96815
905.922	377.74241
906.1	297.53586
906.279	327.08269
906.457	320.75093
906.636	360.85473
906.814	259.55236
906.993	350.30049
907.171	293.31517
907.35	293.31517
907.528	280.65356
907.707	219.46535
907.885	280.65356
908.063	238.45306
908.242	267.99262
908.42	238.45306
908.598	274.323
908.777	238.45306
908.955	284.87402
909.133	343.96815
909.311	194.1509
909.49	263.77245
909.668	170.94855
909.846	329.19331
910.024	204.69824
910.202	305.97745
910.38	308.08789
910.559	263.77245
910.737	244.78265
910.915	267.99262
911.093	240.56291
911.271	280.65356
911.449	227.90414
911.627	293.31517
911.805	259.55236
911.983	213.13647
912.161	211.02688
912.339	242.67277
912.517	192.04149
912.695	234.23344
912.872	261.6624
913.05	278.54336
913.228	301.75662
913.406	276.43317
913.584	284.87402
913.762	284.87402
913.939	234.23344
914.117	276.43317
914.295	263.77245
914.473	293.31517
914.65	175.16697
914.828	255.33235
915.006	246.89255
915.184	236.34324
915.361	185.7134
915.539	236.34324
915.716	244.78265
915.894	227.90414
916.072	255.33235
916.249	261.6624
916.427	219.46535
916.604	227.90414
916.782	244.78265
916.959	225.79441
917.137	208.91732
917.314	257.44235
917.492	225.79441
917.669	276.43317
917.847	160.40285
918.024	295.42551
918.201	249.00247
918.379	211.02688
918.556	185.7134
918.733	249.00247
918.911	263.77245
919.088	206.80777
919.265	253.22237
919.442	211.02688
919.62	183.60407
919.797	232.12365
919.974	175.16697
920.151	221.57502
920.328	208.91732
920.506	276.43317
920.683	238.45306
920.86	194.1509
921.037	166.73021
921.214	137.20416
921.391	158.29377
921.568	246.89255
921.745	208.91732
921.922	255.33235
922.099	175.16697
922.276	274.323
922.453	219.46535
922.63	181.49477
922.807	162.51195
922.984	151.96666
923.161	116.11668
923.338	151.96666
923.514	192.04149
923.691	204.69824
923.868	120.334
924.045	154.07568
924.222	128.76891
924.399	244.78265
924.575	192.04149
924.752	234.23344
924.929	170.94855
925.105	168.83937
925.282	170.94855
925.459	118.22533
925.635	168.83937
925.812	192.04149
925.989	236.34324
926.165	251.11241
926.342	149.85767
926.518	166.73021
926.695	213.13647
926.871	162.51195
927.048	166.73021
927.224	141.42191
927.401	124.55141
927.577	90.81458
927.754	135.09531
927.93	120.334
928.107	114.00805
928.283	116.11668
928.459	135.09531
928.636	145.63975
928.812	145.63975
928.988	135.09531
929.165	200.47924
929.341	147.7487
929.517	143.53082
929.693	116.11668
929.87	73.9483
930.046	181.49477
930.222	88.70622
930.398	192.04149
930.574	109.79086
930.751	90.81458
930.927	36.00449
931.103	76.05651
931.279	95.03138
931.455	95.03138
931.631	114.00805
931.807	116.11668
931.983	67.62381
932.159	50.75953
932.335	143.53082
932.511	42.32793
932.687	88.70622
932.863	118.22533
933.039	84.48956
933.215	90.81458
933.391	120.334
933.566	57.08346
933.742	76.05651
933.918	118.22533
934.094	86.59788
934.27	168.83937
934.445	69.73195
934.621	109.79086
934.797	78.16474
934.973	61.29953
935.148	57.08346
935.324	101.35674
935.5	137.20416
935.675	59.19149
935.851	-16.68263
936.027	14.92785
936.202	23.35822
936.378	65.5157
936.553	17.0354
936.729	86.59788
936.904	59.19149
937.08	40.22009
937.255	36.00449
937.431	14.92785
937.606	19.14299
937.782	86.59788
937.957	114.00805
938.133	29.68125
938.308	-50.3944
938.483	-8.2537
938.659	2.283
938.834	40.22009
939.009	50.75953
939.185	-81.99334
939.36	84.48956
939.535	38.11228
939.71	17.0354
939.886	44.4358
940.061	-4.03909
940.236	25.46587
940.411	52.86748
940.586	48.65159
940.761	38.11228
940.937	4.39042
941.112	-8.2537
941.287	0.17561
941.462	78.16474
941.637	61.29953
941.812	57.08346
941.987	78.16474
942.162	69.73195
942.337	86.59788
942.512	103.46523
942.687	-44.07393
942.862	6.49786
943.037	40.22009
943.212	0.17561
943.386	84.48956
943.561	19.14299
943.736	-27.21824
943.911	73.9483
944.086	6.49786
944.26	-1.93175
944.435	-33.53931
944.61	-50.3944
944.785	27.57355
944.959	86.59788
945.134	33.89672
945.309	2.283
945.483	6.49786
945.658	67.62381
945.833	36.00449
946.007	61.29953
946.182	50.75953
946.357	-1.93175
946.531	31.78897
946.706	36.00449
946.88	-23.00407
947.055	6.49786
947.229	-8.2537
947.404	82.38126
947.578	-25.11117
947.752	36.00449
947.927	90.81458
948.101	38.11228
948.276	12.82031
948.45	8.60532
948.624	48.65159
948.799	-8.2537
948.973	10.7128
949.147	-56.71465
949.321	-39.86016
949.496	6.49786
949.67	-14.57544
949.844	36.00449
950.018	42.32793
950.193	-10.36097
950.367	59.19149
950.541	27.57355
950.715	2.283
950.889	14.92785
951.063	-20.89695
951.237	33.89672
951.411	73.9483
951.585	-27.21824
951.759	10.7128
951.933	78.16474
952.107	-20.89695
952.281	48.65159
952.455	6.49786
952.629	-16.68263
952.803	2.283
952.977	61.29953
953.151	-16.68263
953.325	27.57355
953.499	23.35822
953.672	73.9483
953.846	17.0354
954.02	52.86748
954.194	54.97546
954.368	48.65159
954.541	42.32793
954.715	6.49786
954.889	48.65159
955.062	6.49786
955.236	48.65159
955.41	14.92785
955.583	92.92297
955.757	0.17561
955.93	78.16474
956.104	-23.00407
956.278	135.09531
956.451	17.0354
956.625	33.89672
956.798	-18.7898
956.972	-50.3944
957.145	78.16474
957.319	-6.14641
957.492	36.00449
957.665	86.59788
957.839	6.49786
958.012	33.89672
958.185	48.65159
958.359	-10.36097
958.532	-1.93175
958.705	38.11228
958.879	2.283
959.052	57.08346
959.225	-4.03909
959.398	38.11228
959.572	44.4358
959.745	59.19149
959.918	40.22009
960.091	-18.7898
960.264	-18.7898
960.438	44.4358
960.611	-33.53931
960.784	36.00449
960.957	65.5157
961.13	42.32793
961.303	-1.93175
961.476	-33.53931
961.649	-16.68263
961.822	0.17561
961.995	59.19149
962.168	6.49786
962.341	44.4358
962.514	10.7128
962.686	52.86748
962.859	-86.2061
963.032	27.57355
963.205	23.35822
963.378	12.82031
963.551	-33.53931
963.723	-46.18078
963.896	17.0354
964.069	82.38126
964.242	4.39042
964.414	61.29953
964.587	6.49786
964.76	33.89672
964.932	40.22009
965.105	78.16474
965.278	31.78897
965.45	6.49786
965.623	-16.68263
965.795	-1.93175
965.968	25.46587
966.14	14.92785
966.313	6.49786
966.485	19.14299
966.658	23.35822
966.83	52.86748
967.003	69.73195
967.175	67.62381
967.348	27.57355
967.52	23.35822
967.692	27.57355
967.865	90.81458
968.037	-41.96706
968.209	57.08346
968.382	25.46587
968.554	44.4358
968.726	65.5157
968.898	69.73195
969.071	17.0354
969.243	40.22009
969.415	10.7128
969.587	109.79086
969.759	6.49786
969.932	31.78897
970.104	27.57355
970.276	40.22009
970.448	-10.36097
970.62	10.7128
970.792	27.57355
970.964	42.32793
971.136	33.89672
971.308	-52.50118
971.48	2.283
971.652	-14.57544
971.824	52.86748
971.996	6.49786
972.168	12.82031
972.339	33.89672
972.511	57.08346
972.683	29.68125
972.855	25.46587
973.027	76.05651
973.199	57.08346
973.37	-4.03909
973.542	52.86748
973.714	78.16474
973.886	-23.00407
974.057	-35.64629
974.229	8.60532
974.401	38.11228
974.572	10.7128
974.744	14.92785
974.915	8.60532
975.087	-41.96706
975.259	-8.2537
975.43	31.78897
975.602	54.97546
975.773	-10.36097
975.945	40.22009
976.116	48.65159
976.288	6.49786
976.459	116.11668
976.63	82.38126
976.802	65.5157
976.973	17.0354
977.145	40.22009
977.316	57.08346
977.487	-18.7898
977.659	25.46587
977.83	-23.00407
978.001	14.92785
978.172	-14.57544
978.344	48.65159
978.515	52.86748
978.686	-39.86016
978.857	-6.14641
979.028	33.89672
979.2	-10.36097
979.371	-6.14641
979.542	57.08346
979.713	27.57355
979.884	6.49786
980.055	31.78897
980.226	-1.93175
980.397	6.49786
980.568	14.92785
980.739	10.7128
980.91	33.89672
981.081	57.08346
981.252	19.14299
981.423	14.92785
981.594	52.86748
981.765	50.75953
981.936	-44.07393
982.106	-8.2537
982.277	-77.78048
982.448	69.73195
982.619	-12.46822
982.79	-10.36097
982.96	6.49786
983.131	25.46587
983.302	65.5157
983.472	-16.68263
983.643	42.32793
983.814	27.57355
983.984	57.08346
984.155	17.0354
984.326	14.92785
984.496	6.49786
984.667	36.00449
984.837	-33.53931
985.008	-18.7898
985.178	19.14299
985.349	-35.64629
985.519	95.03138
985.69	40.22009
985.86	-33.53931
986.031	-23.00407
986.201	63.4076
986.371	0.17561
986.542	-16.68263
986.712	-41.96706
986.882	27.57355
987.053	31.78897
987.223	-16.68263
987.393	-4.03909
987.563	8.60532
987.734	-39.86016
987.904	-39.86016
988.074	29.68125
988.244	27.57355
988.414	-18.7898
988.585	-35.64629
988.755	21.25059
988.925	-37.75323
989.095	23.35822
989.265	-10.36097
989.435	73.9483
989.605	-44.07393
989.775	-10.36097
989.945	69.73195
990.115	40.22009
990.285	-12.46822
990.455	-18.7898
990.625	-73.56752
990.795	14.92785
990.965	-1.93175
991.134	10.7128
991.304	-73.56752
991.474	-25.11117
991.644	-27.21824
991.814	73.9483
991.984	50.75953
992.153	65.5157
992.323	31.78897
992.493	-8.2537
992.662	27.57355
992.832	84.48956
993.002	6.49786
993.171	-16.68263
993.341	25.46587
993.511	67.62381
993.68	-23.00407
993.85	-1.93175
994.019	-14.57544
994.189	-4.03909
994.358	10.7128
994.528	-52.50118
994.697	10.7128
994.867	-50.3944
995.036	-6.14641
995.206	23.35822
995.375	-8.2537
995.544	12.82031
995.714	-41.96706
995.883	-44.07393
996.052	-18.7898
996.222	44.4358
996.391	10.7128
996.56	-33.53931
996.73	-16.68263
996.899	48.65159
997.068	-4.03909
997.237	69.73195
997.406	-44.07393
997.576	38.11228
997.745	-25.11117
997.914	71.84011
998.083	-27.21824
998.252	-6.14641
998.421	23.35822
998.59	-12.46822
998.759	-44.07393
998.928	-23.00407
999.097	19.14299
999.266	82.38126
999.435	-25.11117
999.604	17.0354
999.773	-39.86016
999.942	31.78897
1000.111	19.14299
1000.28	21.25059
1000.448	-14.57544
1000.617	27.57355
1000.786	-25.11117
1000.955	76.05651
1001.124	73.9483
1001.292	42.32793
1001.461	27.57355
1001.63	6.49786
1001.798	-10.36097
1001.967	21.25059
1002.136	-1.93175
1002.304	14.92785
1002.473	2.283
1002.642	-23.00407
1002.81	-35.64629
1002.979	29.68125
1003.147	38.11228
1003.316	-14.57544
1003.484	25.46587
1003.653	65.5157
1003.821	17.0354
1003.99	54.97546
1004.158	-124.1162
1004.327	0.17561
1004.495	19.14299
1004.663	21.25059
1004.832	-48.28761
1005	23.35822
1005.168	-12.46822
1005.337	-8.2537
1005.505	-10.36097
1005.673	-37.75323
1005.842	-1.93175
1006.01	0.17561
1006.178	-10.36097
1006.346	2.283
1006.514	-6.14641
1006.683	-48.28761
1006.851	-4.03909
1007.019	-23.00407
1007.187	-6.14641
1007.355	65.5157
1007.523	17.0354
1007.691	36.00449
1007.859	48.65159
1008.027	-1.93175
1008.195	-14.57544
1008.363	8.60532
1008.531	4.39042
1008.699	12.82031
1008.867	-90.41875
1009.035	-1.93175
1009.203	31.78897
1009.37	23.35822
1009.538	0.17561
1009.706	-25.11117
1009.874	-69.35446
1010.042	14.92785
1010.209	63.4076
1010.377	65.5157
1010.545	78.16474
1010.713	-6.14641
1010.88	6.49786
1011.048	46.54368
1011.216	-10.36097
1011.383	0.17561
1011.551	-20.89695
1011.718	-1.93175
1011.886	-67.24789
1012.054	-94.6313
1012.221	-18.7898
1012.389	6.49786
1012.556	-90.41875
1012.724	-8.2537
1012.891	-77.78048
1013.058	14.92785
1013.226	6.49786
1013.393	42.32793
1013.561	8.60532
1013.728	6.49786
1013.895	-4.03909
1014.063	31.78897
1014.23	48.65159
1014.397	-14.57544
1014.565	78.16474
1014.732	10.7128
1014.899	31.78897
1015.066	-33.53931
1015.233	14.92785
1015.401	6.49786
1015.568	57.08346
1015.735	14.92785
1015.902	-67.24789
1016.069	-69.35446
1016.236	-56.71465
1016.403	67.62381
1016.57	-6.14641
1016.737	48.65159
1016.904	-23.00407
1017.071	-54.60793
1017.238	4.39042
1017.405	57.08346
1017.572	-18.7898
1017.739	54.97546
1017.906	36.00449
1018.073	33.89672
1018.24	-77.78048
1018.407	31.78897
1018.573	14.92785
1018.74	25.46587
1018.907	19.14299
1019.074	27.57355
1019.241	-1.93175
1019.407	-23.00407
1019.574	0.17561
1019.741	0.17561
1019.907	-44.07393
1020.074	73.9483
1020.241	6.49786
1020.407	-12.46822
1020.574	33.89672
1020.74	-25.11117
1020.907	2.283
1021.073	17.0354
1021.24	-27.21824
1021.406	-23.00407
1021.573	-52.50118
1021.739	-1.93175
1021.906	-31.43231
1022.072	33.89672
1022.239	-6.14641
1022.405	59.19149
1022.571	-23.00407
1022.738	12.82031
1022.904	17.0354
1023.07	-33.53931
1023.237	103.46523
1023.403	-31.43231
1023.569	14.92785
1023.735	14.92785
1023.902	-8.2537
1024.068	57.08346
1024.234	-6.14641
1024.4	-4.03909
1024.566	17.0354
1024.732	40.22009
1024.898	-41.96706
1025.065	-1.93175
1025.231	21.25059
1025.397	-23.00407
1025.563	-16.68263
1025.729	0.17561
1025.895	-23.00407
1026.061	10.7128
1026.227	23.35822
1026.392	23.35822
1026.558	23.35822
1026.724	40.22009
1026.89	-44.07393
1027.056	10.7128
1027.222	25.46587
1027.388	-25.11117
1027.553	52.86748
1027.719	-44.07393
1027.885	6.49786
1028.051	-23.00407
1028.216	-10.36097
1028.382	-14.57544
1028.548	-50.3944
1028.713	-25.11117
1028.879	-10.36097
1029.045	-10.36097
1029.21	14.92785
1029.376	-10.36097
1029.541	57.08346
1029.707	-16.68263
1029.873	-10.36097
1030.038	-10.36097
1030.204	-35.64629
1030.369	-75.67402
1030.534	-18.7898
1030.7	-10.36097
1030.865	2.283
1031.031	-1.93175
1031.196	12.82031
1031.361	48.65159
1031.527	-23.00407
1031.692	-46.18078
1031.857	0.17561
1032.023	21.25059
1032.188	-52.50118
1032.353	10.7128
1032.518	-10.36097
1032.684	46.54368
1032.849	10.7128
1033.014	-18.7898
1033.179	67.62381
1033.344	40.22009
1033.509	10.7128
1033.674	52.86748
1033.839	2.283
1034.004	-16.68263
1034.17	-1.93175
1034.335	-1.93175
1034.5	29.68125
1034.664	-52.50118
1034.829	-37.75323
1034.994	10.7128
1035.159	12.82031
1035.324	42.32793
1035.489	-37.75323
1035.654	40.22009
1035.819	6.49786
1035.984	-37.75323
1036.148	-10.36097
1036.313	-25.11117
1036.478	31.78897
1036.643	-1.93175
1036.807	40.22009
1036.972	-10.36097
1037.137	-41.96706
1037.301	48.65159
1037.466	-27.21824
1037.631	-44.07393
1037.795	-18.7898
1037.96	0.17561
1038.124	82.38126
1038.289	4.39042
1038.454	-29.32529
1038.618	-1.93175
1038.783	-16.68263
1038.947	19.14299
1039.111	-4.03909
1039.276	2.283
1039.44	-10.36097
1039.605	-1.93175
1039.769	-50.3944
1039.933	25.46587
1040.098	27.57355
1040.262	10.7128
1040.426	-67.24789
1040.591	-18.7898
1040.755	23.35822
1040.919	40.22009
1041.083	-16.68263
1041.248	0.17561
1041.412	19.14299
1041.576	46.54368
1041.74	-84.09974
1041.904	25.46587
1042.068	40.22009
1042.232	-8.2537
1042.397	-18.7898
1042.561	-16.68263
1042.725	27.57355
1042.889	23.35822
1043.053	14.92785
1043.217	14.92785
1043.381	48.65159
1043.544	-8.2537
1043.708	69.73195
1043.872	-29.32529
1044.036	14.92785
1044.2	-35.64629
1044.364	-60.92802
1044.528	-25.11117
1044.691	8.60532
1044.855	23.35822
1045.019	6.49786
1045.183	-69.35446
1045.346	-48.28761
1045.51	-35.64629
1045.674	48.65159
1045.837	2.283
1046.001	-65.14129
1046.165	17.0354
1046.328	29.68125
1046.492	-18.7898
1046.655	8.60532
1046.819	-50.3944
1046.983	14.92785
1047.146	-12.46822
1047.31	73.9483
1047.473	-27.21824
1047.636	-33.53931
1047.8	-69.35446
1047.963	8.60532
1048.127	-75.67402
1048.29	-10.36097
