Data from mixed_try1_USB4F045381__12__00160.txt Node

Date: Thu Apr 03 20:08:42 EDT 2025
User: mmckonesweet
Spectrometer: USB4F04538
Trigger mode: 4
Integration Time (sec): 2.700000E-3
Scans to average: 1
Electric dark correction enabled: true
Nonlinearity correction enabled: true
Boxcar width: 0
XAxis mode: Wavelengths
Number of Pixels in Spectrum: 3648
>>>>>Begin Spectral Data<<<<<
345.52	-21.24814
345.736	-21.24814
345.952	-21.24814
346.168	23.00695
346.384	-12.81942
346.6	18.79172
346.816	-21.24814
347.032	48.30027
347.248	-19.141
347.464	-38.10439
347.68	67.27246
347.896	-29.67646
348.112	50.4082
348.328	-54.95905
348.544	46.19237
348.76	-54.95905
348.975	-12.81942
349.191	-0.17561
349.407	58.84015
349.623	-8.60492
349.839	-42.31821
350.055	-21.24814
350.27	-54.95905
350.486	-46.53192
350.702	23.00695
350.918	20.89932
351.133	48.30027
351.349	-42.31821
351.565	-27.56942
351.781	-25.46235
351.996	-46.53192
352.212	82.02988
352.428	4.03918
352.644	-10.71218
352.859	63.05626
353.075	20.89932
353.291	6.14661
353.506	29.32996
353.722	71.48875
353.938	-2.28298
354.153	8.25407
354.369	25.11459
354.584	6.14661
354.8	16.68414
355.016	-12.81942
355.231	-29.67646
355.447	-21.24814
355.662	86.24649
355.878	20.89932
356.093	-21.24814
356.309	46.19237
356.524	-33.89048
356.74	41.97663
356.955	54.62413
357.171	-12.81942
357.386	88.35483
357.602	12.46906
357.817	37.76098
358.033	14.57659
358.248	-29.67646
358.464	4.03918
358.679	71.48875
358.895	-33.89048
359.11	33.54542
359.325	-35.99745
359.541	-29.67646
359.756	12.46906
359.972	-2.28298
360.187	33.54542
360.402	-25.46235
360.618	56.73213
360.833	-29.67646
361.048	63.05626
361.264	-76.0251
361.479	-23.35526
361.694	77.81336
361.909	37.76098
362.125	-29.67646
362.34	-8.60492
362.555	4.03918
362.77	14.57659
362.986	4.03918
363.201	20.89932
363.416	-2.28298
363.631	56.73213
363.847	-14.92664
364.062	46.19237
364.277	-10.71218
364.492	-27.56942
364.707	-38.10439
364.922	-52.8523
365.138	109.43943
365.353	4.03918
365.568	-10.71218
365.783	54.62413
365.998	-21.24814
366.213	16.68414
366.428	41.97663
366.643	-52.8523
366.858	105.22233
367.073	-6.49763
367.288	65.16435
367.503	4.03918
367.718	-21.24814
367.933	-12.81942
368.148	-46.53192
368.363	-4.39031
368.578	35.65319
368.793	-4.39031
369.008	-21.24814
369.223	12.46906
369.438	54.62413
369.653	23.00695
369.868	1.93177
370.083	25.11459
370.298	12.46906
370.513	12.46906
370.728	-46.53192
370.943	65.16435
371.157	-25.46235
371.372	8.25407
371.587	12.46906
371.802	4.03918
372.017	-46.53192
372.232	37.76098
372.446	8.25407
372.661	16.68414
372.876	-4.39031
373.091	88.35483
373.306	48.30027
373.52	12.46906
373.735	-4.39031
373.95	-2.28298
374.165	-46.53192
374.379	65.16435
374.594	54.62413
374.809	20.89932
375.023	8.25407
375.238	37.76098
375.453	-27.56942
375.667	-27.56942
375.882	33.54542
376.097	-21.24814
376.311	10.36155
376.526	-31.78348
376.741	-19.141
376.955	37.76098
377.17	-29.67646
377.384	-31.78348
377.599	65.16435
377.813	-50.74553
378.028	14.57659
378.242	-8.60492
378.457	65.16435
378.672	-38.10439
378.886	29.32996
379.101	-12.81942
379.315	37.76098
379.53	29.32996
379.744	-17.03383
379.958	-2.28298
380.173	-29.67646
380.387	-17.03383
380.602	16.68414
380.816	20.89932
381.031	-17.03383
381.245	-33.89048
381.459	16.68414
381.674	-12.81942
381.888	16.68414
382.103	58.84015
382.317	79.92161
382.531	-2.28298
382.746	20.89932
382.96	12.46906
383.174	37.76098
383.388	39.86879
383.603	12.46906
383.817	1.93177
384.031	18.79172
384.246	48.30027
384.46	-4.39031
384.674	54.62413
384.888	31.43768
385.103	-88.66349
385.317	52.51615
385.531	33.54542
385.745	23.00695
385.959	29.32996
386.174	-31.78348
386.388	4.03918
386.602	50.4082
386.816	46.19237
387.03	41.97663
387.244	-2.28298
387.458	33.54542
387.672	23.00695
387.887	-84.4508
388.101	-52.8523
388.315	39.86879
388.529	-14.92664
388.743	-50.74553
388.957	-61.27913
389.171	-4.39031
389.385	39.86879
389.599	31.43768
389.813	6.14661
390.027	73.59693
390.241	-38.10439
390.455	23.00695
390.669	58.84015
390.883	-46.53192
391.097	-59.17246
391.311	12.46906
391.525	8.25407
391.738	25.11459
391.952	27.22227
392.166	23.00695
392.38	-67.59898
392.594	-27.56942
392.808	54.62413
393.022	60.94819
393.236	12.46906
393.449	-38.10439
393.663	-27.56942
393.877	-4.39031
394.091	-0.17561
394.305	-73.91861
394.518	1.93177
394.732	67.27246
394.946	25.11459
395.16	-50.74553
395.373	16.68414
395.587	-67.59898
395.801	14.57659
396.015	4.03918
396.228	6.14661
396.442	48.30027
396.656	56.73213
396.869	-92.87609
397.083	12.46906
397.297	-10.71218
397.51	4.03918
397.724	50.4082
397.938	-14.92664
398.151	-12.81942
398.365	75.70514
398.578	-44.42508
398.792	54.62413
399.005	-40.21131
399.219	16.68414
399.433	27.22227
399.646	4.03918
399.86	23.00695
400.073	-0.17561
400.287	41.97663
400.5	12.46906
400.714	63.05626
400.927	-50.74553
401.141	-27.56942
401.354	12.46906
401.567	37.76098
401.781	-17.03383
401.994	-25.46235
402.208	23.00695
402.421	54.62413
402.635	88.35483
402.848	14.57659
403.061	27.22227
403.275	-19.141
403.488	71.48875
403.701	27.22227
403.915	25.11459
404.128	39.86879
404.341	39.86879
404.555	56.73213
404.768	-25.46235
404.981	46.19237
405.195	4.03918
405.408	14.57659
405.621	23.00695
405.834	14.57659
406.048	12.46906
406.261	29.32996
406.474	-12.81942
406.687	50.4082
406.9	48.30027
407.114	27.22227
407.327	56.73213
407.54	-2.28298
407.753	46.19237
407.966	4.03918
408.179	44.08449
408.392	-2.28298
408.605	-73.91861
408.819	4.03918
409.032	-52.8523
409.245	79.92161
409.458	-29.67646
409.671	-63.38577
409.884	29.32996
410.097	-6.49763
410.31	4.03918
410.523	6.14661
410.736	37.76098
410.949	-31.78348
411.162	48.30027
411.375	20.89932
411.588	-19.141
411.801	41.97663
412.014	50.4082
412.227	-14.92664
412.44	-86.55716
412.653	27.22227
412.865	16.68414
413.078	-2.28298
413.291	-38.10439
413.504	54.62413
413.717	-12.81942
413.93	-29.67646
414.143	29.32996
414.356	14.57659
414.568	-4.39031
414.781	18.79172
414.994	-44.42508
415.207	16.68414
415.42	-0.17561
415.632	-21.24814
415.845	4.03918
416.058	-10.71218
416.271	-23.35526
416.483	-35.99745
416.696	-0.17561
416.909	-4.39031
417.121	46.19237
417.334	75.70514
417.547	41.97663
417.759	33.54542
417.972	-0.17561
418.185	-8.60492
418.397	107.33087
418.61	-46.53192
418.823	46.19237
419.035	-8.60492
419.248	37.76098
419.46	-29.67646
419.673	-40.21131
419.885	-63.38577
420.098	8.25407
420.311	4.03918
420.523	48.30027
420.736	41.97663
420.948	33.54542
421.161	8.25407
421.373	29.32996
421.586	-25.46235
421.798	84.13817
422.01	35.65319
422.223	39.86879
422.435	-54.95905
422.648	-23.35526
422.86	73.59693
423.073	20.89932
423.285	63.05626
423.497	-54.95905
423.71	-76.0251
423.922	25.11459
424.134	-12.81942
424.347	-21.24814
424.559	-27.56942
424.771	-21.24814
424.984	-6.49763
425.196	-38.10439
425.408	113.65661
425.621	6.14661
425.833	25.11459
426.045	-29.67646
426.257	46.19237
426.47	-25.46235
426.682	63.05626
426.894	46.19237
427.106	-52.8523
427.318	65.16435
427.531	-65.49239
427.743	-4.39031
427.955	-2.28298
428.167	54.62413
428.379	63.05626
428.591	-54.95905
428.804	16.68414
429.016	84.13817
429.228	10.36155
429.44	29.32996
429.652	-4.39031
429.864	-12.81942
430.076	37.76098
430.288	-8.60492
430.5	1.93177
430.712	37.76098
430.924	12.46906
431.136	-38.10439
431.348	58.84015
431.56	31.43768
431.772	6.14661
431.984	-21.24814
432.196	33.54542
432.408	6.14661
432.62	-21.24814
432.832	16.68414
433.044	-29.67646
433.256	-12.81942
433.468	-21.24814
433.679	54.62413
433.891	-46.53192
434.103	-2.28298
434.315	-65.49239
434.527	-42.31821
434.739	79.92161
434.95	-14.92664
435.162	23.00695
435.374	31.43768
435.586	25.11459
435.798	-50.74553
436.009	27.22227
436.221	41.97663
436.433	-38.10439
436.645	-29.67646
436.856	-12.81942
437.068	-27.56942
437.28	4.03918
437.491	79.92161
437.703	16.68414
437.915	50.4082
438.126	1.93177
438.338	50.4082
438.55	-29.67646
438.761	39.86879
438.973	20.89932
439.184	-50.74553
439.396	-0.17561
439.608	12.46906
439.819	8.25407
440.031	16.68414
440.242	39.86879
440.454	33.54542
440.665	31.43768
440.877	4.03918
441.088	58.84015
441.3	-4.39031
441.511	71.48875
441.723	-23.35526
441.934	-4.39031
442.146	-38.10439
442.357	-0.17561
442.569	27.22227
442.78	-48.63874
442.991	-25.46235
443.203	33.54542
443.414	-54.95905
443.626	12.46906
443.837	48.30027
444.048	-12.81942
444.26	-4.39031
444.471	20.89932
444.682	50.4082
444.894	-0.17561
445.105	-17.03383
445.316	35.65319
445.528	29.32996
445.739	-71.81209
445.95	-29.67646
446.161	-38.10439
446.373	-46.53192
446.584	-19.141
446.795	-2.28298
447.006	-21.24814
447.217	41.97663
447.429	12.46906
447.64	-44.42508
447.851	4.03918
448.062	60.94819
448.273	-21.24814
448.484	-44.42508
448.695	-103.40711
448.907	12.46906
449.118	-29.67646
449.329	46.19237
449.54	-4.39031
449.751	-27.56942
449.962	48.30027
450.173	31.43768
450.384	73.59693
450.595	-4.39031
450.806	-4.39031
451.017	-33.89048
451.228	-12.81942
451.439	12.46906
451.65	-8.60492
451.861	-8.60492
452.072	23.00695
452.283	-10.71218
452.494	-61.27913
452.705	20.89932
452.915	16.68414
453.126	-0.17561
453.337	29.32996
453.548	29.32996
453.759	-12.81942
453.97	84.13817
454.181	33.54542
454.391	37.76098
454.602	20.89932
454.813	-38.10439
455.024	-29.67646
455.235	25.11459
455.445	12.46906
455.656	-71.81209
455.867	-19.141
456.078	46.19237
456.288	16.68414
456.499	-14.92664
456.71	-2.28298
456.921	-33.89048
457.131	98.89685
457.342	14.57659
457.553	-33.89048
457.763	48.30027
457.974	37.76098
458.184	-50.74553
458.395	-12.81942
458.606	-14.92664
458.816	73.59693
459.027	33.54542
459.237	14.57659
459.448	67.27246
459.659	-17.03383
459.869	14.57659
460.08	37.76098
460.29	29.32996
460.501	-12.81942
460.711	-19.141
460.922	-10.71218
461.132	-29.67646
461.343	44.08449
461.553	65.16435
461.764	18.79172
461.974	-44.42508
462.184	-38.10439
462.395	27.22227
462.605	18.79172
462.816	-31.78348
463.026	-12.81942
463.236	4.03918
463.447	-2.28298
463.657	46.19237
463.867	27.22227
464.078	-38.10439
464.288	31.43768
464.498	12.46906
464.709	4.03918
464.919	92.57157
465.129	52.51615
465.339	-21.24814
465.55	12.46906
465.76	12.46906
465.97	65.16435
466.18	-2.28298
466.391	31.43768
466.601	14.57659
466.811	-67.59898
467.021	25.11459
467.231	25.11459
467.441	23.00695
467.651	54.62413
467.862	14.57659
468.072	77.81336
468.282	27.22227
468.492	4.03918
468.702	-19.141
468.912	-0.17561
469.122	8.25407
469.332	8.25407
469.542	29.32996
469.752	-8.60492
469.962	63.05626
470.172	10.36155
470.382	4.03918
470.592	41.97663
470.802	31.43768
471.012	31.43768
471.222	41.97663
471.432	20.89932
471.642	4.03918
471.852	48.30027
472.062	18.79172
472.272	20.89932
472.482	-2.28298
472.691	46.19237
472.901	41.97663
473.111	63.05626
473.321	63.05626
473.531	39.86879
473.741	25.11459
473.95	-19.141
474.16	44.08449
474.37	-10.71218
474.58	79.92161
474.79	-8.60492
474.999	37.76098
475.209	-12.81942
475.419	14.57659
475.628	4.03918
475.838	-0.17561
476.048	16.68414
476.258	-33.89048
476.467	25.11459
476.677	10.36155
476.886	37.76098
477.096	46.19237
477.306	138.96154
477.515	14.57659
477.725	25.11459
477.935	71.48875
478.144	31.43768
478.354	8.25407
478.563	46.19237
478.773	-12.81942
478.982	71.48875
479.192	14.57659
479.401	54.62413
479.611	-17.03383
479.82	54.62413
480.03	90.46319
480.239	-23.35526
480.449	-4.39031
480.658	25.11459
480.868	56.73213
481.077	31.43768
481.287	20.89932
481.496	75.70514
481.705	44.08449
481.915	8.25407
482.124	-35.99745
482.333	14.57659
482.543	-8.60492
482.752	37.76098
482.961	54.62413
483.171	54.62413
483.38	-21.24814
483.589	20.89932
483.799	4.03918
484.008	46.19237
484.217	98.89685
484.426	4.03918
484.636	-21.24814
484.845	54.62413
485.054	115.76524
485.263	60.94819
485.472	130.52622
485.682	16.68414
485.891	63.05626
486.1	25.11459
486.309	145.28826
486.518	84.13817
486.727	67.27246
486.936	31.43768
487.146	46.19237
487.355	-0.17561
487.564	52.51615
487.773	12.46906
487.982	16.68414
488.191	71.48875
488.4	105.22233
488.609	4.03918
488.818	107.33087
489.027	73.59693
489.236	56.73213
489.445	58.84015
489.654	37.76098
489.863	92.57157
490.072	132.63502
490.281	29.32996
490.49	94.67998
490.698	50.4082
490.907	56.73213
491.116	96.7884
491.325	98.89685
491.534	90.46319
491.743	96.7884
491.952	58.84015
492.16	33.54542
492.369	88.35483
492.578	69.38059
492.787	98.89685
492.996	-17.03383
493.204	48.30027
493.413	122.09124
493.622	46.19237
493.831	37.76098
494.039	86.24649
494.248	113.65661
494.457	141.07043
494.665	138.96154
494.874	149.50617
495.083	65.16435
495.291	117.87389
495.5	79.92161
495.709	96.7884
495.917	96.7884
496.126	92.57157
496.335	172.70621
496.543	92.57157
496.752	183.25252
496.96	94.67998
497.169	23.00695
497.377	90.46319
497.586	160.05133
497.794	20.89932
498.003	191.68993
498.211	117.87389
498.42	90.46319
498.628	101.00532
498.837	166.37868
499.045	179.03394
499.254	109.43943
499.462	134.74384
499.671	166.37868
499.879	130.52622
500.087	103.11382
500.296	88.35483
500.504	141.07043
500.713	101.00532
500.921	58.84015
501.129	79.92161
501.338	103.11382
501.546	92.57157
501.754	73.59693
501.962	147.39721
502.171	174.81543
502.379	214.89448
502.587	128.41744
502.795	115.76524
503.004	174.81543
503.212	82.02988
503.42	202.23715
503.628	217.0041
503.837	111.54801
504.045	214.89448
504.253	73.59693
504.461	132.63502
504.669	157.94226
504.877	79.92161
505.085	164.26954
505.294	202.23715
505.502	160.05133
505.71	147.39721
505.918	172.70621
506.126	185.36184
506.334	198.0182
506.542	181.14322
506.75	189.58055
506.958	240.21127
507.166	176.92467
507.374	198.0182
507.582	191.68993
507.79	155.83321
507.998	138.96154
508.206	257.09068
508.414	191.68993
508.622	195.90876
508.83	261.31072
509.037	225.4428
509.245	130.52622
509.453	214.89448
509.661	248.65082
509.869	282.41208
510.077	147.39721
510.285	235.99161
510.492	208.56572
510.7	200.12766
510.908	176.92467
511.116	233.8818
511.324	198.0182
511.531	210.67529
511.739	185.36184
511.947	206.45618
512.155	219.11374
512.362	242.32113
512.57	235.99161
512.778	269.75104
512.985	229.66226
513.193	210.67529
513.401	254.98069
513.608	299.2945
513.816	214.89448
514.024	250.76076
514.231	276.08147
514.439	240.21127
514.646	227.55252
514.854	314.06758
515.061	286.63257
515.269	223.33309
515.477	299.2945
515.684	307.73615
515.892	269.75104
516.099	240.21127
516.307	282.41208
516.514	231.77202
516.722	242.32113
516.929	341.50562
517.136	210.67529
517.344	311.95708
517.551	267.64093
517.759	282.41208
517.966	290.85314
518.173	303.51529
518.381	248.65082
518.588	392.16815
518.796	307.73615
519.003	316.17809
519.21	333.06283
519.418	316.17809
519.625	314.06758
519.832	409.05781
520.039	263.42077
520.247	349.94869
520.454	347.8379
520.661	368.94661
520.868	360.50292
521.076	349.94869
521.283	328.84154
521.49	436.5057
521.697	316.17809
521.904	451.28643
522.112	326.73092
522.319	377.39057
522.526	398.50165
522.733	358.39204
522.94	358.39204
523.147	417.50302
523.354	358.39204
523.561	375.27956
523.768	341.50562
523.975	489.29749
524.183	379.50161
524.39	478.73838
524.597	449.17485
524.804	514.64087
525.011	501.96892
525.218	552.65979
525.425	419.61437
525.632	402.72406
525.838	406.94654
526.045	434.39422
526.252	375.27956
526.459	476.6266
526.666	459.73291
526.873	514.64087
527.08	335.1735
527.287	501.96892
527.494	434.39422
527.701	586.4581
527.907	425.9485
528.114	552.65979
528.321	489.29749
528.528	544.21075
528.735	518.86497
528.941	578.0082
529.148	516.75291
529.355	537.87412
529.562	417.50302
529.768	584.34561
529.975	554.77208
530.182	637.1618
530.388	463.95624
530.595	590.68313
530.802	569.55852
531.008	590.68313
531.215	548.43524
531.422	635.049
531.628	620.25976
531.835	660.40337
532.042	616.03437
532.248	742.8165
532.455	565.33375
532.661	713.23036
532.868	554.77208
533.074	571.67092
533.281	582.23313
533.487	666.74223
533.694	658.29044
533.9	755.4969
534.107	622.37247
534.313	782.97236
534.52	704.77757
534.726	766.06419
534.933	645.61311
535.139	778.74526
535.345	709.00395
535.552	757.61034
535.758	723.7966
535.965	848.4973
536.171	616.03437
536.377	823.13176
536.584	586.4581
536.79	766.06419
536.996	782.97236
537.203	861.18054
537.409	763.95071
537.615	776.63172
537.821	808.3358
538.028	840.04198
538.234	818.90429
538.44	899.23209
538.646	869.63621
538.853	835.81437
539.059	844.26962
539.265	905.57427
539.471	871.75015
539.677	806.22212
539.883	755.4969
540.09	882.31996
540.296	850.61115
540.502	1009.17253
540.708	878.09201
540.914	886.54795
541.12	873.8641
541.326	1009.17253
541.532	882.31996
541.738	1026.08805
541.944	962.65695
542.15	962.65695
542.356	1009.17253
542.562	1070.49307
542.768	890.77596
542.974	1021.85913
543.18	983.8
543.386	1176.22822
543.592	1106.44172
543.798	1146.62126
544.004	977.45701
544.21	1062.03478
544.415	988.02869
544.621	1152.96554
544.827	1110.67107
545.033	1081.06605
545.239	1159.30986
545.445	1203.72105
545.651	1019.74468
545.856	1250.24866
546.062	988.02869
546.268	1161.42464
546.474	1076.83684
546.679	1184.68748
546.885	1186.80231
547.091	1123.35923
547.297	985.91434
547.502	1226.98467
547.708	1182.57266
547.914	1343.30752
548.119	1355.99764
548.325	1408.87355
548.531	1254.47851
548.736	1246.01882
548.942	1199.49135
549.147	1313.69746
549.353	1165.65421
549.559	1396.18328
549.764	1233.32936
549.97	1233.32936
550.175	1178.34303
550.381	1381.378
550.586	1220.64001
550.792	1474.44013
550.997	1301.00754
551.203	1355.99764
551.408	1305.23751
551.614	1265.05319
551.819	1389.83816
552.025	1542.12146
552.23	1415.21869
552.435	1567.50171
552.641	1339.07749
552.846	1510.39593
553.052	1355.99764
553.257	1523.08617
553.462	1442.71435
553.668	1546.35152
553.873	1389.83816
554.078	1643.64099
554.283	1544.23649
554.489	1685.93932
554.694	1389.83816
554.899	1622.49145
555.105	1601.3417
555.31	1664.79029
555.515	1569.61672
555.72	1759.95847
555.925	1419.44879
556.131	1609.80162
556.336	1586.53675
556.541	1578.07675
556.746	1588.65175
556.951	1738.81057
557.156	1512.51097
557.361	1740.92537
557.567	1715.54747
557.772	1924.89719
557.977	1594.99673
558.182	1605.57166
558.387	1637.29615
558.592	1730.35131
558.797	1749.38456
559.002	1787.45017
559.207	1747.26977
559.412	1918.55396
559.617	1582.30675
559.822	1880.49353
560.027	1804.3678
560.232	1952.38393
560.437	1789.56489
560.642	1952.38393
560.847	1764.188
561.051	1781.10599
561.256	1787.45017
561.461	1899.52396
561.666	1927.01159
561.871	1914.32511
562.076	1905.86734
562.281	2108.82627
562.485	1838.20221
562.69	2055.97834
562.895	2020.03921
563.1	1950.2696
563.305	1719.77715
563.509	2049.63629
563.714	1774.76177
563.919	2083.45983
564.123	1778.99126
564.328	2102.48476
564.533	1914.32511
564.737	2026.38155
564.942	2007.35434
565.147	2015.81095
565.351	2225.07451
565.556	1990.44082
565.761	2039.06605
565.965	2104.5986
566.17	2015.81095
566.374	2235.64127
566.579	1996.78344
566.784	2265.22702
566.988	2051.75031
567.193	2138.41905
567.397	2087.68765
567.602	2364.53715
567.806	2113.0539
568.011	2210.28068
568.215	2108.82627
568.42	2172.23748
568.624	2108.82627
568.828	2210.28068
569.033	2136.30533
569.237	2104.5986
569.442	2102.48476
569.646	2210.28068
569.85	2290.5848
570.055	2303.26319
570.259	2303.26319
570.463	2347.63481
570.668	2296.92403
570.872	2356.08606
571.076	2307.48924
571.281	2463.82502
571.485	2379.32616
571.689	2451.15128
571.893	2239.86792
572.098	2421.57771
572.302	2237.7546
572.506	2501.84385
572.71	2273.67976
572.914	2417.35274
573.119	2377.21348
573.323	2508.17997
573.527	2489.17131
573.731	2567.31208
573.935	2465.93727
574.139	2801.63342
574.343	2396.22728
574.547	2632.7689
574.751	2408.90269
574.955	2554.64168
575.159	2544.08269
575.364	2759.42521
575.568	2451.15128
575.772	2601.0977
575.976	2427.91508
576.18	2607.43216
576.383	2651.77028
576.587	2693.99192
576.791	2489.17131
576.995	2533.52341
577.199	2556.75344
577.403	2818.51518
577.607	2605.32069
577.811	2594.76313
578.015	2440.58953
578.219	2691.88096
578.422	2539.85902
578.626	2826.95572
578.83	2601.0977
579.034	2767.86729
579.238	2674.99282
579.442	2924.00572
579.645	2594.76313
579.849	2795.30254
580.053	2734.0977
580.257	2801.63342
580.46	2797.41285
580.664	3040.00299
580.868	2795.30254
581.071	2972.5192
581.275	2784.75079
581.479	2928.22459
581.682	2776.30915
581.886	3054.76297
582.09	2907.12964
582.293	2997.82744
582.497	2924.00572
582.7	3172.81505
582.904	3075.84735
583.107	2978.84646
583.311	2949.31808
583.515	3088.49722
583.718	2938.77152
583.922	3124.33543
584.125	2896.58162
584.329	2985.17359
584.532	3021.02475
584.735	3160.16902
584.939	2894.47198
585.142	3080.06403
585.346	3031.56837
585.549	3187.56801
585.753	3164.38443
585.956	3193.89046
586.159	3164.38443
586.363	3193.89046
586.566	3231.82206
586.769	3295.02933
586.973	3206.53492
587.176	3400.34052
587.379	3088.49722
587.582	3292.92267
587.786	3174.92267
587.989	3345.58412
588.192	3364.53959
588.395	3191.783
588.599	3322.41441
588.802	3335.05269
589.005	3162.27673
589.208	3311.88203
589.411	3172.81505
589.615	3425.60869
589.818	3231.82206
590.021	3410.86923
590.224	3349.79657
590.427	3541.38803
590.63	3366.64567
590.833	3623.45245
591.036	3551.91068
591.239	3657.11165
591.442	3421.3975
591.645	3539.28344
591.848	3434.03084
592.051	3665.5257
592.254	3364.53959
592.457	3774.88031
592.66	3400.34052
592.863	3663.42221
593.066	3478.24245
593.269	3726.51836
593.472	3585.58008
593.675	3795.90402
593.878	3694.97244
594.081	3804.31296
594.284	3619.24471
594.486	3816.92578
594.689	3648.69731
594.892	3652.90452
595.095	3688.66274
595.298	3802.21076
595.5	3452.97964
595.703	4022.83319
595.906	3680.24954
596.109	3934.61088
596.311	3652.90452
596.514	3804.31296
596.717	3737.0327
596.92	3858.96336
597.122	3879.97916
597.325	3957.7202
597.528	3768.57281
597.73	4073.22969
597.933	3737.0327
598.136	3831.63983
598.338	3871.57308
598.541	3999.73083
598.743	4027.03335
598.946	3976.62599
599.148	3917.80257
599.351	4083.72745
599.554	3976.62599
599.756	3968.22362
599.959	4123.61423
600.161	3997.63049
600.363	3871.57308
600.566	4115.21764
600.768	3972.42485
600.971	4165.59215
601.173	4041.73327
601.376	4125.71333
601.578	3943.01455
601.78	4161.39474
601.983	4039.63334
602.185	4356.48441
602.388	3907.29672
602.59	4134.1095
602.792	4127.8124
602.995	4136.20849
603.197	4209.65989
603.399	4243.22903
603.601	4075.32928
603.804	4469.67659
604.006	4320.83671
604.208	4148.80199
604.41	4283.08529
604.613	4301.96187
604.815	4220.15083
605.017	4417.28072
605.219	4100.5228
605.421	4352.29089
605.623	4157.19724
605.826	4496.91701
606.028	4111.01922
606.23	4308.25368
606.432	4127.8124
606.634	4589.08764
606.836	4165.59215
607.038	4467.58101
607.24	4327.12793
607.442	4490.63109
607.644	4478.05865
607.846	4578.61587
608.048	4442.43244
608.25	4547.19722
608.452	4511.58339
608.654	4639.34436
608.856	4249.52264
609.058	4457.10283
609.26	4375.35419
609.462	4494.82173
609.664	4331.32198
609.866	4496.91701
610.067	4492.72642
610.269	4635.15679
610.471	4255.81605
610.673	4522.05871
610.875	4633.06298
611.077	4744.00435
611.278	4327.12793
611.48	4869.52164
611.682	4486.44037
611.884	4547.19722
612.085	4503.20273
612.287	4610.0295
612.489	4494.82173
612.69	4622.59355
612.892	4465.48542
613.094	4731.44813
613.295	4410.99229
613.497	4576.52145
613.699	4496.91701
613.9	4580.71027
614.102	4725.16972
614.304	4905.06994
614.505	4670.74827
614.707	4630.96914
614.908	4576.52145
615.11	4637.25059
615.311	4620.4996
615.513	4781.66813
615.714	4658.18731
615.916	4670.74827
616.117	4381.64372
616.319	4861.15637
616.52	4543.00769
616.722	4641.43811
616.923	4612.12357
617.124	4819.32456
617.326	4586.99333
617.527	4727.26254
617.729	4517.86865
617.93	4773.29904
618.131	4559.76528
618.333	4821.41636
618.534	4595.37043
618.735	4921.79626
618.937	4708.42628
619.138	4888.34215
619.339	4760.74472
619.54	4879.97771
619.742	4578.61587
619.943	4871.6129
620.144	4538.81807
620.345	4735.63363
620.546	4815.14087
620.748	4890.43321
620.949	4677.02844
621.15	4852.79074
621.351	4787.94471
621.552	5005.40581
621.753	4664.46789
621.954	4980.32682
622.155	4746.09698
622.356	4888.34215
622.558	4635.15679
622.759	5105.68853
622.96	4720.98399
623.161	4902.97905
623.362	4674.93507
623.563	5111.95442
623.764	4869.52164
623.965	5101.51115
624.166	4944.79256
624.366	4980.32682
624.567	4921.79626
624.768	5189.21662
624.969	4831.87506
625.17	5095.2449
625.371	4982.41686
625.572	5155.80985
625.773	4948.97341
625.973	4969.87626
626.174	4831.87506
626.375	5356.16083
626.576	4978.23675
626.777	5247.66411
626.977	4882.06885
627.178	5239.31559
627.379	4819.32456
627.58	5107.77718
627.78	4953.15416
627.981	5034.66044
628.182	4894.61525
628.382	5020.0337
628.583	4953.15416
628.784	5262.27313
628.984	4959.42512
629.185	5412.47067
629.386	4877.88654
629.586	5424.98164
629.787	5153.72173
629.987	5256.01226
630.188	5134.92759
630.388	5422.89653
630.589	5176.68978
630.79	5212.18032
630.99	5005.40581
631.191	5203.83021
631.391	5195.47973
631.591	5224.70478
631.792	4978.23675
631.992	5462.50948
632.193	5228.87941
632.393	5385.36066
632.594	5147.45723
632.794	5116.13157
632.994	5205.91777
633.195	5256.01226
633.395	5141.19251
633.595	5287.31448
633.796	5262.27313
633.996	5445.83138
634.196	5281.05446
634.397	5445.83138
634.597	5299.8339
634.797	5616.71047
634.997	5189.21662
635.198	5391.61717
635.398	5028.39198
635.598	5433.32182
635.798	5291.48771
635.998	5370.76132
636.199	5358.24668
636.399	5387.44618
636.599	5270.62062
636.799	5475.01706
636.999	5347.81718
637.199	5516.7029
637.399	5270.62062
637.599	5360.33252
637.799	5147.45723
637.999	5458.34009
638.199	5322.78397
638.399	5408.30015
638.599	5504.19814
638.799	5635.45584
638.999	5441.66162
639.199	5550.04479
639.399	5420.81141
639.599	5612.54457
639.799	5433.32182
639.999	5729.15403
640.199	5408.30015
640.399	5589.63045
640.599	5295.66085
640.799	5637.53854
640.998	5566.71347
641.198	5835.28755
641.398	5454.17062
641.598	5666.69388
641.798	5572.96384
641.997	5602.12941
642.197	5364.50411
642.397	5795.75479
642.597	5487.5238
642.796	5791.59295
642.996	5556.29572
643.196	5749.96937
643.395	5408.30015
643.595	5872.73178
643.795	5575.04725
643.994	5806.15897
644.194	5754.13215
644.394	5804.07818
644.593	5456.25537
644.793	5916.40705
644.992	5633.37312
645.192	5704.17252
645.392	5672.94085
645.591	5889.37121
645.791	5781.18794
645.99	5876.89178
646.19	5635.45584
646.389	5910.16837
646.589	5708.33634
646.788	5970.46679
646.987	5712.50007
647.187	5970.46679
647.386	5683.352
647.586	5826.96557
647.785	5843.60915
647.984	5953.83472
648.184	5799.91653
648.383	6034.90181
648.582	5887.29136
648.782	6072.30531
648.981	5985.01861
649.18	5883.1316
649.38	6082.69381
649.579	6057.76041
649.778	5995.41207
649.977	6207.31006
650.177	6049.44852
650.376	5933.04252
650.575	5854.01062
650.774	6034.90181
650.973	5906.00912
651.173	5910.16837
651.372	6066.07192
651.571	6140.85859
651.77	5864.4115
651.969	6111.7785
652.168	5903.92947
652.367	6147.08943
652.566	6016.1972
652.765	6230.14721
652.964	5951.75561
653.163	6219.76704
653.362	6199.00494
653.561	6140.85859
653.76	6132.55046
653.959	5893.53083
654.158	6136.70457
654.357	6263.35981
654.556	5785.35001
654.755	5901.84978
654.954	5989.17607
655.153	6024.5106
655.352	5978.78226
655.551	6184.47008
655.749	6028.66715
655.948	6427.25932
656.147	6111.7785
656.346	6352.589
656.545	6142.93556
656.743	6221.84312
656.942	6070.22753
657.141	6309.01736
657.34	6080.61616
657.538	6306.94226
657.737	6097.23673
657.936	6402.37257
658.135	6103.46906
658.333	6288.26533
658.532	6155.3969
658.731	6331.84188
658.929	6186.54656
659.128	6564.07665
659.326	6282.03927
659.525	6439.70144
659.724	6219.76704
659.922	6149.16634
660.121	6385.77954
660.319	6219.76704
660.518	6024.5106
660.716	6406.5206
660.915	6130.47337
661.113	6433.48049
661.312	6445.92219
661.51	6418.96411
661.709	6194.85224
661.907	6431.40679
662.105	6196.9286
662.304	6439.70144
662.502	6385.77954
662.701	6460.43644
662.899	6385.77954
663.097	6452.14272
663.296	6443.84863
663.494	6477.02277
663.692	6381.63105
663.891	6551.64289
664.089	6319.39249
664.287	6329.76704
664.485	6396.15036
664.684	6651.08974
664.882	6479.09596
665.08	6634.51896
665.278	6356.73815
665.476	6553.71524
665.675	6445.92219
665.873	6547.49811
666.071	6263.35981
666.269	6423.11176
666.467	6192.77585
666.665	6733.9216
666.863	6348.43977
667.061	6499.82655
667.259	6460.43644
667.457	6543.35324
667.655	6479.09596
667.853	6410.66853
668.051	6410.66853
668.249	6626.23301
668.447	6418.96411
668.645	6487.38848
668.843	6402.37257
669.041	6447.99572
669.239	6298.64163
669.437	6593.08554
669.635	6443.84863
669.833	6551.64289
670.031	6360.8872
670.229	6584.79775
670.426	6445.92219
670.624	6750.48357
670.822	6348.43977
671.02	6748.4134
671.218	6348.43977
671.415	6493.60762
671.613	6470.80307
671.811	6564.07665
672.009	6433.48049
672.206	6601.37296
672.404	6564.07665
672.602	6539.20829
672.799	6526.77285
672.997	6760.83405
673.195	6537.13577
673.392	6702.86396
673.59	6503.97239
673.788	6537.13577
673.985	6421.03795
674.183	6522.62752
674.38	6147.08943
674.578	6586.86973
674.775	6597.2293
674.973	6651.08974
675.17	6518.4821
675.368	6576.50959
675.565	6574.43749
675.763	6818.78622
675.96	6518.4821
676.158	6622.0899
676.355	6371.25942
676.553	6758.764
676.75	6402.37257
676.947	6835.34069
677.145	6661.44573
677.342	6586.86973
677.539	6547.49811
677.737	6758.764
677.934	6543.35324
678.131	6663.51686
678.329	6477.02277
678.526	6862.23861
678.723	6501.89948
678.92	6721.49916
679.118	6404.4466
679.315	6698.72255
679.512	6410.66853
679.709	6692.51026
679.906	6489.46155
680.104	6682.156
680.301	6584.79775
680.498	6543.35324
680.695	6530.91809
680.892	6499.82655
681.089	6468.7298
681.286	6669.73012
681.483	6246.75426
681.68	6452.14272
681.877	6340.14101
682.075	6632.4475
682.272	6304.86714
682.469	6804.29985
682.665	6576.50959
682.862	6360.8872
683.059	6387.85375
683.256	6373.33379
683.453	6402.37257
683.65	6539.20829
683.847	6514.33658
684.044	6543.35324
684.241	6562.00442
684.438	6812.57791
684.635	6412.74246
684.831	6642.80453
685.028	6423.11176
685.225	6620.01831
685.422	6294.49118
685.619	6304.86714
685.815	6454.21619
686.012	6593.08554
686.209	6445.92219
686.405	6630.37603
686.602	6211.46248
686.799	6120.08757
686.996	6454.21619
687.192	6304.86714
687.389	6373.33379
687.586	6518.4821
687.782	6543.35324
687.979	6555.78757
688.175	6161.62725
688.372	6321.46745
688.568	6219.76704
688.765	6410.66853
688.962	6410.66853
689.158	6362.96169
689.355	6421.03795
689.551	6302.79199
689.748	6319.39249
689.944	6418.96411
690.14	6169.93406
690.337	6433.48049
690.533	6416.89025
690.73	6481.16912
690.926	6346.36511
691.123	6410.66853
691.319	6236.37503
691.515	6620.01831
691.712	6269.58651
691.908	6319.39249
692.104	6367.1106
692.301	6530.91809
692.497	6167.8574
692.693	6576.50959
692.889	6169.93406
693.086	6535.06323
693.282	6244.67846
693.478	6362.96169
693.674	6493.60762
693.87	6313.16748
694.067	6335.9915
694.263	6518.4821
694.459	6329.76704
694.655	6599.30114
694.851	6445.92219
695.047	6371.25942
695.243	6277.88844
695.439	6456.28963
695.635	6041.13626
695.831	6512.26379
696.027	6311.09243
696.224	6535.06323
696.42	6257.1329
696.615	6435.55416
696.811	6286.19
697.007	6655.23221
697.203	6319.39249
697.399	6443.84863
697.595	6313.16748
697.791	6514.33658
697.987	6298.64163
698.183	6530.91809
698.379	6288.26533
698.575	6622.0899
698.77	6238.45092
698.966	6460.43644
699.162	6477.02277
699.358	6555.78757
699.554	6427.25932
699.749	6692.51026
699.945	6346.36511
700.141	6443.84863
700.337	6169.93406
700.532	6344.29044
700.728	6477.02277
700.924	6435.55416
701.119	6335.9915
701.315	6306.94226
701.511	6022.43228
701.706	6439.70144
701.902	6186.54656
702.097	6418.96411
702.293	6441.77505
702.489	6298.64163
702.684	6290.34064
702.88	6306.94226
703.075	6238.45092
703.271	6582.72574
703.466	6140.85859
703.662	6429.33307
703.857	6267.51096
704.053	6518.4821
704.248	6338.06627
704.443	6503.97239
704.639	6201.08126
704.834	6294.49118
705.03	6255.05722
705.225	6335.9915
705.42	6261.2842
705.616	6394.07624
705.811	6190.69944
706.006	6298.64163
706.202	6211.46248
706.397	6186.54656
706.592	6255.05722
706.787	6273.73752
706.983	6128.39626
707.178	6385.77954
707.373	6279.96386
707.568	6369.18502
707.763	6194.85224
707.959	6506.04528
708.154	6458.36305
708.349	6277.88844
708.544	6338.06627
708.739	6311.09243
708.934	6331.84188
709.129	6522.62752
709.324	6362.96169
709.519	6450.06923
709.714	6199.00494
709.909	6447.99572
710.104	6323.54238
710.299	6190.69944
710.494	6290.34064
710.689	6255.05722
710.884	6248.83003
711.079	6286.19
711.274	6238.45092
711.469	6418.96411
711.664	6140.85859
711.859	6429.33307
712.054	6188.62301
712.249	6255.05722
712.443	6034.90181
712.638	6265.4354
712.833	6091.0042
713.028	6452.14272
713.223	6055.68247
713.417	6414.81637
713.612	6072.30531
713.807	6387.85375
714.002	6315.24251
714.196	6338.06627
714.391	5849.8501
714.586	6286.19
714.78	6174.08733
714.975	6265.4354
715.17	5862.33137
715.364	6074.38305
715.559	6311.09243
715.754	6105.54646
715.948	6111.7785
716.143	6157.47371
716.337	5930.96317
716.532	6431.40679
716.726	6335.9915
716.921	6398.22445
717.115	6118.01034
717.31	6244.67846
717.504	5955.91381
717.699	6228.07122
717.893	6057.76041
718.088	6255.05722
718.282	5906.00912
718.476	6078.53848
718.671	5953.83472
718.865	6111.7785
719.059	5933.04252
719.254	6358.81268
719.448	5970.46679
719.642	6315.24251
719.837	5945.51812
720.031	6014.11879
720.225	5912.24795
720.419	5970.46679
720.614	5870.65174
720.808	6113.85581
721.002	6097.23673
721.196	6028.66715
721.39	6080.61616
721.585	6128.39626
721.779	5912.24795
721.973	6136.70457
722.167	5787.43101
722.361	6155.3969
722.555	5991.25476
722.749	6113.85581
722.943	6030.7454
723.137	6261.2842
723.331	5970.46679
723.525	6113.85581
723.719	6059.83832
723.913	6061.91621
724.107	5939.28043
724.301	6232.22317
724.495	5874.81179
724.689	6049.44852
724.883	5995.41207
725.077	6086.84905
725.271	5806.15897
725.465	6049.44852
725.659	5754.13215
725.853	5933.04252
726.046	5918.48657
726.24	5978.78226
726.434	5870.65174
726.628	6169.93406
726.822	5720.82724
727.015	6103.46906
727.209	5989.17607
727.403	5891.45103
727.596	5862.33137
727.79	6153.32007
727.984	5891.45103
728.177	6055.68247
728.371	5837.36798
728.565	6184.47008
728.758	5906.00912
728.952	6068.14974
729.146	6122.16478
729.339	6194.85224
729.533	6145.01251
729.726	6103.46906
729.92	5781.18794
730.113	6232.22317
730.307	5795.75479
730.5	5839.4484
730.694	5795.75479
730.887	6061.91621
731.081	5737.48045
731.274	5987.09735
731.468	5822.80444
731.661	5997.49069
731.854	5672.94085
732.048	6024.5106
732.241	5914.32751
732.435	5745.80649
732.628	5933.04252
732.821	5916.40705
733.014	5906.00912
733.208	6007.88343
733.401	5930.96317
733.594	6049.44852
733.788	5970.46679
733.981	5897.69035
734.174	6157.47371
734.367	6149.16634
734.56	5989.17607
734.754	6022.43228
734.947	5960.07193
735.14	6063.99408
735.333	6103.46906
735.526	6028.66715
735.719	6078.53848
735.912	5760.37615
736.105	5845.68949
736.298	6032.82361
736.491	6091.0042
736.684	6032.82361
736.877	5937.20115
737.07	6047.37049
737.263	5895.6106
737.456	5839.4484
737.649	5829.0461
737.842	6001.64785
738.035	6074.38305
738.228	5937.20115
738.421	6074.38305
738.614	6009.96191
738.807	6082.69381
739	6020.35395
739.192	5820.72384
739.385	5891.45103
739.578	5987.09735
739.771	5881.05168
739.964	5997.49069
740.156	6049.44852
740.349	5810.32048
740.542	6057.76041
740.735	5822.80444
740.927	5806.15897
741.12	5876.89178
741.313	5991.25476
741.505	5774.94465
741.698	5810.32048
741.891	5945.51812
742.083	6036.97998
742.276	6138.78159
742.468	5941.35968
742.661	5972.54569
742.854	5978.78226
743.046	5743.72501
743.239	5887.29136
743.431	5943.43892
743.624	5783.26899
743.816	5837.36798
744.009	5939.28043
744.201	5808.23974
744.393	5779.10686
744.586	5749.96937
744.778	5980.86107
744.971	5749.96937
745.163	5789.51199
745.355	5562.54644
745.548	5687.51629
745.74	5737.48045
745.932	5912.24795
746.125	5841.52878
746.317	5895.6106
746.509	5597.96319
746.702	5870.65174
746.894	5835.28755
747.086	5695.8446
747.278	5756.21351
747.471	5831.12661
747.663	5675.02313
747.855	5700.00861
748.047	5606.29555
748.239	5722.90898
748.431	5581.29733
748.623	5793.67388
748.815	5595.88004
749.008	5679.18761
749.2	5770.78234
749.392	5806.15897
749.584	5543.79364
749.776	5789.51199
749.968	5643.7865
750.16	5829.0461
750.352	5645.86911
750.544	5872.73178
750.736	5693.76256
750.928	5789.51199
751.12	5839.4484
751.311	5987.09735
751.503	5816.56257
751.695	5683.352
751.887	5650.03425
752.079	5870.65174
752.271	5606.29555
752.463	5645.86911
752.654	5520.87097
752.846	5837.36798
753.038	5633.37312
753.23	5978.78226
753.421	5731.23567
753.613	5722.90898
753.805	5862.33137
753.997	5664.61151
754.188	5460.4248
754.38	5804.07818
754.572	5741.64352
754.763	5774.94465
754.955	5650.03425
755.146	5637.53854
755.338	5439.5767
755.53	5522.95496
755.721	5531.29072
755.913	5533.3746
756.104	5493.77686
756.296	5433.32182
756.487	5608.37858
756.679	5637.53854
756.87	5370.76132
757.062	5462.50948
757.253	5462.50948
757.445	5556.29572
757.636	5550.04479
757.827	5868.57169
758.019	5506.28232
758.21	5500.0297
758.401	5593.79686
758.593	5637.53854
758.784	5550.04479
758.975	5612.54457
759.167	5264.36003
759.358	5422.89653
759.549	5495.86116
759.74	5458.34009
759.932	5224.70478
760.123	5433.32182
760.314	5387.44618
760.505	5439.5767
760.696	5412.47067
760.888	5299.8339
761.079	5260.18619
761.27	5414.55589
761.461	5297.74739
761.652	5395.78805
761.843	5237.2284
762.034	5024.21288
762.225	5205.91777
762.416	5333.21488
762.607	5105.68853
762.798	5318.61144
762.989	5189.21662
763.18	5316.52514
763.371	4944.79256
763.562	5139.10423
763.753	5040.9287
763.944	5122.39712
764.135	5013.76474
764.326	5354.07495
764.517	5061.8214
764.708	5312.35247
764.899	4957.33482
765.089	5174.60189
765.28	5212.18032
765.471	5141.19251
765.662	5128.66246
765.853	5247.66411
766.043	4976.14666
766.234	4965.69587
766.425	5036.74989
766.615	5166.25011
766.806	5178.77765
766.997	5116.13157
767.187	4944.79256
767.378	5170.42605
767.569	5220.53005
767.759	5061.8214
767.95	5139.10423
768.141	4988.68685
768.331	4819.32456
768.522	5155.80985
768.712	5195.47973
768.903	5128.66246
769.093	4946.88299
769.284	4886.25108
769.474	4959.42512
769.665	5028.39198
769.855	5174.60189
770.046	4944.79256
770.236	4850.69927
770.426	4986.59688
770.617	4898.79719
770.807	4971.96641
770.998	4850.69927
771.188	4882.06885
771.378	4750.28216
771.569	4882.06885
771.759	4681.21511
771.949	4668.65483
772.139	4685.40169
772.33	4628.87527
772.52	4486.44037
772.71	4844.42474
772.9	4593.27619
773.09	4691.6814
773.281	4572.33254
773.471	4877.88654
773.661	4773.29904
773.851	4645.62555
774.041	4572.33254
774.231	4982.41686
774.421	4450.81565
774.611	4714.70524
774.802	4455.00712
774.992	4668.65483
775.182	4507.39311
775.372	4612.12357
775.562	4584.899
775.752	4693.77459
775.942	4440.33659
776.131	4444.52828
776.321	4484.34497
776.511	4756.55976
776.701	4534.62836
776.891	4674.93507
777.081	4622.59355
777.271	4639.34436
777.461	4492.72642
777.651	4570.23805
777.84	4507.39311
778.03	4553.48135
778.22	4480.15411
778.41	4274.69514
778.599	4429.85698
778.789	4410.99229
778.979	4316.64245
779.169	4593.27619
779.358	4373.25763
779.548	4528.34364
779.738	4450.81565
779.927	4325.03088
780.117	4274.69514
780.307	4379.54723
780.496	4341.8067
780.686	4446.62409
780.875	4346.00044
781.065	4503.20273
781.254	4278.89026
781.444	4534.62836
781.633	4417.28072
781.823	4589.08764
782.012	4417.28072
782.202	4346.00044
782.391	4077.42886
782.581	4224.34706
782.77	4163.49345
782.96	4285.18277
783.149	4207.56164
783.338	4341.8067
783.528	4419.37682
783.717	4352.29089
783.906	4354.38766
784.096	4226.44514
784.285	4150.90083
784.474	4408.89611
784.663	4383.74019
784.853	4211.75812
785.042	4066.93077
785.231	4331.32198
785.42	4165.59215
785.61	4236.93523
785.799	4043.83317
785.988	4159.296
786.177	4031.23343
786.366	4232.73926
786.555	4058.53194
786.744	4188.67641
786.933	4140.40641
787.122	4075.32928
787.312	4037.53339
787.501	3896.79037
787.69	3774.88031
787.879	4228.5432
788.068	3999.73083
788.257	4117.31682
788.445	3886.28352
788.634	4108.91998
788.823	3871.57308
789.012	3749.64927
789.201	3955.61945
789.39	3999.73083
789.579	3652.90452
789.768	3991.32935
789.957	3755.95729
790.145	4081.62794
790.334	3833.74176
790.523	3959.82092
790.712	3848.4547
790.9	4027.03335
791.089	3821.12989
791.278	4085.82695
791.467	3833.74176
791.655	4035.43343
791.844	3720.20952
792.033	3854.75995
792.221	3848.4547
792.41	4033.33344
792.599	3669.7326
792.787	3951.4179
792.976	3800.10853
793.164	3875.77616
793.353	3722.31249
793.541	3871.57308
793.73	3825.33393
793.918	3821.12989
794.107	3627.66011
794.295	3755.95729
794.484	3690.766
794.672	3932.50991
794.861	3577.16318
795.049	3730.72415
795.238	3699.17882
795.426	3966.12298
795.614	3661.31871
795.803	3802.21076
795.991	3724.41543
796.179	3913.60029
796.368	3707.59133
796.556	3703.38511
796.744	3604.51702
796.932	3825.33393
797.121	3381.38772
797.309	3875.77616
797.497	3745.44382
797.685	3943.01455
797.874	3581.37167
798.062	3739.13551
798.25	3507.71243
798.438	3800.10853
798.626	3575.05891
798.814	3705.48823
799.002	3541.38803
799.19	3535.07421
799.378	3467.71659
799.566	3627.66011
799.755	3360.32739
799.943	3379.28176
800.131	3522.44608
800.318	3623.45245
800.506	3421.3975
800.694	3802.21076
800.882	3450.87429
801.07	3688.66274
801.258	3596.10079
801.446	3455.08498
801.634	3436.13633
801.822	3560.32848
802.01	3471.92699
802.197	3577.16318
802.385	3212.85693
802.573	3478.24245
802.761	3518.23656
802.949	3636.07522
803.136	3419.29188
803.324	3501.39773
803.512	3551.91068
803.699	3551.91068
803.887	3520.34133
804.075	3617.14081
804.262	3452.97964
804.45	3566.64163
804.638	3509.81729
804.825	3646.59367
805.013	3360.32739
805.201	3627.66011
805.388	3412.97492
805.576	3577.16318
805.763	3663.42221
805.951	3593.99669
806.138	3452.97964
806.326	3610.829
806.513	3410.86923
806.701	3665.5257
806.888	3713.90051
807.075	3610.829
807.263	3459.29559
807.45	3577.16318
807.638	3547.70168
807.825	3572.95462
808.012	3379.28176
808.2	3768.57281
808.387	3795.90402
808.574	3711.79747
808.761	3655.0081
808.949	3673.93944
809.136	3526.65553
809.323	3720.20952
809.51	3585.58008
809.698	3703.38511
809.885	3526.65553
810.072	3633.97147
810.259	3526.65553
810.446	3694.97244
810.633	3528.76023
810.82	3993.42975
811.008	3528.76023
811.195	3821.12989
811.382	3585.58008
811.569	3909.39793
811.756	3577.16318
811.943	3619.24471
812.13	3682.35287
812.317	3545.59714
812.504	3631.8677
812.691	3825.33393
812.878	3705.48823
813.064	3730.72415
813.251	3452.97964
813.438	3655.0081
813.625	3568.74598
813.812	3831.63983
813.999	3539.28344
814.186	3814.82369
814.372	3499.2928
814.559	3879.97916
814.746	3471.92699
814.933	3554.01516
815.12	3442.45271
815.306	3669.7326
815.493	3556.11962
815.68	3722.31249
815.866	3482.45266
816.053	3770.67533
816.24	3621.34859
816.426	3701.28197
816.613	3627.66011
816.799	3766.47027
816.986	3581.37167
817.173	3627.66011
817.359	3389.81136
817.546	3686.55947
817.732	3391.91723
817.919	3720.20952
818.105	3391.91723
818.292	3734.92987
818.478	3492.97788
818.665	3560.32848
818.851	3505.60755
819.037	3568.74598
819.224	3497.18784
819.41	3581.37167
819.597	3471.92699
819.783	3522.44608
819.969	3436.13633
820.156	3631.8677
820.342	3415.08059
820.528	3770.67533
820.714	3358.22126
820.901	3625.55629
821.087	3391.91723
821.273	3682.35287
821.459	3543.49259
821.646	3476.13731
821.832	3391.91723
822.018	3541.38803
822.204	3326.62724
822.39	3495.08287
822.576	3149.63021
822.762	3421.3975
822.948	3309.7755
823.134	3568.74598
823.32	3351.90277
823.507	3503.50265
823.693	3351.90277
823.879	3501.39773
824.065	3423.5031
824.25	3330.84
824.436	3278.17555
824.622	3568.74598
824.808	3265.53449
824.994	3482.45266
825.18	3354.00895
825.366	3484.55774
825.552	3189.67551
825.738	3354.00895
825.923	3469.8218
826.109	3636.07522
826.295	3421.3975
826.481	3545.59714
826.667	3366.64567
826.852	3585.58008
827.038	3444.55813
827.224	3440.34727
827.409	3400.34052
827.595	3391.91723
827.781	2974.6283
827.966	3408.76352
828.152	3071.6306
828.338	3286.60258
828.523	2801.63342
828.709	3221.28604
828.894	3082.17235
829.08	3242.35766
829.266	2957.75506
829.451	3206.53492
829.637	3130.65934
829.822	3217.07152
830.008	2898.69126
830.193	3250.78583
830.378	3056.87148
830.564	3438.24181
830.749	2987.2826
830.935	3309.7755
831.12	2894.47198
831.305	3164.38443
831.491	2947.2088
831.676	3219.17879
831.861	3021.02475
832.047	3071.6306
832.232	2936.66216
832.417	3118.01137
832.602	2987.2826
832.788	3084.28066
832.973	3071.6306
833.158	3046.32879
833.343	3040.00299
833.528	3254.99982
833.714	2905.02007
833.899	3257.10679
834.084	3050.54591
834.269	3261.32068
834.454	3115.90332
834.639	3214.96423
834.824	2890.25264
835.009	3014.69839
835.194	2978.84646
835.379	3016.80719
835.564	2993.60955
835.749	2881.81379
835.934	3054.76297
836.119	3090.60548
836.304	3037.89435
836.489	2953.5366
836.674	2740.42976
836.859	2987.2826
837.044	2753.09351
837.228	2995.7185
837.413	2719.32243
837.598	3054.76297
837.783	2776.30915
837.968	2869.15508
838.152	2664.43731
838.337	3090.60548
838.522	2590.54002
838.707	2892.36231
838.891	2584.20527
839.076	2936.66216
839.261	2499.73179
839.445	2970.41008
839.63	2719.32243
839.815	2905.02007
839.999	2725.65477
840.184	2826.95572
840.368	2750.98292
840.553	2643.32535
840.737	2691.88096
840.922	2721.43323
841.106	2569.42377
841.291	2896.58162
841.475	2586.31687
841.66	2856.49587
841.844	2514.51598
842.029	2826.95572
842.213	2503.9559
842.397	2772.08824
842.582	2465.93727
842.766	2628.54623
842.951	2427.91508
843.135	2810.07441
843.319	2455.3759
843.504	2529.29962
843.688	2392.00206
843.872	2666.54844
844.056	2468.04951
844.241	2651.77028
844.425	2417.35274
844.609	2598.98619
844.793	2491.28343
844.977	2609.54362
845.161	2161.66944
845.346	2554.64168
845.53	2377.21348
845.714	2480.72272
845.898	2415.24025
846.082	2389.88944
846.266	2341.29627
846.45	2514.51598
846.634	2436.36476
846.818	2472.27396
847.002	2267.34022
847.186	2465.93727
847.37	2233.52794
847.554	2421.57771
847.738	2337.07053
847.922	2497.61971
848.106	2315.94123
848.29	2303.26319
848.473	2356.08606
848.657	2375.10078
848.841	2022.15333
849.025	2303.26319
849.209	2248.32109
849.392	2320.16717
849.576	1981.98391
849.76	2252.54763
849.944	1939.69786
850.127	2146.87385
850.311	2138.41905
850.495	2282.13235
850.678	2254.66088
850.862	2328.61893
851.046	2280.01922
851.229	2294.81097
851.413	2058.09234
851.596	2125.73662
851.78	1863.57724
851.964	2252.54763
852.147	2134.19161
852.331	2345.52198
852.514	2049.63629
852.698	2066.54829
852.881	2049.63629
853.065	2239.86792
853.248	2066.54829
853.431	2161.66944
853.615	2007.35434
853.798	2159.55581
853.982	1956.61257
854.165	2201.82687
854.348	1891.06604
854.532	2068.66226
854.715	2009.4685
854.898	2121.50908
855.081	1872.03543
855.265	2159.55581
855.448	1825.51444
855.631	1948.15526
855.814	1886.83705
855.997	2028.49565
856.181	1865.69179
856.364	1927.01159
856.547	1838.20221
856.73	1969.29835
856.913	1645.75593
857.096	2026.38155
857.279	1728.23648
857.462	2009.4685
857.645	1652.10074
857.828	1749.38456
858.011	1694.39885
858.194	1869.92089
858.377	1774.76177
858.56	1893.18053
858.743	1724.00682
858.926	2009.4685
859.109	1715.54747
859.292	1662.67537
859.475	1795.90902
859.658	1814.94117
859.841	1698.6286
860.023	1732.46613
860.206	1643.64099
860.389	1804.3678
860.572	1643.64099
860.755	1795.90902
860.937	1764.188
861.12	1734.58094
861.303	1559.04165
861.486	1732.46613
861.668	1660.56045
861.851	1523.08617
862.034	1504.0508
862.216	1605.57166
862.399	1533.66134
862.581	1685.93932
862.764	1489.24548
862.947	1618.26152
863.129	1516.74105
863.312	1749.38456
863.494	1438.48424
863.677	1633.06625
863.859	1501.93576
864.042	1618.26152
864.224	1400.41337
864.406	1624.60641
864.589	1406.7585
864.771	1578.07675
864.954	1296.77759
865.136	1402.52841
865.318	1425.79394
865.501	1453.28961
865.683	1364.45774
865.865	1449.0595
866.048	1220.64001
866.23	1389.83816
866.412	1391.9532
866.594	1643.64099
866.777	1468.09497
866.959	1499.82071
867.141	1303.12252
867.323	1451.17456
867.505	1332.73246
867.687	1389.83816
867.869	1222.75489
868.052	1432.13909
868.234	1195.26165
868.416	1453.28961
868.598	1298.89256
868.78	1504.0508
868.962	1328.50245
869.144	1410.9886
869.326	1328.50245
869.508	1554.81161
869.69	1265.05319
869.872	1366.57277
870.054	1313.69746
870.236	1408.87355
870.417	1262.93825
870.599	1343.30752
870.781	1250.24866
870.963	1394.06824
871.145	1152.96554
871.327	1239.67408
871.508	1148.73602
871.69	1315.81245
871.872	1296.77759
872.054	1383.49304
872.235	1108.5564
872.417	1432.13909
872.599	1250.24866
872.78	1461.74982
872.962	1102.2124
873.144	1406.7585
873.325	1222.75489
873.507	1303.12252
873.689	1169.8838
873.87	1381.378
874.052	1114.90044
874.233	1339.07749
874.415	1298.89256
874.596	1288.3177
874.778	1146.62126
874.959	1296.77759
875.141	1129.70336
875.322	1343.30752
875.503	1233.32936
875.685	1301.00754
875.866	1229.09956
876.048	1258.70837
876.229	1059.92022
876.41	1273.51298
876.592	1110.67107
876.773	1322.15744
876.954	1106.44172
877.136	1258.70837
877.317	1087.4099
877.498	1224.86978
877.679	1157.19508
877.86	1136.04754
878.042	1182.57266
878.223	1203.72105
878.404	1074.72225
878.585	1174.11341
878.766	1167.76901
878.947	1237.55917
879.128	1085.29528
879.309	1248.13374
879.49	1136.04754
879.672	1404.64346
879.853	1246.01882
880.034	1364.45774
880.215	1330.61746
880.396	1347.53755
880.576	1161.42464
880.757	1201.6062
880.938	1239.67408
881.119	1379.26297
881.3	1121.24452
881.481	1296.77759
881.662	1136.04754
881.843	1436.36919
882.023	1095.86844
882.204	1239.67408
882.385	1163.53942
882.566	1309.46748
882.747	1102.2124
882.927	1313.69746
883.108	1017.63024
883.289	1265.05319
883.469	1159.30986
883.65	1339.07749
883.831	1201.6062
884.011	1355.99764
884.192	1237.55917
884.373	1406.7585
884.553	1324.27245
884.734	1415.21869
884.914	1301.00754
885.095	1599.22671
885.275	1163.53942
885.456	1423.67889
885.636	1229.09956
885.817	1400.41337
885.997	1220.64001
886.178	1482.90033
886.358	1305.23751
886.538	1417.33374
886.719	1252.36358
886.899	1425.79394
887.08	1322.15744
887.26	1449.0595
887.44	1197.3765
887.621	1440.5993
887.801	1288.3177
887.981	1436.36919
888.161	1231.21446
888.342	1362.34271
888.522	1212.1805
888.702	1307.35249
888.882	1212.1805
889.062	1430.02404
889.242	1305.23751
889.423	1504.0508
889.603	1169.8838
889.783	1237.55917
889.963	1165.65421
890.143	1292.54764
890.323	1152.96554
890.503	1398.29832
890.683	1254.47851
890.863	1313.69746
891.043	1089.52453
891.223	1305.23751
891.403	1229.09956
891.583	1453.28961
891.763	1195.26165
891.943	1343.30752
892.122	1241.78899
892.302	1366.57277
892.482	1281.9728
892.662	1317.92745
892.842	1273.51298
893.022	1406.7585
893.201	1165.65421
893.381	1391.9532
893.561	1057.80567
893.741	1311.58247
893.92	1197.3765
894.1	1313.69746
894.28	1174.11341
894.459	1391.9532
894.639	1313.69746
894.819	1271.39803
894.998	1203.72105
895.178	1258.70837
895.357	1222.75489
895.537	1195.26165
895.716	1161.42464
895.896	1298.89256
896.075	1127.58865
896.255	1258.70837
896.434	1051.46204
896.614	1322.15744
896.793	1102.2124
896.973	1290.43267
897.152	975.34269
897.331	1279.85784
897.511	973.22839
897.69	962.65695
897.87	985.91434
898.049	1138.16228
898.228	1089.52453
898.407	1026.08805
898.587	926.71537
898.766	1138.16228
898.945	1002.82931
899.124	1087.4099
899.304	1072.60766
899.483	1110.67107
899.662	943.62879
899.841	1081.06605
900.02	918.25884
900.199	994.37177
900.378	899.23209
900.557	1127.58865
900.737	856.95276
900.916	909.80243
901.095	892.88998
901.274	992.2574
901.453	920.37296
901.632	890.77596
901.811	797.76753
901.989	907.68835
902.168	738.58978
902.347	983.8
902.526	907.68835
902.705	958.42842
902.884	865.40836
903.063	1072.60766
903.242	793.54029
903.42	1045.11847
903.599	761.83724
903.778	837.92817
903.957	698.43809
904.135	730.13647
904.314	734.3631
904.493	848.4973
904.672	730.13647
904.85	755.4969
905.029	702.6644
905.207	766.06419
905.386	751.27006
905.565	916.14472
905.743	658.29044
905.922	673.0812
906.1	592.79566
906.279	785.08593
906.457	611.80904
906.636	660.40337
906.814	641.38743
906.993	632.93621
907.171	571.67092
907.35	624.48519
907.528	527.31334
907.707	673.0812
907.885	542.09852
908.063	618.14706
908.242	588.57061
908.42	628.71068
908.598	432.28277
908.777	624.48519
908.955	531.53761
909.133	571.67092
909.311	506.19285
909.49	673.0812
909.668	520.97704
909.846	565.33375
910.024	482.96198
910.202	548.43524
910.38	459.73291
910.559	466.06793
910.737	470.29135
910.915	525.20123
911.093	605.47113
911.271	493.52124
911.449	487.18564
911.627	645.61311
911.805	451.28643
911.983	565.33375
912.161	430.17133
912.339	563.22139
912.517	529.42547
912.695	603.35852
912.872	584.34561
913.05	616.03437
913.228	548.43524
913.406	594.90821
913.584	423.8371
913.762	715.34359
913.939	567.44613
914.117	620.25976
914.295	493.52124
914.473	506.19285
914.65	569.55852
914.828	556.88439
915.006	417.50302
915.184	675.19421
915.361	510.41683
915.539	527.31334
915.716	459.73291
915.894	586.4581
916.072	411.16909
916.249	582.23313
916.427	569.55852
916.604	539.98631
916.782	537.87412
916.959	561.10904
917.137	510.41683
917.314	508.30483
917.492	413.28038
917.669	552.65979
917.847	533.64976
918.024	482.96198
918.201	485.0738
918.379	514.64087
918.556	495.63314
918.733	476.6266
918.911	476.6266
919.088	375.27956
919.265	425.9485
919.442	501.96892
919.62	430.17133
919.797	487.18564
919.974	417.50302
920.151	506.19285
920.328	335.1735
920.506	514.64087
920.683	468.17963
920.86	459.73291
921.037	371.05758
921.214	476.6266
921.391	432.28277
921.568	495.63314
921.745	409.05781
921.922	430.17133
922.099	459.73291
922.276	451.28643
922.453	311.95708
922.63	394.2793
922.807	358.39204
922.984	301.40489
923.161	273.97131
923.338	409.05781
923.514	375.27956
923.691	366.83566
923.868	307.73615
924.045	379.50161
924.222	326.73092
924.399	402.72406
924.575	419.61437
924.752	368.94661
924.929	299.2945
925.105	430.17133
925.282	383.72372
925.459	345.72712
925.635	324.62032
925.812	434.39422
925.989	375.27956
926.165	472.40309
926.342	324.62032
926.518	377.39057
926.695	322.50973
926.871	375.27956
927.048	238.10143
927.224	333.06283
927.401	261.31072
927.577	307.73615
927.754	240.21127
927.93	265.53084
928.107	233.8818
928.283	257.09068
928.459	240.21127
928.636	198.0182
928.812	261.31072
928.988	252.87071
929.165	164.26954
929.341	261.31072
929.517	206.45618
929.693	219.11374
929.87	276.08147
930.046	227.55252
930.222	233.8818
930.398	307.73615
930.574	138.96154
930.751	259.20069
930.927	155.83321
931.103	250.76076
931.279	227.55252
931.455	250.76076
931.631	233.8818
931.807	208.56572
931.983	265.53084
932.159	225.4428
932.335	132.63502
932.511	290.85314
932.687	223.33309
932.863	189.58055
933.039	221.22341
933.215	210.67529
933.391	170.59702
933.566	138.96154
933.742	212.78487
933.918	168.48784
934.094	217.0041
934.27	155.83321
934.445	86.24649
934.621	248.65082
934.797	189.58055
934.973	181.14322
935.148	107.33087
935.324	155.83321
935.5	96.7884
935.675	189.58055
935.851	145.28826
936.027	124.19996
936.202	183.25252
936.378	124.19996
936.553	92.57157
936.729	88.35483
936.904	130.52622
937.08	117.87389
937.255	84.13817
937.431	90.46319
937.606	130.52622
937.782	113.65661
937.957	117.87389
938.133	109.43943
938.308	134.74384
938.483	20.89932
938.659	75.70514
938.834	113.65661
939.009	33.54542
939.185	58.84015
939.36	4.03918
939.535	96.7884
939.71	79.92161
939.886	75.70514
940.061	82.02988
940.236	128.41744
940.411	96.7884
940.586	37.76098
940.761	96.7884
940.937	10.36155
941.112	79.92161
941.287	6.14661
941.462	145.28826
941.637	96.7884
941.812	71.48875
941.987	105.22233
942.162	63.05626
942.337	46.19237
942.512	39.86879
942.687	50.4082
942.862	29.32996
943.037	39.86879
943.212	39.86879
943.386	37.76098
943.561	75.70514
943.736	155.83321
943.911	65.16435
944.086	31.43768
944.26	46.19237
944.435	46.19237
944.61	-12.81942
944.785	6.14661
944.959	46.19237
945.134	79.92161
945.309	92.57157
945.483	73.59693
945.658	48.30027
945.833	41.97663
946.007	31.43768
946.182	54.62413
946.357	41.97663
946.531	-17.03383
946.706	50.4082
946.88	27.22227
947.055	67.27246
947.229	54.62413
947.404	71.48875
947.578	107.33087
947.752	145.28826
947.927	-6.49763
948.101	-27.56942
948.276	109.43943
948.45	25.11459
948.624	46.19237
948.799	25.11459
948.973	113.65661
949.147	92.57157
949.321	4.03918
949.496	138.96154
949.67	20.89932
949.844	75.70514
950.018	33.54542
950.193	71.48875
950.367	39.86879
950.541	-44.42508
950.715	86.24649
950.889	4.03918
951.063	52.51615
951.237	-6.49763
951.411	98.89685
951.585	41.97663
951.759	-12.81942
951.933	109.43943
952.107	54.62413
952.281	48.30027
952.455	50.4082
952.629	77.81336
952.803	54.62413
952.977	52.51615
953.151	46.19237
953.325	84.13817
953.499	1.93177
953.672	54.62413
953.846	25.11459
954.02	92.57157
954.194	54.62413
954.368	63.05626
954.541	41.97663
954.715	56.73213
954.889	105.22233
955.062	54.62413
955.236	98.89685
955.41	65.16435
955.583	82.02988
955.757	-46.53192
955.93	12.46906
956.104	109.43943
956.278	20.89932
956.451	35.65319
956.625	75.70514
956.798	20.89932
956.972	-12.81942
957.145	46.19237
957.319	46.19237
957.492	88.35483
957.665	52.51615
957.839	96.7884
958.012	46.19237
958.185	63.05626
958.359	-2.28298
958.532	69.38059
958.705	20.89932
958.879	86.24649
959.052	48.30027
959.225	75.70514
959.398	96.7884
959.572	73.59693
959.745	12.46906
959.918	73.59693
960.091	84.13817
960.264	79.92161
960.438	44.08449
960.611	101.00532
960.784	69.38059
960.957	58.84015
961.13	54.62413
961.303	92.57157
961.476	29.32996
961.649	-12.81942
961.822	56.73213
961.995	6.14661
962.168	-10.71218
962.341	79.92161
962.514	8.25407
962.686	39.86879
962.859	33.54542
963.032	65.16435
963.205	50.4082
963.378	18.79172
963.551	-12.81942
963.723	-0.17561
963.896	96.7884
964.069	12.46906
964.242	92.57157
964.414	50.4082
964.587	67.27246
964.76	111.54801
964.932	172.70621
965.105	23.00695
965.278	71.48875
965.45	1.93177
965.623	63.05626
965.795	54.62413
965.968	4.03918
966.14	79.92161
966.313	63.05626
966.485	88.35483
966.658	14.57659
966.83	88.35483
967.003	6.14661
967.175	115.76524
967.348	16.68414
967.52	122.09124
967.692	20.89932
967.865	31.43768
968.037	-12.81942
968.209	105.22233
968.382	69.38059
968.554	-25.46235
968.726	12.46906
968.898	27.22227
969.071	60.94819
969.243	20.89932
969.415	65.16435
969.587	-17.03383
969.759	16.68414
969.932	31.43768
970.104	29.32996
970.276	33.54542
970.448	77.81336
970.62	82.02988
970.792	20.89932
970.964	10.36155
971.136	-42.31821
971.308	39.86879
971.48	73.59693
971.652	-54.95905
971.824	48.30027
971.996	-25.46235
972.168	54.62413
972.339	4.03918
972.511	60.94819
972.683	14.57659
972.855	46.19237
973.027	48.30027
973.199	46.19237
973.37	29.32996
973.542	65.16435
973.714	8.25407
973.886	14.57659
974.057	-0.17561
974.229	71.48875
974.401	71.48875
974.572	65.16435
974.744	65.16435
974.915	50.4082
975.087	50.4082
975.259	75.70514
975.43	4.03918
975.602	54.62413
975.773	39.86879
975.945	29.32996
976.116	56.73213
976.288	16.68414
976.459	-4.39031
976.63	-2.28298
976.802	84.13817
976.973	60.94819
977.145	-17.03383
977.316	-4.39031
977.487	-0.17561
977.659	4.03918
977.83	4.03918
978.001	8.25407
978.172	1.93177
978.344	6.14661
978.515	54.62413
978.686	96.7884
978.857	-71.81209
979.028	16.68414
979.2	-4.39031
979.371	18.79172
979.542	20.89932
979.713	50.4082
979.884	58.84015
980.055	44.08449
980.226	73.59693
980.397	-21.24814
980.568	50.4082
980.739	52.51615
980.91	31.43768
981.081	12.46906
981.252	23.00695
981.423	8.25407
981.594	20.89932
981.765	6.14661
981.936	79.92161
982.106	46.19237
982.277	88.35483
982.448	75.70514
982.619	46.19237
982.79	46.19237
982.96	-12.81942
983.131	37.76098
983.302	12.46906
983.472	71.48875
983.643	75.70514
983.814	37.76098
983.984	73.59693
984.155	54.62413
984.326	37.76098
984.496	12.46906
984.667	14.57659
984.837	60.94819
985.008	90.46319
985.178	-21.24814
985.349	65.16435
985.519	41.97663
985.69	88.35483
985.86	-63.38577
986.031	48.30027
986.201	-17.03383
986.371	71.48875
986.542	4.03918
986.712	79.92161
986.882	-17.03383
987.053	101.00532
987.223	-23.35526
987.393	4.03918
987.563	84.13817
987.734	8.25407
987.904	33.54542
988.074	48.30027
988.244	101.00532
988.414	-38.10439
988.585	46.19237
988.755	12.46906
988.925	20.89932
989.095	82.02988
989.265	-12.81942
989.435	-14.92664
989.605	54.62413
989.775	14.57659
989.945	-21.24814
990.115	71.48875
990.285	20.89932
990.455	16.68414
990.625	84.13817
990.795	29.32996
990.965	48.30027
991.134	-21.24814
991.304	37.76098
991.474	-4.39031
991.644	111.54801
991.814	56.73213
991.984	73.59693
992.153	23.00695
992.323	75.70514
992.493	58.84015
992.662	-42.31821
992.832	12.46906
993.002	90.46319
993.171	12.46906
993.341	-14.92664
993.511	88.35483
993.68	-19.141
993.85	75.70514
994.019	33.54542
994.189	54.62413
994.358	37.76098
994.528	-29.67646
994.697	48.30027
994.867	56.73213
995.036	39.86879
995.206	-10.71218
995.375	14.57659
995.544	88.35483
995.714	79.92161
995.883	6.14661
996.052	35.65319
996.222	44.08449
996.391	16.68414
996.56	50.4082
996.73	71.48875
996.899	-71.81209
997.068	-44.42508
997.237	4.03918
997.406	50.4082
997.576	63.05626
997.745	29.32996
997.914	20.89932
998.083	-21.24814
998.252	75.70514
998.421	-2.28298
998.59	29.32996
998.759	8.25407
998.928	29.32996
999.097	65.16435
999.266	25.11459
999.435	54.62413
999.604	50.4082
999.773	8.25407
999.942	56.73213
1000.111	-10.71218
1000.28	-35.99745
1000.448	63.05626
1000.617	-21.24814
1000.786	-2.28298
1000.955	63.05626
1001.124	14.57659
1001.292	54.62413
1001.461	4.03918
1001.63	-19.141
1001.798	4.03918
1001.967	-8.60492
1002.136	-4.39031
1002.304	-23.35526
1002.473	69.38059
1002.642	44.08449
1002.81	-17.03383
1002.979	67.27246
1003.147	73.59693
1003.316	6.14661
1003.484	-50.74553
1003.653	16.68414
1003.821	-0.17561
1003.99	63.05626
1004.158	-8.60492
1004.327	4.03918
1004.495	-0.17561
1004.663	-29.67646
1004.832	-8.60492
1005	46.19237
1005.168	-8.60492
1005.337	-2.28298
1005.505	-59.17246
1005.673	20.89932
1005.842	37.76098
1006.01	-29.67646
1006.178	20.89932
1006.346	67.27246
1006.514	67.27246
1006.683	4.03918
1006.851	56.73213
1007.019	8.25407
1007.187	-19.141
1007.355	73.59693
1007.523	-42.31821
1007.691	41.97663
1007.859	-52.8523
1008.027	-2.28298
1008.195	-27.56942
1008.363	54.62413
1008.531	37.76098
1008.699	10.36155
1008.867	46.19237
1009.035	-19.141
1009.203	-35.99745
1009.37	-19.141
1009.538	82.02988
1009.706	37.76098
1009.874	35.65319
1010.042	-17.03383
1010.209	12.46906
1010.377	73.59693
1010.545	37.76098
1010.713	31.43768
1010.88	37.76098
1011.048	12.46906
1011.216	37.76098
1011.383	41.97663
1011.551	8.25407
1011.718	-52.8523
1011.886	54.62413
1012.054	16.68414
1012.221	-57.06577
1012.389	-29.67646
1012.556	41.97663
1012.724	39.86879
1012.891	-4.39031
1013.058	46.19237
1013.226	33.54542
1013.393	-12.81942
1013.561	-63.38577
1013.728	-80.238
1013.895	54.62413
1014.063	18.79172
1014.23	44.08449
1014.397	33.54542
1014.565	20.89932
1014.732	-71.81209
1014.899	-21.24814
1015.066	12.46906
1015.233	25.11459
1015.401	79.92161
1015.568	25.11459
1015.735	12.46906
1015.902	-23.35526
1016.069	31.43768
1016.236	-33.89048
1016.403	-0.17561
1016.57	31.43768
1016.737	-12.81942
1016.904	-29.67646
1017.071	16.68414
1017.238	29.32996
1017.405	-12.81942
1017.572	41.97663
1017.739	65.16435
1017.906	12.46906
1018.073	14.57659
1018.24	31.43768
1018.407	4.03918
1018.573	29.32996
1018.74	37.76098
1018.907	63.05626
1019.074	-27.56942
1019.241	-61.27913
1019.407	16.68414
1019.574	88.35483
1019.741	4.03918
1019.907	4.03918
1020.074	18.79172
1020.241	12.46906
1020.407	56.73213
1020.574	-25.46235
1020.74	-4.39031
1020.907	14.57659
1021.073	-0.17561
1021.24	-63.38577
1021.406	12.46906
1021.573	12.46906
1021.739	79.92161
1021.906	6.14661
1022.072	46.19237
1022.239	16.68414
1022.405	-67.59898
1022.571	54.62413
1022.738	14.57659
1022.904	-8.60492
1023.07	63.05626
1023.237	-27.56942
1023.403	-23.35526
1023.569	46.19237
1023.735	58.84015
1023.902	75.70514
1024.068	-44.42508
1024.234	25.11459
1024.4	-54.95905
1024.566	44.08449
1024.732	8.25407
1024.898	63.05626
1025.065	39.86879
1025.231	8.25407
1025.397	54.62413
1025.563	12.46906
1025.729	-17.03383
1025.895	101.00532
1026.061	20.89932
1026.227	46.19237
1026.392	29.32996
1026.558	-29.67646
1026.724	20.89932
1026.89	98.89685
1027.056	-44.42508
1027.222	-12.81942
1027.388	37.76098
1027.553	41.97663
1027.719	-35.99745
1027.885	-0.17561
1028.051	-17.03383
1028.216	8.25407
1028.382	58.84015
1028.548	37.76098
1028.713	44.08449
1028.879	-10.71218
1029.045	-4.39031
1029.21	-8.60492
1029.376	-42.31821
1029.541	29.32996
1029.707	-54.95905
1029.873	67.27246
1030.038	1.93177
1030.204	27.22227
1030.369	20.89932
1030.534	71.48875
1030.7	29.32996
1030.865	-8.60492
1031.031	-19.141
1031.196	-46.53192
1031.361	-27.56942
1031.527	-17.03383
1031.692	4.03918
1031.857	12.46906
1032.023	-19.141
1032.188	71.48875
1032.353	56.73213
1032.518	-44.42508
1032.684	29.32996
1032.849	54.62413
1033.014	58.84015
1033.179	4.03918
1033.344	-19.141
1033.509	25.11459
1033.674	12.46906
1033.839	-17.03383
1034.004	-61.27913
1034.17	8.25407
1034.335	-27.56942
1034.5	35.65319
1034.664	16.68414
1034.829	67.27246
1034.994	-12.81942
1035.159	-12.81942
1035.324	-4.39031
1035.489	-25.46235
1035.654	-10.71218
1035.819	-48.63874
1035.984	69.38059
1036.148	14.57659
1036.313	20.89932
1036.478	-8.60492
1036.643	122.09124
1036.807	-29.67646
1036.972	12.46906
1037.137	-42.31821
1037.301	-27.56942
1037.466	20.89932
1037.631	48.30027
1037.795	52.51615
1037.96	6.14661
1038.124	50.4082
1038.289	-17.03383
1038.454	27.22227
1038.618	33.54542
1038.783	-63.38577
1038.947	6.14661
1039.111	25.11459
1039.276	16.68414
1039.44	46.19237
1039.605	-0.17561
1039.769	37.76098
1039.933	-0.17561
1040.098	46.19237
1040.262	29.32996
1040.426	54.62413
1040.591	-29.67646
1040.755	-33.89048
1040.919	-4.39031
1041.083	25.11459
1041.248	-6.49763
1041.412	8.25407
1041.576	113.65661
1041.74	-52.8523
1041.904	25.11459
1042.068	4.03918
1042.232	1.93177
1042.397	-0.17561
1042.561	-10.71218
1042.725	-8.60492
1042.889	-19.141
1043.053	25.11459
1043.217	37.76098
1043.381	63.05626
1043.544	6.14661
1043.708	-25.46235
1043.872	84.13817
1044.036	-4.39031
1044.2	33.54542
1044.364	-29.67646
1044.528	79.92161
1044.691	65.16435
1044.855	90.46319
1045.019	41.97663
1045.183	8.25407
1045.346	-4.39031
1045.51	71.48875
1045.674	-137.10195
1045.837	10.36155
1046.001	-38.10439
1046.165	23.00695
1046.328	50.4082
1046.492	-44.42508
1046.655	46.19237
1046.819	63.05626
1046.983	4.03918
1047.146	77.81336
1047.31	75.70514
1047.473	92.57157
1047.636	48.30027
1047.8	-12.81942
1047.963	-54.95905
1048.127	75.70514
1048.29	-59.17246
