Data from mixed_try1_USB4F045381__5__00153.txt Node

Date: Thu Apr 03 20:07:27 EDT 2025
User: mmckonesweet
Spectrometer: USB4F04538
Trigger mode: 4
Integration Time (sec): 2.700000E-3
Scans to average: 1
Electric dark correction enabled: true
Nonlinearity correction enabled: true
Boxcar width: 0
XAxis mode: Wavelengths
Number of Pixels in Spectrum: 3648
>>>>>Begin Spectral Data<<<<<
345.52	24.58768
345.736	24.58768
345.952	24.58768
346.168	-9.13173
346.384	16.15725
346.6	24.58768
346.816	-95.5089
347.032	28.80304
347.248	37.23403
347.464	-38.63112
347.68	-7.02445
347.896	30.91075
348.112	-19.66778
348.328	35.12624
348.544	14.04971
348.76	68.85356
348.975	-78.65817
349.191	-40.73804
349.407	-28.09618
349.623	-11.23899
349.839	37.23403
350.055	-19.66778
350.27	33.01848
350.486	-44.95179
350.702	-19.66778
350.918	-4.91714
351.133	-53.37899
351.349	-17.56062
351.565	49.88122
351.781	30.91075
351.996	-32.31023
352.212	81.50281
352.428	47.77329
352.644	-17.56062
352.859	-72.33872
353.075	-34.41722
353.291	-40.73804
353.506	-19.66778
353.722	-2.80981
353.938	-36.52418
354.153	-47.05863
354.369	-25.98912
354.584	-40.73804
354.8	-36.52418
355.016	-13.34623
355.231	-36.52418
355.447	-57.59244
355.662	-11.23899
355.878	66.74543
356.093	5.61975
356.309	22.48004
356.524	-15.45344
356.74	-19.66778
356.955	9.83468
357.171	24.58768
357.386	-11.23899
357.602	-21.77492
357.817	-28.09618
358.033	-36.52418
358.248	-53.37899
358.464	-30.20322
358.679	-19.66778
358.895	-36.52418
359.11	-4.91714
359.325	-19.66778
359.541	62.52924
359.756	-84.97739
359.972	-7.02445
360.187	18.26482
360.402	-17.56062
360.618	-15.45344
360.833	-13.34623
361.048	35.12624
361.264	60.42118
361.479	22.48004
361.694	24.58768
361.909	-9.13173
362.125	49.88122
362.34	9.83468
362.555	-59.69913
362.77	18.26482
362.986	47.77329
363.201	39.34183
363.416	-59.69913
363.631	9.83468
363.847	56.20513
364.062	47.77329
364.277	14.04971
364.492	-4.91714
364.707	47.77329
364.922	24.58768
365.138	35.12624
365.353	35.12624
365.568	30.91075
365.783	14.04971
365.998	-23.88203
366.213	70.96171
366.428	41.44967
366.643	60.42118
366.858	16.15725
367.073	-9.13173
367.288	30.91075
367.503	14.04971
367.718	-82.87101
367.933	-53.37899
368.148	-87.08375
368.363	-68.12563
368.578	-49.16544
368.793	-40.73804
369.008	-2.80981
369.223	-0.70246
369.438	-47.05863
369.653	-40.73804
369.868	7.72721
370.083	-34.41722
370.298	37.23403
370.513	-25.98912
370.728	24.58768
370.943	41.44967
371.157	-4.91714
371.372	-23.88203
371.587	-76.55171
371.802	18.26482
372.017	39.34183
372.232	-19.66778
372.446	5.61975
372.661	37.23403
372.876	-17.56062
373.091	-87.08375
373.306	30.91075
373.52	9.83468
373.735	-28.09618
373.95	56.20513
374.165	-25.98912
374.379	-11.23899
374.594	-2.80981
374.809	-47.05863
375.023	35.12624
375.238	14.04971
375.453	28.80304
375.667	5.61975
375.882	56.20513
376.097	22.48004
376.311	47.77329
376.526	73.06989
376.741	-34.41722
376.955	22.48004
377.17	14.04971
377.384	51.98916
377.599	7.72721
377.813	-36.52418
378.028	64.63732
378.242	-15.45344
378.457	22.48004
378.672	-32.31023
378.886	-11.23899
379.101	-28.09618
379.315	41.44967
379.53	-17.56062
379.744	18.26482
379.958	-51.27223
380.173	-0.70246
380.387	-11.23899
380.602	-2.80981
380.816	14.04971
381.031	49.88122
381.245	20.37242
381.459	24.58768
381.674	60.42118
381.888	7.72721
382.103	-28.09618
382.317	-68.12563
382.531	-4.91714
382.746	16.15725
382.96	-4.91714
383.174	39.34183
383.388	47.77329
383.603	-17.56062
383.817	54.09713
384.031	64.63732
384.246	22.48004
384.46	26.69535
384.674	35.12624
384.888	26.69535
385.103	5.61975
385.317	47.77329
385.531	-49.16544
385.745	-53.37899
385.959	-32.31023
386.174	56.20513
386.388	106.80373
386.602	-51.27223
386.816	-78.65817
387.03	-19.66778
387.244	73.06989
387.458	-28.09618
387.672	24.58768
387.887	33.01848
388.101	-0.70246
388.315	54.09713
388.529	1.40492
388.743	-61.80579
388.957	33.01848
389.171	20.37242
389.385	14.04971
389.599	22.48004
389.813	33.01848
390.027	28.80304
390.241	7.72721
390.455	14.04971
390.669	5.61975
390.883	1.40492
391.097	43.55752
391.311	-36.52418
391.525	24.58768
391.738	-0.70246
391.952	14.04971
392.166	-7.02445
392.38	-2.80981
392.594	26.69535
392.808	28.80304
393.022	22.48004
393.236	11.94218
393.449	7.72721
393.663	30.91075
393.877	51.98916
394.091	20.37242
394.305	-9.13173
394.518	18.26482
394.732	49.88122
394.946	85.71941
395.16	47.77329
395.373	-30.20322
395.587	-2.80981
395.801	-11.23899
396.015	33.01848
396.228	14.04971
396.442	-0.70246
396.656	47.77329
396.869	-19.66778
397.083	51.98916
397.297	64.63732
397.51	-28.09618
397.724	47.77329
397.938	20.37242
398.151	24.58768
398.365	-7.02445
398.578	-19.66778
398.792	1.40492
399.005	1.40492
399.219	119.45538
399.433	16.15725
399.646	9.83468
399.86	-11.23899
400.073	-2.80981
400.287	89.9361
400.5	26.69535
400.714	-44.95179
400.927	22.48004
401.141	-55.48573
401.354	-2.80981
401.567	81.50281
401.781	35.12624
401.994	9.83468
402.208	39.34183
402.421	119.45538
402.635	47.77329
402.848	-36.52418
403.061	7.72721
403.275	1.40492
403.488	66.74543
403.701	37.23403
403.915	98.36974
404.128	30.91075
404.341	11.94218
404.555	14.04971
404.768	98.36974
404.981	-7.02445
405.195	-17.56062
405.408	14.04971
405.621	51.98916
405.834	39.34183
406.048	22.48004
406.261	9.83468
406.474	5.61975
406.687	64.63732
406.9	9.83468
407.114	75.17808
407.327	43.55752
407.54	41.44967
407.753	5.61975
407.966	16.15725
408.179	60.42118
408.392	85.71941
408.605	-61.80579
408.819	39.34183
409.032	26.69535
409.245	47.77329
409.458	-2.80981
409.671	5.61975
409.884	73.06989
410.097	39.34183
410.31	68.85356
410.523	51.98916
410.736	49.88122
410.949	81.50281
411.162	14.04971
411.375	-2.80981
411.588	24.58768
411.801	22.48004
412.014	43.55752
412.227	5.61975
412.44	100.4782
412.653	22.48004
412.865	7.72721
413.078	-36.52418
413.291	98.36974
413.504	24.58768
413.717	83.6111
413.93	-44.95179
414.143	35.12624
414.356	3.51233
414.568	66.74543
414.781	22.48004
414.994	75.17808
415.207	35.12624
415.42	66.74543
415.632	83.6111
415.845	68.85356
416.058	41.44967
416.271	81.50281
416.483	39.34183
416.696	123.67278
416.909	-53.37899
417.121	43.55752
417.334	92.04447
417.547	47.77329
417.759	30.91075
417.972	77.2863
418.185	111.02086
418.397	43.55752
418.61	49.88122
418.823	51.98916
419.035	127.89025
419.248	35.12624
419.46	-19.66778
419.673	132.10782
419.885	14.04971
420.098	81.50281
420.311	64.63732
420.523	81.50281
420.736	104.6952
420.948	26.69535
421.161	98.36974
421.373	41.44967
421.586	30.91075
421.798	83.6111
422.01	47.77329
422.223	165.85139
422.435	132.10782
422.648	41.44967
422.86	170.06972
423.073	-7.02445
423.285	47.77329
423.497	66.74543
423.71	39.34183
423.922	98.36974
424.134	85.71941
424.347	51.98916
424.559	41.44967
424.771	-2.80981
424.984	77.2863
425.196	106.80373
425.408	125.7815
425.621	77.2863
425.833	83.6111
426.045	49.88122
426.257	66.74543
426.47	123.67278
426.682	174.28813
426.894	26.69535
427.106	81.50281
427.318	129.99903
427.531	125.7815
427.743	89.9361
427.955	102.58669
428.167	81.50281
428.379	58.31314
428.591	94.15287
428.804	89.9361
429.016	153.19692
429.228	100.4782
429.44	106.80373
429.652	170.06972
429.864	102.58669
430.076	140.5432
430.288	161.63315
430.5	108.91229
430.712	140.5432
430.924	108.91229
431.136	167.96055
431.348	159.52406
431.56	75.17808
431.772	140.5432
431.984	111.02086
432.196	167.96055
432.408	123.67278
432.62	193.27198
432.832	125.7815
433.044	229.13482
433.256	132.10782
433.468	218.58633
433.679	174.28813
433.891	180.61589
434.103	182.72519
434.315	195.3814
434.527	250.23327
434.739	227.02509
434.95	197.49084
435.162	216.47669
435.374	275.55393
435.586	252.34322
435.798	201.70978
436.009	197.49084
436.221	233.35436
436.433	288.21528
436.645	233.35436
436.856	218.58633
437.068	208.03833
437.28	220.69599
437.491	309.31899
437.703	235.46415
437.915	208.03833
438.126	258.67319
438.338	269.22351
438.55	321.98209
438.761	218.58633
438.973	269.22351
439.184	292.43587
439.396	343.08867
439.608	250.23327
439.819	359.9752
440.031	288.21528
440.242	343.08867
440.454	317.76099
440.665	343.08867
440.877	252.34322
441.088	393.75151
441.3	359.9752
441.511	395.86267
441.723	246.01343
441.934	328.31388
442.146	302.98769
442.357	414.86386
442.569	387.41813
442.78	343.08867
442.991	414.86386
443.203	404.30748
443.414	461.31665
443.626	368.41887
443.837	452.87013
444.048	397.97385
444.26	343.08867
444.471	402.19626
444.682	482.43403
444.894	482.43403
445.105	421.19789
445.316	429.64347
445.528	389.52924
445.739	467.65171
445.95	387.41813
446.161	431.75491
446.373	473.9869
446.584	469.76342
446.795	499.329
447.006	452.87013
447.217	454.98174
447.429	550.01944
447.64	488.76953
447.851	469.76342
448.062	630.29525
448.273	368.41887
448.484	562.6933
448.695	518.33696
448.907	562.6933
449.118	617.61889
449.329	419.08653
449.54	719.04176
449.751	448.64696
449.962	531.00957
450.173	554.24401
450.384	693.68355
450.595	740.1748
450.806	569.03042
451.017	503.55289
451.228	609.16823
451.439	740.1748
451.65	590.155
451.861	613.39353
452.072	659.87514
452.283	757.08198
452.494	636.6336
452.705	740.1748
452.915	833.17213
453.126	816.26215
453.337	630.29525
453.548	674.66595
453.759	790.89829
453.97	917.73031
454.181	833.17213
454.391	816.26215
454.602	919.84443
454.813	879.67749
455.024	993.84318
455.235	894.4755
455.445	945.21445
455.656	921.95856
455.867	945.21445
456.078	970.58551
456.288	822.60332
456.499	1010.75834
456.71	1002.30071
456.921	921.95856
457.131	1074.1936
457.342	932.52931
457.553	1078.42279
457.763	979.04275
457.974	1133.40413
458.184	1146.09257
458.395	1315.28371
458.606	1222.22617
458.816	1344.89378
459.027	1289.90392
459.237	1203.19234
459.448	1450.64579
459.659	1351.23884
459.869	1338.54874
460.08	1463.33611
460.29	1495.06186
460.501	1556.39787
460.711	1586.008
460.922	1387.19436
461.132	1609.27288
461.343	1700.21475
461.553	1588.123
461.764	1774.23309
461.974	1497.1769
462.184	1560.62791
462.395	1738.28187
462.605	1772.11834
462.816	1763.65931
463.026	1814.41251
463.236	1693.87013
463.447	1837.67356
463.657	2021.6248
463.867	2228.77291
464.078	1871.50679
464.288	2008.93996
464.498	2228.77291
464.709	2290.05653
464.919	2148.45911
465.129	2414.71212
465.339	2154.80011
465.55	2412.59961
465.76	2283.7172
465.97	2338.65519
466.18	2357.67065
466.391	2642.79754
466.601	2298.50883
466.811	2587.90056
467.021	2693.46418
467.231	2796.88527
467.441	2503.42789
467.651	2853.85847
467.862	2915.04042
468.072	2923.47836
468.282	2853.85847
468.492	2847.52862
468.702	3157.53436
468.912	3208.11544
469.122	3132.2403
469.332	3380.86123
469.542	3435.60996
469.752	3473.50587
469.962	3507.18621
470.172	3688.13693
470.382	3614.51091
470.592	3793.27617
470.802	3683.93035
471.012	3774.35469
471.222	3633.44553
471.432	3833.21628
471.642	3839.52196
471.852	4280.46341
472.062	4026.50833
472.272	4297.24289
472.482	4183.95484
472.691	4557.147
472.901	4183.95484
473.111	4301.43755
473.321	4477.53478
473.531	4845.99339
473.741	4749.75902
473.95	5163.6401
474.16	4525.72494
474.37	5224.18294
474.58	4988.16436
474.79	5322.26241
474.999	5188.69469
475.209	5171.992
475.419	5514.09781
475.628	5597.4424
475.838	5105.16636
476.048	5670.33797
476.258	5607.85782
476.467	5909.64847
476.677	5853.49056
476.886	6256.61398
477.096	6210.94343
477.306	6154.87769
477.515	5969.94706
477.725	6167.33823
477.935	6432.96206
478.144	6443.33023
478.354	6441.25665
478.563	6830.6849
478.773	6859.65244
478.982	6789.29494
479.192	6892.75276
479.401	7103.63136
479.611	7140.82101
479.82	7163.54447
480.03	7312.21368
480.239	7386.50556
480.449	7283.31473
480.658	7664.85033
480.868	7603.02969
481.077	7872.84047
481.287	7582.41855
481.496	7998.35575
481.705	7821.37761
481.915	8097.06852
482.124	8171.07265
482.333	8138.18513
482.543	8064.16945
482.752	8419.62099
482.961	8458.62339
483.171	8536.6075
483.38	8419.62099
483.589	8442.20217
483.799	8954.80017
484.008	8909.73729
484.217	8973.23251
484.426	9085.84374
484.636	9188.17218
484.845	9558.2522
485.054	9402.92476
485.263	9578.68317
485.472	9353.85457
485.682	9887.00317
485.891	9880.88095
486.1	9956.37903
486.309	10007.37998
486.518	10117.51155
486.727	9989.02068
486.936	10404.8876
487.146	10066.52985
487.355	10433.40693
487.564	10512.84028
487.773	10781.55067
487.982	10474.14442
488.191	10781.55067
488.4	10934.13431
488.609	10846.66099
488.818	11080.55465
489.027	11149.67789
489.236	11291.95207
489.445	11462.61553
489.654	11391.51423
489.863	11592.59907
490.072	11369.16562
490.281	11629.15007
490.49	11856.51377
490.698	11653.51576
490.907	11612.90555
491.116	12065.51411
491.325	12120.28674
491.534	12489.35674
491.743	12223.73119
491.952	12268.3484
492.16	12126.37225
492.369	12448.81074
492.578	12341.35097
492.787	12463.00214
492.996	12685.96891
493.204	12690.02216
493.413	12874.42106
493.622	12878.47327
493.831	12665.70227
494.039	12862.26431
494.248	12900.76003
494.457	13429.39214
494.665	13222.83702
494.874	13439.51631
495.083	13409.14351
495.291	13403.06885
495.5	13490.13571
495.709	13346.37025
495.917	13338.27019
496.126	13522.5309
496.335	13603.51485
496.543	13818.09658
496.752	13664.24918
496.96	13757.36947
497.169	14117.64797
497.377	14077.17119
497.586	13953.71123
497.794	14287.64128
498.003	14056.93247
498.211	14214.78872
498.42	14226.93098
498.628	14617.47531
498.837	14271.45203
499.045	14744.94843
499.254	14611.40507
499.462	14708.52791
499.671	14997.86261
499.879	15121.28246
500.087	15188.05039
500.296	15475.35705
500.504	14902.76788
500.713	15192.09693
500.921	15046.42133
501.129	15125.329
501.338	15149.60825
501.546	15797.07335
501.754	15372.16868
501.962	15457.14725
502.171	15655.43462
502.379	15513.80012
502.587	15608.89716
502.795	15750.53438
503.004	15349.91251
503.212	16128.93549
503.42	15918.48219
503.628	16290.8342
503.837	15760.6515
504.045	16191.66995
504.253	16159.29068
504.461	15752.5578
504.669	16280.7152
504.877	16056.08449
505.085	16278.69141
505.294	16217.97842
505.502	16539.77669
505.71	16930.46101
505.918	16711.82882
506.126	16934.51004
506.334	16784.70301
506.542	16914.26503
506.75	16586.33037
506.958	16695.63497
507.166	16948.6817
507.374	16997.27124
507.582	16970.95171
507.79	17141.02445
507.998	17106.6034
508.206	17436.67531
508.414	16906.1671
508.622	17483.25634
508.83	17359.71893
509.037	17060.03502
509.245	17153.17326
509.453	17460.97825
509.661	17327.31757
509.869	17770.88136
510.077	17627.0606
510.285	17546.04212
510.492	17460.97825
510.7	17926.87532
510.908	17732.39247
511.116	17774.9329
511.324	17926.87532
511.531	17841.78517
511.739	17981.57938
511.947	18269.32532
512.155	18022.10257
512.362	18064.65346
512.57	18161.9186
512.778	18013.99782
512.985	18261.21879
513.193	18095.04792
513.401	18222.71358
513.608	18439.5763
513.816	18498.35964
514.024	18609.85417
514.231	18542.95605
514.439	18630.12716
514.646	18494.30551
514.854	18585.52709
515.061	18474.03511
515.269	18786.24235
515.477	18634.18181
515.684	18770.0215
515.892	18767.99391
516.099	18638.23647
516.307	19053.92329
516.514	18997.13662
516.722	18814.62945
516.929	19041.75445
517.136	19049.86699
517.344	19161.42105
517.551	18946.43692
517.759	19279.07329
517.966	19130.996
518.173	19390.65285
518.381	19228.35942
518.588	19676.75966
518.796	19510.36123
519.003	20036.03281
519.21	20015.73138
519.418	19908.14084
519.625	19542.82701
519.832	19764.02861
520.039	19506.30308
520.247	20023.8519
520.454	20050.24406
520.661	20385.28318
520.868	20196.42887
521.076	20651.36525
521.283	19906.11094
521.49	20464.49095
521.697	20340.60469
521.904	20444.18065
522.112	20454.33575
522.319	20561.98617
522.526	20247.19259
522.733	21035.38037
522.94	20661.52247
523.147	20787.48069
523.354	20606.6747
523.561	20836.24299
523.768	20998.80115
523.975	21364.65264
524.183	21086.18703
524.39	21445.97073
524.597	21244.72019
524.804	21143.09352
525.011	21360.58691
525.218	21454.10289
525.425	21506.96348
525.632	21437.83863
525.838	21500.86404
526.045	21252.85076
526.252	21313.83209
526.459	21931.97773
526.666	21818.08167
526.873	21899.43477
527.08	21948.24957
527.287	21667.59476
527.494	21413.44273
527.701	22153.70249
527.907	22033.68076
528.114	22029.61246
528.321	21997.06657
528.528	22210.66651
528.735	22314.42986
528.941	22208.63203
529.148	22285.94485
529.355	22428.37706
529.562	21818.08167
529.768	22426.34219
529.975	21781.47479
530.182	22351.0545
530.388	22532.16027
530.595	22835.42275
530.802	22497.56483
531.008	22990.13646
531.215	23065.46464
531.422	23051.21302
531.628	22863.92117
531.835	23185.59191
532.042	22863.92117
532.248	23234.46049
532.455	22961.6351
532.661	23356.64004
532.868	23140.79736
533.074	23212.06216
533.281	23446.24563
533.487	23623.438
533.694	23533.82057
533.9	23759.91213
534.107	23450.31876
534.313	24173.4879
534.52	24228.50418
534.726	24053.27407
534.933	24244.80568
535.139	24036.97464
535.345	23908.62289
535.552	23943.25638
535.758	23898.43673
535.965	24030.86239
536.171	24281.48469
536.377	24607.55758
536.584	24293.71122
536.79	24670.74173
536.996	24809.34745
537.203	24230.54186
537.409	24334.467
537.615	24322.24015
537.821	24393.56476
538.028	24921.46311
538.234	24668.70349
538.44	24799.15547
538.646	24579.02359
538.853	24905.15493
539.059	24556.60437
539.265	24886.80841
539.471	24819.53948
539.677	25031.54715
539.883	25210.95747
540.09	25225.22948
540.296	25335.33138
540.502	25196.68557
540.708	25288.43537
540.914	25451.55674
541.12	25349.60431
541.326	25763.56257
541.532	25769.68079
541.738	26193.91754
541.944	25769.68079
542.15	25885.93016
542.356	25567.78878
542.562	26142.92348
542.768	25961.39349
542.974	26310.18797
543.18	25839.02179
543.386	26416.26394
543.592	26253.07199
543.798	26397.90432
544.004	26216.35526
544.21	26200.0369
544.415	25908.36494
544.621	26338.74645
544.827	26246.95249
545.033	26595.78699
545.239	26324.46717
545.445	27011.99912
545.651	26597.8271
545.856	26718.19596
546.062	26824.28808
546.268	26322.42727
546.474	26583.5464
546.679	26116.40699
546.885	26501.94387
547.091	26703.91463
547.297	26389.74453
547.502	26724.31655
547.708	26767.16106
547.914	26916.10176
548.119	27267.06005
548.325	26985.47401
548.531	26495.82378
548.736	27067.09049
548.942	26909.98076
549.147	26738.59798
549.353	27334.39961
549.559	27726.22057
549.764	27287.46583
549.97	27334.39961
550.175	27389.49665
550.381	27634.38347
550.586	27199.72193
550.792	27993.58211
550.997	28071.14105
551.203	27685.40378
551.408	27607.85321
551.614	27736.42484
551.819	28193.6058
552.025	28246.67509
552.23	28228.30487
552.435	28226.26374
552.641	28258.92196
552.846	28360.98069
553.052	28395.68127
553.257	28350.77469
553.462	28593.68461
553.668	28352.81589
553.873	28450.7946
554.078	29077.50746
554.283	28869.27274
554.489	28848.85815
554.694	28934.60012
554.899	28520.19767
555.105	28616.13922
555.31	28877.4386
555.515	29001.97009
555.72	29218.37825
555.925	28750.86958
556.131	28736.57978
556.336	28399.76371
556.541	29177.54563
556.746	29118.33906
556.951	29038.71782
557.156	29053.0087
557.361	29416.42239
557.567	29298.00306
557.772	29440.92338
557.977	29183.67049
558.182	29300.04474
558.387	29240.83637
558.592	29463.38276
558.797	29587.93254
559.002	29922.80762
559.207	29796.20504
559.412	29483.80048
559.617	29487.88404
559.822	29491.9676
560.027	29349.04544
560.232	29638.97868
560.437	29328.62841
560.642	29375.58774
560.847	29555.26336
561.051	29792.12116
561.256	29514.42727
561.461	30114.76171
561.666	29930.97567
561.871	29745.15681
562.076	30210.74257
562.281	29930.97567
562.485	29963.64807
562.69	29926.89164
562.895	30065.75119
563.1	29922.80762
563.305	30143.35148
563.509	29937.10173
563.714	29790.07922
563.919	30067.79329
564.123	30370.03576
564.328	30265.8817
564.533	30694.77214
564.737	30284.2616
564.942	30028.99374
565.147	30533.42111
565.351	30198.48955
565.556	30157.64646
565.761	30517.08222
565.965	30923.53721
566.17	30204.61606
566.374	30288.34603
566.579	30717.23938
566.784	30410.88135
566.988	30721.32436
567.193	30772.38695
567.397	30568.14154
567.602	31007.28592
567.806	30494.61637
568.011	30747.8768
568.215	30864.30174
568.42	30819.36527
568.624	31076.73791
568.828	31201.34723
569.033	31254.46111
569.237	31338.21975
569.442	31174.79068
569.646	30856.13143
569.85	31558.86522
570.055	31687.58415
570.259	31708.01636
570.463	31767.27079
570.668	31487.35764
570.872	31270.80406
571.076	31242.20397
571.281	31526.17579
571.485	31963.4344
571.689	31487.35764
571.893	31583.38259
572.098	31779.53051
572.302	31528.21887
572.506	31728.44875
572.71	31481.22852
572.914	31767.27079
573.119	31276.93269
573.323	31648.76343
573.527	31634.46122
573.731	32006.34752
573.935	32126.9176
574.139	32096.26353
574.343	32122.83036
574.547	32122.83036
574.751	32028.82617
574.955	32637.88942
575.159	32460.05551
575.364	32216.83885
575.568	32523.41962
575.772	32151.44118
575.976	32000.21702
576.18	31348.4344
576.383	32396.69358
576.587	32464.14346
576.791	32057.43569
576.995	32580.6536
577.199	32486.62729
577.403	32200.48923
577.607	32578.6095
577.811	32547.94824
578.015	32131.00484
578.219	32384.43022
578.422	32345.59679
578.626	32905.69661
578.83	32678.77329
579.034	32527.5077
579.238	32570.43311
579.442	33349.41548
579.645	32552.03638
579.849	32719.65812
580.053	33079.48812
580.257	32772.80986
580.46	33410.76963
580.664	33594.84848
580.868	32989.52306
581.071	33046.77295
581.275	32860.71835
581.479	33167.4136
581.682	32529.55174
581.886	33267.61407
582.09	33574.39404
582.293	34075.62325
582.497	33531.44072
582.7	33513.03257
582.904	33817.8229
583.107	33267.61407
583.311	33693.03428
583.515	33654.16818
583.718	33314.64931
583.922	33717.58189
584.125	33864.87759
584.329	34012.191
584.532	34132.91988
584.735	34425.58788
584.939	33883.29078
585.142	34161.56928
585.346	33844.41881
585.549	34310.9673
585.753	34392.83789
585.956	34118.59546
586.159	34333.48109
586.363	34112.45647
586.566	34315.06068
586.769	34353.94858
586.973	34122.68813
587.176	34366.22926
587.379	34798.19278
587.582	34761.33552
587.786	34280.26742
587.989	34304.82725
588.192	34687.62518
588.395	34624.15681
588.599	35037.80007
588.802	34511.56148
589.005	33877.15302
589.208	34640.53536
589.411	34990.69289
589.615	35029.60734
589.818	35058.28222
590.021	35465.97666
590.224	35121.77983
590.427	34914.91685
590.63	34568.88118
590.833	34689.67262
591.036	34878.05506
591.239	35611.48356
591.442	35168.89389
591.645	35340.98432
591.848	35677.07279
592.051	35839.01988
592.254	35357.37569
592.457	35482.3705
592.66	35882.07489
592.863	36628.77425
593.066	36042.01531
593.269	36160.96816
593.472	36199.9398
593.675	36044.06605
593.878	35672.9733
594.081	35502.86326
594.284	36031.76167
594.486	36091.23479
594.689	36803.26071
594.892	35916.93075
595.095	36294.30117
595.298	36154.81494
595.5	35759.06706
595.703	36284.04387
595.906	35939.48541
596.109	35685.27183
596.311	36341.48668
596.514	36080.98045
596.717	35826.7189
596.92	35978.44508
597.122	36318.91929
597.325	36175.32588
597.528	36267.63252
597.73	36928.51028
597.933	36160.96816
598.136	36825.84483
598.338	36222.50331
598.541	37107.18942
598.743	36528.20943
598.946	36257.37563
599.148	36470.75073
599.351	36306.61012
599.554	36456.38683
599.756	36483.06289
599.959	37214.01174
600.161	36423.55622
600.363	36550.78386
600.566	36938.77777
600.768	36963.42045
600.971	36813.52611
601.173	36811.47302
601.376	37653.83693
601.578	37082.54086
601.78	37172.92394
601.983	36930.56377
602.185	36645.19447
602.388	37004.49379
602.59	36799.15459
602.792	37427.71554
602.995	36860.74917
603.197	37068.163
603.399	37010.65503
603.601	37027.08532
603.804	36448.17902
604.006	37072.27093
604.208	36478.95881
604.41	36719.09068
604.613	36860.74917
604.815	36934.67076
605.017	37538.70901
605.219	37279.75827
605.421	36805.31377
605.623	37000.38633
605.826	37407.16361
606.028	36864.85569
606.23	37349.62219
606.432	37637.3886
606.634	37766.93281
606.836	37919.13617
607.038	37655.89301
607.24	37162.65243
607.442	37594.21409
607.644	37170.86962
607.846	37316.74399
608.048	37487.32039
608.25	37460.60019
608.452	38122.82944
608.654	38262.78747
608.856	37037.35448
609.058	37442.10234
609.26	37676.45421
609.462	37561.32151
609.664	37976.7382
609.866	37727.86063
610.067	37746.36815
610.269	37518.15299
610.471	37483.20951
610.673	37974.68087
610.875	38003.48418
611.077	37910.90784
611.278	37668.22963
611.48	37320.85366
611.682	37553.09868
611.884	38242.20294
612.085	37491.43131
612.287	37394.83282
612.489	37970.56624
612.69	38209.26947
612.892	38168.1057
613.094	38419.25806
613.295	37327.01822
613.497	37781.32855
613.699	37705.2412
613.9	38470.73965
614.102	38332.78129
614.304	37882.10967
614.505	37407.16361
614.707	37933.53608
614.908	37633.27659
615.11	37789.55486
615.311	37968.50894
615.513	37368.11701
615.714	37571.60023
615.916	37699.07243
616.117	37999.36932
616.319	37676.45421
616.52	37641.50064
616.722	38192.80356
616.923	38240.14454
617.124	38248.37821
617.326	37271.53955
617.527	37312.63435
617.729	37627.10864
617.93	37734.02973
618.131	38102.25067
618.333	37995.2545
618.534	38540.76348
618.735	38135.17711
618.937	37808.06452
619.138	37863.59741
619.339	37670.28577
619.54	37799.83793
619.742	38120.77153
619.943	37886.2236
620.144	37670.28577
620.345	38213.38604
620.546	37516.09743
620.748	38120.77153
620.949	37832.74508
621.15	37845.0858
621.351	38248.37821
621.552	38621.09763
621.753	38231.911
621.954	37923.25039
622.155	37888.28058
622.356	38089.90381
622.558	38149.5831
622.759	38406.90329
622.96	37756.65038
623.161	37699.07243
623.362	37629.16462
623.563	37855.36994
623.764	37793.66806
623.965	38577.83909
624.166	38359.54627
624.366	37968.50894
624.567	37773.10237
624.768	38141.35106
624.969	37824.5181
625.17	38046.69217
625.371	37668.22963
625.572	37801.89456
625.773	38063.15331
625.973	38118.71362
626.174	38071.38409
626.375	38073.4418
626.576	38357.48737
626.777	38431.61314
626.977	37836.85862
627.178	38310.13514
627.379	37635.33259
627.58	38260.72898
627.78	37896.50856
627.981	38406.90329
628.182	38478.97722
628.382	38487.21493
628.583	38281.31428
628.784	38443.96854
628.984	38054.92267
629.185	38664.36014
629.386	38190.74535
629.586	38985.86553
629.787	38384.2537
629.987	38386.31271
630.188	38285.43144
630.388	38351.31073
630.589	37816.29125
630.79	38518.10759
630.99	37987.02495
631.191	38159.87335
631.391	38610.79761
631.591	38472.79903
631.792	38656.11935
631.992	38635.51802
632.193	38540.76348
632.393	38538.70381
632.594	38388.37173
632.794	38598.4379
632.994	38048.74978
633.195	38561.36068
633.395	38763.26093
633.595	38738.53376
633.796	38913.71322
633.996	38707.62665
634.196	38437.7908
634.397	38485.15549
634.597	38365.72301
634.797	39025.03877
634.997	38266.90448
635.198	38322.48745
635.398	38330.7225
635.598	38581.95878
635.798	38742.65487
635.998	38689.08337
636.199	39074.52566
636.399	39109.58221
636.599	38478.97722
636.799	38478.97722
636.999	38003.48418
637.199	38028.17401
637.399	37857.4268
637.599	38338.95769
637.799	37738.14251
637.999	38769.44293
638.199	38950.81868
638.399	38474.85842
638.599	37725.80428
638.799	38654.05918
638.999	38505.75029
639.199	39202.39238
639.399	38516.04802
639.599	38392.4898
639.799	38489.27438
639.999	38507.80982
640.199	38091.9616
640.399	38293.66587
640.599	37877.99578
640.799	39051.84348
640.998	38909.59058
641.198	38629.3378
641.398	38798.29336
641.598	39167.32846
641.798	38637.57811
641.997	38719.98925
642.197	39016.79148
642.397	39196.20443
642.597	39124.01806
642.796	39082.77401
642.996	39361.24666
643.196	38897.22288
643.395	38981.74223
643.595	39619.25254
643.795	39536.67353
643.994	39396.32626
644.194	39049.78153
644.394	39672.93764
644.593	39140.51676
644.793	39152.89119
644.992	39068.3395
645.192	39311.72739
645.392	39487.1339
645.591	39330.29645
645.791	39499.51826
645.99	39107.51998
646.19	38954.9417
646.389	39144.64153
646.589	38989.98886
646.788	39041.53379
646.987	39144.64153
647.187	40115.07478
647.386	39012.6679
647.586	39431.40874
647.785	39218.89402
647.984	39528.41652
648.184	40098.53756
648.383	39530.48076
648.582	39507.77471
648.782	39586.21898
648.981	38672.60107
649.18	38957.00322
649.38	39400.45346
649.579	39293.15913
649.778	39549.05935
649.977	39889.8139
650.177	39691.52256
650.376	39404.5807
650.575	39553.18803
650.774	40015.86174
650.973	39377.75435
651.173	39588.2835
651.372	39229.20786
651.571	39245.71051
651.77	39410.77164
651.969	39381.88137
652.168	38983.80387
652.367	39167.32846
652.566	39683.26249
652.765	40034.46231
652.964	39726.62968
653.163	39991.06233
653.362	38870.42735
653.561	38973.49574
653.76	39212.70583
653.959	39375.69086
654.158	39580.02548
654.357	38954.9417
654.556	39010.60612
654.755	39633.70554
654.954	39247.77339
655.153	39330.29645
655.352	39505.71058
655.551	39487.1339
655.749	39398.38986
655.948	39586.21898
656.147	40127.47815
656.346	39683.26249
656.545	39739.02114
656.743	39332.35973
656.942	39786.5252
657.141	40019.99513
657.34	39650.22386
657.538	39782.39419
657.737	39419.02636
657.936	39796.85289
658.135	39800.98404
658.333	39697.71771
658.532	39800.98404
658.731	39883.61584
658.929	38973.49574
659.128	39266.33971
659.326	39520.15967
659.525	40011.7284
659.724	39945.60071
659.922	39809.24647
660.121	39573.83207
660.319	39369.50043
660.518	38670.54082
660.716	39652.2887
660.915	40013.79507
661.113	39906.34252
661.312	39633.70554
661.51	39743.15171
661.709	39701.84787
661.907	39997.26204
662.105	39780.3287
662.304	39714.23859
662.502	39712.17344
662.701	39887.74787
662.899	39216.83128
663.097	39427.28124
663.296	39357.11984
663.494	40071.66604
663.692	39617.18786
663.891	39705.97807
664.089	39402.51708
664.287	39150.82876
664.485	39555.25239
664.684	40249.46535
664.882	39765.87059
665.08	39765.87059
665.278	39485.06988
665.476	39355.05644
665.675	39225.0823
665.873	39363.31009
666.071	39798.91846
666.269	39307.60104
666.467	39010.60612
666.665	39167.32846
666.863	38884.85552
667.061	39505.71058
667.259	39563.50992
667.457	39862.95632
667.655	39328.23318
667.853	39124.01806
668.051	38755.0184
668.249	39055.96743
668.447	39161.141
668.645	39101.33336
668.843	39530.48076
669.041	39076.58773
669.239	38672.60107
669.437	39018.85329
669.635	39008.54435
669.833	38946.6957
670.031	38919.89725
670.229	38954.9417
670.426	38604.61771
670.624	39429.34498
670.822	38992.05055
671.02	39714.23859
671.218	39472.68593
671.415	39220.95677
671.613	39660.54815
671.811	39736.95587
672.009	39889.8139
672.206	39491.26198
672.404	39334.42302
672.602	39472.68593
672.799	39113.70669
672.997	39282.84377
673.195	38882.79432
673.392	39099.27117
673.59	38522.22676
673.788	39258.08791
673.985	38647.87871
674.183	38959.06475
674.38	39111.64444
674.578	38950.81868
674.775	38954.9417
674.973	38612.8576
675.17	38631.39786
675.368	38408.9624
675.565	38332.78129
675.763	38553.1217
675.96	38697.32474
676.158	38194.86177
676.355	38489.27438
676.553	39495.3901
676.75	38777.68573
676.947	39138.45439
677.145	38553.1217
677.342	38425.43556
677.539	38275.1386
677.737	38722.04971
677.934	38687.02305
678.131	38851.87753
678.329	38676.72159
678.526	38903.40669
678.723	38814.78013
678.92	39045.65764
679.118	38104.30851
679.315	38415.13977
679.512	38874.54964
679.709	38761.20029
679.906	38392.4898
680.104	38390.43076
680.301	38194.86177
680.498	37762.81982
680.695	37752.53747
680.892	38246.31978
681.089	37884.16663
681.286	37989.08232
681.483	37374.28208
681.68	37993.1971
681.877	37861.54053
682.075	38184.5708
682.272	37483.20951
682.469	37906.79372
682.665	37359.89702
682.862	37999.36932
683.059	37764.87631
683.256	37505.81975
683.453	37600.38167
683.65	37031.19296
683.847	37518.15299
684.044	37507.87527
684.241	37682.62272
684.438	37820.40466
684.635	37540.76465
684.831	37803.95121
685.028	37431.82602
685.225	37542.8203
685.422	37113.35172
685.619	37080.48686
685.815	37372.22705
686.012	37162.65243
686.209	37341.40246
686.405	37493.48678
686.602	37339.34755
686.799	36651.35217
686.996	37341.40246
687.192	37000.38633
687.389	37234.55673
687.586	37119.51408
687.782	36636.98431
687.979	37115.40583
688.175	36620.5643
688.372	36745.77752
688.568	36842.27016
688.765	37144.16418
688.962	36938.77777
689.158	37078.43287
689.355	37290.03185
689.551	37300.3056
689.748	36990.1178
689.944	37187.30434
690.14	37062.00117
690.337	36965.47405
690.533	36953.15254
690.73	36558.99294
690.926	36860.74917
691.123	36489.21905
691.319	37012.70879
691.515	36573.35907
691.712	36124.04964
691.908	36602.09228
692.104	36392.77897
692.301	36411.24515
692.497	36491.27112
692.693	36653.40474
692.889	36437.91941
693.086	36302.50711
693.282	36078.9296
693.478	35916.93075
693.674	35808.2678
693.87	36076.87876
694.067	36571.30674
694.263	36680.08884
694.459	36751.93618
694.655	36505.63577
694.851	36505.63577
695.047	36119.9477
695.243	36756.04199
695.439	36415.34881
695.635	35847.22064
695.831	36372.26159
696.027	36563.09751
696.224	35933.33407
696.42	36212.24708
696.615	36056.37064
696.811	36222.50331
697.007	36281.99243
697.203	36394.83075
697.399	35802.11754
697.595	35293.86089
697.791	35293.86089
697.987	35091.05462
698.183	35847.22064
698.379	35480.32125
698.575	36076.87876
698.77	36121.99867
698.966	36300.45561
699.162	36021.50818
699.358	36062.52302
699.554	35381.96335
699.749	35677.07279
699.945	35365.5715
700.141	35402.45362
700.337	35097.19957
700.532	35603.28529
700.728	35476.22277
700.924	35080.81311
701.119	35312.30019
701.315	35199.62182
701.511	34816.62194
701.706	35148.40921
701.902	34261.84791
702.097	34882.15074
702.293	35246.74007
702.489	35277.47075
702.684	35277.47075
702.88	35490.56754
703.075	34892.39003
703.271	34826.86052
703.466	35095.15125
703.662	35197.57325
703.857	35183.23346
704.053	35375.81637
704.248	35125.87661
704.443	35234.4481
704.639	35275.422
704.834	35172.99089
705.03	34923.10856
705.225	34896.48577
705.42	34812.52654
705.616	35078.76483
705.811	34585.25883
706.006	34665.10368
706.202	34968.16423
706.397	34628.25142
706.592	35150.45766
706.787	35078.76483
706.983	35168.89389
707.178	35343.03323
707.373	34704.00478
707.568	34486.99687
707.763	34437.86939
707.959	34873.95939
708.154	35045.99287
708.349	35113.58634
708.544	35031.65552
708.739	34730.6222
708.934	34927.20444
709.129	34742.90741
709.324	34626.20411
709.519	34536.12667
709.714	34390.79105
709.909	34462.43284
710.104	34141.10535
710.299	34235.2425
710.494	34335.52782
710.689	34507.46734
710.884	34388.74421
711.079	34529.98532
711.274	33766.67853
711.469	34558.64528
711.664	33971.26879
711.859	34343.71479
712.054	34308.92061
712.249	34114.5028
712.443	33746.22136
712.638	34220.91677
712.833	33136.74134
713.028	33787.13603
713.223	33173.54813
713.417	33729.85587
713.612	33433.26682
713.807	33740.08428
714.002	33502.80593
714.196	33627.57626
714.391	33294.19901
714.586	33063.13045
714.78	33586.66667
714.975	33721.6732
715.17	32960.8989
715.364	33834.18955
715.559	33738.03859
715.754	33731.90155
715.948	33453.71914
716.143	33351.46057
716.337	32770.76553
716.532	33826.0062
716.726	33435.31204
716.921	33079.48812
717.115	33126.51739
717.31	33149.01017
717.504	33496.66999
717.699	33828.05203
717.893	33555.9853
718.088	33380.09222
718.282	33044.72827
718.476	33286.01898
718.671	33069.26455
718.865	32969.07718
719.059	32842.31852
719.254	32740.1009
719.448	32856.62948
719.642	32809.6082
719.837	32648.1103
720.031	33046.77295
720.225	32474.36335
720.419	32699.21558
720.614	32938.40885
720.808	32417.13268
721.002	32502.97934
721.196	32278.1511
721.39	32308.80794
721.585	32613.35956
721.779	32257.71347
721.973	32668.55223
722.167	32337.42143
722.361	32321.07081
722.555	32419.1766
722.749	31989.99957
722.943	32071.7406
723.137	32002.26052
723.331	31969.5648
723.525	31883.74085
723.719	31883.74085
723.913	32278.1511
724.107	32067.65348
724.301	32000.21702
724.495	32128.96122
724.689	32259.75722
724.883	32173.92139
725.077	31808.1368
725.271	32200.48923
725.465	31755.01113
725.659	31585.42571
725.853	31879.65408
726.046	31526.17579
726.24	31258.54684
726.434	30747.8768
726.628	31511.8743
726.822	30721.32436
727.015	31738.66501
727.209	31231.98973
727.403	31891.91442
727.596	32106.4815
727.79	31775.44393
727.984	31793.83361
728.177	32059.47925
728.371	31891.91442
728.565	31710.05959
728.758	32016.56506
728.952	31773.40064
729.146	31781.57381
729.339	31830.61341
729.533	31283.06133
729.726	31452.62612
729.92	31526.17579
730.113	31836.74344
730.307	31481.22852
730.5	30954.1767
730.694	31150.27716
730.887	30800.98236
731.081	31305.53314
731.274	30966.43259
731.468	30421.09283
731.661	30817.32272
731.854	30637.58351
732.048	31160.4911
732.241	31219.73269
732.435	31299.40445
732.628	31544.56354
732.821	31356.60615
733.014	31323.91931
733.208	30749.9193
733.401	31389.2934
733.594	30966.43259
733.788	31021.58472
733.981	31060.39611
734.174	31581.33946
734.367	31493.48678
734.56	30768.30191
734.754	31021.58472
734.947	31007.28592
735.14	30592.6503
735.333	31091.03706
735.526	30598.77752
735.719	30751.96181
735.912	31101.25078
736.105	31397.46528
736.298	30970.5179
736.491	31387.25044
736.684	30704.9845
736.877	30903.11105
737.07	30990.94452
737.263	31088.99432
737.456	31227.90404
737.649	30933.75034
737.842	30684.55981
738.035	31285.10421
738.228	30974.60321
738.421	31319.83348
738.614	31203.39005
738.807	30935.79297
739	30754.00432
739.192	30443.55818
739.385	30686.60227
739.578	31225.8612
739.771	31099.20803
739.964	30837.7483
740.156	31546.60664
740.349	30519.12457
740.542	30813.23763
740.735	30684.55981
740.927	30721.32436
741.12	30343.48638
741.313	30486.447
741.505	30948.04878
741.698	30619.20166
741.891	30815.28017
742.083	30968.47524
742.276	30815.28017
742.468	30794.85475
742.661	30078.00376
742.854	29424.58937
743.046	30078.00376
743.239	30261.79729
743.431	30931.70771
743.624	30823.45038
743.816	30237.29093
744.009	30492.57402
744.201	29994.27871
744.393	30082.08796
744.586	30186.23658
744.778	30114.76171
744.971	30141.30935
745.163	30318.97945
745.355	30257.71288
745.548	30333.27514
745.74	29975.9003
745.932	30106.59324
746.125	30200.53172
746.317	29859.5058
746.509	29732.90534
746.702	29657.35546
746.894	29440.92338
747.086	29242.87802
747.278	29477.67515
747.471	29318.41993
747.663	29393.96328
747.855	29316.37824
748.047	29187.75374
748.239	29561.38881
748.431	29347.00373
748.623	29549.13792
748.815	29338.83691
749.008	29986.11052
749.2	29720.65391
749.392	29318.41993
749.584	28777.40791
749.776	29169.37915
749.968	29163.25431
750.16	29124.46384
750.352	29087.71532
750.544	29396.00501
750.736	28887.64596
750.928	29363.33742
751.12	29148.96304
751.311	29436.83987
751.503	29377.62946
751.695	28912.14371
751.887	28360.98069
752.079	28822.31934
752.271	28334.44516
752.463	28728.4142
752.654	28628.38725
752.846	28844.77525
753.038	28401.80493
753.23	28389.55762
753.421	28718.20726
753.613	28577.35406
753.805	28624.30457
753.997	28244.63395
754.188	28375.26913
754.38	27936.43447
754.572	27907.86098
754.763	27746.62914
754.955	27832.34643
755.146	28201.77026
755.338	28291.58046
755.53	28105.83899
755.721	28150.74268
755.913	28058.89479
756.104	27844.59193
756.296	28391.59883
756.487	27932.35253
756.679	27911.9429
756.87	27711.93464
757.062	28065.01791
757.253	28230.346
757.445	28179.31804
757.636	27932.35253
757.827	28405.88738
758.019	28111.96219
758.21	27869.08304
758.401	27495.61208
758.593	27599.69009
758.784	27413.98452
758.975	27542.54882
759.167	27709.8938
759.358	27748.67001
759.549	27624.1795
759.74	27260.93835
759.932	27089.53541
760.123	27060.96917
760.314	26765.12083
760.505	26557.0253
760.696	26663.11125
760.888	26877.33563
761.079	26987.51439
761.27	27148.70916
761.461	27258.89778
761.652	27369.09023
761.843	27132.38525
762.034	26630.46898
762.225	26928.3438
762.416	27083.41405
762.607	26428.50375
762.798	26710.03519
762.989	26536.62464
763.18	26869.17441
763.371	26267.35086
763.562	26612.10787
763.753	26269.3907
763.944	26838.57002
764.135	26569.26578
764.326	26659.03094
764.517	26087.85111
764.708	26204.11648
764.899	26206.15627
765.089	26575.38603
765.28	26299.98859
765.471	26328.54695
765.662	25851.25866
765.853	25624.8876
766.043	25172.2197
766.234	25300.669
766.425	25200.76325
766.615	25684.0273
766.806	25392.4237
766.997	25869.61409
767.187	25788.03555
767.378	25647.31971
767.569	25447.47854
767.759	25975.67062
767.95	26218.39507
768.141	26079.69235
768.331	25739.08987
768.522	25339.40935
768.712	25363.87733
768.903	25631.00543
769.093	25471.94785
769.284	25408.73609
769.474	25571.86721
769.665	25117.17265
769.855	25345.52632
770.046	25104.9402
770.236	25064.16592
770.426	24998.92896
770.617	25606.53424
770.807	25304.7469
770.998	25257.85161
771.188	25282.31858
771.378	24974.4657
771.569	24960.19561
771.759	24572.90922
771.949	24403.75425
772.139	24644.24486
772.33	24230.54186
772.52	24566.79488
772.71	24568.83299
772.9	24717.62182
773.09	24293.71122
773.281	24387.4511
773.471	24360.95883
773.661	24250.91879
773.851	24002.33893
774.041	24340.58046
774.231	24045.12433
774.421	23906.58566
774.611	23682.50725
774.802	23586.77561
774.992	23680.47033
775.182	23637.69586
775.372	23747.69002
775.562	23660.10137
775.752	23957.51747
775.942	23984.00271
776.131	24149.03685
776.321	23711.02434
776.511	24085.87348
776.701	23843.43271
776.891	24010.48844
777.081	23784.35667
777.271	23845.46985
777.461	23855.65564
777.651	23778.24549
777.84	23804.72744
778.03	23660.10137
778.22	23470.68457
778.41	23774.17139
778.599	23372.93152
778.789	23733.43103
778.979	23252.78669
779.169	23537.89396
779.358	23098.0404
779.548	23436.06288
779.738	23187.62807
779.927	23358.67647
780.117	23201.88123
780.307	22766.21511
780.496	22916.84858
780.686	23049.17708
780.875	22493.49485
781.065	22564.72163
781.254	22489.42488
781.444	22788.60538
781.633	22703.1175
781.823	22556.5812
782.012	22349.01977
782.202	22414.13304
782.391	22206.59755
782.581	22169.97762
782.77	21816.04792
782.96	21962.48764
783.149	21960.45362
783.338	22074.36463
783.528	22208.63203
783.717	22245.25323
783.906	22169.97762
784.096	21789.60954
784.285	22436.51658
784.474	22367.3325
784.663	22387.68032
784.853	22458.90056
785.042	21954.35158
785.231	21952.31757
785.42	21801.81179
785.61	21811.98043
785.799	21716.39899
785.988	21454.10289
786.177	21126.8342
786.366	20968.31949
786.555	21055.70273
786.744	21639.12667
786.933	22060.1251
787.122	22011.30528
787.312	21946.21558
787.501	21519.16246
787.69	21342.29129
787.879	21893.33307
788.068	21246.75282
788.257	20746.84726
788.445	20828.11577
788.634	21136.99625
788.823	21210.16598
789.012	21061.79951
789.201	20956.12709
789.39	20836.24299
789.579	20876.88006
789.768	20917.51878
789.957	20685.90024
790.145	20582.29889
790.334	20740.75239
790.523	20740.75239
790.712	20610.7374
790.9	20576.20503
791.089	20354.82035
791.278	20785.44898
791.467	20813.8933
791.655	21029.28374
791.844	20626.98834
792.033	20669.64833
792.221	20419.80886
792.41	20496.98828
792.599	20180.18504
792.787	20358.882
792.976	20517.29966
793.164	20409.65412
793.353	20031.97249
793.541	20257.34565
793.73	20572.14248
793.918	20519.33083
794.107	20204.55089
794.295	20127.39444
794.484	20086.78822
794.672	20111.15175
794.861	19940.61976
795.049	19912.20065
795.238	19707.20144
795.426	20230.94791
795.614	19808.68084
795.803	19985.28003
795.991	19835.06721
796.179	20269.52945
796.368	19912.20065
796.556	19780.26555
796.744	19191.84703
796.932	19199.96078
797.121	19084.34602
797.309	19638.20143
797.497	19812.74024
797.685	19873.63317
797.874	19788.38412
798.062	19711.26041
798.25	19445.43286
798.438	19678.78908
798.626	19210.10306
798.814	19650.37755
799.002	19674.73024
799.19	19755.91024
799.378	19445.43286
799.566	19427.17252
799.755	19187.79018
799.943	19033.64197
800.131	19530.65222
800.318	19502.24495
800.506	19305.44551
800.694	18980.91244
800.882	19043.78258
801.07	19080.28961
801.258	18686.89362
801.446	19094.48714
801.634	19013.36106
801.822	19226.33092
802.01	19155.33597
802.197	19455.57763
802.385	19120.85451
802.573	19070.14863
802.761	19394.71053
802.949	19555.00195
803.136	19114.76967
803.324	18705.14064
803.512	18794.35287
803.699	18934.26937
803.887	18867.35041
804.075	19167.50618
804.262	18818.68481
804.45	19064.0641
804.638	19256.75887
804.825	19193.87546
805.013	19238.50199
805.201	19037.6982
805.388	18968.74448
805.576	18826.79558
805.763	19116.79795
805.951	19086.37424
806.138	19029.58576
806.326	19017.41721
806.513	18922.10196
806.701	18895.73974
806.888	19122.8828
807.075	19412.97027
807.263	19240.53052
807.45	19272.98749
807.638	19128.96769
807.825	19459.63557
808.012	18739.60809
808.2	19128.96769
808.387	18920.07407
808.574	19406.88365
808.761	19378.47993
808.949	19281.10189
809.136	19141.13758
809.323	19222.27393
809.51	18958.60462
809.698	19137.08093
809.885	19236.47347
810.072	19335.87587
810.259	19522.53577
810.446	19368.33594
810.633	19175.61973
810.82	18853.15604
811.008	18780.1595
811.195	18816.65713
811.382	18818.68481
811.569	18753.80091
811.756	18656.48264
811.943	18940.35313
812.13	18867.35041
812.317	18826.79558
812.504	19177.64813
812.691	19323.70361
812.878	18958.60462
813.064	19210.10306
813.251	19183.73335
813.438	19242.55905
813.625	18437.54934
813.812	18816.65713
813.999	18632.15448
814.186	18607.82689
814.372	18382.82301
814.559	18544.9832
814.746	17815.44898
814.933	18315.93902
815.12	18478.08916
815.306	18289.5919
815.493	18583.49986
815.68	18642.29115
815.866	18451.7381
816.053	18674.72912
816.24	18303.77873
816.426	18611.88145
816.613	18522.68472
816.799	18652.42791
816.986	18437.54934
817.173	18828.82329
817.359	18583.49986
817.546	18958.60462
817.732	18542.95605
817.919	18575.39097
818.105	18549.03752
818.292	18251.08571
818.478	18182.18323
818.665	18474.03511
818.851	18228.79326
819.037	18287.56523
819.224	18109.23228
819.41	18259.19216
819.597	18044.39094
819.783	18520.65761
819.969	18551.06468
820.156	18332.15295
820.342	18117.33771
820.528	18141.65434
820.714	18230.81983
820.901	18654.45527
821.087	18303.77873
821.273	18465.92705
821.459	18356.47428
821.646	18776.10429
821.832	18324.04595
822.018	18188.26269
822.204	17217.96861
822.39	17704.033
822.576	17509.58549
822.762	17886.35544
822.948	17618.95852
823.134	17653.39273
823.32	17734.41817
823.507	17756.7011
823.693	17862.04418
823.879	18086.94265
824.065	17819.50067
824.25	17910.6672
824.436	17687.82789
824.622	17987.65777
824.808	17669.59739
824.994	17896.48528
825.18	17477.18046
825.366	17689.85351
825.552	17637.18827
825.738	17799.24239
825.923	17604.78
826.109	17699.9817
826.295	17477.18046
826.481	17657.44387
826.667	17616.933
826.852	17671.62299
827.038	17716.18698
827.224	17736.44387
827.409	17432.62486
827.595	17604.78
827.781	17343.51815
827.966	17355.66872
828.152	16932.48552
828.338	17224.04333
828.523	16879.8491
828.709	16885.92245
828.894	16746.24124
829.08	16831.26317
829.266	16709.80458
829.451	17098.50444
829.637	16798.87336
829.822	16869.72692
830.008	16590.37857
830.193	16677.41707
830.378	16114.76986
830.564	16790.776
830.749	16497.27214
830.935	16600.49912
831.12	16659.19937
831.305	16535.72859
831.491	16462.86438
831.676	16533.70455
831.861	16541.80074
832.047	16618.71623
832.232	16768.50847
832.417	16584.30627
832.602	16839.36073
832.788	16813.04382
832.973	16989.17287
833.158	16887.9469
833.343	16598.475
833.528	16349.52529
833.714	16367.74008
833.899	16493.22414
834.084	16361.66847
834.269	16509.4162
834.454	16331.31064
834.639	16232.14465
834.824	16294.88181
835.009	16311.07233
835.194	16203.81229
835.379	16226.0734
835.564	16108.6989
835.749	16387.97893
835.934	16402.14624
836.119	16220.00216
836.304	15671.62167
836.489	15981.21186
836.674	15738.39386
836.859	15590.68697
837.044	15716.13635
837.228	15712.08954
837.413	15926.57627
837.598	15811.2375
837.783	15572.47683
837.968	15793.02646
838.152	15315.51669
838.337	15598.78038
838.522	15353.95909
838.707	15315.51669
838.891	15299.33045
839.076	15123.30573
839.261	15289.21406
839.445	15388.35502
839.63	15163.77115
839.815	15665.55152
839.999	15461.19386
840.184	15570.45349
840.368	15206.25983
840.553	15186.02712
840.737	15135.44536
840.922	15364.07552
841.106	15268.9813
841.291	15266.95802
841.475	15107.11956
841.66	15088.9101
841.844	14759.11188
842.029	15208.2831
842.213	14995.83933
842.397	15072.72391
842.582	14558.79583
842.766	14647.82641
842.951	14324.06667
843.135	14368.58583
843.319	14372.63299
843.504	14534.51437
843.688	14611.40507
843.872	14704.48117
844.056	14825.88198
844.241	14827.9053
844.425	14833.97527
844.609	14793.5087
844.793	14641.75621
844.977	14647.82641
845.161	14283.59398
845.346	14672.10711
845.53	14550.70203
845.714	14564.86617
845.898	13915.25459
846.082	14226.93098
846.266	13937.51908
846.45	14427.269
846.634	14012.40644
846.818	14093.36201
847.002	14188.48023
847.186	14237.04948
847.37	14127.76702
847.554	14069.07573
847.738	14186.45649
847.922	14409.05712
848.106	14471.78642
848.29	14320.01943
848.473	14356.44432
848.657	13988.11903
848.841	14040.74132
849.025	14065.02799
849.209	13654.127
849.392	13354.47024
849.576	13510.38282
849.76	13453.68998
849.944	13421.29274
850.127	13210.68534
850.311	13267.39182
850.495	13787.73336
850.678	13791.78183
850.862	13795.83029
851.046	13662.22475
851.229	13514.43219
851.413	13453.68998
851.596	13658.17589
851.78	13482.03676
851.964	13710.81017
852.147	13423.31759
852.331	13297.7689
852.514	13012.18434
852.698	13313.96961
852.881	12983.82326
853.065	13318.01975
853.248	13192.45752
853.431	13504.30872
853.615	12886.57762
853.798	13200.55881
853.982	12619.08674
854.165	12854.1597
854.348	12631.24762
854.532	13028.39023
854.715	12748.79174
854.898	12752.84464
855.081	12791.34601
855.265	12803.50391
855.448	12671.78232
855.631	12696.102
855.814	12811.60907
855.997	12781.21427
856.181	12801.47761
856.364	12874.42106
856.547	12900.76003
856.73	12995.97813
856.913	12546.11679
857.096	12566.38703
857.279	12310.93433
857.462	12191.2801
857.645	11992.47513
857.828	12164.9122
858.011	12112.17263
858.194	12343.37869
858.377	12059.42791
858.56	12381.90406
858.743	12594.76431
858.926	12063.48538
859.109	11868.69092
859.292	11864.6319
859.475	11895.07371
859.658	12051.31288
859.841	11688.03161
860.023	11671.78918
860.206	11517.45704
860.389	11789.534
860.572	11535.73601
860.755	11509.33281
860.937	11724.575
861.12	11556.04508
861.303	11468.70938
861.486	11710.36402
861.668	11543.85975
861.851	11460.58423
862.034	11350.87951
862.216	11413.86164
862.399	10934.13431
862.581	11289.91994
862.764	10987.01496
862.947	11387.45093
863.129	11145.61216
863.312	11279.75913
863.494	11066.32185
863.677	11598.69111
863.859	11484.95921
864.042	11267.56581
864.224	11143.57928
864.406	11291.95207
864.589	10677.756
864.771	10915.82769
864.954	10563.74892
865.136	10580.03802
865.318	10443.59178
865.501	10600.39828
865.683	10492.47461
865.865	10954.47392
866.048	10323.38966
866.23	10592.25433
866.412	10176.63937
866.594	10372.29095
866.777	10569.85743
866.959	10738.81546
867.141	10871.07429
867.323	10787.65528
867.505	10502.65761
867.687	10355.99137
867.869	10598.36231
868.052	10753.06112
868.234	10386.5524
868.416	10632.97212
868.598	10447.66564
868.78	10408.96195
868.962	10510.80377
869.144	10649.25785
869.326	10510.80377
869.508	10360.06634
869.69	10525.05908
869.872	10580.03802
870.054	10406.92478
870.236	10439.51788
870.417	10162.36821
870.599	10270.40459
870.781	9962.49963
870.963	10213.33355
871.145	10217.41041
871.327	10362.10381
871.508	10062.45093
871.69	10070.60871
871.872	10088.96288
872.054	10549.4953
872.235	9874.75861
872.417	10095.08068
872.599	9801.28001
872.78	10137.90177
872.962	10035.93658
873.144	10082.84495
873.325	10015.5393
873.507	10278.55673
873.689	9727.78194
873.87	9889.04388
874.052	9672.64543
874.233	10048.17427
874.415	9921.69322
874.596	10127.70683
874.778	9856.39076
874.959	9813.52778
875.141	9809.44525
875.322	10211.2951
875.503	10111.39421
875.685	10144.01857
875.866	9997.18051
876.048	10113.43333
876.229	9539.86298
876.41	9838.02172
876.592	9887.00317
876.773	9744.11654
876.954	9797.19729
877.136	9982.90065
877.317	9676.73
877.498	9866.59527
877.679	9627.71107
877.86	9707.36232
878.042	9545.99286
878.223	9737.99118
878.404	9764.53343
878.585	9691.02551
878.766	9693.06767
878.947	9735.94936
879.128	9617.49767
879.309	9752.28348
879.49	9617.49767
879.672	10113.43333
879.853	9887.00317
880.034	10001.26034
880.215	10117.51155
880.396	10180.71672
880.576	9921.69322
880.757	10135.86281
880.938	9817.61026
881.119	10307.08753
881.3	10074.68751
881.481	10172.56196
881.662	10152.1741
881.843	10282.63272
882.023	10319.3142
882.204	10380.44043
882.385	9852.30886
882.566	9772.69976
882.747	9801.28001
882.927	9668.5608
883.108	9972.70032
883.289	9899.2472
883.469	9909.45015
883.65	10007.37998
883.831	9513.29851
884.011	10017.57909
884.192	9882.92171
884.373	10331.5404
884.553	10127.70683
884.734	10294.86036
884.914	10031.85724
885.095	10402.85041
885.275	9833.93955
885.456	10180.71672
885.636	10131.78485
885.817	10600.39828
885.997	9935.97612
886.178	10176.63937
886.358	9862.51351
886.538	10062.45093
886.719	9799.23866
886.899	9982.90065
887.08	9799.23866
887.26	9942.09715
887.44	9760.45017
887.621	10003.30024
887.801	9715.53035
887.981	9891.08457
888.161	9827.81617
888.342	9984.94068
888.522	9972.70032
888.702	10054.29293
888.882	10062.45093
889.062	10305.0497
889.242	9927.81455
889.423	9817.61026
889.603	9719.61427
889.783	10103.23756
889.963	9752.28348
890.143	10001.26034
890.323	9740.03298
890.503	10135.86281
890.683	9613.4122
890.863	9719.61427
891.043	9684.89896
891.223	9662.43373
891.403	9623.62576
891.583	10023.69838
891.763	9711.44636
891.943	9999.22043
892.122	9658.34895
892.302	9997.18051
892.482	9817.61026
892.662	9778.82434
892.842	9980.86061
893.022	9917.61225
893.201	9648.13671
893.381	9850.26788
893.561	10131.78485
893.741	10086.92358
893.92	9882.92171
894.1	10162.36821
894.28	9954.33881
894.459	9887.00317
894.639	9721.65621
894.819	9844.14487
894.998	9868.63612
895.178	9882.92171
895.357	9478.55628
895.537	9619.54038
895.716	9801.28001
895.896	9780.86584
896.075	9419.2794
896.255	9711.44636
896.434	9576.64014
896.614	9825.77502
896.793	9272.04981
896.973	9719.61427
897.152	9672.64543
897.331	9548.03613
897.511	9744.11654
897.69	9498.99344
897.87	9292.50349
898.049	9650.17919
898.228	9306.82007
898.407	9327.27093
898.587	9347.72013
898.766	9584.81215
898.945	9343.63042
899.124	9570.51097
899.304	9362.03359
899.483	9652.22165
899.662	9257.73124
899.841	9492.86246
900.02	9057.18406
900.199	9153.38531
900.378	8827.78264
900.557	8909.73729
900.737	8749.89895
900.916	8903.59168
901.095	8915.88273
901.274	8952.75204
901.453	8708.89694
901.632	9014.18816
901.811	8805.24006
901.989	8967.08855
902.168	8608.41079
902.347	8971.18454
902.526	8674.03944
902.705	8881.05643
902.884	8928.17314
903.063	8872.86125
903.242	8856.47003
903.42	8889.25132
903.599	8433.9911
903.778	8630.97279
903.957	8368.29146
904.135	8327.21911
904.314	8319.00371
904.493	8333.38046
904.672	8103.23653
904.85	8199.84505
905.029	8431.93829
905.207	8569.43472
905.386	8355.97057
905.565	8499.67108
905.743	8343.64898
905.922	8353.91702
906.1	8269.7047
906.279	8489.40987
906.457	8335.4342
906.636	8438.09668
906.814	8181.34896
906.993	8111.46025
907.171	8004.52667
907.35	8166.96199
907.528	7767.84244
907.707	7965.44109
907.885	7837.84714
908.063	7652.48773
908.242	7809.02459
908.42	7858.43218
908.598	7739.00995
908.777	7870.7822
908.955	7759.605
909.133	8113.51613
909.311	7687.51311
909.49	7786.37544
909.668	7586.54095
909.846	7586.54095
910.024	7446.33125
910.202	7454.58164
910.38	7103.63136
910.559	7450.45649
910.737	7188.33063
910.915	7481.39301
911.093	7101.56505
911.271	7225.50389
911.449	6911.36913
911.627	7256.47613
911.805	6849.3074
911.983	7221.37388
912.161	7043.69947
912.339	6948.59638
912.517	7095.36601
912.695	6971.34276
912.872	6985.81631
913.05	7252.34678
913.228	6861.72138
913.406	6809.99106
913.584	6872.06574
913.762	6772.73641
913.939	6437.1094
914.117	6596.71133
914.295	6503.45417
914.473	6770.66649
914.65	6437.1094
914.828	6756.17641
915.006	6273.21865
915.184	6801.71289
915.361	6428.81463
915.539	6634.0011
915.716	6372.8152
915.894	6561.48635
916.072	6435.03574
916.249	6453.69782
916.427	6339.62233
916.604	6569.77518
916.782	6428.81463
916.959	6710.62885
917.137	6430.88836
917.314	6613.28548
917.492	6262.84091
917.669	6034.38226
917.847	5944.99832
918.024	6121.64548
918.201	6107.10449
918.379	6291.8971
918.556	5976.18372
918.733	6237.93195
918.911	5822.28429
919.088	5999.04963
919.265	5780.66767
919.442	5996.97103
919.62	5534.93749
919.797	6019.83436
919.974	5730.71527
920.151	5909.64847
920.328	5728.63362
920.506	6011.52075
920.683	5680.74927
920.86	5672.42028
921.037	5280.53278
921.214	5480.74943
921.391	5389.01031
921.568	5768.18085
921.745	5416.11979
921.922	5576.60979
922.099	5318.08987
922.276	5274.27253
922.453	5324.34864
922.63	5418.20497
922.807	5067.56649
922.984	5174.07992
923.161	4873.18133
923.338	5061.29911
923.514	4762.31405
923.691	4927.5456
923.868	4854.35932
924.045	4979.8043
924.222	4712.08903
924.399	5015.332
924.575	4787.42167
924.752	4944.26995
924.929	4632.53952
925.105	5002.79357
925.282	4586.46975
925.459	4925.45495
925.635	4655.57034
925.812	4958.90255
925.989	4519.43993
926.165	4716.27494
926.342	4502.67893
926.518	4720.46077
926.695	4370.63691
926.871	4555.05235
927.048	4278.36587
927.224	4322.40953
927.401	3925.68163
927.577	4196.54546
927.754	4091.60044
927.93	4116.79203
928.107	3892.06235
928.283	4127.28763
928.459	4034.90843
928.636	4200.74217
928.812	4043.3082
928.988	3955.09426
929.165	3807.99177
929.341	3915.17616
929.517	3826.91042
929.693	3831.11435
929.87	3572.42854
930.046	3887.85958
930.222	3725.99263
930.398	3732.30131
930.574	3450.34795
930.751	3658.68931
930.927	3536.65268
931.103	3580.84561
931.279	3435.60996
931.455	3564.01117
931.631	3429.29341
931.807	3765.94464
931.983	3321.8878
932.159	3864.7429
932.335	3439.82091
932.511	3608.19903
932.687	3233.40242
932.863	3309.24887
933.039	3064.77825
933.215	3406.13136
933.391	2908.71182
933.566	3300.82257
933.742	2971.99192
933.918	3028.9325
934.094	2801.10586
934.27	3041.58445
934.445	2790.55429
934.621	2794.77496
934.797	2592.12369
934.973	2625.90704
935.148	2427.38697
935.324	2442.17381
935.5	2169.59549
935.675	2475.97032
935.851	2085.04527
936.027	2309.074
936.202	1951.85535
936.378	2309.074
936.553	2021.6248
936.729	1943.39799
936.904	1619.84774
937.08	1888.42293
937.255	1662.14664
937.431	1725.59295
937.606	1562.74293
937.782	1636.76741
937.957	1391.42444
938.133	1401.99965
938.308	1277.21415
938.483	1264.52445
938.659	1146.09257
938.834	1192.6181
939.009	892.36148
939.185	1141.86307
939.36	1006.52951
939.535	1091.1105
939.71	976.92843
939.886	1008.64392
940.061	892.36148
940.236	765.53582
940.411	799.35276
940.586	765.53582
940.761	723.26828
940.937	714.81528
941.112	613.39353
941.287	657.76221
941.462	647.19775
941.637	780.33042
941.812	632.40802
941.987	697.90981
942.162	626.06974
942.337	664.10102
942.512	499.329
942.687	604.94298
942.862	484.54585
943.037	512.00084
943.212	419.08653
943.386	596.49263
943.561	533.12172
943.736	545.79493
943.911	488.76953
944.086	571.14282
944.26	575.36765
944.435	562.6933
944.61	488.76953
944.785	471.87515
944.959	419.08653
945.134	533.12172
945.309	429.64347
945.483	509.88883
945.658	465.54001
945.833	581.70501
946.007	490.88139
946.182	575.36765
946.357	490.88139
946.531	406.41873
946.706	393.75151
946.88	499.329
947.055	421.19789
947.229	579.59254
947.404	457.09336
947.578	531.00957
947.752	547.90718
947.927	552.13172
948.101	397.97385
948.276	609.16823
948.45	499.329
948.624	503.55289
948.799	564.80566
948.973	505.66485
949.147	469.76342
949.321	537.34607
949.496	560.58096
949.67	626.06974
949.844	512.00084
950.018	579.59254
950.193	499.329
950.367	621.84429
950.541	552.13172
950.715	512.00084
950.889	531.00957
951.063	598.60519
951.237	509.88883
951.411	655.64929
951.585	647.19775
951.759	748.6283
951.933	691.57044
952.107	630.29525
952.281	564.80566
952.455	573.25523
952.629	537.34607
952.803	666.21399
952.977	617.61889
953.151	657.76221
953.325	575.36765
953.499	740.1748
953.672	480.32222
953.846	619.73158
954.02	581.70501
954.194	628.18249
954.368	545.79493
954.541	681.00505
954.715	478.21043
954.889	562.6933
955.062	514.11286
955.236	617.61889
955.41	545.79493
955.583	700.02295
955.757	623.95701
955.93	706.36246
956.104	495.10517
956.278	626.06974
956.451	683.11811
956.625	558.46863
956.798	545.79493
956.972	630.29525
957.145	503.55289
957.319	727.49485
957.492	484.54585
957.665	550.01944
957.839	514.11286
958.012	657.76221
958.185	585.92998
958.359	664.10102
958.532	579.59254
958.705	592.26753
958.879	556.35631
959.052	615.5062
959.225	495.10517
959.398	702.13611
959.572	503.55289
959.745	507.77683
959.918	537.34607
960.091	554.24401
960.264	524.6732
960.438	518.33696
960.611	463.42832
960.784	575.36765
960.957	463.42832
961.13	585.92998
961.303	503.55289
961.476	478.21043
961.649	497.21707
961.822	505.66485
961.995	438.08931
962.168	571.14282
962.341	469.76342
962.514	556.35631
962.686	425.42065
962.859	490.88139
963.032	416.97519
963.205	376.86282
963.378	419.08653
963.551	486.65768
963.723	381.08489
963.896	528.89743
964.069	543.68269
964.242	547.90718
964.414	435.97783
964.587	452.87013
964.76	395.86267
964.932	408.52999
965.105	397.97385
965.278	499.329
965.45	393.75151
965.623	457.09336
965.795	383.19595
965.968	497.21707
966.14	512.00084
966.313	545.79493
966.485	461.31665
966.658	480.32222
966.83	376.86282
967.003	440.20081
967.175	435.97783
967.348	435.97783
967.52	397.97385
967.692	368.41887
967.865	355.75346
968.037	355.75346
968.209	425.42065
968.382	433.86636
968.554	359.9752
968.726	438.08931
968.898	370.52983
969.071	395.86267
969.243	393.75151
969.415	347.3102
969.587	404.30748
969.759	317.76099
969.932	296.65654
970.104	393.75151
970.276	296.65654
970.448	317.76099
970.62	309.31899
970.792	385.30703
970.964	258.67319
971.136	419.08653
971.308	435.97783
971.48	402.19626
971.652	258.67319
971.824	368.41887
971.996	343.08867
972.168	338.86722
972.339	267.11341
972.511	343.08867
972.683	300.87729
972.855	224.91537
973.027	279.77431
973.199	283.99475
973.37	330.42451
973.542	347.3102
973.714	254.45319
973.886	309.31899
974.057	294.5462
974.229	250.23327
974.401	267.11341
974.572	347.3102
974.744	241.79366
974.915	366.30793
975.087	271.33363
975.259	313.53995
975.43	292.43587
975.602	300.87729
975.773	201.70978
975.945	235.46415
976.116	218.58633
976.288	246.01343
976.459	332.53516
976.63	286.10501
976.802	233.35436
976.973	311.42946
977.145	180.61589
977.316	182.72519
977.487	123.67278
977.659	216.47669
977.83	186.94385
978.001	220.69599
978.172	237.57397
978.344	246.01343
978.515	140.5432
978.686	288.21528
978.857	193.27198
979.028	222.80567
979.2	136.32547
979.371	115.23808
979.542	165.85139
979.713	195.3814
979.884	140.5432
980.055	216.47669
980.226	163.74226
980.397	229.13482
980.568	224.91537
980.739	199.6003
980.91	182.72519
981.081	237.57397
981.252	193.27198
981.423	144.76102
981.594	174.28813
981.765	201.70978
981.936	142.6521
982.106	208.03833
982.277	89.9361
982.448	199.6003
982.619	174.28813
982.79	201.70978
982.96	123.67278
983.131	182.72519
983.302	96.26129
983.472	81.50281
983.643	129.99903
983.814	92.04447
983.984	108.91229
984.155	77.2863
984.326	134.21663
984.496	174.28813
984.667	106.80373
984.837	100.4782
985.008	106.80373
985.178	140.5432
985.349	176.39736
985.519	98.36974
985.69	41.44967
985.86	117.34672
986.031	218.58633
986.201	113.12946
986.371	157.41499
986.542	140.5432
986.712	92.04447
986.882	108.91229
987.053	125.7815
987.223	26.69535
987.393	144.76102
987.563	87.82774
987.734	161.63315
987.904	106.80373
988.074	87.82774
988.244	79.39455
988.414	102.58669
988.585	92.04447
988.755	155.30595
988.925	121.56407
989.095	98.36974
989.265	132.10782
989.435	68.85356
989.605	165.85139
989.775	68.85356
989.945	64.63732
990.115	119.45538
990.285	119.45538
990.455	41.44967
990.625	30.91075
990.795	89.9361
990.965	51.98916
991.134	94.15287
991.304	108.91229
991.474	85.71941
991.644	81.50281
991.814	47.77329
991.984	184.83451
992.153	174.28813
992.323	85.71941
992.493	39.34183
992.662	108.91229
992.832	5.61975
993.002	20.37242
993.171	60.42118
993.341	41.44967
993.511	-4.91714
993.68	47.77329
993.85	132.10782
994.019	30.91075
994.189	26.69535
994.358	60.42118
994.528	119.45538
994.697	85.71941
994.867	56.20513
995.036	87.82774
995.206	41.44967
995.375	66.74543
995.544	75.17808
995.714	75.17808
995.883	77.2863
996.052	64.63732
996.222	26.69535
996.391	5.61975
996.56	41.44967
996.73	35.12624
996.899	16.15725
997.068	7.72721
997.237	45.6654
997.406	56.20513
997.576	85.71941
997.745	125.7815
997.914	79.39455
998.083	-7.02445
998.252	66.74543
998.421	16.15725
998.59	5.61975
998.759	37.23403
998.928	79.39455
999.097	60.42118
999.266	77.2863
999.435	41.44967
999.604	35.12624
999.773	89.9361
999.942	18.26482
1000.111	1.40492
1000.28	75.17808
1000.448	14.04971
1000.617	18.26482
1000.786	-15.45344
1000.955	83.6111
1001.124	7.72721
1001.292	5.61975
1001.461	73.06989
1001.63	39.34183
1001.798	47.77329
1001.967	-32.31023
1002.136	14.04971
1002.304	56.20513
1002.473	18.26482
1002.642	73.06989
1002.81	-0.70246
1002.979	73.06989
1003.147	58.31314
1003.316	98.36974
1003.484	30.91075
1003.653	56.20513
1003.821	30.91075
1003.99	70.96171
1004.158	-2.80981
1004.327	58.31314
1004.495	39.34183
1004.663	47.77329
1004.832	37.23403
1005	73.06989
1005.168	24.58768
1005.337	64.63732
1005.505	49.88122
1005.673	7.72721
1005.842	-11.23899
1006.01	24.58768
1006.178	64.63732
1006.346	51.98916
1006.514	51.98916
1006.683	14.04971
1006.851	30.91075
1007.019	-2.80981
1007.187	-34.41722
1007.355	35.12624
1007.523	41.44967
1007.691	43.55752
1007.859	35.12624
1008.027	85.71941
1008.195	41.44967
1008.363	75.17808
1008.531	66.74543
1008.699	47.77329
1008.867	39.34183
1009.035	35.12624
1009.203	9.83468
1009.37	73.06989
1009.538	14.04971
1009.706	22.48004
1009.874	26.69535
1010.042	66.74543
1010.209	66.74543
1010.377	3.51233
1010.545	56.20513
1010.713	5.61975
1010.88	64.63732
1011.048	30.91075
1011.216	-32.31023
1011.383	47.77329
1011.551	66.74543
1011.718	51.98916
1011.886	106.80373
1012.054	14.04971
1012.221	39.34183
1012.389	106.80373
1012.556	-19.66778
1012.724	60.42118
1012.891	100.4782
1013.058	43.55752
1013.226	1.40492
1013.393	22.48004
1013.561	47.77329
1013.728	5.61975
1013.895	39.34183
1014.063	73.06989
1014.23	64.63732
1014.397	-32.31023
1014.565	9.83468
1014.732	73.06989
1014.899	60.42118
1015.066	-44.95179
1015.233	115.23808
1015.401	30.91075
1015.568	73.06989
1015.735	-36.52418
1015.902	-42.84492
1016.069	14.04971
1016.236	-11.23899
1016.403	-19.66778
1016.57	54.09713
1016.737	-7.02445
1016.904	-44.95179
1017.071	51.98916
1017.238	-112.35796
1017.405	18.26482
1017.572	14.04971
1017.739	26.69535
1017.906	9.83468
1018.073	14.04971
1018.24	-19.66778
1018.407	-44.95179
1018.573	-11.23899
1018.74	22.48004
1018.907	79.39455
1019.074	-70.23219
1019.241	-23.88203
1019.407	85.71941
1019.574	-2.80981
1019.741	7.72721
1019.907	47.77329
1020.074	14.04971
1020.241	-15.45344
1020.407	30.91075
1020.574	-11.23899
1020.74	-17.56062
1020.907	-23.88203
1021.073	16.15725
1021.24	26.69535
1021.406	41.44967
1021.573	51.98916
1021.739	66.74543
1021.906	35.12624
1022.072	-15.45344
1022.239	26.69535
1022.405	30.91075
1022.571	-0.70246
1022.738	-0.70246
1022.904	24.58768
1023.07	7.72721
1023.237	-25.98912
1023.403	20.37242
1023.569	-19.66778
1023.735	56.20513
1023.902	-9.13173
1024.068	9.83468
1024.234	-11.23899
1024.4	-21.77492
1024.566	-2.80981
1024.732	-44.95179
1024.898	26.69535
1025.065	43.55752
1025.231	-17.56062
1025.397	-21.77492
1025.563	-19.66778
1025.729	-36.52418
1025.895	-17.56062
1026.061	-11.23899
1026.227	-38.63112
1026.392	64.63732
1026.558	-0.70246
1026.724	54.09713
1026.89	-53.37899
1027.056	18.26482
1027.222	-2.80981
1027.388	-34.41722
1027.553	-53.37899
1027.719	49.88122
1027.885	47.77329
1028.051	7.72721
1028.216	-34.41722
1028.382	68.85356
1028.548	-53.37899
1028.713	28.80304
1028.879	66.74543
1029.045	16.15725
1029.21	-36.52418
1029.376	-38.63112
1029.541	33.01848
1029.707	-40.73804
1029.873	-19.66778
1030.038	-36.52418
1030.204	-17.56062
1030.369	45.6654
1030.534	14.04971
1030.7	-4.91714
1030.865	-32.31023
1031.031	-9.13173
1031.196	-4.91714
1031.361	47.77329
1031.527	-36.52418
1031.692	-9.13173
1031.857	-47.05863
1032.023	49.88122
1032.188	-23.88203
1032.353	-9.13173
1032.518	26.69535
1032.684	9.83468
1032.849	-2.80981
1033.014	73.06989
1033.179	16.15725
1033.344	-40.73804
1033.509	20.37242
1033.674	37.23403
1033.839	-61.80579
1034.004	119.45538
1034.17	7.72721
1034.335	9.83468
1034.5	-15.45344
1034.664	-36.52418
1034.829	-70.23219
1034.994	11.94218
1035.159	64.63732
1035.324	16.15725
1035.489	-63.91243
1035.654	-11.23899
1035.819	-32.31023
1035.984	108.91229
1036.148	9.83468
1036.313	-61.80579
1036.478	58.31314
1036.643	41.44967
1036.807	-28.09618
1036.972	35.12624
1037.137	-25.98912
1037.301	7.72721
1037.466	-2.80981
1037.631	30.91075
1037.795	-53.37899
1037.96	22.48004
1038.124	-42.84492
1038.289	-23.88203
1038.454	-0.70246
1038.618	33.01848
1038.783	-68.12563
1038.947	35.12624
1039.111	-72.33872
1039.276	-17.56062
1039.44	-44.95179
1039.605	-53.37899
1039.769	-28.09618
1039.933	30.91075
1040.098	79.39455
1040.262	9.83468
1040.426	-23.88203
1040.591	-19.66778
1040.755	1.40492
1040.919	39.34183
1041.083	-4.91714
1041.248	5.61975
1041.412	22.48004
1041.576	7.72721
1041.74	22.48004
1041.904	30.91075
1042.068	-44.95179
1042.232	51.98916
1042.397	-15.45344
1042.561	22.48004
1042.725	-19.66778
1042.889	-11.23899
1043.053	20.37242
1043.217	-28.09618
1043.381	18.26482
1043.544	9.83468
1043.708	22.48004
1043.872	-11.23899
1044.036	3.51233
1044.2	22.48004
1044.364	73.06989
1044.528	22.48004
1044.691	56.20513
1044.855	5.61975
1045.019	1.40492
1045.183	-40.73804
1045.346	22.48004
1045.51	-13.34623
1045.674	-28.09618
1045.837	-7.02445
1046.001	56.20513
1046.165	1.40492
1046.328	-66.01904
1046.492	-0.70246
1046.655	-13.34623
1046.819	41.44967
1046.983	-17.56062
1047.146	-42.84492
1047.31	-57.59244
1047.473	39.34183
1047.636	-59.69913
1047.8	-11.23899
1047.963	54.09713
1048.127	24.58768
1048.29	26.69535
