Data from mixed_try1_USB4F045381__10__00158.txt Node

Date: Thu Apr 03 20:08:19 EDT 2025
User: mmckonesweet
Spectrometer: USB4F04538
Trigger mode: 4
Integration Time (sec): 2.700000E-3
Scans to average: 1
Electric dark correction enabled: true
Nonlinearity correction enabled: true
Boxcar width: 0
XAxis mode: Wavelengths
Number of Pixels in Spectrum: 3648
>>>>>Begin Spectral Data<<<<<
345.52	28.27611
345.736	28.27611
345.952	28.27611
346.168	49.35423
346.384	-87.61033
346.6	5.09289
346.816	5.09289
347.032	43.03055
347.248	-24.40881
347.464	-32.83698
347.68	-30.72997
347.896	-24.40881
348.112	32.49155
348.328	40.92271
348.544	0.87808
348.76	-45.4785
348.975	30.38382
349.191	-85.50398
349.407	-47.58533
349.623	-13.87303
349.839	32.49155
350.055	-39.15785
350.27	72.54284
350.486	-30.72997
350.702	-39.15785
350.918	-64.43909
351.133	62.00222
351.349	13.52282
351.565	-18.08741
351.781	7.20034
351.996	11.4153
352.212	9.30781
352.428	-68.65227
352.644	15.63036
352.859	40.92271
353.075	-30.72997
353.291	11.4153
353.506	-51.79892
353.722	-1.2293
353.938	-60.2258
354.153	30.38382
354.369	-1.2293
354.584	-30.72997
354.8	-22.3017
355.016	9.30781
355.231	-66.54569
355.447	49.35423
355.662	-26.51589
355.878	-13.87303
356.093	-30.72997
356.309	-96.03546
356.524	-66.54569
356.74	-26.51589
356.955	51.46218
357.171	24.06077
357.386	-7.55127
357.602	51.46218
357.817	24.06077
358.033	-9.65855
358.248	-41.26476
358.464	15.63036
358.679	34.5993
358.895	-15.98024
359.11	43.03055
359.325	-34.94396
359.541	-26.51589
359.756	15.63036
359.972	-39.15785
360.187	7.20034
360.402	24.06077
360.618	-1.2293
360.833	-26.51589
361.048	-3.33665
361.264	0.87808
361.479	-18.08741
361.694	-34.94396
361.909	-24.40881
362.125	57.78613
362.34	-39.15785
362.555	43.03055
362.77	-34.94396
362.986	-68.65227
363.201	17.73793
363.416	-9.65855
363.631	-28.62294
363.847	-20.19457
364.062	-1.2293
364.277	-3.33665
364.492	-22.3017
364.707	-70.75882
364.922	-5.44397
365.138	-15.98024
365.353	43.03055
365.568	-37.05092
365.783	45.13842
365.998	-24.40881
366.213	57.78613
366.428	-39.15785
366.643	-15.98024
366.858	19.84552
367.073	24.06077
367.288	-15.98024
367.503	-11.7658
367.718	15.63036
367.933	5.09289
368.148	2.98547
368.363	43.03055
368.578	-37.05092
368.793	24.06077
369.008	-51.79892
369.223	-20.19457
369.438	-11.7658
369.653	-34.94396
369.868	15.63036
370.083	0.87808
370.298	-7.55127
370.513	2.98547
370.728	28.27611
370.943	17.73793
371.157	-41.26476
371.372	-9.65855
371.587	2.98547
371.802	-24.40881
372.017	-9.65855
372.232	17.73793
372.446	11.4153
372.661	53.57014
372.876	32.49155
373.091	21.95313
373.306	-15.98024
373.52	-15.98024
373.735	-74.97185
373.95	-91.82295
374.165	-18.08741
374.379	110.49372
374.594	-9.65855
374.809	-28.62294
375.023	-30.72997
375.238	24.06077
375.453	26.16843
375.667	11.4153
375.882	-28.62294
376.097	-60.2258
376.311	0.87808
376.526	26.16843
376.741	-85.50398
376.955	40.92271
377.17	-18.08741
377.384	74.65103
377.599	-18.08741
377.813	66.2184
378.028	45.13842
378.242	-1.2293
378.457	59.89417
378.672	24.06077
378.886	-5.44397
379.101	-3.33665
379.315	19.84552
379.53	-24.40881
379.744	-32.83698
379.958	-70.75882
380.173	-34.94396
380.387	-58.11912
380.602	-39.15785
380.816	-39.15785
381.031	-9.65855
381.245	66.2184
381.459	-18.08741
381.674	19.84552
381.888	-24.40881
382.103	45.13842
382.317	-9.65855
382.531	43.03055
382.746	-1.2293
382.96	99.95108
383.174	-22.3017
383.388	-34.94396
383.603	-49.69214
383.817	24.06077
384.031	83.08402
384.246	7.20034
384.46	-15.98024
384.674	26.16843
384.888	-1.2293
385.103	17.73793
385.317	-60.2258
385.531	32.49155
385.745	51.46218
385.959	51.46218
386.174	-22.3017
386.388	-1.2293
386.602	-43.37164
386.816	26.16843
387.03	45.13842
387.244	0.87808
387.458	15.63036
387.672	70.43467
387.887	-34.94396
388.101	59.89417
388.315	-18.08741
388.529	7.20034
388.743	53.57014
388.957	-18.08741
389.171	-1.2293
389.385	11.4153
389.599	-5.44397
389.813	-39.15785
390.027	-22.3017
390.241	-43.37164
390.455	7.20034
390.669	-68.65227
390.883	-18.08741
391.097	30.38382
391.311	36.70708
391.525	-5.44397
391.738	-9.65855
391.952	26.16843
392.166	9.30781
392.38	-47.58533
392.594	-18.08741
392.808	-1.2293
393.022	-89.71665
393.236	17.73793
393.449	9.30781
393.663	-9.65855
393.877	24.06077
394.091	-24.40881
394.305	13.52282
394.518	-81.29121
394.732	-5.44397
394.946	-68.65227
395.16	-37.05092
395.373	0.87808
395.587	-26.51589
395.801	19.84552
396.015	-13.87303
396.228	-66.54569
396.442	0.87808
396.656	-24.40881
396.869	45.13842
397.083	-15.98024
397.297	55.67812
397.51	40.92271
397.724	74.65103
397.938	-1.2293
398.151	-74.97185
398.365	-18.08741
398.578	-41.26476
398.792	7.20034
399.005	-7.55127
399.219	-26.51589
399.433	-41.26476
399.646	-26.51589
399.86	21.95313
400.073	2.98547
400.287	68.32652
400.5	11.4153
400.714	-41.26476
400.927	64.1103
401.141	15.63036
401.354	0.87808
401.567	76.75925
401.781	26.16843
401.994	-39.15785
402.208	-5.44397
402.421	7.20034
402.635	-26.51589
402.848	15.63036
403.061	-15.98024
403.275	-51.79892
403.488	80.97574
403.701	-49.69214
403.915	17.73793
404.128	-87.61033
404.341	24.06077
404.555	-18.08741
404.768	24.06077
404.981	45.13842
405.195	-15.98024
405.408	-22.3017
405.621	-18.08741
405.834	-43.37164
406.048	-26.51589
406.261	-32.83698
406.474	19.84552
406.687	21.95313
406.9	66.2184
407.114	24.06077
407.327	-34.94396
407.54	-3.33665
407.753	-26.51589
407.966	34.5993
408.179	-13.87303
408.392	5.09289
408.605	19.84552
408.819	-18.08741
409.032	-77.07833
409.245	7.20034
409.458	11.4153
409.671	-34.94396
409.884	-26.51589
410.097	26.16843
410.31	7.20034
410.523	0.87808
410.736	7.20034
410.949	-24.40881
411.162	7.20034
411.375	-102.35404
411.588	-13.87303
411.801	15.63036
412.014	0.87808
412.227	76.75925
412.44	-3.33665
412.653	-24.40881
412.865	57.78613
413.078	15.63036
413.291	15.63036
413.504	11.4153
413.717	24.06077
413.93	7.20034
414.143	34.5993
414.356	28.27611
414.568	-18.08741
414.781	28.27611
414.994	24.06077
415.207	83.08402
415.42	28.27611
415.632	-9.65855
415.845	-5.44397
416.058	0.87808
416.271	15.63036
416.483	24.06077
416.696	34.5993
416.909	-3.33665
417.121	-77.07833
417.334	7.20034
417.547	-1.2293
417.759	-7.55127
417.972	26.16843
418.185	-34.94396
418.397	-60.2258
418.61	-30.72997
418.823	2.98547
419.035	24.06077
419.248	-26.51589
419.46	-34.94396
419.673	19.84552
419.885	19.84552
420.098	-13.87303
420.311	-43.37164
420.523	-26.51589
420.736	-43.37164
420.948	78.86748
421.161	-28.62294
421.373	93.62577
421.586	-18.08741
421.798	11.4153
422.01	-51.79892
422.223	-1.2293
422.435	-18.08741
422.648	-64.43909
422.86	-30.72997
423.073	7.20034
423.285	45.13842
423.497	-91.82295
423.71	15.63036
423.922	36.70708
424.134	-15.98024
424.347	97.84262
424.559	-5.44397
424.771	0.87808
424.984	-26.51589
425.196	49.35423
425.408	21.95313
425.621	-11.7658
425.833	-34.94396
426.045	-5.44397
426.257	28.27611
426.47	-41.26476
426.682	-22.3017
426.894	7.20034
427.106	17.73793
427.318	-18.08741
427.531	28.27611
427.743	66.2184
427.955	40.92271
428.167	-1.2293
428.379	-39.15785
428.591	55.67812
428.804	34.5993
429.016	2.98547
429.228	-1.2293
429.44	2.98547
429.652	15.63036
429.864	43.03055
430.076	125.25432
430.288	5.09289
430.5	49.35423
430.712	-9.65855
430.924	55.67812
431.136	-28.62294
431.348	24.06077
431.56	15.63036
431.772	32.49155
431.984	28.27611
432.196	-15.98024
432.408	-24.40881
432.62	76.75925
432.832	-30.72997
433.044	-43.37164
433.256	24.06077
433.468	15.63036
433.679	24.06077
433.891	38.81488
434.103	17.73793
434.315	-1.2293
434.527	-26.51589
434.739	-15.98024
434.95	-45.4785
435.162	32.49155
435.374	-18.08741
435.586	-24.40881
435.798	11.4153
436.009	-7.55127
436.221	-51.79892
436.433	34.5993
436.645	7.20034
436.856	-39.15785
437.068	-18.08741
437.28	-37.05092
437.491	-43.37164
437.703	-11.7658
437.915	-34.94396
438.126	-5.44397
438.338	15.63036
438.55	-18.08741
438.761	64.1103
438.973	-53.90568
439.184	66.2184
439.396	-32.83698
439.608	-51.79892
439.819	17.73793
440.031	49.35423
440.242	0.87808
440.454	-18.08741
440.665	24.06077
440.877	40.92271
441.088	-15.98024
441.3	-1.2293
441.511	-18.08741
441.723	21.95313
441.934	0.87808
442.146	19.84552
442.357	-34.94396
442.569	-13.87303
442.78	-32.83698
442.991	26.16843
443.203	-47.58533
443.414	26.16843
443.626	-41.26476
443.837	76.75925
444.048	34.5993
444.26	26.16843
444.471	11.4153
444.682	53.57014
444.894	-24.40881
445.105	2.98547
445.316	78.86748
445.528	34.5993
445.739	11.4153
445.95	15.63036
446.161	24.06077
446.373	-47.58533
446.584	32.49155
446.795	-34.94396
447.006	9.30781
447.217	-22.3017
447.429	51.46218
447.64	-28.62294
447.851	-5.44397
448.062	-1.2293
448.273	-5.44397
448.484	11.4153
448.695	40.92271
448.907	2.98547
449.118	19.84552
449.329	-13.87303
449.54	-34.94396
449.751	-1.2293
449.962	11.4153
450.173	-22.3017
450.384	32.49155
450.595	-13.87303
450.806	66.2184
451.017	9.30781
451.228	11.4153
451.439	-66.54569
451.65	-32.83698
451.861	-20.19457
452.072	59.89417
452.283	-3.33665
452.494	-56.01241
452.705	7.20034
452.915	49.35423
453.126	-56.01241
453.337	0.87808
453.548	-9.65855
453.759	-18.08741
453.97	11.4153
454.181	-15.98024
454.391	59.89417
454.602	0.87808
454.813	-39.15785
455.024	55.67812
455.235	-26.51589
455.445	-3.33665
455.656	57.78613
455.867	30.38382
456.078	7.20034
456.288	34.5993
456.499	32.49155
456.71	24.06077
456.921	15.63036
457.131	74.65103
457.342	0.87808
457.553	-26.51589
457.763	36.70708
457.974	-9.65855
458.184	-1.2293
458.395	-51.79892
458.606	83.08402
458.816	78.86748
459.027	24.06077
459.237	-39.15785
459.448	-47.58533
459.659	57.78613
459.869	32.49155
460.08	-9.65855
460.29	36.70708
460.501	-51.79892
460.711	-18.08741
460.922	-24.40881
461.132	-18.08741
461.343	32.49155
461.553	2.98547
461.764	-9.65855
461.974	7.20034
462.184	-15.98024
462.395	-45.4785
462.605	-26.51589
462.816	32.49155
463.026	17.73793
463.236	26.16843
463.447	-24.40881
463.657	19.84552
463.867	-34.94396
464.078	-49.69214
464.288	-1.2293
464.498	40.92271
464.709	24.06077
464.919	53.57014
465.129	19.84552
465.339	9.30781
465.55	-5.44397
465.76	40.92271
465.97	-15.98024
466.18	-32.83698
466.391	32.49155
466.601	7.20034
466.811	19.84552
467.021	24.06077
467.231	-9.65855
467.441	36.70708
467.651	40.92271
467.862	40.92271
468.072	74.65103
468.282	0.87808
468.492	34.5993
468.702	49.35423
468.912	15.63036
469.122	-41.26476
469.332	43.03055
469.542	-26.51589
469.752	34.5993
469.962	40.92271
470.172	51.46218
470.382	-110.77844
470.592	49.35423
470.802	-20.19457
471.012	17.73793
471.222	24.06077
471.432	28.27611
471.642	-13.87303
471.852	-9.65855
472.062	-18.08741
472.272	-9.65855
472.482	72.54284
472.691	24.06077
472.901	-24.40881
473.111	11.4153
473.321	-49.69214
473.531	-39.15785
473.741	34.5993
473.95	-11.7658
474.16	-9.65855
474.37	40.92271
474.58	2.98547
474.79	24.06077
474.999	-66.54569
475.209	-24.40881
475.419	7.20034
475.628	-37.05092
475.838	-26.51589
476.048	-60.2258
476.258	5.09289
476.467	-9.65855
476.677	24.06077
476.886	53.57014
477.096	40.92271
477.306	11.4153
477.515	-20.19457
477.725	9.30781
477.935	-26.51589
478.144	-85.50398
478.354	-32.83698
478.563	-5.44397
478.773	28.27611
478.982	0.87808
479.192	-18.08741
479.401	57.78613
479.611	24.06077
479.82	76.75925
480.03	13.52282
480.239	59.89417
480.449	91.51738
480.658	32.49155
480.868	2.98547
481.077	7.20034
481.287	-15.98024
481.496	-34.94396
481.705	43.03055
481.915	11.4153
482.124	24.06077
482.333	-5.44397
482.543	-7.55127
482.752	49.35423
482.961	116.81956
483.171	-18.08741
483.38	-49.69214
483.589	19.84552
483.799	40.92271
484.008	24.06077
484.217	26.16843
484.426	-22.3017
484.636	40.92271
484.845	68.32652
485.054	-66.54569
485.263	17.73793
485.472	7.20034
485.682	-49.69214
485.891	51.46218
486.1	24.06077
486.309	-32.83698
486.518	40.92271
486.727	-49.69214
486.936	40.92271
487.146	59.89417
487.355	45.13842
487.564	57.78613
487.773	-43.37164
487.982	15.63036
488.191	49.35423
488.4	24.06077
488.609	-18.08741
488.818	51.46218
489.027	57.78613
489.236	49.35423
489.445	24.06077
489.654	57.78613
489.863	43.03055
490.072	17.73793
490.281	-72.86535
490.49	-32.83698
490.698	24.06077
490.907	51.46218
491.116	40.92271
491.325	26.16843
491.534	-26.51589
491.743	-51.79892
491.952	24.06077
492.16	28.27611
492.369	74.65103
492.578	5.09289
492.787	74.65103
492.996	66.2184
493.204	40.92271
493.413	45.13842
493.622	-9.65855
493.831	74.65103
494.039	34.5993
494.248	26.16843
494.457	24.06077
494.665	-39.15785
494.874	80.97574
495.083	0.87808
495.291	49.35423
495.5	108.38515
495.709	43.03055
495.917	-11.7658
496.126	-5.44397
496.335	-32.83698
496.543	57.78613
496.752	68.32652
496.96	55.67812
497.169	-22.3017
497.377	-13.87303
497.586	87.30066
497.794	70.43467
498.003	87.30066
498.211	51.46218
498.42	144.23379
498.628	133.68943
498.837	40.92271
499.045	-1.2293
499.254	26.16843
499.462	78.86748
499.671	99.95108
499.879	80.97574
500.087	49.35423
500.296	49.35423
500.504	-1.2293
500.713	15.63036
500.921	-7.55127
501.129	-18.08741
501.338	53.57014
501.546	32.49155
501.754	47.24632
501.962	57.78613
502.171	108.38515
502.379	74.65103
502.587	127.36306
502.795	26.16843
503.004	57.78613
503.212	72.54284
503.42	-7.55127
503.628	68.32652
503.837	32.49155
504.045	-1.2293
504.253	30.38382
504.461	47.24632
504.669	64.1103
504.877	-39.15785
505.085	175.87005
505.294	104.16807
505.502	49.35423
505.71	-18.08741
505.918	-3.33665
506.126	102.05957
506.334	43.03055
506.542	57.78613
506.75	19.84552
506.958	-1.2293
507.166	24.06077
507.374	40.92271
507.582	40.92271
507.79	68.32652
507.998	116.81956
508.206	15.63036
508.414	68.32652
508.622	28.27611
508.83	2.98547
509.037	74.65103
509.245	49.35423
509.453	150.56067
509.661	24.06077
509.869	7.20034
510.077	36.70708
510.285	5.09289
510.492	19.84552
510.7	85.19233
510.908	125.25432
511.116	104.16807
511.324	45.13842
511.531	13.52282
511.739	104.16807
511.947	97.84262
512.155	108.38515
512.362	2.98547
512.57	64.1103
512.778	66.2184
512.985	66.2184
513.193	161.10588
513.401	85.19233
513.608	57.78613
513.816	68.32652
514.024	161.10588
514.231	201.1824
514.439	118.92822
514.646	104.16807
514.854	102.05957
515.061	167.43326
515.269	108.38515
515.477	83.08402
515.684	133.68943
515.892	142.12488
516.099	85.19233
516.307	76.75925
516.514	57.78613
516.722	0.87808
516.929	116.81956
517.136	57.78613
517.344	121.0369
517.551	34.5993
517.759	99.95108
517.966	83.08402
518.173	106.2766
518.381	125.25432
518.588	97.84262
518.796	125.25432
519.003	222.27825
519.21	108.38515
519.418	104.16807
519.625	87.30066
519.832	146.34273
520.039	104.16807
520.247	102.05957
520.454	108.38515
520.661	91.51738
520.868	150.56067
521.076	142.12488
521.283	116.81956
521.49	108.38515
521.697	199.07293
521.904	184.30718
522.112	110.49372
522.319	49.35423
522.526	192.74463
522.733	125.25432
522.94	167.43326
523.147	184.30718
523.354	106.2766
523.561	108.38515
523.768	97.84262
523.975	180.08857
524.183	102.05957
524.39	161.10588
524.597	87.30066
524.804	129.47183
525.011	165.32411
525.218	194.85404
525.425	146.34273
525.632	175.87005
525.838	180.08857
526.045	186.41651
526.252	133.68943
526.459	150.56067
526.666	137.90711
526.873	161.10588
527.08	192.74463
527.287	171.65161
527.494	148.45169
527.701	234.9367
527.907	108.38515
528.114	192.74463
528.321	220.16857
528.528	142.12488
528.735	167.43326
528.941	186.41651
529.148	127.36306
529.355	121.0369
529.562	192.74463
529.768	175.87005
529.975	247.59586
530.182	226.49765
530.388	234.9367
530.595	163.21498
530.802	203.2919
531.008	251.81573
531.215	218.05892
531.422	234.9367
531.628	201.1824
531.835	228.60739
532.042	175.87005
532.248	218.05892
532.455	133.68943
532.661	226.49765
532.868	232.82691
533.074	251.81573
533.281	184.30718
533.487	239.15634
533.694	175.87005
533.9	256.03568
534.107	209.6205
534.313	169.54242
534.52	209.6205
534.726	336.22884
534.933	277.13656
535.139	243.37606
535.345	194.85404
535.552	268.69598
535.758	222.27825
535.965	287.68771
536.171	241.26619
536.377	220.16857
536.584	294.01862
536.79	386.89035
536.996	186.41651
537.203	302.46008
537.409	294.01862
537.615	285.57744
537.821	209.6205
538.028	296.12896
538.234	209.6205
538.44	325.67561
538.646	304.5705
538.853	336.22884
539.059	291.9083
539.265	327.78622
539.471	281.35697
539.677	247.59586
539.883	346.78251
540.09	363.66927
540.296	275.02639
540.502	348.89329
540.708	340.45025
540.914	386.89035
541.12	315.12283
541.326	446.00751
541.532	363.66927
541.738	380.55713
541.944	355.22575
542.15	348.89329
542.356	245.48595
542.562	391.11258
542.768	340.45025
542.974	319.34389
543.18	260.25571
543.386	386.89035
543.592	416.44736
543.798	412.22473
544.004	395.33488
544.21	416.44736
544.415	378.44609
544.621	441.78444
544.827	403.77968
545.033	503.0249
545.239	473.45896
545.445	395.33488
545.651	408.00217
545.856	509.36083
546.062	405.89092
546.268	494.57719
546.474	374.22406
546.679	424.8928
546.885	363.66927
547.091	376.33506
547.297	399.55725
547.502	441.78444
547.708	424.8928
547.914	401.66845
548.119	429.11561
548.325	395.33488
548.531	395.33488
548.736	490.35343
548.942	517.80894
549.147	608.64007
549.353	492.4653
549.559	585.40185
549.764	490.35343
549.97	416.44736
550.175	450.23064
550.381	547.37911
550.586	452.34223
550.792	543.15464
550.997	524.14517
551.203	560.05288
551.408	509.36083
551.614	536.81802
551.819	515.69689
552.025	608.64007
552.23	515.69689
552.435	589.62687
552.641	503.0249
552.846	557.94055
553.052	562.16522
553.257	555.82823
553.462	574.83955
553.668	642.44384
553.873	541.04242
554.078	716.40021
554.283	500.91295
554.489	659.3469
554.694	701.60782
554.899	640.33102
555.105	627.6543
555.31	653.00817
555.515	583.28936
555.72	686.81598
555.925	703.72099
556.131	678.36375
556.336	576.95198
556.541	587.51435
556.746	640.33102
556.951	826.30238
557.156	576.95198
557.361	693.15527
557.567	667.79872
557.772	691.04216
557.977	627.6543
558.182	688.92907
558.387	682.58984
558.592	665.68575
558.797	642.44384
559.002	765.00745
559.207	617.09072
559.412	769.23442
559.617	672.02469
559.822	872.80712
560.027	737.53311
560.232	758.66706
560.437	760.78051
560.642	786.14272
560.847	688.92907
561.051	767.12093
561.256	752.32677
561.461	822.07489
561.666	879.149
561.871	885.49095
562.076	767.12093
562.281	784.02915
562.485	836.87127
562.69	811.50632
562.895	781.91558
563.1	885.49095
563.305	758.66706
563.509	906.63131
563.714	716.40021
563.919	912.97357
564.123	819.96116
564.328	904.51724
564.533	862.23749
564.737	965.82836
564.942	716.40021
565.147	868.57925
565.351	784.02915
565.556	946.80011
565.761	817.84743
565.965	955.25704
566.17	758.66706
566.374	976.39985
566.579	817.84743
566.784	868.57925
566.988	889.71896
567.193	1071.55036
567.397	784.02915
567.602	995.42896
567.806	874.92107
568.011	900.28912
568.215	866.46532
568.42	978.51417
568.624	927.77245
568.828	1073.66495
569.033	951.02856
569.237	1048.29025
569.442	915.08767
569.646	1014.45858
569.85	970.05694
570.055	1151.90816
570.259	942.57169
570.463	1073.66495
570.668	1054.63385
570.872	1206.89334
571.076	948.91433
571.281	1160.36725
571.485	1003.88651
571.689	1046.17573
571.893	978.51417
572.098	1113.84309
572.302	1054.63385
572.506	1147.67864
572.71	1105.38439
572.914	1086.35259
573.119	1128.646
573.323	1073.66495
573.527	1071.55036
573.731	1219.58257
573.935	1113.84309
574.139	1160.36725
574.343	1050.40478
574.547	1198.43392
574.751	1209.0082
574.955	1238.61662
575.159	1086.35259
575.364	1134.99018
575.568	1115.95778
575.772	1299.95005
575.976	1175.17081
576.18	1223.81234
576.383	1183.63007
576.587	1147.67864
576.791	1105.38439
576.995	1333.78997
577.199	1134.99018
577.403	1310.52498
577.607	1198.43392
577.811	1236.50171
578.015	1145.56388
578.219	1327.44495
578.422	1181.51525
578.626	1278.80036
578.83	1209.0082
579.034	1363.40023
579.238	1302.06503
579.442	1257.65091
579.645	1198.43392
579.849	1251.30612
580.053	1327.44495
580.257	1409.93107
580.46	1283.03028
580.664	1458.57724
580.868	1304.18002
581.071	1507.22337
581.275	1399.35585
581.479	1437.42672
581.682	1412.04612
581.886	1511.45345
582.09	1422.62136
582.293	1522.02865
582.497	1346.48005
582.7	1655.27313
582.904	1399.35585
583.107	1560.09916
583.311	1452.23208
583.515	1469.1525
583.718	1502.99328
583.922	1684.88187
584.125	1538.94892
584.329	1612.97409
584.532	1502.99328
584.735	1612.97409
584.939	1555.86912
585.142	1511.45345
585.346	1479.72775
585.549	1667.96266
585.753	1456.46219
585.956	1735.63835
586.159	1471.26755
586.363	1623.54893
586.566	1591.82424
586.769	1651.04327
586.973	1612.97409
587.176	1750.44196
587.379	1557.98414
587.582	1682.76698
587.786	1532.60383
587.989	1832.91566
588.192	1714.49005
588.395	1807.53982
588.599	1646.8134
588.802	1744.09758
589.005	1701.8009
589.208	1697.57116
589.411	1689.11165
589.615	1786.39281
589.818	1606.62915
590.021	1811.76917
590.224	1585.47925
590.427	1845.60333
590.63	1735.63835
590.833	1883.6653
591.036	1754.67153
591.239	1815.99851
591.442	1701.8009
591.645	1928.06878
591.848	1896.35225
592.051	2080.28895
592.254	1744.09758
592.457	1932.29756
592.66	1807.53982
592.863	1877.32175
593.066	1858.29083
593.269	1978.81254
593.472	1832.91566
593.675	2065.4913
593.878	1803.31045
594.081	2035.89495
594.284	1741.98278
594.486	2082.40288
594.689	1875.20722
594.892	1987.26949
595.095	1940.75504
595.298	1983.04103
595.5	1968.24121
595.703	2097.20012
595.906	1976.69829
596.109	2086.6307
596.311	2027.4386
596.514	2033.78087
596.717	2010.52558
596.92	2067.60527
597.122	2044.35119
597.325	2221.90444
597.528	2027.4386
597.73	2336.01409
597.933	1978.81254
598.136	2418.40899
598.338	2145.81701
598.541	2270.51
598.743	2107.76935
598.946	2198.65666
599.148	2224.01783
599.351	2251.491
599.554	2078.17503
599.756	2357.14246
599.959	2139.47591
600.161	2359.25524
600.363	2350.80405
600.566	2240.92457
600.768	2238.81126
600.971	2395.17098
601.173	2181.74854
601.376	2441.64572
601.578	2179.63498
601.78	2255.71751
601.983	2152.15804
602.185	2374.04443
602.388	2103.54168
602.59	2293.75443
602.792	2255.71751
602.995	2502.89988
603.197	2374.04443
603.399	2583.14947
603.601	2302.20667
603.804	2431.08373
604.006	2175.40785
604.208	2488.11524
604.41	2257.83075
604.613	2589.48424
604.815	2357.14246
605.017	2517.68395
605.219	2365.59352
605.421	2386.72048
605.623	2378.26982
605.826	2644.38098
606.028	2342.3527
606.23	2466.99339
606.432	2526.13175
606.634	2526.13175
606.836	2141.58962
607.038	2466.99339
607.24	2526.13175
607.442	2505.01192
607.644	2509.23598
607.846	2511.34799
608.048	2528.24367
608.25	2733.04234
608.452	2517.68395
608.654	2779.47479
608.856	2540.91494
609.058	2699.26927
609.26	2536.69123
609.462	2690.82548
609.664	2543.02678
609.866	2756.25938
610.067	2593.70736
610.269	2631.71324
610.471	2382.49517
610.673	2796.3577
610.875	2505.01192
611.077	2682.38148
611.278	2526.13175
611.48	2756.25938
611.682	2597.93043
611.884	2796.3577
612.085	2585.26107
612.287	2764.70153
612.489	2490.22737
612.69	2722.48862
612.892	2610.59935
613.094	2935.60748
613.295	2380.3825
613.497	2838.56111
613.699	2471.21785
613.9	2859.66072
614.102	2754.1488
614.304	2965.13722
614.505	2690.82548
614.707	2796.3577
614.908	2695.0474
615.11	2838.56111
615.311	2665.49287
615.513	2766.81204
615.714	2813.23973
615.916	2730.93162
616.117	2735.15305
616.319	2958.80966
616.52	2745.70638
616.722	2891.30748
616.923	2612.71079
617.124	2821.68041
617.326	2730.93162
617.527	2969.35551
617.729	2785.80598
617.93	2819.57026
618.131	2741.48509
618.333	3036.84003
618.534	2863.88047
618.735	2897.63644
618.937	2733.04234
619.138	2809.0193
619.339	2775.25393
619.54	2971.46464
619.742	2730.93162
619.943	2922.95099
620.144	2728.82089
620.345	2979.90099
620.546	2882.86866
620.748	3104.30876
620.949	2714.0454
621.15	3064.25113
621.351	2851.22105
621.552	3057.92573
621.753	2950.37271
621.954	3150.68411
622.155	2922.95099
622.356	3081.1182
622.558	2925.06044
622.759	2828.01078
622.96	2754.1488
623.161	2984.11908
623.362	2973.57375
623.563	3070.5764
623.764	2906.07486
623.965	2998.8819
624.166	2914.51304
624.366	3070.5764
624.567	2855.44091
624.768	3051.60018
624.969	2705.60197
625.17	3085.3348
625.371	3125.38943
625.572	3163.33058
625.773	2899.74607
625.973	3228.6613
626.174	3079.00987
626.375	3003.09972
626.576	3121.17342
626.777	3116.95735
626.977	3024.18787
627.178	3121.17342
627.379	2931.38871
627.58	3247.6253
627.78	2906.07486
627.981	3144.36066
628.182	2956.70045
628.382	3378.22878
628.583	2823.79055
628.784	3125.38943
628.984	3051.60018
629.185	3272.90852
629.386	2897.63644
629.586	3192.83673
629.787	2939.82619
629.987	3327.68043
630.188	3041.0573
630.388	3352.95586
630.589	3028.40532
630.79	3407.71066
630.99	2988.3371
631.191	3000.99082
631.391	3203.37387
631.591	3163.33058
631.792	3068.46799
631.992	3390.8643
632.193	3146.46849
632.393	3445.61084
632.594	3142.25281
632.794	3049.49164
632.994	3049.49164
633.195	3418.23907
633.395	3237.08991
633.595	3237.08991
633.796	3167.54594
633.996	3361.38045
634.196	3192.83673
634.397	3363.48655
634.597	3057.92573
634.797	3487.71533
634.997	3125.38943
635.198	3363.48655
635.398	3298.1893
635.598	3559.27627
635.798	3211.80327
635.998	3304.50911
636.199	3285.54921
636.399	3534.02189
636.599	3175.97647
636.799	3479.29501
636.999	3291.86933
637.199	3361.38045
637.399	3304.50911
637.599	3550.85844
637.799	3306.61568
637.999	3464.55875
638.199	3323.46762
638.399	3605.56903
638.599	3470.8744
638.799	3565.58945
638.999	3477.18988
639.199	3613.98493
639.399	3304.50911
639.599	3618.19276
639.799	3447.71623
639.999	3616.08885
640.199	3542.44031
640.399	3702.33355
640.599	3175.97647
640.799	3862.11585
640.998	3382.44069
641.198	3866.31912
641.398	3454.03231
641.598	3723.36396
641.798	3578.21531
641.997	3555.06739
642.197	3597.15284
642.397	3559.27627
642.597	3451.92697
642.796	3613.98493
642.996	3481.40012
643.196	3784.34122
643.395	3567.69381
643.595	3786.44359
643.795	3496.13536
643.994	3866.31912
644.194	3567.69381
644.394	3912.54971
644.593	3481.40012
644.793	3786.44359
644.992	3487.71533
645.192	3862.11585
645.392	3584.52799
645.591	3773.82907
645.791	3685.50783
645.99	3925.15637
646.19	3630.81581
646.389	3733.87845
646.589	3702.33355
646.788	3857.91251
646.987	3666.57743
647.187	3887.33422
647.386	3870.5223
647.586	3855.81081
647.785	3748.59792
647.984	3849.50559
648.184	3838.99649
648.383	3811.67052
648.582	3664.47396
648.782	3897.84103
648.981	3752.8033
649.18	4025.98332
649.38	3790.64828
649.579	3927.25741
649.778	3878.92842
649.977	4025.98332
650.177	3826.38492
650.376	3868.42072
650.575	3735.98129
650.774	3841.09835
650.973	3769.62407
651.173	3828.4869
651.372	3683.40453
651.571	3916.75201
651.77	3782.23883
651.969	3899.94233
652.168	3862.11585
652.367	3935.66136
652.566	3893.63837
652.765	4162.4441
652.964	3767.52155
653.163	3878.92842
653.362	3824.28293
653.561	4059.58181
653.76	3874.7254
653.959	4223.29801
654.158	3828.4869
654.357	4175.03602
654.556	3986.07827
654.755	4078.47864
654.954	4000.78099
655.153	4038.58337
655.352	3899.94233
655.551	4042.78322
655.749	4078.47864
655.948	4242.18008
656.147	3891.53701
656.346	4206.5125
656.545	4017.58287
656.743	4265.25581
656.942	4067.98061
657.141	4097.37378
657.34	4151.95025
657.538	4112.06883
657.737	3933.5604
657.936	4414.13653
658.135	3986.07827
658.333	4059.58181
658.532	4009.18209
658.731	4126.76287
658.929	4219.10176
659.128	4151.95025
659.326	3996.58031
659.525	4420.42486
659.724	4051.18268
659.922	4204.41422
660.121	4061.68154
660.319	4271.54875
660.518	4135.159
660.716	4166.64149
660.915	4105.77108
661.113	4244.27798
661.312	4202.31591
661.51	4332.37047
661.709	4120.46555
661.907	4149.85141
662.105	4143.55479
662.304	4303.01052
662.502	4059.58181
662.701	4160.34537
662.899	4061.68154
663.097	4212.80723
663.296	4011.28232
663.494	4206.5125
663.692	3975.57571
663.891	4248.47372
664.089	4170.8388
664.287	4353.33928
664.485	4183.43021
664.684	4349.14569
664.882	4149.85141
665.08	4319.78815
665.278	4202.31591
665.476	4481.20184
665.675	4109.9696
665.873	4294.62119
666.071	4288.32896
666.269	4344.95201
666.467	4319.78815
666.665	4303.01052
666.863	4147.75256
667.061	4403.65555
667.259	4210.70901
667.457	4495.86937
667.655	4011.28232
667.853	4355.43604
668.051	4093.175
668.249	4405.75179
668.447	4252.66937
668.645	4525.2012
668.843	4279.93902
669.041	4395.27038
669.239	4313.4967
669.437	4592.22906
669.635	4162.4441
669.833	4445.57619
670.031	4294.62119
670.229	4391.07766
670.426	4315.59387
670.624	4420.42486
670.822	4177.1346
671.02	4477.01091
671.218	4328.17645
671.415	4491.67876
671.613	4187.62718
671.811	4541.96029
672.009	4355.43604
672.206	4403.65555
672.404	4263.15813
672.602	4556.62334
672.799	4409.94421
672.997	4349.14569
673.195	4126.76287
673.392	4286.23151
673.59	4166.64149
673.788	4321.88526
673.985	4193.92248
674.183	4573.37977
674.38	4340.75825
674.578	4546.14985
674.775	4370.11276
674.973	4334.46745
675.17	4323.98235
675.368	4590.13478
675.565	4246.37586
675.763	4321.88526
675.96	4229.59222
676.158	4286.23151
676.355	4290.42639
676.553	4336.56441
676.75	4120.46555
676.947	4439.28865
677.145	4212.80723
677.342	4382.69196
677.539	4063.78125
677.737	4374.30591
677.934	4206.5125
678.131	4462.34199
678.329	4575.47423
678.526	4567.09628
678.723	4286.23151
678.92	4569.1908
679.118	4328.17645
679.315	4288.32896
679.512	4240.08215
679.709	4550.33931
679.906	4495.86937
680.104	4667.6081
680.301	4573.37977
680.498	4546.14985
680.695	4286.23151
680.892	4282.03654
681.089	4252.66937
681.286	4317.69102
681.483	4118.3664
681.68	4372.20935
681.877	4395.27038
682.075	4768.06817
682.272	4288.32896
682.469	4491.67876
682.665	4539.86549
682.862	4495.86937
683.059	4263.15813
683.256	4420.42486
683.453	4315.59387
683.65	4500.0599
683.847	4244.27798
684.044	4414.13653
684.241	4221.19989
684.438	4495.86937
684.635	4254.76716
684.831	4592.22906
685.028	4095.2744
685.225	4470.72436
685.422	4290.42639
685.619	4424.61696
685.815	4311.39951
686.012	4395.27038
686.209	4261.06042
686.405	4374.30591
686.602	4470.72436
686.799	4422.52092
686.996	4437.19276
687.192	4405.75179
687.389	4397.3667
687.586	4453.95927
687.782	4235.88625
687.979	4495.86937
688.175	4263.15813
688.372	4474.91542
688.568	4271.54875
688.765	4401.55929
688.962	4311.39951
689.158	4504.25033
689.355	4361.72619
689.551	4516.82112
689.748	4273.64635
689.944	4518.91617
690.14	4282.03654
690.337	4370.11276
690.533	4311.39951
690.73	4361.72619
690.926	4328.17645
691.123	4328.17645
691.319	4294.62119
691.515	4537.77065
691.712	4088.97614
691.908	4420.42486
692.104	4235.88625
692.301	4248.47372
692.497	4118.3664
692.693	4273.64635
692.889	4137.25798
693.086	4206.5125
693.282	4399.46301
693.478	4355.43604
693.674	4103.67178
693.87	4363.82287
694.067	4328.17645
694.263	4202.31591
694.459	4391.07766
694.655	4372.20935
694.851	4330.27347
695.047	4529.3911
695.243	4204.41422
695.439	4466.53322
695.635	4261.06042
695.831	4437.19276
696.027	4269.45112
696.224	4445.57619
696.42	4223.29801
696.615	4445.57619
696.811	4378.49898
697.007	4537.77065
697.203	4080.57818
697.399	4303.01052
697.595	4151.95025
697.791	4286.23151
697.987	4084.7772
698.183	4468.6288
698.379	4237.98421
698.575	4521.0112
698.77	4227.49417
698.966	4592.22906
699.162	4355.43604
699.358	4588.04049
699.554	4388.98127
699.749	4571.2853
699.945	4235.88625
700.141	4370.11276
700.337	4214.90542
700.532	4483.29726
700.728	4416.23266
700.924	4583.85182
701.119	4095.2744
701.315	4313.4967
701.511	4004.98158
701.706	4250.57155
701.902	4044.88312
702.097	4118.3664
702.293	4000.78099
702.489	4449.76777
702.684	4200.21759
702.88	4330.27347
703.075	4099.47313
703.271	4412.04038
703.466	4261.06042
703.662	4332.37047
703.857	4372.20935
704.053	4384.78842
704.248	4114.16804
704.443	4474.91542
704.639	4347.04886
704.834	4453.95927
705.03	4294.62119
705.225	4294.62119
705.42	4395.27038
705.616	4412.04038
705.811	4177.1346
706.006	4512.63095
706.202	4088.97614
706.397	4298.8159
706.592	4368.01615
706.787	4583.85182
706.983	4315.59387
707.178	4445.57619
707.373	4372.20935
707.568	4493.77408
707.763	4328.17645
707.959	4428.80898
708.154	4363.82287
708.349	4393.17403
708.544	4412.04038
708.739	4284.13403
708.934	4240.08215
709.129	4462.34199
709.324	4279.93902
709.519	4447.67199
709.714	4206.5125
709.909	4342.85514
710.104	4235.88625
710.299	4307.20506
710.494	4179.23316
710.689	4344.95201
710.884	4158.24662
711.079	4298.8159
711.274	4137.25798
711.469	4342.85514
711.664	4198.11924
711.859	4433.00092
712.054	4193.92248
712.249	4357.53278
712.443	4097.37378
712.638	4342.85514
712.833	4147.75256
713.028	4365.91952
713.223	4156.14785
713.417	4227.49417
713.612	4172.93742
713.807	4512.63095
714.002	4286.23151
714.196	4135.159
714.391	4323.98235
714.586	4160.34537
714.78	4057.48206
714.975	4323.98235
715.17	3857.91251
715.364	4145.65369
715.559	3977.67626
715.754	4107.87035
715.948	3908.34733
716.143	4307.20506
716.337	4061.68154
716.532	4294.62119
716.726	4015.48271
716.921	4386.88485
717.115	3759.11124
717.31	4439.28865
717.504	4338.66134
717.699	4237.98421
717.893	4025.98332
718.088	4118.3664
718.282	4210.70901
718.476	4361.72619
718.671	3958.77056
718.865	4365.91952
719.059	3935.66136
719.254	4303.01052
719.448	3910.44853
719.642	4298.8159
719.837	3975.57571
720.031	4414.13653
720.225	4067.98061
720.419	3969.27393
720.614	3967.1733
720.808	4109.9696
721.002	4084.7772
721.196	4143.55479
721.39	4122.56468
721.585	4149.85141
721.779	3830.58886
721.973	4109.9696
722.167	3923.05531
722.361	4198.11924
722.555	3962.97197
722.749	4219.10176
722.943	3920.95423
723.137	3931.45942
723.331	3983.9778
723.525	4231.69025
723.719	3977.67626
723.913	4149.85141
724.107	3923.05531
724.301	4015.48271
724.495	4061.68154
724.689	4086.87668
724.883	3834.79272
725.077	3975.57571
725.271	4030.18342
725.465	4156.14785
725.659	3794.85289
725.853	4130.96097
726.046	3851.60735
726.24	4017.58287
726.434	3767.52155
726.628	4025.98332
726.822	3918.85313
727.015	4017.58287
727.209	3639.2308
727.403	4049.08285
727.596	4109.9696
727.79	4254.76716
727.984	4030.18342
728.177	4374.30591
728.371	3990.27915
728.565	4080.57818
728.758	3950.3675
728.952	4151.95025
729.146	4002.8813
729.339	4088.97614
729.533	4168.74015
729.726	4246.37586
729.92	4028.08338
730.113	4284.13403
730.307	3941.96411
730.5	3874.7254
730.694	3828.4869
730.887	4151.95025
731.081	4143.55479
731.274	3862.11585
731.468	3916.75201
731.661	4051.18268
731.854	3775.93154
732.048	4046.98299
732.241	3977.67626
732.435	4273.64635
732.628	4028.08338
732.821	4086.87668
733.014	3834.79272
733.208	4002.8813
733.401	4147.75256
733.594	4185.52871
733.788	4067.98061
733.981	4225.3961
734.174	4109.9696
734.367	4298.8159
734.56	3927.25741
734.754	4044.88312
734.947	4107.87035
735.14	3950.3675
735.333	3941.96411
735.526	4032.28344
735.719	3897.84103
735.912	4130.96097
736.105	3887.33422
736.298	4017.58287
736.491	3941.96411
736.684	4151.95025
736.877	3931.45942
737.07	4038.58337
737.263	3952.4683
737.456	4072.17988
737.649	4000.78099
737.842	3904.14487
738.035	4044.88312
738.228	3967.1733
738.421	4135.159
738.614	4086.87668
738.807	3983.9778
739	4002.8813
739.192	4009.18209
739.385	4019.68301
739.578	3872.62386
739.771	4051.18268
739.964	3752.8033
740.156	4059.58181
740.349	3992.37956
740.542	4158.24662
740.735	3950.3675
740.927	3908.34733
741.12	3851.60735
741.313	4007.08185
741.505	4059.58181
741.698	4109.9696
741.891	4252.66937
742.083	4025.98332
742.276	4059.58181
742.468	4051.18268
742.661	3946.16585
742.854	3986.07827
743.046	3941.96411
743.239	4042.78322
743.431	4053.28249
743.624	4154.04906
743.816	4103.67178
744.009	3885.2328
744.201	3866.31912
744.393	3874.7254
744.586	3920.95423
744.778	3996.58031
744.971	3925.15637
745.163	4063.78125
745.355	3977.67626
745.548	3998.68066
745.74	3817.97681
745.932	3925.15637
746.125	3698.12723
746.317	3849.50559
746.509	3784.34122
746.702	4042.78322
746.894	3933.5604
747.086	4021.78313
747.278	3824.28293
747.471	3828.4869
747.663	3820.07887
747.855	3740.18691
748.047	3733.87845
748.239	3857.91251
748.431	3757.00861
748.623	3965.07265
748.815	3851.60735
749.008	3862.11585
749.2	3979.7768
749.392	4139.35693
749.584	3815.87474
749.776	3885.2328
749.968	3845.30201
750.16	3914.65087
750.352	3790.64828
750.544	3799.05741
750.736	3906.24611
750.928	3874.7254
751.12	3941.96411
751.311	3815.87474
751.503	4009.18209
751.695	3998.68066
751.887	3742.28969
752.079	4013.38252
752.271	3738.08411
752.463	3983.9778
752.654	3958.77056
752.846	4116.26723
753.038	3939.86322
753.23	4021.78313
753.421	3977.67626
753.613	3757.00861
753.805	3862.11585
753.997	3817.97681
754.188	3651.85272
754.38	3685.50783
754.572	3586.63217
754.763	3780.13642
754.955	3643.43819
755.146	3685.50783
755.338	3647.64549
755.53	3706.53978
755.721	3630.81581
755.913	3714.95203
756.104	3477.18988
756.296	3773.82907
756.487	3582.42378
756.679	3656.05988
756.87	3449.82161
757.062	3683.40453
757.253	3613.98493
757.445	3504.5551
757.636	3742.28969
757.827	3582.42378
758.019	3658.16343
758.21	3801.15965
758.401	3470.8744
758.593	3586.63217
758.784	3624.50437
758.975	3590.8405
759.167	3470.8744
759.358	3714.95203
759.549	3706.53978
759.74	3626.6082
759.932	3458.24294
760.123	3609.77702
760.314	3420.34469
760.505	3574.00676
760.696	3550.85844
760.888	3557.17184
761.079	3479.29501
761.27	3544.54487
761.461	3361.38045
761.652	3630.81581
761.843	3542.44031
762.034	3784.34122
762.225	3557.17184
762.416	3363.48655
762.607	3329.78681
762.798	3483.50521
762.989	3536.12652
763.18	3485.61028
763.371	3352.95586
763.562	3536.12652
763.753	3464.55875
763.944	3525.60317
764.135	3392.97015
764.326	3576.11105
764.517	3277.12215
764.708	3624.50437
764.899	3403.49918
765.089	3481.40012
765.28	3405.60493
765.471	3397.18182
765.662	3340.31846
765.853	3312.93529
766.043	3201.26647
766.234	3327.68043
766.425	3209.69595
766.615	3298.1893
766.806	3074.79317
766.997	3411.92208
767.187	3251.83934
767.378	3475.08474
767.569	3355.06203
767.759	3466.66398
767.95	3405.60493
768.141	3365.59263
768.331	3142.25281
768.522	3597.15284
768.712	3458.24294
768.903	3550.85844
769.093	3281.33571
769.284	3319.25474
769.474	3167.54594
769.665	3180.19163
769.855	3222.33966
770.046	3420.34469
770.236	3047.38307
770.426	3180.19163
770.617	3188.62177
770.807	3184.40673
770.998	3133.82125
771.188	3213.91059
771.378	3019.97037
771.569	3218.12516
771.759	3030.51402
771.949	2865.99033
772.139	2967.24637
772.33	2880.75892
772.52	2825.90067
772.71	2958.80966
772.9	2973.57375
773.09	3085.3348
773.281	2986.2281
773.471	3138.03706
773.661	3085.3348
773.851	3125.38943
774.041	3015.7528
774.231	3260.26721
774.421	2965.13722
774.611	3076.90152
774.802	2929.2793
774.992	2984.11908
775.182	2973.57375
775.372	2956.70045
775.562	2893.41715
775.752	3041.0573
775.942	2935.60748
776.131	2944.04484
776.321	2893.41715
776.511	2948.26344
776.701	2849.11109
776.891	3024.18787
777.081	2925.06044
777.271	3154.89967
777.461	3097.98425
777.651	3060.03421
777.84	2977.79193
778.03	3015.7528
778.22	2941.93553
778.41	2973.57375
778.599	2798.468
778.789	2969.35551
778.979	2779.47479
779.169	2849.11109
779.358	2733.04234
779.548	2952.48197
779.738	2790.02671
779.927	2925.06044
780.117	2692.93644
780.307	2840.67113
780.496	2716.15622
780.686	2714.0454
780.875	2490.22737
781.065	2825.90067
781.254	2707.71285
781.444	2922.95099
781.633	2838.56111
781.823	2703.49108
782.012	2614.82223
782.202	2891.30748
782.391	2678.15941
782.581	2956.70045
782.77	3000.99082
782.96	2804.79882
783.149	2703.49108
783.338	2908.18443
783.528	2925.06044
783.717	2918.73205
783.906	2534.57935
784.096	2754.1488
784.285	2726.71015
784.474	2798.468
784.663	2673.93728
784.853	2747.817
785.042	2500.78782
785.231	2707.71285
785.42	2513.45999
785.61	2743.59574
785.799	2376.15713
785.988	2547.25042
786.177	2456.43205
786.366	2621.15645
786.555	2593.70736
786.744	2817.46009
786.933	2678.15941
787.122	2745.70638
787.312	2460.65662
787.501	2635.93587
787.69	2367.70627
787.879	2581.03786
788.068	2348.69123
788.257	2450.09512
788.445	2418.40899
788.634	2600.04195
788.823	2323.33659
789.012	2661.2706
789.201	2331.7883
789.39	2352.91686
789.579	2251.491
789.768	2553.58579
789.957	2264.17041
790.145	2534.57935
790.334	2509.23598
790.523	2559.92106
790.712	2536.69123
790.9	2686.6035
791.089	2395.17098
791.278	2507.12396
791.467	2412.07148
791.655	2608.48789
791.844	2534.57935
792.033	2610.59935
792.221	2255.71751
792.41	2441.64572
792.599	2268.39681
792.787	2412.07148
792.976	2452.20744
793.164	2530.35557
793.353	2350.80405
793.541	2454.31975
793.73	2517.68395
793.918	2585.26107
794.107	2306.43273
794.295	2340.23984
794.484	2190.20267
794.672	2397.28358
794.861	2297.98057
795.049	2342.3527
795.238	2069.71924
795.426	2376.15713
795.614	2234.58461
795.803	2323.33659
795.991	2272.62317
796.179	2306.43273
796.368	2331.7883
796.556	2348.69123
796.744	2105.65552
796.932	2243.03788
797.121	2217.67765
797.309	2412.07148
797.497	2188.08915
797.685	2310.65875
797.874	2061.26334
798.062	2221.90444
798.25	2012.63973
798.438	2287.41515
798.626	2323.33659
798.814	2289.52825
799.002	2120.45219
799.19	2352.91686
799.378	2183.86208
799.566	2147.93069
799.755	2128.90725
799.943	2160.61263
800.131	2226.1312
800.318	2173.29427
800.506	2038.00902
800.694	2285.30204
800.882	2247.26446
801.07	2198.65666
801.258	2164.83988
801.446	2310.65875
801.634	2059.14934
801.822	2211.3374
802.01	2131.021
802.197	2204.99707
802.385	2177.52142
802.573	2120.45219
802.761	2126.7935
802.949	2162.72626
803.136	2126.7935
803.324	2175.40785
803.512	1972.46976
803.699	2162.72626
803.887	2164.83988
804.075	2219.79105
804.262	2116.22461
804.45	2342.3527
804.638	2078.17503
804.825	2435.30856
805.013	2181.74854
805.201	2346.5784
805.388	2105.65552
805.576	2306.43273
805.763	2120.45219
805.951	2306.43273
806.138	2213.45083
806.326	2126.7935
806.513	2059.14934
806.701	2031.66679
806.888	2156.38535
807.075	2441.64572
807.263	2103.54168
807.45	2190.20267
807.638	2336.01409
807.825	2297.98057
808.012	2145.81701
808.2	2253.60426
808.387	2048.57927
808.574	2319.11069
808.761	2274.73634
808.949	2251.491
809.136	2207.11052
809.323	2336.01409
809.51	2090.85849
809.698	2390.94575
809.885	2122.56596
810.072	2251.491
810.259	2120.45219
810.446	2173.29427
810.633	2141.58962
810.82	2221.90444
811.008	2217.67765
811.195	2217.67765
811.382	2230.35792
811.569	2397.28358
811.756	2230.35792
811.943	2238.81126
812.13	2173.29427
812.317	2399.39617
812.504	2209.22396
812.691	2526.13175
812.878	2306.43273
813.064	2477.55446
813.251	2071.8332
813.438	2443.75809
813.625	2262.0572
813.812	2306.43273
813.999	2141.58962
814.186	2327.56246
814.372	2190.20267
814.559	2209.22396
814.746	2038.00902
814.933	2150.04437
815.12	2035.89495
815.306	2272.62317
815.493	2154.2717
815.68	2154.2717
815.866	2171.18068
816.053	2331.7883
816.24	2190.20267
816.426	2319.11069
816.613	2166.95349
816.799	2416.2965
816.986	2211.3374
817.173	2329.67539
817.359	2048.57927
817.546	2196.54317
817.732	1942.8694
817.919	2359.25524
818.105	2048.57927
818.292	2107.76935
818.478	1991.49793
818.665	2234.58461
818.851	2067.60527
819.037	2249.37773
819.224	1870.97816
819.41	2365.59352
819.597	2137.36219
819.783	2128.90725
819.969	1957.66973
820.156	2289.52825
820.342	2103.54168
820.528	2395.17098
820.714	1966.12693
820.901	2169.06709
821.087	2054.92133
821.273	2137.36219
821.459	2063.37732
821.646	2103.54168
821.832	1976.69829
822.018	2297.98057
822.204	2086.6307
822.39	2196.54317
822.576	2012.63973
822.762	1866.74907
822.948	1896.35225
823.134	2152.15804
823.32	1989.38371
823.507	2253.60426
823.693	2044.35119
823.879	2023.21039
824.065	1976.69829
824.25	2213.45083
824.436	1976.69829
824.622	2166.95349
824.808	1894.23777
824.994	2145.81701
825.18	2035.89495
825.366	2069.71924
825.552	1894.23777
825.738	2215.56424
825.923	2204.99707
826.109	2224.01783
826.295	2061.26334
826.481	2029.5527
826.667	2071.8332
826.852	2145.81701
827.038	1961.89834
827.224	2215.56424
827.409	1972.46976
827.595	2211.3374
827.781	1854.06169
827.966	2162.72626
828.152	1733.52354
828.338	1953.44109
828.523	1782.16336
828.709	1959.78404
828.894	1769.4749
829.08	2044.35119
829.266	1959.78404
829.451	2063.37732
829.637	1849.83252
829.822	2002.06891
830.008	1752.55675
830.193	2016.86801
830.378	1746.21237
830.564	1767.36015
830.749	1731.40872
830.935	2088.7446
831.12	1706.03063
831.305	1955.55541
831.491	1587.59425
831.676	1894.23777
831.861	1818.11317
832.047	1978.81254
832.232	1775.81915
832.417	1947.09809
832.602	1596.05423
832.788	1883.6653
832.973	1807.53982
833.158	1765.24539
833.343	1746.21237
833.528	1972.46976
833.714	1767.36015
833.899	1919.61116
834.084	1761.01585
834.269	1913.26789
834.454	1750.44196
834.639	1765.24539
834.824	1653.1582
835.009	1868.86362
835.194	1655.27313
835.379	1925.95439
835.564	1651.04327
835.749	1807.53982
835.934	1655.27313
836.119	1828.6864
836.304	1598.16922
836.489	1809.6545
836.674	1610.85911
836.859	1735.63835
837.044	1706.03063
837.228	1722.94941
837.413	1579.13425
837.598	1809.6545
837.783	1680.65209
837.968	1653.1582
838.152	1621.43397
838.337	1826.57176
838.522	1513.56849
838.707	1615.08906
838.891	1697.57116
839.076	1657.38806
839.261	1462.80734
839.445	1636.23868
839.63	1458.57724
839.815	1572.78923
839.999	1532.60383
840.184	1756.78631
840.368	1519.91361
840.553	1769.4749
840.737	1502.99328
840.922	1612.97409
841.106	1534.71886
841.291	1640.46857
841.475	1456.46219
841.66	1638.35363
841.844	1494.53309
842.029	1608.74413
842.213	1388.78064
842.397	1426.85146
842.582	1302.06503
842.766	1443.77187
842.951	1325.32995
843.135	1494.53309
843.319	1500.87823
843.504	1418.39126
843.688	1502.99328
843.872	1462.80734
844.056	1450.11703
844.241	1623.54893
844.425	1363.40023
844.609	1536.83389
844.793	1291.49015
844.977	1321.09995
845.161	1232.27191
845.346	1443.77187
845.53	1242.84644
845.714	1477.6127
845.898	1266.11066
846.082	1452.23208
846.266	1354.94013
846.45	1443.77187
846.634	1274.57045
846.818	1388.78064
847.002	1221.69745
847.186	1354.94013
847.37	1268.2256
847.554	1450.11703
847.738	1329.55995
847.922	1367.63028
848.106	1363.40023
848.29	1382.43552
848.473	1293.60512
848.657	1388.78064
848.841	1367.63028
849.025	1376.09041
849.209	1217.46769
849.392	1323.21494
849.576	1318.98495
849.76	1259.76584
849.944	1170.9412
850.127	1206.89334
850.311	1175.17081
850.495	1397.2408
850.678	1215.35281
850.862	1232.27191
851.046	1312.63997
851.229	1310.52498
851.413	1113.84309
851.596	1384.55056
851.78	1333.78997
851.964	1276.68541
852.147	1115.95778
852.331	1221.69745
852.514	1037.71769
852.698	1206.89334
852.881	1037.71769
853.065	1232.27191
853.248	1041.9467
853.431	1166.71161
853.615	1173.056
853.798	1202.66362
853.982	1006.00091
854.165	1242.84644
854.348	1073.66495
854.532	1175.17081
854.715	1033.48871
854.898	1139.21965
855.081	1031.37423
855.265	1077.89414
855.448	1046.17573
855.631	1071.55036
855.814	944.6859
855.997	974.28554
856.181	1071.55036
856.364	1088.46722
856.547	923.54416
856.73	938.3433
856.913	902.40317
857.096	989.08586
857.279	982.74283
857.462	986.97151
857.645	898.17507
857.828	1046.17573
858.011	1027.14528
858.194	1018.68746
858.377	991.20022
858.56	908.74539
858.743	889.71896
858.926	1063.09206
859.109	1037.71769
859.292	936.22911
859.475	851.66808
859.658	1020.80191
859.841	877.03503
860.023	883.37696
860.206	900.28912
860.389	934.11494
860.572	936.22911
860.755	991.20022
860.937	912.97357
861.12	912.97357
861.303	912.97357
861.486	929.8866
861.668	868.57925
861.851	879.149
862.034	769.23442
862.216	940.45749
862.399	743.87318
862.581	946.80011
862.764	773.46144
862.947	860.12359
863.129	767.12093
863.312	784.02915
863.494	718.51345
863.677	877.03503
863.859	828.41614
864.042	819.96116
864.224	824.18863
864.406	826.30238
864.589	699.49467
864.771	830.52991
864.954	659.3469
865.136	756.55362
865.318	606.52744
865.501	745.98656
865.683	581.17689
865.865	665.68575
866.048	686.81598
866.23	788.2563
866.412	707.94735
866.594	691.04216
866.777	600.18963
866.959	699.49467
867.141	653.00817
867.323	750.21336
867.505	707.94735
867.687	807.27896
867.869	672.02469
868.052	640.33102
868.234	667.79872
868.416	602.30222
868.598	661.45984
868.78	733.30644
868.962	701.60782
869.144	826.30238
869.326	627.6543
869.508	731.19313
869.69	633.9926
869.872	784.02915
870.054	691.04216
870.236	703.72099
870.417	735.41977
870.599	682.58984
870.781	631.87982
870.963	682.58984
871.145	653.00817
871.327	686.81598
871.508	644.55668
871.69	720.6267
871.872	627.6543
872.054	786.14272
872.235	545.26687
872.417	602.30222
872.599	557.94055
872.78	676.25072
872.962	678.36375
873.144	661.45984
873.325	574.83955
873.507	640.33102
873.689	530.48154
873.87	726.96652
874.052	614.97804
874.233	684.7029
874.415	541.04242
874.596	686.81598
874.778	479.79427
874.959	610.75271
875.141	549.49137
875.322	718.51345
875.503	538.93021
875.685	633.9926
875.866	524.14517
876.048	623.42883
876.229	492.4653
876.41	530.48154
876.592	549.49137
876.773	650.89528
876.954	581.17689
877.136	674.1377
877.317	574.83955
877.498	724.85324
877.679	560.05288
877.86	693.15527
878.042	560.05288
878.223	699.49467
878.404	551.60365
878.585	623.42883
878.766	640.33102
878.947	737.53311
879.128	619.20341
879.309	581.17689
879.49	541.04242
879.672	640.33102
879.853	640.33102
880.034	695.26839
880.215	633.9926
880.396	733.30644
880.576	699.49467
880.757	710.06055
880.938	606.52744
881.119	676.25072
881.3	564.27757
881.481	737.53311
881.662	598.07705
881.843	722.73996
882.023	614.97804
882.204	655.12107
882.385	576.95198
882.566	614.97804
882.747	574.83955
882.927	633.9926
883.108	602.30222
883.289	610.75271
883.469	631.87982
883.65	731.19313
883.831	545.26687
884.011	642.44384
884.192	606.52744
884.373	760.78051
884.553	718.51345
884.734	703.72099
884.914	686.81598
885.095	726.96652
885.275	576.95198
885.456	682.58984
885.636	695.26839
885.817	855.89582
885.997	691.04216
886.178	710.06055
886.358	631.87982
886.538	775.57496
886.719	638.2182
886.899	870.69318
887.08	631.87982
887.26	686.81598
887.44	583.28936
887.621	688.92907
887.801	610.75271
887.981	657.23398
888.161	538.93021
888.342	688.92907
888.522	680.47679
888.702	633.9926
888.882	560.05288
889.062	779.80203
889.242	625.54156
889.423	754.44019
889.603	650.89528
889.783	619.20341
889.963	676.25072
890.143	777.68849
890.323	648.7824
890.503	716.40021
890.683	631.87982
890.863	665.68575
891.043	623.42883
891.223	735.41977
891.403	676.25072
891.583	758.66706
891.763	625.54156
891.943	669.9117
892.122	623.42883
892.302	657.23398
892.482	674.1377
892.662	707.94735
892.842	547.37911
893.022	604.41482
893.201	581.17689
893.381	636.1054
893.561	492.4653
893.741	653.00817
893.92	600.18963
894.1	724.85324
894.28	663.57279
894.459	701.60782
894.639	657.23398
894.819	543.15464
894.998	581.17689
895.178	541.04242
895.357	568.50232
895.537	672.02469
895.716	598.07705
895.896	587.51435
896.075	541.04242
896.255	572.72712
896.434	576.95198
896.614	593.85193
896.793	631.87982
896.973	524.14517
897.152	458.67709
897.331	526.25728
897.511	433.33849
897.69	606.52744
897.87	484.01789
898.049	507.24884
898.228	545.26687
898.407	509.36083
898.587	479.79427
898.766	524.14517
898.945	479.79427
899.124	553.71593
899.304	473.45896
899.483	574.83955
899.662	431.22705
899.841	555.82823
900.02	456.56545
900.199	566.38994
900.378	439.67293
900.557	515.69689
900.737	433.33849
900.916	503.0249
901.095	389.00146
901.274	429.11561
901.453	446.00751
901.632	469.23549
901.811	397.44606
901.989	496.6891
902.168	456.56545
902.347	507.24884
902.526	422.78141
902.705	515.69689
902.884	405.89092
903.063	530.48154
903.242	353.11491
903.42	429.11561
903.599	458.67709
903.778	403.77968
903.957	378.44609
904.135	467.12378
904.314	395.33488
904.493	340.45025
904.672	365.78019
904.85	382.66819
905.029	361.55837
905.207	348.89329
905.386	380.55713
905.565	344.67174
905.743	313.01233
905.922	370.00209
906.1	351.00409
906.279	395.33488
906.457	260.25571
906.636	382.66819
906.814	304.5705
906.993	346.78251
907.171	234.9367
907.35	344.67174
907.528	232.82691
907.707	310.90184
907.885	253.9257
908.063	239.15634
908.242	256.03568
908.42	253.9257
908.598	268.69598
908.777	247.59586
908.955	230.71714
909.133	249.70578
909.311	184.30718
909.49	215.94929
909.668	253.9257
909.846	285.57744
910.024	186.41651
910.202	220.16857
910.38	332.0075
910.559	201.1824
910.737	232.82691
910.915	429.11561
911.093	302.46008
911.271	218.05892
911.449	262.36575
911.627	260.25571
911.805	243.37606
911.983	348.89329
912.161	243.37606
912.339	277.13656
912.517	275.02639
912.695	342.56099
912.872	249.70578
913.05	298.23931
913.228	209.6205
913.406	319.34389
913.584	289.79799
913.762	264.47581
913.939	243.37606
914.117	332.0075
914.295	323.56502
914.473	329.89685
914.65	302.46008
914.828	256.03568
915.006	213.83967
915.184	230.71714
915.361	243.37606
915.539	296.12896
915.716	245.48595
915.894	294.01862
916.072	228.60739
916.249	234.9367
916.427	222.27825
916.604	218.05892
916.782	190.63523
916.959	310.90184
917.137	243.37606
917.314	321.45445
917.492	184.30718
917.669	230.71714
917.847	192.74463
918.024	268.69598
918.201	268.69598
918.379	211.73008
918.556	152.66967
918.733	220.16857
918.911	226.49765
919.088	251.81573
919.265	247.59586
919.442	184.30718
919.62	154.77869
919.797	182.19786
919.974	186.41651
920.151	260.25571
920.328	158.99679
920.506	161.10588
920.683	277.13656
920.86	237.04651
921.037	173.76082
921.214	186.41651
921.391	220.16857
921.568	249.70578
921.745	215.94929
921.922	192.74463
922.099	192.74463
922.276	264.47581
922.453	260.25571
922.63	209.6205
922.807	102.05957
922.984	205.40141
923.161	137.90711
923.338	209.6205
923.514	135.79826
923.691	167.43326
923.868	108.38515
924.045	150.56067
924.222	188.52586
924.399	175.87005
924.575	142.12488
924.752	133.68943
924.929	285.57744
925.105	262.36575
925.282	177.9793
925.459	253.9257
925.635	218.05892
925.812	194.85404
925.989	142.12488
926.165	177.9793
926.342	163.21498
926.518	196.96348
926.695	112.60231
926.871	239.15634
927.048	190.63523
927.224	133.68943
927.401	118.92822
927.577	158.99679
927.754	144.23379
927.93	165.32411
928.107	104.16807
928.283	66.2184
928.459	99.95108
928.636	70.43467
928.812	142.12488
928.988	154.77869
929.165	161.10588
929.341	133.68943
929.517	99.95108
929.693	57.78613
929.87	99.95108
930.046	129.47183
930.222	135.79826
930.398	133.68943
930.574	127.36306
930.751	199.07293
930.927	91.51738
931.103	68.32652
931.279	64.1103
931.455	91.51738
931.631	102.05957
931.807	213.83967
931.983	26.16843
932.159	146.34273
932.335	180.08857
932.511	78.86748
932.687	70.43467
932.863	93.62577
933.039	62.00222
933.215	110.49372
933.391	83.08402
933.566	87.30066
933.742	93.62577
933.918	93.62577
934.094	38.81488
934.27	40.92271
934.445	121.0369
934.621	26.16843
934.797	62.00222
934.973	11.4153
935.148	112.60231
935.324	123.1456
935.5	83.08402
935.675	57.78613
935.851	62.00222
936.027	24.06077
936.202	32.49155
936.378	57.78613
936.553	87.30066
936.729	28.27611
936.904	72.54284
937.08	26.16843
937.255	47.24632
937.431	17.73793
937.606	91.51738
937.782	40.92271
937.957	28.27611
938.133	83.08402
938.308	57.78613
938.483	28.27611
938.659	36.70708
938.834	129.47183
939.009	51.46218
939.185	95.73419
939.36	-28.62294
939.535	45.13842
939.71	76.75925
939.886	87.30066
940.061	125.25432
940.236	26.16843
940.411	40.92271
940.586	-72.86535
940.761	108.38515
940.937	-11.7658
941.112	24.06077
941.287	11.4153
941.462	83.08402
941.637	121.0369
941.812	40.92271
941.987	24.06077
942.162	13.52282
942.337	-77.07833
942.512	47.24632
942.687	26.16843
942.862	-18.08741
943.037	74.65103
943.212	24.06077
943.386	21.95313
943.561	-1.2293
943.736	34.5993
943.911	91.51738
944.086	24.06077
944.26	59.89417
944.435	11.4153
944.61	7.20034
944.785	2.98547
944.959	-5.44397
945.134	-18.08741
945.309	15.63036
945.483	-9.65855
945.658	-18.08741
945.833	110.49372
946.007	49.35423
946.182	7.20034
946.357	-1.2293
946.531	21.95313
946.706	47.24632
946.88	45.13842
947.055	74.65103
947.229	49.35423
947.404	47.24632
947.578	83.08402
947.752	24.06077
947.927	-34.94396
948.101	9.30781
948.276	-32.83698
948.45	13.52282
948.624	24.06077
948.799	32.49155
948.973	24.06077
949.147	66.2184
949.321	7.20034
949.496	-13.87303
949.67	-58.11912
949.844	-7.55127
950.018	7.20034
950.193	26.16843
950.367	-32.83698
950.541	53.57014
950.715	24.06077
950.889	87.30066
951.063	-41.26476
951.237	57.78613
951.411	17.73793
951.585	83.08402
951.759	34.5993
951.933	64.1103
952.107	36.70708
952.281	49.35423
952.455	2.98547
952.629	93.62577
952.803	49.35423
952.977	-37.05092
953.151	78.86748
953.325	-3.33665
953.499	28.27611
953.672	68.32652
953.846	19.84552
954.02	49.35423
954.194	34.5993
954.368	36.70708
954.541	-20.19457
954.715	36.70708
954.889	-28.62294
955.062	78.86748
955.236	66.2184
955.41	19.84552
955.583	57.78613
955.757	-39.15785
955.93	15.63036
956.104	17.73793
956.278	-79.18478
956.451	83.08402
956.625	36.70708
956.798	-26.51589
956.972	66.2184
957.145	43.03055
957.319	49.35423
957.492	47.24632
957.665	-9.65855
957.839	34.5993
958.012	53.57014
958.185	-70.75882
958.359	-15.98024
958.532	11.4153
958.705	24.06077
958.879	116.81956
959.052	5.09289
959.225	99.95108
959.398	-66.54569
959.572	13.52282
959.745	-18.08741
959.918	32.49155
960.091	59.89417
960.264	34.5993
960.438	32.49155
960.611	43.03055
960.784	125.25432
960.957	62.00222
961.13	66.2184
961.303	5.09289
961.476	-7.55127
961.649	2.98547
961.822	-18.08741
961.995	34.5993
962.168	80.97574
962.341	24.06077
962.514	9.30781
962.686	-3.33665
962.859	9.30781
963.032	9.30781
963.205	68.32652
963.378	0.87808
963.551	-18.08741
963.723	74.65103
963.896	85.19233
964.069	26.16843
964.242	-37.05092
964.414	9.30781
964.587	34.5993
964.76	51.46218
964.932	30.38382
965.105	45.13842
965.278	51.46218
965.45	66.2184
965.623	91.51738
965.795	-26.51589
965.968	74.65103
966.14	15.63036
966.313	-9.65855
966.485	93.62577
966.658	36.70708
966.83	7.20034
967.003	40.92271
967.175	7.20034
967.348	32.49155
967.52	40.92271
967.692	7.20034
967.865	24.06077
968.037	57.78613
968.209	66.2184
968.382	40.92271
968.554	-1.2293
968.726	74.65103
968.898	62.00222
969.071	45.13842
969.243	70.43467
969.415	-93.92922
969.587	7.20034
969.759	91.51738
969.932	66.2184
970.104	24.06077
970.276	-60.2258
970.448	47.24632
970.62	15.63036
970.792	-5.44397
970.964	40.92271
971.136	9.30781
971.308	7.20034
971.48	32.49155
971.652	11.4153
971.824	-56.01241
971.996	-5.44397
972.168	-1.2293
972.339	40.92271
972.511	40.92271
972.683	-7.55127
972.855	102.05957
973.027	-7.55127
973.199	-18.08741
973.37	-30.72997
973.542	40.92271
973.714	-30.72997
973.886	40.92271
974.057	53.57014
974.229	-9.65855
974.401	21.95313
974.572	45.13842
974.744	32.49155
974.915	0.87808
975.087	-28.62294
975.259	66.2184
975.43	-77.07833
975.602	-34.94396
975.773	-66.54569
975.945	36.70708
976.116	40.92271
976.288	32.49155
976.459	9.30781
976.63	49.35423
976.802	74.65103
976.973	68.32652
977.145	32.49155
977.316	30.38382
977.487	0.87808
977.659	-13.87303
977.83	-26.51589
978.001	-7.55127
978.172	28.27611
978.344	-30.72997
978.515	34.5993
978.686	-13.87303
978.857	-32.83698
979.028	15.63036
979.2	38.81488
979.371	-34.94396
979.542	83.08402
979.713	40.92271
979.884	24.06077
980.055	32.49155
980.226	15.63036
980.397	-3.33665
980.568	0.87808
980.739	59.89417
980.91	0.87808
981.081	28.27611
981.252	9.30781
981.423	19.84552
981.594	-28.62294
981.765	26.16843
981.936	-1.2293
982.106	0.87808
982.277	66.2184
982.448	15.63036
982.619	40.92271
982.79	-26.51589
982.96	-24.40881
983.131	0.87808
983.302	26.16843
983.472	76.75925
983.643	-60.2258
983.814	-32.83698
983.984	-15.98024
984.155	11.4153
984.326	13.52282
984.496	40.92271
984.667	72.54284
984.837	-28.62294
985.008	32.49155
985.178	-34.94396
985.349	74.65103
985.519	15.63036
985.69	11.4153
985.86	40.92271
986.031	43.03055
986.201	-28.62294
986.371	-11.7658
986.542	43.03055
986.712	57.78613
986.882	-34.94396
987.053	24.06077
987.223	15.63036
987.393	57.78613
987.563	-51.79892
987.734	-15.98024
987.904	28.27611
988.074	70.43467
988.244	-13.87303
988.414	-1.2293
988.585	28.27611
988.755	-45.4785
988.925	17.73793
989.095	-47.58533
989.265	-91.82295
989.435	-24.40881
989.605	76.75925
989.775	-32.83698
989.945	-7.55127
990.115	-41.26476
990.285	-7.55127
990.455	26.16843
990.625	15.63036
990.795	-26.51589
990.965	24.06077
991.134	0.87808
991.304	-18.08741
991.474	34.5993
991.644	-24.40881
991.814	43.03055
991.984	26.16843
992.153	-41.26476
992.323	-11.7658
992.493	7.20034
992.662	57.78613
992.832	15.63036
993.002	95.73419
993.171	21.95313
993.341	24.06077
993.511	-43.37164
993.68	40.92271
993.85	-49.69214
994.019	-30.72997
994.189	-13.87303
994.358	-47.58533
994.528	19.84552
994.697	-18.08741
994.867	-26.51589
995.036	17.73793
995.206	5.09289
995.375	-26.51589
995.544	-24.40881
995.714	28.27611
995.883	43.03055
996.052	30.38382
996.222	15.63036
996.391	24.06077
996.56	-5.44397
996.73	-28.62294
996.899	-43.37164
997.068	19.84552
997.237	-47.58533
997.406	85.19233
997.576	-1.2293
997.745	-5.44397
997.914	55.67812
998.083	-30.72997
998.252	83.08402
998.421	-1.2293
998.59	-13.87303
998.759	-49.69214
998.928	7.20034
999.097	-37.05092
999.266	43.03055
999.435	78.86748
999.604	32.49155
999.773	-7.55127
999.942	-30.72997
1000.111	-87.61033
1000.28	-30.72997
1000.448	-9.65855
1000.617	-60.2258
1000.786	-24.40881
1000.955	17.73793
1001.124	-9.65855
1001.292	15.63036
1001.461	-49.69214
1001.63	135.79826
1001.798	24.06077
1001.967	15.63036
1002.136	-49.69214
1002.304	-22.3017
1002.473	-32.83698
1002.642	-45.4785
1002.81	-13.87303
1002.979	24.06077
1003.147	66.2184
1003.316	2.98547
1003.484	-22.3017
1003.653	-22.3017
1003.821	45.13842
1003.99	-24.40881
1004.158	9.30781
1004.327	7.20034
1004.495	93.62577
1004.663	-15.98024
1004.832	53.57014
1005	-34.94396
1005.168	-66.54569
1005.337	57.78613
1005.505	-13.87303
1005.673	-20.19457
1005.842	-83.39761
1006.01	0.87808
1006.178	51.46218
1006.346	47.24632
1006.514	7.20034
1006.683	49.35423
1006.851	-24.40881
1007.019	11.4153
1007.187	87.30066
1007.355	57.78613
1007.523	-18.08741
1007.691	68.32652
1007.859	13.52282
1008.027	5.09289
1008.195	34.5993
1008.363	-9.65855
1008.531	-60.2258
1008.699	-15.98024
1008.867	-20.19457
1009.035	-1.2293
1009.203	66.2184
1009.37	17.73793
1009.538	9.30781
1009.706	7.20034
1009.874	-9.65855
1010.042	-49.69214
1010.209	2.98547
1010.377	34.5993
1010.545	-3.33665
1010.713	-7.55127
1010.88	-15.98024
1011.048	26.16843
1011.216	9.30781
1011.383	30.38382
1011.551	24.06077
1011.718	64.1103
1011.886	38.81488
1012.054	-11.7658
1012.221	17.73793
1012.389	95.73419
1012.556	21.95313
1012.724	-58.11912
1012.891	24.06077
1013.058	-24.40881
1013.226	28.27611
1013.393	66.2184
1013.561	-7.55127
1013.728	72.54284
1013.895	-41.26476
1014.063	26.16843
1014.23	-24.40881
1014.397	-9.65855
1014.565	-28.62294
1014.732	21.95313
1014.899	-51.79892
1015.066	24.06077
1015.233	15.63036
1015.401	-18.08741
1015.568	19.84552
1015.735	-72.86535
1015.902	-60.2258
1016.069	43.03055
1016.236	15.63036
1016.403	66.2184
1016.57	-13.87303
1016.737	-18.08741
1016.904	15.63036
1017.071	24.06077
1017.238	-22.3017
1017.405	74.65103
1017.572	7.20034
1017.739	0.87808
1017.906	-47.58533
1018.073	7.20034
1018.24	24.06077
1018.407	32.49155
1018.573	-1.2293
1018.74	-30.72997
1018.907	24.06077
1019.074	19.84552
1019.241	2.98547
1019.407	0.87808
1019.574	93.62577
1019.741	-1.2293
1019.907	-18.08741
1020.074	-49.69214
1020.241	17.73793
1020.407	-3.33665
1020.574	34.5993
1020.74	-1.2293
1020.907	-5.44397
1021.073	-26.51589
1021.24	-9.65855
1021.406	36.70708
1021.573	-24.40881
1021.739	15.63036
1021.906	21.95313
1022.072	-9.65855
1022.239	19.84552
1022.405	-13.87303
1022.571	-41.26476
1022.738	34.5993
1022.904	-24.40881
1023.07	70.43467
1023.237	-18.08741
1023.403	83.08402
1023.569	-5.44397
1023.735	-9.65855
1023.902	28.27611
1024.068	49.35423
1024.234	-1.2293
1024.4	89.40901
1024.566	53.57014
1024.732	40.92271
1024.898	-62.33245
1025.065	34.5993
1025.231	2.98547
1025.397	9.30781
1025.563	-26.51589
1025.729	-34.94396
1025.895	91.51738
1026.061	17.73793
1026.227	34.5993
1026.392	-56.01241
1026.558	66.2184
1026.724	-15.98024
1026.89	-9.65855
1027.056	-34.94396
1027.222	19.84552
1027.388	-32.83698
1027.553	26.16843
1027.719	-1.2293
1027.885	-32.83698
1028.051	-13.87303
1028.216	-24.40881
1028.382	43.03055
1028.548	49.35423
1028.713	-51.79892
1028.879	-77.07833
1029.045	34.5993
1029.21	-37.05092
1029.376	32.49155
1029.541	9.30781
1029.707	-24.40881
1029.873	15.63036
1030.038	7.20034
1030.204	-9.65855
1030.369	-24.40881
1030.534	-72.86535
1030.7	15.63036
1030.865	15.63036
1031.031	-15.98024
1031.196	32.49155
1031.361	-39.15785
1031.527	-9.65855
1031.692	15.63036
1031.857	-53.90568
1032.023	-3.33665
1032.188	34.5993
1032.353	15.63036
1032.518	-47.58533
1032.684	-18.08741
1032.849	-47.58533
1033.014	-37.05092
1033.179	-49.69214
1033.344	-5.44397
1033.509	-49.69214
1033.674	2.98547
1033.839	-15.98024
1034.004	5.09289
1034.17	-58.11912
1034.335	-11.7658
1034.5	-22.3017
1034.664	-13.87303
1034.829	28.27611
1034.994	-68.65227
1035.159	40.92271
1035.324	-9.65855
1035.489	-102.35404
1035.654	9.30781
1035.819	17.73793
1035.984	76.75925
1036.148	-37.05092
1036.313	-20.19457
1036.478	-22.3017
1036.643	9.30781
1036.807	-30.72997
1036.972	-34.94396
1037.137	-43.37164
1037.301	-18.08741
1037.466	-49.69214
1037.631	-26.51589
1037.795	-9.65855
1037.96	-13.87303
1038.124	38.81488
1038.289	-60.2258
1038.454	-15.98024
1038.618	-30.72997
1038.783	-1.2293
1038.947	-34.94396
1039.111	-89.71665
1039.276	-41.26476
1039.44	-1.2293
1039.605	5.09289
1039.769	19.84552
1039.933	-18.08741
1040.098	-70.75882
1040.262	13.52282
1040.426	-13.87303
1040.591	7.20034
1040.755	9.30781
1040.919	-1.2293
1041.083	-68.65227
1041.248	-32.83698
1041.412	24.06077
1041.576	13.52282
1041.74	45.13842
1041.904	-77.07833
1042.068	-22.3017
1042.232	76.75925
1042.397	-24.40881
1042.561	53.57014
1042.725	-9.65855
1042.889	83.08402
1043.053	-20.19457
1043.217	-24.40881
1043.381	38.81488
1043.544	-15.98024
1043.708	-34.94396
1043.872	19.84552
1044.036	-30.72997
1044.2	66.2184
1044.364	-81.29121
1044.528	-22.3017
1044.691	-18.08741
1044.855	-34.94396
1045.019	-49.69214
1045.183	17.73793
1045.346	76.75925
1045.51	-66.54569
1045.674	11.4153
1045.837	28.27611
1046.001	-49.69214
1046.165	-34.94396
1046.328	-5.44397
1046.492	11.4153
1046.655	-5.44397
1046.819	-39.15785
1046.983	-22.3017
1047.146	57.78613
1047.31	-11.7658
1047.473	51.46218
1047.636	-47.58533
1047.8	49.35423
1047.963	7.20034
1048.127	2.98547
1048.29	-60.2258
