Data from mixed_try1_USB4F045381__31__00179.txt Node

Date: Thu Apr 03 20:13:14 EDT 2025
User: mmckonesweet
Spectrometer: USB4F04538
Trigger mode: 4
Integration Time (sec): 2.700000E-3
Scans to average: 1
Electric dark correction enabled: true
Nonlinearity correction enabled: true
Boxcar width: 0
XAxis mode: Wavelengths
Number of Pixels in Spectrum: 3648
>>>>>Begin Spectral Data<<<<<
345.52	22.83131
345.736	22.83131
345.952	22.83131
346.168	39.69314
346.384	33.36978
346.6	-53.02787
346.816	-69.8811
347.032	-10.88778
347.248	33.36978
347.464	-25.63794
347.68	22.83131
347.896	18.61609
348.112	-69.8811
348.328	14.40096
348.544	136.67694
348.76	-19.31659
348.975	22.83131
349.191	-53.02787
349.407	64.98867
349.623	-10.88778
349.839	67.09678
350.055	67.09678
350.27	-0.35123
350.486	-8.78052
350.702	24.93896
350.918	-15.10224
351.133	-36.17303
351.349	-23.53085
351.565	31.26204
351.781	43.90883
351.996	-69.8811
352.212	-53.02787
352.428	-40.38689
352.644	-19.31659
352.859	27.04663
353.075	64.98867
353.291	119.80683
353.506	18.61609
353.722	-86.73269
353.938	39.69314
354.153	18.61609
354.369	10.18593
354.584	18.61609
354.8	-34.06606
355.016	37.58533
355.231	56.55646
355.447	10.18593
355.662	5.97099
355.878	56.55646
356.093	31.26204
356.309	46.01671
356.524	5.97099
356.74	31.26204
356.955	27.04663
357.171	75.52945
357.386	27.04663
357.602	-31.95906
357.817	-40.38689
358.033	39.69314
358.248	54.44846
358.464	77.63768
358.679	-15.10224
358.895	52.34049
359.11	5.97099
359.325	22.83131
359.541	8.07845
359.756	-27.74501
359.972	64.98867
360.187	-21.42373
360.402	20.72369
360.618	50.23254
360.833	-44.60065
361.048	5.97099
361.264	43.90883
361.479	31.26204
361.694	5.97099
361.909	43.90883
362.125	52.34049
362.34	67.09678
362.555	-6.67324
362.77	-25.63794
362.986	33.36978
363.201	43.90883
363.416	-2.45859
363.631	-25.63794
363.847	-10.88778
364.062	8.07845
364.277	10.18593
364.492	69.20492
364.707	52.34049
364.922	56.55646
365.138	-34.06606
365.353	-25.63794
365.568	-15.10224
365.783	-50.9211
365.998	56.55646
366.213	58.66448
366.428	14.40096
366.643	64.98867
366.858	10.18593
367.073	-4.56592
367.288	-59.34802
367.503	33.36978
367.718	90.28749
367.933	75.52945
368.148	62.88058
368.363	41.80097
368.578	43.90883
368.793	-29.85205
369.008	58.66448
369.223	39.69314
369.438	100.82962
369.653	20.72369
369.868	35.47754
370.083	39.69314
370.298	18.61609
370.513	69.20492
370.728	22.83131
370.943	10.18593
371.157	-36.17303
371.372	-25.63794
371.587	5.97099
371.802	56.55646
372.017	100.82962
372.232	-48.81431
372.446	14.40096
372.661	20.72369
372.876	41.80097
373.091	94.50427
373.306	-40.38689
373.52	8.07845
373.735	-27.74501
373.95	10.18593
374.165	-53.02787
374.379	31.26204
374.594	46.01671
374.809	113.4809
375.023	31.26204
375.238	-2.45859
375.453	-53.02787
375.667	22.83131
375.882	27.04663
376.097	-44.60065
376.311	39.69314
376.526	22.83131
376.741	31.26204
376.955	60.77252
377.17	50.23254
377.384	-19.31659
377.599	-57.24133
377.813	-0.35123
378.028	18.61609
378.242	46.01671
378.457	75.52945
378.672	1.75615
378.886	5.97099
379.101	50.23254
379.315	48.12461
379.53	31.26204
379.744	16.50851
379.958	31.26204
380.173	39.69314
380.387	-0.35123
380.602	58.66448
380.816	56.55646
381.031	14.40096
381.245	48.12461
381.459	20.72369
381.674	39.69314
381.888	-36.17303
382.103	-21.42373
382.317	37.58533
382.531	-17.20943
382.746	-42.49378
382.96	60.77252
383.174	81.85419
383.388	37.58533
383.603	64.98867
383.817	-21.42373
384.031	22.83131
384.246	22.83131
384.46	81.85419
384.674	10.18593
384.888	-2.45859
385.103	-31.95906
385.317	31.26204
385.531	-27.74501
385.745	18.61609
385.959	88.17913
386.174	-6.67324
386.388	56.55646
386.602	-19.31659
386.816	-17.20943
387.03	48.12461
387.244	54.44846
387.458	39.69314
387.672	81.85419
387.887	35.47754
388.101	-8.78052
388.315	39.69314
388.529	29.15432
388.743	69.20492
388.957	90.28749
389.171	100.82962
389.385	31.26204
389.599	64.98867
389.813	-10.88778
390.027	-34.06606
390.241	5.97099
390.455	67.09678
390.669	-8.78052
390.883	-10.88778
391.097	90.28749
391.311	67.09678
391.525	29.15432
391.738	20.72369
391.952	14.40096
392.166	24.93896
392.38	92.39587
392.594	98.72115
392.808	12.29343
393.022	24.93896
393.236	5.97099
393.449	35.47754
393.663	1.75615
393.877	16.50851
394.091	71.31307
394.305	-27.74501
394.518	35.47754
394.732	-27.74501
394.946	22.83131
395.16	73.42125
395.373	1.75615
395.587	79.74592
395.801	73.42125
396.015	1.75615
396.228	27.04663
396.442	-57.24133
396.656	31.26204
396.869	35.47754
397.083	24.93896
397.297	8.07845
397.51	39.69314
397.724	33.36978
397.938	73.42125
398.151	69.20492
398.365	22.83131
398.578	52.34049
398.792	-2.45859
399.005	22.83131
399.219	83.96248
399.433	14.40096
399.646	33.36978
399.86	-31.95906
400.073	39.69314
400.287	14.40096
400.5	14.40096
400.714	14.40096
400.927	60.77252
401.141	48.12461
401.354	67.09678
401.567	24.93896
401.781	3.86356
401.994	-2.45859
402.208	22.83131
402.421	67.09678
402.635	22.83131
402.848	-17.20943
403.061	-34.06606
403.275	48.12461
403.488	-10.88778
403.701	8.07845
403.915	1.75615
404.128	14.40096
404.341	31.26204
404.555	31.26204
404.768	24.93896
404.981	54.44846
405.195	22.83131
405.408	22.83131
405.621	-10.88778
405.834	-2.45859
406.048	81.85419
406.261	8.07845
406.474	43.90883
406.687	16.50851
406.9	27.04663
407.114	5.97099
407.327	64.98867
407.54	48.12461
407.753	77.63768
407.966	-17.20943
408.179	41.80097
408.392	-69.8811
408.605	31.26204
408.819	69.20492
409.032	8.07845
409.245	-19.31659
409.458	-40.38689
409.671	-2.45859
409.884	-17.20943
410.097	1.75615
410.31	-2.45859
410.523	39.69314
410.736	31.26204
410.949	81.85419
411.162	60.77252
411.375	14.40096
411.588	16.50851
411.801	73.42125
412.014	-8.78052
412.227	60.77252
412.44	-2.45859
412.653	58.66448
412.865	-6.67324
413.078	-10.88778
413.291	-44.60065
413.504	27.04663
413.717	109.26371
413.93	-0.35123
414.143	56.55646
414.356	18.61609
414.568	22.83131
414.781	35.47754
414.994	-19.31659
415.207	-25.63794
415.42	94.50427
415.632	136.67694
415.845	-10.88778
416.058	35.47754
416.271	71.31307
416.483	43.90883
416.696	31.26204
416.909	35.47754
417.121	54.44846
417.334	31.26204
417.547	-10.88778
417.759	69.20492
417.972	14.40096
418.185	29.15432
418.397	-29.85205
418.61	62.88058
418.823	-19.31659
419.035	56.55646
419.248	33.36978
419.46	48.12461
419.673	27.04663
419.885	31.26204
420.098	-40.38689
420.311	-40.38689
420.523	31.26204
420.736	56.55646
420.948	48.12461
421.161	58.66448
421.373	90.28749
421.586	-42.49378
421.798	67.09678
422.01	1.75615
422.223	-0.35123
422.435	33.36978
422.648	56.55646
422.86	64.98867
423.073	67.09678
423.285	81.85419
423.497	41.80097
423.71	22.83131
423.922	-0.35123
424.134	64.98867
424.347	-78.3071
424.559	-6.67324
424.771	8.07845
424.984	16.50851
425.196	5.97099
425.408	94.50427
425.621	5.97099
425.833	60.77252
426.045	8.07845
426.257	35.47754
426.47	37.58533
426.682	73.42125
426.894	22.83131
427.106	69.20492
427.318	3.86356
427.531	56.55646
427.743	81.85419
427.955	46.01671
428.167	69.20492
428.379	-44.60065
428.591	69.20492
428.804	67.09678
429.016	16.50851
429.228	73.42125
429.44	-10.88778
429.652	1.75615
429.864	48.12461
430.076	41.80097
430.288	109.26371
430.5	77.63768
430.712	58.66448
430.924	90.28749
431.136	31.26204
431.348	98.72115
431.56	79.74592
431.772	62.88058
431.984	14.40096
432.196	35.47754
432.408	5.97099
432.62	50.23254
432.832	90.28749
433.044	-23.53085
433.256	81.85419
433.468	81.85419
433.679	16.50851
433.891	8.07845
434.103	56.55646
434.315	115.58952
434.527	14.40096
434.739	33.36978
434.95	58.66448
435.162	24.93896
435.374	73.42125
435.586	52.34049
435.798	-19.31659
436.009	119.80683
436.221	14.40096
436.433	111.37229
436.645	73.42125
436.856	1.75615
437.068	86.0708
437.28	52.34049
437.491	48.12461
437.703	-17.20943
437.915	-6.67324
438.126	100.82962
438.338	31.26204
438.55	67.09678
438.761	48.12461
438.973	92.39587
439.184	-42.49378
439.396	29.15432
439.608	41.80097
439.819	-2.45859
440.031	24.93896
440.242	41.80097
440.454	-10.88778
440.665	31.26204
440.877	22.83131
441.088	62.88058
441.3	62.88058
441.511	107.15516
441.723	39.69314
441.934	39.69314
442.146	88.17913
442.357	43.90883
442.569	71.31307
442.78	52.34049
442.991	64.98867
443.203	37.58533
443.414	86.0708
443.626	41.80097
443.837	54.44846
444.048	107.15516
444.26	100.82962
444.471	83.96248
444.682	24.93896
444.894	-19.31659
445.105	52.34049
445.316	-0.35123
445.528	111.37229
445.739	128.24171
445.95	43.90883
446.161	94.50427
446.373	33.36978
446.584	-4.56592
446.795	56.55646
447.006	92.39587
447.217	48.12461
447.429	-46.70749
447.64	27.04663
447.851	-36.17303
448.062	8.07845
448.273	105.04662
448.484	10.18593
448.695	79.74592
448.907	22.83131
449.118	50.23254
449.329	58.66448
449.54	-4.56592
449.751	92.39587
449.962	43.90883
450.173	46.01671
450.384	35.47754
450.595	22.83131
450.806	69.20492
451.017	50.23254
451.228	50.23254
451.439	31.26204
451.65	58.66448
451.861	18.61609
452.072	35.47754
452.283	96.6127
452.494	86.0708
452.705	58.66448
452.915	48.12461
453.126	90.28749
453.337	24.93896
453.548	98.72115
453.759	54.44846
453.97	149.33043
454.181	100.82962
454.391	39.69314
454.602	52.34049
454.813	22.83131
455.024	35.47754
455.235	124.02423
455.445	90.28749
455.656	75.52945
455.867	73.42125
456.078	67.09678
456.288	58.66448
456.499	98.72115
456.71	56.55646
456.921	90.28749
457.131	58.66448
457.342	29.15432
457.553	8.07845
457.763	79.74592
457.974	100.82962
458.184	14.40096
458.395	77.63768
458.606	83.96248
458.816	113.4809
459.027	60.77252
459.237	64.98867
459.448	54.44846
459.659	124.02423
459.869	81.85419
460.08	64.98867
460.29	56.55646
460.501	149.33043
460.711	22.83131
460.922	128.24171
461.132	100.82962
461.343	60.77252
461.553	149.33043
461.764	90.28749
461.974	54.44846
462.184	111.37229
462.395	115.58952
462.605	149.33043
462.816	121.91552
463.026	126.13296
463.236	102.93811
463.447	79.74592
463.657	64.98867
463.867	183.07674
464.078	132.45929
464.288	94.50427
464.498	117.69816
464.709	170.42125
464.919	88.17913
465.129	132.45929
465.339	107.15516
465.55	134.5681
465.76	98.72115
465.97	113.4809
466.18	121.91552
466.391	124.02423
466.601	67.09678
466.811	69.20492
467.021	69.20492
467.231	246.36508
467.441	168.31207
467.651	161.98467
467.862	134.5681
468.072	174.63967
468.282	157.7665
468.492	174.63967
468.702	263.24494
468.912	143.00359
469.122	176.7489
469.332	183.07674
469.542	195.73297
469.752	138.7858
469.962	191.51415
470.172	267.46509
470.382	223.15728
470.592	157.7665
470.802	208.38993
471.012	216.8283
471.222	183.07674
471.432	218.93794
471.642	305.44984
471.852	267.46509
472.062	246.36508
472.272	267.46509
472.482	358.21613
472.691	278.01581
472.901	303.33942
473.111	379.32569
473.321	341.32972
473.531	273.79547
473.741	275.90563
473.95	309.67074
474.16	292.78759
474.37	423.66115
474.58	330.77629
474.79	372.99264
474.999	472.22711
475.209	387.76998
475.419	438.44123
475.628	362.43791
475.838	394.10337
476.048	358.21613
476.258	423.66115
476.467	622.19641
476.677	514.46487
476.886	487.00965
477.096	571.49488
477.306	571.49488
477.515	554.59606
477.725	598.95729
477.935	527.13733
478.144	630.64738
478.354	588.39456
478.563	734.18699
478.773	556.70836
478.982	729.96036
479.192	732.07367
479.401	753.20736
479.611	681.35723
479.82	748.98054
480.03	791.25055
480.239	871.57399
480.449	903.28403
480.658	913.85444
480.868	888.48578
481.077	896.94188
481.287	962.48076
481.496	1015.3396
481.705	869.46005
481.915	975.1665
482.124	1146.44503
482.333	1154.90408
482.543	1028.02631
482.752	1224.69354
482.961	1154.90408
483.171	1207.77453
483.38	1226.80843
483.589	1389.6619
483.799	1171.82237
484.008	1478.49398
484.217	1298.71631
484.426	1370.62658
484.636	1402.35216
484.845	1527.13999
485.054	1406.58225
485.263	1618.08527
485.472	1518.67984
485.682	1527.13999
485.891	1563.09543
486.1	1611.74035
486.309	1622.3152
486.518	1806.30626
486.727	1662.49913
486.936	1878.2028
487.146	1829.5675
487.355	1909.92003
487.564	1772.4708
487.773	2034.66174
487.982	1886.66085
488.191	2093.85316
488.4	1882.43183
488.609	2104.42245
488.818	2140.35662
489.027	2193.1968
489.236	2178.40207
489.445	2284.06939
489.654	2153.03873
489.863	2339.00733
490.072	2153.03873
490.281	2459.42446
490.49	2322.10404
490.698	2300.97406
490.907	2332.66867
491.116	2478.43453
491.325	2520.6759
491.534	2482.65887
491.743	2229.12513
491.952	2529.12363
492.16	2567.1361
492.369	2605.14473
492.578	2626.25894
492.787	2674.81689
492.996	2609.36767
493.204	2862.64972
493.413	2702.25972
493.622	2862.64972
493.831	2738.14319
494.039	2949.1423
494.248	3006.0873
494.457	2989.21585
494.665	2980.77976
494.874	3084.10497
495.083	3060.91274
495.291	3273.78636
495.5	3162.10109
495.709	3128.37573
495.917	2925.93938
496.126	3128.37573
496.335	3191.60737
496.543	3309.59996
496.752	3098.86266
496.96	3402.27081
497.169	3347.51483
497.377	3497.01243
497.586	3355.9396
497.794	3570.67495
498.003	3419.11641
498.211	3475.96188
498.42	3301.17367
498.628	3755.78207
498.837	3511.74673
499.045	3892.41258
499.254	3450.69884
499.462	3823.05675
499.671	3705.31297
499.879	3873.4995
500.087	3749.47404
500.296	4016.35778
500.504	3738.96028
500.713	3869.29638
500.921	3993.25472
501.129	4033.15844
501.338	3818.85267
501.546	4091.95034
501.754	3793.62655
501.962	4094.04975
502.171	3789.42192
502.379	4186.40308
502.587	4001.65612
502.795	4125.5384
503.004	4163.31856
503.212	4272.42275
503.42	4192.69841
503.628	4379.37252
503.837	4125.5384
504.045	4278.71546
504.253	4190.59999
504.461	4433.87423
504.669	4297.59245
504.877	4444.35363
505.085	4505.12333
505.294	4461.11953
505.502	4379.37252
505.71	4704.06577
505.918	4479.97949
506.126	4639.16988
506.334	4435.97015
506.542	4651.73206
506.75	4429.68231
506.958	4781.49378
507.166	4645.45107
507.374	4973.88237
507.582	4695.69332
507.79	4823.33383
507.998	4691.50696
508.206	5097.15961
508.414	4879.80345
508.622	5019.85956
508.83	4858.89071
509.037	4892.34999
509.245	4796.13883
509.453	4946.70879
509.661	4869.34737
509.869	4975.97249
510.077	4898.62295
510.285	5011.5009
510.492	5047.02265
510.7	5040.75459
510.908	4925.80339
511.116	5072.0928
511.324	5065.82557
511.531	5218.2687
511.739	5061.64731
511.947	5297.57351
512.155	5191.13037
512.362	5431.06306
512.57	5166.07611
512.778	5383.10131
512.985	5593.62327
513.193	5326.78255
513.401	5335.12715
513.608	5406.04109
513.816	5447.74249
514.024	5347.64335
514.231	5368.50179
514.439	5601.95582
514.646	5683.17848
514.854	5585.29033
515.061	5435.23305
515.269	5706.08095
515.477	5597.78959
515.684	5822.63106
515.892	5618.61981
516.099	5964.05669
516.307	5712.32658
516.514	5853.83727
516.722	5722.7355
516.929	5654.02576
517.136	5785.17659
517.344	5839.27503
517.551	5647.77815
517.759	5924.55169
517.966	5772.69008
518.173	6016.024
518.381	5793.50047
518.588	6063.82092
518.796	5947.42404
519.003	6281.86632
519.21	5991.08153
519.418	6209.21326
519.625	5907.91545
519.832	6121.99168
520.039	5945.34486
520.247	6225.82221
520.454	6140.6855
520.661	6271.48907
520.868	6234.12612
521.076	6437.45501
521.283	6350.34151
521.49	6366.93773
521.697	6364.86328
521.904	6520.3821
522.112	6398.05161
522.319	6462.33704
522.526	6364.86328
522.733	6719.25613
522.94	6420.86513
523.147	6458.19026
523.354	6449.89644
523.561	6597.05664
523.768	6744.10048
523.975	6648.84587
524.183	6785.50041
524.39	6762.73158
524.597	6675.77058
524.804	6791.70961
525.011	6721.32662
525.218	6768.94153
525.425	6837.23747
525.632	6868.27287
525.838	6785.50041
526.045	6946.87305
526.252	6729.60835
526.459	6911.71386
526.666	7004.76809
526.873	6928.26018
527.08	7091.5776
527.287	7132.9016
527.494	6870.34172
527.701	7256.82024
527.907	7087.44471
528.114	7260.94949
528.321	7178.3477
528.528	7477.61214
528.735	7149.4287
528.941	7267.1432
529.148	7070.91226
529.355	7341.45229
529.562	6975.82278
529.768	7403.35487
529.975	7209.32752
530.182	7446.67502
530.388	7203.13195
530.595	7423.98471
530.802	7380.65954
531.008	7537.41014
531.215	7512.66833
531.422	7591.00678
531.628	7512.66833
531.835	7743.47239
532.042	7799.073
532.248	7784.65949
532.455	7603.37319
532.661	7801.13199
532.868	7644.589
533.074	7895.82303
533.281	7916.40225
533.487	7965.78398
533.694	7549.77988
533.9	7978.12757
534.107	7564.21027
534.313	7986.35622
534.52	8023.38111
534.726	8074.79367
534.933	8048.06072
535.139	8048.06072
535.345	7996.64157
535.552	8187.85703
535.758	8107.69108
535.965	8204.29757
536.171	8159.083
536.377	8124.13786
536.584	7959.61191
536.79	8524.63803
536.996	8335.77649
537.203	8331.66899
537.409	8341.9376
537.615	8483.59498
537.821	8288.53552
538.028	8354.25928
538.234	8212.51737
538.44	8569.77664
538.646	8343.99126
538.853	8600.54774
539.059	8278.26437
539.265	8450.75504
539.471	8491.8042
539.677	8600.54774
539.883	8413.80425
540.09	8783.03689
540.296	8733.8407
540.502	8713.33918
540.708	8619.00837
540.914	8785.0865
541.12	8778.93761
541.326	9075.94971
541.532	8793.28477
541.738	9067.76124
541.944	8838.37007
542.15	9080.04384
542.356	8951.04525
542.562	9352.15057
542.768	8770.73883
542.974	9172.14355
543.18	9100.51345
543.386	9202.83576
543.592	9507.50846
543.798	9215.11158
544.004	9096.41967
544.21	9249.88977
544.415	9159.86559
544.621	9527.94336
544.827	9245.79847
545.033	9482.98447
545.239	9348.06093
545.445	9630.09414
545.651	9276.48158
545.856	9370.55312
546.062	9589.23855
546.268	9650.5196
546.474	9352.15057
546.679	9540.20353
546.885	9388.95434
547.091	9670.94351
547.297	9532.03015
547.502	9721.99654
547.708	9411.44293
547.914	9640.30707
548.119	9525.89994
548.325	9799.57888
548.531	9364.41908
548.736	9540.20353
548.942	9644.39213
549.147	9777.12308
549.353	9628.05151
549.559	9703.61855
549.764	9793.45476
549.97	9628.05151
550.175	9724.03846
550.381	10227.94204
550.586	9764.8737
550.792	10113.77319
550.997	9777.12308
551.203	9985.28068
551.408	9724.03846
551.614	9981.20062
551.819	9773.04001
552.025	10113.77319
552.23	9744.45684
552.435	10195.32678
552.641	10315.57833
552.846	10358.36844
553.052	10291.12419
553.257	10219.78855
553.462	10136.20264
553.668	10209.59638
553.873	10264.63003
554.078	10417.45
554.283	10272.78232
554.489	10366.51828
554.694	10433.74643
554.899	10421.52418
555.105	10600.73761
555.31	10474.48388
555.515	10382.81732
555.72	10653.66843
555.925	10303.3515
556.131	10623.13244
556.336	10617.0249
556.541	11062.59412
556.746	10560.01589
556.951	10733.0492
557.156	10500.96046
557.361	10523.36205
557.567	10761.54039
557.772	10865.31019
557.977	10545.7621
558.182	10663.84649
558.387	10490.77742
558.592	10747.29509
558.797	10694.37882
559.002	10863.27578
559.207	10842.93104
559.412	10969.04995
559.617	10645.52577
559.822	10899.8934
560.027	10792.06409
560.232	11052.4274
560.437	10661.8109
560.642	11078.8603
560.847	10847.00008
561.051	11143.91809
561.256	10830.72364
561.461	11160.18083
561.666	10926.33716
561.871	11164.24641
562.076	11131.72059
562.281	11074.79382
562.485	10899.8934
562.69	11265.87227
562.895	10922.26901
563.1	11243.51681
563.305	11044.29383
563.509	11357.31361
563.714	11178.47561
563.919	11332.93124
564.123	11444.67204
564.328	11068.69402
564.533	11235.38724
564.737	11284.16218
564.942	11143.91809
565.147	11408.1056
565.351	11611.21337
565.556	11467.01665
565.761	11596.99888
565.965	11690.40025
566.17	11521.85761
566.374	11377.63114
566.579	11479.20413
566.784	11422.32626
566.988	11454.82883
567.193	11603.09086
567.397	11373.56772
567.602	11710.70238
567.806	11255.71085
568.011	11735.06377
568.215	11743.18396
568.42	11755.36397
568.624	11885.26489
568.828	11739.12388
569.033	11548.26005
569.237	11684.30944
569.442	11572.63013
569.646	11670.09723
569.85	11475.14168
570.055	11869.02917
570.259	11657.91499
570.463	11836.55611
570.668	11692.4305
570.872	12075.99572
571.076	11733.03371
571.281	11972.52288
571.485	11838.58574
571.689	11942.08576
571.893	11877.14709
572.098	12240.29404
572.302	11722.88324
572.506	12432.92951
572.71	12043.53585
572.914	12211.90028
573.119	11846.70417
573.323	11907.58814
573.527	11946.14415
573.731	12011.07399
573.935	12205.81571
574.139	12049.62223
574.343	11846.70417
574.547	12461.3127
574.751	12315.32794
574.955	12244.35018
575.159	12240.29404
575.364	12390.35228
575.568	12191.61814
575.772	12288.96579
575.976	12082.08173
576.18	12209.8721
576.383	12386.29715
576.587	12495.77628
576.791	12199.73108
576.995	12432.92951
577.199	12363.99345
577.403	12445.09389
577.607	12461.3127
577.811	12710.62585
578.015	12349.79975
578.219	12404.54502
578.422	12599.15593
578.626	12635.639
578.83	12453.20335
579.034	12696.43977
579.238	12526.18377
579.442	12716.70551
579.645	12672.1201
579.849	12807.89422
580.053	12842.34032
580.257	12761.2881
580.46	12759.26168
580.664	12888.94137
580.868	12923.38381
581.071	13038.85636
581.275	12828.15683
581.479	12692.38655
581.682	12684.28004
581.886	12838.28792
582.09	12771.42012
582.293	12927.43576
582.497	12629.55862
582.7	12917.30584
582.904	12783.57835
583.107	12941.61742
583.311	12753.18238
583.515	13158.36376
583.718	12988.21253
583.922	13048.98476
584.125	12974.0317
584.329	13202.92168
584.532	13020.62494
584.735	13211.02288
584.939	12903.12374
585.142	13358.85771
585.346	13348.73275
585.549	13269.75452
585.753	13283.93057
585.956	13429.72961
586.159	12955.79883
586.363	13360.88269
586.566	13243.427
586.769	13198.87105
586.973	13223.17456
587.176	13421.63021
587.379	13328.48253
587.582	13373.03248
587.786	13346.70775
587.989	13618.02388
588.192	13391.2569
588.395	13466.17616
588.599	13476.29998
588.802	13644.34215
589.005	13362.90767
589.208	13605.8768
589.411	13387.20706
589.615	13283.93057
589.818	13648.39106
590.021	13575.50854
590.224	13856.89309
590.427	13826.5307
590.63	13684.8307
590.833	13889.27894
591.036	13733.41525
591.239	14083.58008
591.442	13798.19188
591.645	13433.77929
591.848	13796.16766
592.051	13864.98962
592.254	13541.09023
592.457	13674.70868
592.66	13802.24032
592.863	14073.46078
593.066	13840.69989
593.269	13925.71219
593.472	14097.747
593.675	14275.83663
593.878	13867.01374
594.081	14237.38676
594.284	14071.43691
594.486	14231.31567
594.689	14073.46078
594.892	14120.00908
595.095	14350.71081
595.298	14372.97025
595.5	14342.61642
595.703	14356.78159
595.906	14275.83663
596.109	14431.65332
596.311	14247.50521
596.514	14534.85162
596.717	14294.04949
596.92	14660.30401
597.122	14285.9549
597.325	14437.72391
597.528	14393.20594
597.73	14591.50808
597.933	14227.26827
598.136	14534.85162
598.338	14332.49839
598.541	14597.57836
598.743	14510.56998
598.946	14631.97642
599.148	14721.00534
599.351	14534.85162
599.554	14822.17255
599.756	14731.12215
599.959	14729.09879
600.161	14714.93525
600.363	14494.38212
600.566	14801.93926
600.768	15030.57232
600.971	14793.84592
601.173	14801.93926
601.376	14834.31249
601.578	14814.07924
601.78	14919.2915
601.983	14884.89535
602.185	14996.17654
602.388	14927.38469
602.59	15143.87565
602.792	15073.06113
602.995	15040.68871
603.197	14812.05591
603.399	14803.96259
603.601	14840.38245
603.804	14996.17654
604.006	15158.03855
604.208	14593.5315
604.41	14631.97642
604.613	15036.64216
604.815	15206.59704
605.017	15172.20144
605.219	14615.78914
605.421	14975.94369
605.623	14984.03684
605.826	15253.13231
606.028	14785.75257
606.23	15054.85165
606.432	14988.08341
606.634	15210.64359
606.836	14779.68255
607.038	15127.68948
607.24	15113.52658
607.442	15218.73667
607.644	14961.78067
607.846	15115.54986
608.048	15113.52658
608.25	15226.82976
608.452	15210.64359
608.654	15495.92744
608.856	15218.73667
609.058	15129.71276
609.26	15056.87493
609.462	15178.27125
609.664	15404.87859
609.866	15238.9694
610.067	15263.24868
610.269	15508.06737
610.471	15121.61967
610.673	15384.64565
610.875	15366.43603
611.077	15538.41729
611.278	15475.69427
611.48	15534.37063
611.682	15176.24798
611.884	15629.46802
612.085	15109.48004
612.287	15520.20732
612.489	15247.06249
612.69	15433.20479
612.892	15327.9936
613.094	15506.04405
613.295	14911.1983
613.497	15417.01838
613.699	15603.16432
613.9	15475.69427
614.102	15214.69013
614.304	15556.62732
614.505	15327.9936
614.707	15465.57771
614.908	15336.08673
615.11	15520.20732
615.311	15465.57771
615.513	15501.9974
615.714	15232.89958
615.916	15570.79071
616.117	15192.43415
616.319	15493.90412
616.52	15147.92219
616.722	15682.07584
616.923	15491.8808
617.124	15421.06498
617.326	15358.34287
617.527	15062.94475
617.729	15259.20214
617.93	15372.5059
618.131	15406.90189
618.333	15449.39123
618.534	15182.31779
618.735	15671.9589
618.937	15366.43603
619.138	15641.60823
619.339	15465.57771
619.54	15673.98229
619.742	15327.9936
619.943	15417.01838
620.144	15299.66767
620.345	15637.56149
620.546	15433.20479
620.748	15740.75452
620.949	15538.41729
621.15	15706.35657
621.351	15293.59783
621.552	15469.62433
621.753	15653.74848
621.954	15623.39792
622.155	15485.81085
622.356	15692.19279
622.558	15556.62732
622.759	15455.46115
622.96	15607.21103
623.161	15530.32397
623.362	15346.20316
623.563	15811.57474
623.764	15303.71423
623.965	15710.40338
624.166	15785.26994
624.366	15601.14096
624.567	15584.95414
624.768	15777.17619
624.969	15412.97178
625.17	15544.4873
625.371	15726.59062
625.572	15572.81406
625.773	15692.19279
625.973	15469.62433
626.174	15574.8374
626.375	15720.5204
626.576	15858.11448
626.777	15615.30447
626.977	15441.29801
627.178	15845.97362
627.379	15491.8808
627.58	15623.39792
627.78	15781.22306
627.981	15953.21943
628.182	15819.66857
628.382	15688.14601
628.583	15680.05245
628.784	15815.62165
628.984	15222.78322
629.185	15805.50439
629.386	15564.72068
629.586	15615.30447
629.787	15690.1694
629.987	15959.29006
630.188	15781.22306
630.388	16046.30372
630.589	15607.21103
630.79	15926.91353
630.99	15726.59062
631.191	15991.66693
631.391	15744.80135
631.591	15775.15275
631.792	15740.75452
631.992	16171.77014
632.193	15852.04405
632.393	16056.42176
632.594	15987.6198
632.794	15835.85627
632.994	15983.57268
633.195	15918.81945
633.395	16036.18572
633.595	15949.17235
633.796	16163.67535
633.996	16076.65795
634.196	16113.08348
634.397	16487.48948
634.597	15985.59624
634.797	16109.03618
634.997	15981.54912
635.198	16048.32732
635.398	15821.69203
635.598	16202.12585
635.798	16161.65165
635.998	15862.16145
636.199	16003.80835
636.399	16011.90266
636.599	16046.30372
636.799	16204.14957
636.999	16046.30372
637.199	15999.7612
637.399	16024.04416
637.599	16102.96523
637.799	15868.2319
637.999	16147.48584
638.199	16404.50747
638.399	16109.03618
638.599	16090.82338
638.799	16102.96523
638.999	16151.53321
639.199	16465.22568
639.399	16153.55689
639.599	16345.81488
639.799	16007.8555
639.999	16392.36404
640.199	16214.26824
640.399	16185.93609
640.599	15617.32783
640.799	16570.475
640.998	16094.87065
641.198	16388.31624
641.398	16372.12515
641.598	16327.60027
641.798	16234.50569
641.997	16394.38794
642.197	16137.36745
642.397	16327.60027
642.597	16232.48194
642.796	16281.0525
642.996	16104.98888
643.196	16643.34336
643.395	16471.2976
643.595	16534.04189
643.795	16268.90977
643.994	16532.01785
644.194	16712.16619
644.394	16465.22568
644.593	16216.29197
644.793	16564.40277
644.992	16362.00578
645.192	16554.28242
645.392	16485.46549
645.591	16511.77756
645.791	16317.48111
645.99	16708.11771
646.19	16590.71592
646.389	16544.16213
646.589	16469.27362
646.788	16744.55434
646.987	16198.0784
647.187	16785.0404
647.386	16527.96978
647.586	16473.32158
647.785	16311.40963
647.984	16619.05359
648.184	16457.12981
648.383	16691.9239
648.582	16487.48948
648.782	16861.96661
648.981	16726.33593
649.18	16693.94812
649.38	16770.87017
649.579	16989.51031
649.778	16780.99175
649.977	17036.07649
650.177	16453.08189
650.376	16787.06473
650.575	16592.74003
650.774	16979.38741
650.973	16655.48837
651.173	16627.15014
651.372	16451.05793
651.571	16576.54726
651.77	17013.80553
651.969	16837.67373
652.168	16550.2343
652.367	16677.75444
652.566	16362.00578
652.765	16819.45431
652.964	16511.77756
653.163	16604.8847
653.362	16898.40662
653.561	16544.16213
653.76	16574.52317
653.959	16776.94311
654.158	17088.71827
654.357	16983.43656
654.556	16529.99381
654.755	16811.35686
654.954	16566.42684
655.153	16685.85126
655.352	16807.30814
655.551	16993.55948
655.749	17135.28755
655.948	16872.08875
656.147	16357.95804
656.346	16955.09273
656.545	16845.77132
656.743	16981.41198
656.942	16839.69813
657.141	17153.51072
657.34	16995.58408
657.538	17214.2563
657.737	16920.67592
657.936	16914.60244
658.135	16576.54726
658.333	16653.4642
658.532	16700.02079
658.731	16795.16206
658.929	16578.57134
659.128	16675.73024
659.326	16916.62693
659.525	17119.08937
659.724	16600.83647
659.922	17110.99035
660.121	16819.45431
660.319	16863.99104
660.518	16780.99175
660.716	16922.70042
660.915	16625.126
661.113	16835.64934
661.312	16827.55181
661.51	16625.126
661.709	16764.79725
661.907	17169.70929
662.105	17110.99035
662.304	16886.25986
662.502	16894.35769
662.701	17032.0272
662.899	16803.25944
663.097	16938.89649
663.296	16855.89336
663.494	17127.18844
663.692	16953.06819
663.891	16965.21547
664.089	16855.89336
664.287	17096.81717
664.485	17117.06461
664.684	17671.96059
664.882	17315.50476
665.08	17169.70929
665.278	17005.70708
665.476	17123.1389
665.675	16839.69813
665.873	16930.79843
666.071	16951.04365
666.269	16924.72492
666.467	16639.29504
666.665	16902.45556
666.863	16892.33323
667.061	17216.2812
667.259	17068.47121
667.457	17295.25448
667.655	17001.65787
667.853	16813.38122
668.051	16785.0404
668.249	17133.26277
668.447	17117.06461
668.645	17167.68446
668.843	17019.8794
669.041	17019.8794
669.239	16825.52743
669.437	16989.51031
669.635	16679.77864
669.833	17228.43064
670.031	16861.96661
670.229	17133.26277
670.426	16961.16636
670.624	17034.05185
670.822	16961.16636
671.02	17147.43631
671.218	16910.55347
671.415	16949.01912
671.613	16805.28379
671.811	16894.35769
672.009	17115.03985
672.206	17123.1389
672.404	16671.68185
672.602	16689.89969
672.799	16916.62693
672.997	16687.87547
673.195	16890.30877
673.392	16793.13773
673.59	16673.70604
673.788	16287.1239
673.985	16453.08189
674.183	16965.21547
674.38	16789.08906
674.578	16778.96743
674.775	16685.85126
674.973	16687.87547
675.17	16647.39169
675.368	17044.17511
675.565	16776.94311
675.763	16995.58408
675.96	17181.85834
676.158	16882.21096
676.355	16884.23541
676.553	16949.01912
676.75	16669.65766
676.947	16886.25986
677.145	16712.16619
677.342	16981.41198
677.539	16608.93294
677.737	17005.70708
677.934	16293.1953
678.131	16710.14195
678.329	16552.25836
678.526	16902.45556
678.723	16886.25986
678.92	16872.08875
679.118	16726.33593
679.315	16485.46549
679.512	16542.13808
679.709	16608.93294
679.906	16364.02965
680.104	16667.63347
680.301	16760.74865
680.498	16266.88598
680.695	16291.1715
680.892	16685.85126
681.089	16665.60928
681.286	16734.43298
681.483	16562.37869
681.68	16657.51255
681.877	16529.99381
682.075	16643.34336
682.272	16673.70604
682.469	16918.65142
682.665	16473.32158
682.862	16242.60072
683.059	16525.94574
683.256	16418.67489
683.453	16299.26673
683.65	16343.79103
683.847	16192.00723
684.044	16525.94574
684.241	15971.43134
684.438	16552.25836
684.635	15991.66693
684.831	16592.74003
685.028	16359.98191
685.225	16380.22068
685.422	16117.13079
685.619	15997.73763
685.815	15720.5204
686.012	16521.89768
686.209	16113.08348
686.405	16430.81847
686.602	16058.44537
686.799	16277.00492
686.996	16163.67535
687.192	15981.54912
687.389	15900.60784
687.586	15918.81945
687.782	16056.42176
687.979	16208.19703
688.175	16072.6107
688.372	15878.34935
688.568	15807.52784
688.765	16260.81464
688.962	16157.60427
689.158	16169.74644
689.355	16088.79974
689.551	15783.2465
689.748	16009.87908
689.944	15949.17235
690.14	15809.55129
690.337	16104.98888
690.533	15884.41983
690.73	15884.41983
690.926	15926.91353
691.123	15752.89504
691.319	15645.65498
691.515	15847.9971
691.712	15714.45018
691.908	15939.05468
692.104	15888.46683
692.301	16115.10714
692.497	15864.18493
692.693	16068.56346
692.889	15930.96057
693.086	16015.94982
693.282	15959.29006
693.478	16072.6107
693.674	15706.35657
693.87	15920.84296
694.067	15530.32397
694.263	15939.05468
694.459	15657.79523
694.655	15793.3637
694.851	15868.2319
695.047	15928.93705
695.243	15686.12262
695.439	15744.80135
695.635	15708.37997
695.831	15868.2319
696.027	15582.93079
696.224	15744.80135
696.42	15299.66767
696.615	15823.71549
696.811	15686.12262
697.007	15605.18767
697.203	15578.8841
697.399	15655.77185
697.595	15678.02906
697.791	15578.8841
697.987	15538.41729
698.183	15601.14096
698.379	15263.24868
698.575	15603.16432
698.77	15178.27125
698.966	15580.90744
699.162	15467.60102
699.358	15445.34462
699.554	15785.26994
699.749	15631.49138
699.945	15497.95076
700.141	15330.01688
700.337	15463.55439
700.532	15837.87974
700.728	15807.52784
700.924	15483.78753
701.119	15376.55248
701.315	15516.16067
701.511	14977.96698
701.706	15623.39792
701.902	15123.64294
702.097	15698.26298
702.293	15493.90412
702.489	15295.62111
702.684	15143.87565
702.88	15512.11402
703.075	15412.97178
703.271	15303.71423
703.466	15162.08509
703.662	15376.55248
703.857	15325.97032
704.053	15423.08828
704.248	15174.22471
704.443	15744.80135
704.639	15370.48261
704.834	15443.32131
705.03	15402.85529
705.225	15356.31959
705.42	15052.82837
705.616	15479.7409
705.811	15243.01594
706.006	15267.29524
706.202	15240.99267
706.397	15510.09069
706.592	15077.10768
706.787	15338.11002
706.983	15151.96873
707.178	15283.48144
707.373	15156.01527
707.568	15368.45932
707.763	15085.20077
707.959	15240.99267
708.154	15208.62031
708.349	15107.45677
708.544	15307.76079
708.739	15125.66621
708.934	15032.5956
709.129	15200.52723
709.324	14955.7108
709.519	15149.94546
709.714	14814.07924
709.909	15036.64216
710.104	14638.04664
710.299	14994.15326
710.494	14617.81255
710.689	15044.73527
710.884	14737.19223
711.079	15190.41087
711.274	14838.35913
711.469	15182.31779
711.664	14941.54776
711.859	15044.73527
712.054	15052.82837
712.249	15238.9694
712.443	14935.47787
712.638	15117.57313
712.833	14890.96527
713.028	14990.10669
713.223	14494.38212
713.417	14808.00925
713.612	14735.16887
713.807	14909.175
714.002	14731.12215
714.196	15275.38834
714.391	14664.35079
714.586	14890.96527
714.78	14656.25722
714.975	14939.52446
715.17	14820.14922
715.364	14850.49905
715.559	14860.61562
715.754	14783.72923
715.948	14803.96259
716.143	14623.88279
716.337	14536.87508
716.532	14761.47246
716.726	14423.55918
716.921	14648.16364
717.115	14407.37083
717.31	14591.50808
717.504	14362.85235
717.699	14490.33514
717.893	14362.85235
718.088	14585.43779
718.282	14536.87508
718.476	14698.74828
718.671	14486.28816
718.865	14425.58272
719.059	14205.0074
719.254	14318.33308
719.448	14229.29197
719.642	14603.64863
719.837	13935.83238
720.031	14551.03927
720.225	13822.48233
720.419	14067.38917
720.614	14043.10254
720.808	14146.31848
721.002	14032.98301
721.196	14298.09677
721.39	13875.11022
721.585	13980.36047
721.779	14120.00908
721.973	14425.58272
722.167	13923.68814
722.361	14152.38983
722.555	14300.12041
722.749	13777.94952
722.943	13945.95251
723.137	14150.36605
723.331	14164.53247
723.525	14142.27091
723.719	13954.04857
723.913	14049.17423
724.107	13788.07074
724.301	14101.79467
724.495	13871.06198
724.689	13867.01374
724.883	13690.90387
725.077	13883.20665
725.271	13814.38556
725.465	13893.32712
725.659	13749.6097
725.853	13970.24056
726.046	13784.02226
726.24	13966.19258
726.434	13585.63138
726.628	14051.19812
726.822	13496.54733
727.015	13862.96549
727.209	13668.63544
727.403	13915.59193
727.596	13611.95036
727.79	13927.73623
727.984	13824.50651
728.177	14324.40394
728.371	13895.35121
728.565	14024.88734
728.758	14251.55258
728.952	14075.48464
729.146	13919.64004
729.339	14026.91126
729.533	13925.71219
729.726	13826.5307
729.92	13994.52824
730.113	14113.93763
730.307	13694.95263
730.5	13751.63399
730.694	13581.58225
730.887	13585.63138
731.081	13470.22569
731.274	13792.1192
731.468	13492.49789
731.661	13824.50651
731.854	13273.80484
732.048	13615.99938
732.241	13646.36661
732.435	13717.2206
732.628	13705.07448
732.821	13731.39093
733.014	13719.24494
733.208	13905.4716
733.401	13741.5125
733.594	13690.90387
733.788	13824.50651
733.981	13757.70685
734.174	13640.29322
734.367	13871.06198
734.56	13615.99938
734.754	13966.19258
734.947	13654.46441
735.14	13761.75541
735.333	13893.32712
735.526	13792.1192
735.719	13559.31181
735.912	13871.06198
736.105	13707.09885
736.298	13638.26875
736.491	13528.94234
736.684	13573.48396
736.877	13371.00753
737.07	13498.57205
737.263	13466.17616
737.456	13628.14636
737.649	13648.39106
737.842	13806.28874
738.035	13755.68257
738.228	13648.39106
738.421	13458.07703
738.614	13322.40738
738.807	13630.17085
739	13476.29998
739.192	13413.53075
739.385	13413.53075
739.578	13130.00756
739.771	13255.57825
739.964	13215.07346
740.156	13318.35726
740.349	13225.19982
740.542	13656.48885
740.735	13403.40633
740.927	13401.38144
741.12	13287.98083
741.313	13709.1232
741.505	13229.25034
741.698	13308.23189
741.891	13231.27559
742.083	13247.47743
742.276	13417.58049
742.468	13182.66835
742.661	13046.95909
742.854	13180.64299
743.046	13326.45748
743.239	13202.92168
743.431	13125.9566
743.624	13423.65507
743.816	12994.28996
744.009	13206.97229
744.201	13277.85514
744.393	13239.37655
744.586	13194.8204
744.778	13452.00265
744.971	13310.25697
745.163	13470.22569
745.355	13217.09874
745.548	13401.38144
745.74	12795.73639
745.932	13134.0585
746.125	12963.90238
746.317	13227.22508
746.509	13028.72785
746.702	13057.08738
746.894	12872.73264
747.086	12856.52356
747.278	13208.99759
747.471	13271.77968
747.663	13198.87105
747.855	13198.87105
748.047	13247.47743
748.239	13421.63021
748.431	12949.72111
748.623	13178.61763
748.815	13069.24118
749.008	12807.89422
749.2	13099.62491
749.392	13200.89637
749.584	12844.36652
749.776	13298.10641
749.968	12860.57586
750.16	13036.83067
750.352	12649.82632
750.544	12850.44506
750.736	12939.59148
750.928	12988.21253
751.12	13024.67641
751.311	12984.16089
751.503	13150.26208
751.695	12935.5396
751.887	12647.79958
752.079	12897.04561
752.271	12834.2355
752.463	12933.51364
752.654	12728.86467
752.846	13134.0585
753.038	12753.18238
753.23	12659.95995
753.421	12627.53182
753.613	12716.70551
753.805	12773.4465
753.997	12708.59928
754.188	12720.75859
754.38	12611.31717
754.572	12870.70652
754.763	12809.9205
754.955	12554.5628
755.146	12811.94678
755.338	12372.10398
755.53	12359.93814
755.721	12412.65501
755.913	12497.80349
756.104	12408.60002
756.296	12493.74906
756.487	12325.46692
756.679	12333.57798
756.87	12203.78751
757.062	12374.13159
757.253	12315.32794
757.445	12299.10522
757.636	12380.2144
757.827	12295.04947
758.019	12114.53926
758.21	12398.46245
758.401	12059.76604
758.593	12092.22492
758.784	12126.71033
758.975	11970.4938
759.167	12114.53926
759.358	12270.71437
759.549	12181.4768
759.74	11972.52288
759.932	11968.46471
760.123	11994.84229
760.314	11992.8133
760.505	11844.67458
760.696	11802.05113
760.888	12011.07399
761.079	11907.58814
761.27	12031.36289
761.461	11925.85188
761.652	11812.19991
761.843	11686.33972
762.034	11986.72626
762.225	11777.69318
762.416	12104.39649
762.607	11769.57359
762.798	12280.85412
762.989	11619.33574
763.18	11804.0809
763.371	11869.02917
763.562	11852.79291
763.753	11883.23545
763.944	11751.304
764.135	11552.32182
764.326	11797.99156
764.517	11741.15392
764.708	11747.244
764.899	11714.7627
765.089	11574.66091
765.28	11678.21855
765.471	11779.72306
765.662	11527.95062
765.853	11253.67853
766.043	11302.45126
766.234	11471.07918
766.425	11332.93124
766.615	11491.39127
766.806	11377.63114
766.997	11592.93752
767.187	11137.81939
767.378	11491.39127
767.569	11373.56772
767.759	11276.03343
767.95	11365.44074
768.141	11176.44289
768.331	11145.95097
768.522	11131.72059
768.712	11070.72729
768.903	11395.91608
769.093	10865.31019
769.284	11162.21363
769.474	10934.47331
769.665	11028.02617
769.855	11166.27919
770.046	11023.95914
770.236	10832.75823
770.426	10873.44771
770.617	10967.01612
770.807	10924.30309
770.998	10934.47331
771.188	10920.23492
771.378	10794.09891
771.569	10981.25269
771.759	10733.0492
771.949	10814.44645
772.139	10871.41335
772.33	10596.66566
772.52	10879.55074
772.71	10936.50732
772.9	10804.27283
773.09	10808.34231
773.281	10576.30517
773.471	10393.0038
773.661	10543.7258
773.851	10643.49008
774.041	10254.43936
774.231	10551.87094
774.421	10617.0249
774.611	10855.13802
774.802	10651.63279
774.992	10692.34342
775.182	10458.18952
775.372	10543.7258
775.562	10358.36844
775.752	10568.16063
775.942	10113.77319
776.131	10545.7621
776.321	10152.51391
776.511	10445.9682
776.701	9989.36068
776.891	10270.74427
777.081	9915.91183
777.271	9993.44062
777.461	10276.85839
777.651	10311.50277
777.84	10146.39729
778.03	10079.10615
778.22	10209.59638
778.41	10401.15274
778.599	10160.66921
778.789	10297.23791
778.979	10246.28658
779.169	10193.28821
779.358	10048.5142
779.548	10007.71996
779.738	9930.19503
779.927	10201.44241
780.117	9852.64902
780.307	9866.93541
780.496	9877.13953
780.686	9968.96011
780.875	9697.49228
781.065	10111.73406
781.254	9632.13676
781.444	9777.12308
781.633	9746.49859
781.823	9917.95234
782.012	9670.94351
782.202	9956.71907
782.391	9701.57648
782.581	9828.15637
782.77	9777.12308
782.96	10095.42056
783.149	9493.20308
783.338	9525.89994
783.528	9386.90983
783.717	9687.28152
783.906	9393.04332
784.096	9579.02367
784.285	9438.01781
784.474	9403.26549
784.663	9466.63386
784.853	9442.10601
785.042	9613.75265
785.231	9730.16413
785.42	9450.28222
785.61	9464.58996
785.799	9335.79163
785.988	9386.90983
786.177	9382.82075
786.366	9489.11568
786.555	9487.07196
786.744	9268.29978
786.933	9335.79163
787.122	9417.57584
787.312	9388.95434
787.501	9593.32439
787.69	9213.06565
787.879	9141.4475
788.068	8789.18567
788.257	9227.38679
788.445	9073.90262
788.634	9196.69762
788.823	8910.07871
789.012	8877.30034
789.201	8871.15388
789.39	9192.60545
789.579	8811.72981
789.768	8959.23771
789.957	8735.89076
790.145	8944.90072
790.334	9073.90262
790.523	9110.74761
790.712	8961.28578
790.9	9174.18981
791.089	8776.88794
791.278	9123.02803
791.467	8592.34253
791.655	8901.88454
791.844	8694.88624
792.033	8764.58955
792.221	8686.68445
792.41	8969.47789
792.599	8446.64971
792.787	8797.3838
792.976	8717.43963
793.164	8951.04525
793.353	8696.93664
793.541	9159.86559
793.73	8623.11053
793.918	8992.00472
794.107	8785.0865
794.295	8817.87784
794.484	8762.53976
794.672	8680.53291
794.861	8602.599
795.049	8709.23866
795.238	8649.77273
795.426	8856.81153
795.614	8606.70145
795.803	8713.33918
795.991	8502.06529
796.179	8541.05313
796.368	8647.72191
796.556	8502.06529
796.744	8286.48133
796.932	8627.21261
797.121	8434.33324
797.309	8450.75504
797.497	8582.08559
797.685	8918.27259
797.874	8374.79387
798.062	8553.36366
798.25	8187.85703
798.438	8327.56141
798.626	8302.9143
798.814	8479.49025
799.002	8091.24302
799.19	8510.27383
799.378	8255.66612
799.566	8319.34602
799.755	8378.90055
799.943	8376.84722
800.131	8467.17562
800.318	8337.83021
800.506	8436.38603
800.694	8247.44798
800.882	8237.17486
801.07	8319.34602
801.258	8251.55709
801.446	8288.53552
801.634	8241.28417
801.822	8479.49025
802.01	8154.97211
802.197	8370.68711
802.385	8120.02629
802.573	8179.63627
802.761	8041.89109
802.949	8366.58027
803.136	8035.72128
803.324	8173.4705
803.512	8080.96233
803.699	8107.69108
803.887	7992.52749
804.075	8329.61521
804.262	8117.97047
804.45	8241.28417
804.638	8220.73685
804.825	8374.79387
805.013	8157.02757
805.201	8557.46702
805.388	8006.92642
805.576	8294.69797
805.763	8212.51737
805.951	8411.75125
806.138	8401.48594
806.326	8348.09853
806.513	8163.19382
806.701	8191.96728
806.888	8134.41644
807.075	8385.06044
807.263	7914.34442
807.45	8346.0449
807.638	7994.58454
807.825	8263.88394
808.012	7974.01312
808.2	8343.99126
808.387	8144.69453
808.574	8335.77649
808.761	7879.35817
808.949	8173.4705
809.136	8154.97211
809.323	8424.06899
809.51	8325.50759
809.698	8413.80425
809.885	8327.56141
810.072	8471.28058
810.259	8309.07634
810.446	8461.01805
810.633	8134.41644
810.82	8553.36366
811.008	8366.58027
811.195	8298.80617
811.382	8126.19362
811.569	8177.58104
811.756	8140.58335
811.943	8327.56141
812.13	8023.38111
812.317	8060.39943
812.504	8270.0471
812.691	8534.89761
812.878	8183.74669
813.064	8442.54429
813.251	8263.88394
813.438	8541.05313
813.625	8263.88394
813.812	8510.27383
813.999	8280.31864
814.186	8154.97211
814.372	8208.40751
814.559	8204.29757
814.746	8288.53552
814.933	8150.86114
815.12	8175.52578
815.306	8078.90613
815.493	8216.62715
815.68	8479.49025
815.866	8154.97211
816.053	8239.22953
816.24	8296.75208
816.426	8224.84647
816.613	8033.66464
816.799	8210.46245
816.986	7906.1129
817.173	8113.85878
817.359	7801.13199
817.546	8068.62483
817.732	7932.86414
817.919	8064.51217
818.105	7974.01312
818.292	7939.03701
818.478	8019.26756
818.665	7936.97941
818.851	8004.86949
819.037	8099.46721
819.224	7920.51784
819.41	7963.72664
819.597	7965.78398
819.783	8048.06072
819.969	7926.69108
820.156	7992.52749
820.342	7864.95034
820.528	7971.95587
820.714	7642.52841
820.901	7906.1129
821.087	7566.27167
821.273	7819.66196
821.459	7663.13335
821.646	7998.69858
821.832	7899.93904
822.018	7957.55451
822.204	7450.80025
822.39	7714.63642
822.576	7487.92343
822.762	7881.41635
822.948	7650.77064
823.134	7809.36774
823.32	7671.37473
823.507	7858.77524
823.693	7570.3944
823.879	7854.65841
824.065	7584.82329
824.25	7784.65949
824.436	7603.37319
824.622	7797.01399
824.808	7652.83115
824.994	7825.83824
825.18	7430.17324
825.366	7768.18566
825.552	7413.67006
825.738	7749.65099
825.923	7726.9952
826.109	7679.61577
826.295	7632.22515
826.481	7613.67794
826.667	7409.54405
826.852	7669.31441
827.038	7529.16321
827.224	7582.76209
827.409	7582.76209
827.595	7654.89163
827.781	7265.07865
827.966	7376.53283
828.152	7207.26235
828.338	7489.98563
828.523	7250.6262
828.709	7537.41014
828.894	7256.82024
829.08	7434.29881
829.266	7281.59442
829.451	7390.97592
829.637	7060.57875
829.822	7159.75741
830.008	6946.87305
830.193	7405.41795
830.378	6835.16826
830.564	7242.36717
830.749	6915.85057
830.935	7110.17451
831.12	6984.09332
831.305	7182.47863
831.491	6826.8912
831.676	7157.69171
831.861	7170.08557
832.047	6982.02572
832.232	6984.09332
832.417	7017.17187
832.602	6655.05961
832.788	7023.37346
832.973	6895.16609
833.158	7108.10827
833.343	6665.41538
833.528	6961.34847
833.714	6628.13191
833.899	7004.76809
834.084	6586.69707
834.269	6785.50041
834.454	6572.19269
834.639	6851.7213
834.824	6619.84568
835.009	6837.23747
835.194	6520.3821
835.379	6760.66155
835.564	6619.84568
835.749	6953.07694
835.934	6713.04453
836.119	6727.53795
836.304	6437.45501
836.489	6592.91288
836.674	6269.41354
836.859	6561.83173
837.044	6271.48907
837.228	6495.50787
837.413	6344.11755
837.598	6445.74939
837.783	6350.34151
837.968	6845.51408
838.152	6281.86632
838.337	6491.36184
838.522	6425.01274
838.707	6706.83272
838.891	6395.97752
839.076	6547.32541
839.261	6437.45501
839.445	6586.69707
839.63	6117.83723
839.815	6364.86328
839.999	6267.338
840.184	6400.12569
840.368	6180.144
840.553	6404.27376
840.737	6449.89644
840.922	6379.38391
841.106	6267.338
841.291	6304.69421
841.475	6155.22383
841.66	6412.56963
841.844	6030.57221
842.029	6238.27793
842.213	6277.71549
842.397	6132.37737
842.582	6067.97659
842.766	6379.38391
842.951	6007.71022
843.135	6400.12569
843.319	5907.91545
843.504	6124.06886
843.688	5781.01452
843.872	6205.06079
844.056	5837.19462
844.241	6026.4157
844.425	5830.95323
844.609	5789.33858
844.793	5772.69008
844.977	5868.39835
845.161	5756.04006
845.346	5785.17659
845.53	5560.28926
845.714	5810.14709
845.898	5683.17848
846.082	6057.58725
846.266	5764.36526
846.45	5957.81963
846.634	5880.87835
846.818	5878.79841
847.002	5608.20499
847.186	5866.31826
847.37	5568.62333
847.554	5789.33858
847.738	5741.47006
847.922	5770.60891
848.106	5766.4465
848.29	5664.43798
848.473	5776.85234
848.657	5830.95323
848.841	5631.1168
849.025	5508.19281
849.209	5535.2848
849.392	5756.04006
849.576	5508.19281
849.76	5645.69556
849.944	5441.48788
850.127	5751.87732
850.311	5374.75887
850.495	5572.79022
850.678	5337.21324
850.862	5531.11706
851.046	5370.58751
851.229	5472.75881
851.413	5355.98701
851.596	5487.3501
851.78	5193.21807
851.964	5347.64335
852.147	5397.69968
852.331	5316.35128
852.514	5072.0928
852.698	5065.82557
852.881	4898.62295
853.065	5374.75887
853.248	5157.72394
853.431	5047.02265
853.615	4840.0673
853.798	5249.57726
853.982	4971.79223
854.165	5220.3561
854.348	4955.07031
854.532	5141.01849
854.715	4863.07344
854.898	5122.22308
855.081	4906.98657
855.265	5153.54772
855.448	4863.07344
855.631	5203.65624
855.814	4898.62295
855.997	5132.66521
856.181	4890.25895
856.364	5118.04607
856.547	4978.06258
856.73	5201.56866
856.913	4714.53082
857.096	4879.80345
857.279	4603.57267
857.462	4825.4256
857.645	4563.77991
857.828	4856.79932
858.011	4879.80345
858.194	4837.9757
858.377	4681.04067
858.56	4961.3412
858.743	4766.84761
858.926	4745.92259
859.109	4689.41375
859.292	4762.66279
859.475	4888.1679
859.658	4670.57382
859.841	4513.50391
860.023	4557.49611
860.206	4452.73676
860.389	4431.77828
860.572	4276.61791
860.755	4450.64101
860.937	4356.30968
861.12	4454.83248
861.303	4427.58632
861.486	4490.45648
861.668	4335.34118
861.851	4253.54345
862.034	4222.07411
862.216	4513.50391
862.399	4209.48503
862.581	4402.43274
862.764	4142.33042
862.947	4240.95629
863.129	4121.34019
863.312	4293.39771
863.494	4184.30459
863.677	4226.2703
863.859	3978.55149
864.042	4028.9584
864.224	3810.44428
864.406	3957.54514
864.589	3713.72526
864.771	4035.25843
864.954	3806.23997
865.136	4175.91043
865.318	3915.52635
865.501	4096.14914
865.683	4203.19021
865.865	4194.79681
866.048	3959.64586
866.23	4083.5525
866.412	3865.09317
866.594	3944.94035
866.777	3766.29506
866.959	3898.71657
867.141	3688.48747
867.323	3860.88989
867.505	3781.01243
867.687	3865.09317
867.869	3928.13283
868.052	4129.73653
868.234	3650.62562
868.416	3978.55149
868.598	3770.50012
868.78	3953.34362
868.962	3722.13724
869.144	3974.35038
869.326	3909.22283
869.508	3738.96028
869.69	3629.5886
869.872	3932.33483
870.054	3623.27713
870.236	3968.04857
870.417	3701.10671
870.599	3688.48747
870.781	3583.30053
870.963	3932.33483
871.145	3734.75463
871.327	3968.04857
871.508	3675.86754
871.69	3959.64586
871.872	3503.32724
872.054	3583.30053
872.235	3387.52999
872.417	3738.96028
872.599	3444.38268
872.78	3579.09208
872.962	3473.85673
873.144	3478.06702
873.325	3427.53879
873.507	3848.27956
873.689	3379.10627
873.87	3755.78207
874.052	3328.55809
874.233	3524.37542
874.415	3311.70649
874.596	3562.25752
874.778	3343.30235
874.959	3629.5886
875.141	3275.89318
875.322	3515.95637
875.503	3309.59996
875.685	3616.96548
875.866	3463.33069
876.048	3461.22543
876.229	3353.83343
876.41	3444.38268
876.592	3370.68227
876.773	3507.53702
876.954	3431.74987
877.136	3589.61308
877.317	3400.16503
877.498	3755.78207
877.679	3389.63587
877.86	3368.57623
878.042	3343.30235
878.223	3591.71722
878.404	3457.01485
878.585	3419.11641
878.766	3189.49989
878.947	3600.13361
879.128	3364.36409
879.309	3482.27724
879.49	3358.04575
879.672	3478.06702
879.853	3364.36409
880.034	3511.74673
880.215	3332.77082
880.396	3541.21264
880.576	3537.00345
880.757	3692.69396
880.938	3478.06702
881.119	3730.54891
881.3	3511.74673
881.481	3671.66074
881.662	3457.01485
881.843	3648.522
882.023	3419.11641
882.204	3781.01243
882.385	3463.33069
882.566	3589.61308
882.747	3534.89882
882.927	3558.04869
883.108	3362.25799
883.289	3642.21104
883.469	3520.16593
883.65	3564.3619
883.831	3616.96548
884.011	3629.5886
884.192	3545.42177
884.373	3671.66074
884.553	3507.53702
884.734	3659.0399
884.914	3444.38268
885.095	3787.31958
885.275	3435.96088
885.456	3774.7051
885.636	3345.4086
885.817	3642.21104
885.997	3452.8042
886.178	3715.82828
886.358	3294.85378
886.538	3745.2686
886.719	3616.96548
886.899	3604.34169
887.08	3395.95342
887.26	3717.93129
887.44	3537.00345
887.621	3764.1925
887.801	3385.42408
887.981	3726.34312
888.161	3856.68652
888.342	3831.46467
888.522	3633.79616
888.702	3616.96548
888.882	3528.58484
889.062	3886.1084
889.242	3507.53702
889.423	3738.96028
889.603	3574.88355
889.783	3797.8311
889.963	3551.73531
890.143	3747.37133
890.323	3402.27081
890.503	3579.09208
890.683	3469.64637
890.863	3480.17214
891.043	3566.46627
891.223	3663.24692
891.403	3377.00029
891.583	3644.31471
891.763	3686.3842
891.943	3469.64637
892.122	3421.22203
892.302	3518.06116
892.482	3482.27724
892.662	3579.09208
892.842	3530.68952
893.022	3713.72526
893.201	3410.69376
893.381	3745.2686
893.561	3315.91949
893.741	3600.13361
893.92	3471.75156
894.1	3570.67495
894.28	3100.97084
894.459	3515.95637
894.639	3440.17181
894.819	3404.37658
894.998	3368.57623
895.178	3463.33069
895.357	3166.31647
895.537	3372.7883
895.716	3419.11641
895.896	3467.54116
896.075	3332.77082
896.255	3395.95342
896.434	3119.94374
896.614	3393.84759
896.793	3109.4034
896.973	3448.59347
897.152	3157.88565
897.331	3377.00029
897.511	3031.39264
897.69	3364.36409
897.87	3292.74711
898.049	3151.56236
898.228	3191.60737
898.407	3318.02597
898.587	2940.70508
898.766	3263.25202
898.945	2972.34344
899.124	3187.39239
899.304	2866.86943
899.483	3090.42979
899.662	2917.50151
899.841	3094.64626
900.02	3022.95777
900.199	3200.03715
900.378	2930.15822
900.557	2879.52823
900.737	2841.55031
900.916	2887.96714
901.095	2757.13878
901.274	2854.21012
901.453	2676.92796
901.632	2799.34729
901.811	2613.59056
901.989	2660.03909
902.168	2482.65887
902.347	2622.03619
902.526	2453.08757
902.705	2651.59435
902.884	2577.69444
903.063	2676.92796
903.242	2351.68439
903.42	2609.36767
903.599	2294.63488
903.778	2550.24214
903.957	2305.20013
904.135	2345.34591
904.314	2146.69771
904.493	2364.36109
904.672	2153.03873
904.85	2355.90999
905.029	2169.94776
905.207	2410.83917
905.386	2178.40207
905.565	2275.61682
905.743	1977.57923
905.922	2180.51563
906.1	2045.23204
906.279	2205.87767
906.457	1937.4073
906.636	2036.77582
906.814	1983.92196
906.993	2085.39759
907.171	1905.69114
907.35	2009.29232
907.528	1842.25521
907.707	2049.46012
907.885	1755.55269
908.063	1899.34776
908.242	1683.64819
908.42	1728.06025
908.598	1704.79696
908.777	1816.87961
908.955	1723.83059
909.133	1882.43183
909.311	1620.20024
909.49	1986.03619
909.668	1873.97375
909.846	1776.70029
910.024	1768.24129
910.202	2021.97715
910.38	1721.71575
910.559	1774.58555
910.737	1715.37123
910.915	1971.23644
911.093	1670.95878
911.271	1814.76495
911.449	1774.58555
911.627	2038.88988
911.805	1734.40471
911.983	1962.7793
912.161	1890.88984
912.339	2045.23204
912.517	1838.02599
912.695	2045.23204
912.872	1831.68213
913.05	1988.15042
913.228	1831.68213
913.406	1950.09341
913.584	1835.91138
913.762	2011.40648
913.939	1823.22358
914.117	1895.11881
914.295	1738.63433
914.473	2119.21914
914.65	1842.25521
914.828	2034.66174
915.006	1694.22261
915.184	2062.14417
915.361	1768.24129
915.539	1850.7136
915.716	1702.6821
915.894	1840.14061
916.072	1766.12654
916.249	1797.84749
916.427	1747.09354
916.604	1941.63603
916.782	1552.52034
916.959	1916.26333
917.137	1535.60012
917.314	1736.51952
917.492	1476.37892
917.669	1654.03943
917.847	1410.81234
918.024	1628.66009
918.201	1628.66009
918.379	1764.01177
918.556	1535.60012
918.733	1704.79696
918.911	1368.51155
919.088	1628.66009
919.265	1470.03377
919.442	1575.78549
919.62	1450.9983
919.797	1525.02495
919.974	1362.16646
920.151	1444.65315
920.328	1341.01625
920.506	1603.28043
920.683	1467.91872
920.86	1527.13999
921.037	1351.59134
921.214	1567.32546
921.391	1379.08671
921.568	1474.26387
921.745	1324.09619
921.922	1402.35216
922.099	1277.56664
922.276	1357.93641
922.453	1351.59134
922.63	1467.91872
922.807	1300.83129
922.984	1438.30799
923.161	1269.10683
923.338	1442.53809
923.514	1406.58225
923.691	1527.13999
923.868	1260.64707
924.045	1341.01625
924.222	1281.79656
924.399	1309.29123
924.575	1197.20026
924.752	1317.7512
924.929	1121.0683
925.105	1224.69354
925.282	1159.13363
925.459	1324.09619
925.635	1085.11906
925.812	1171.82237
925.989	1104.15084
926.165	1023.79738
926.342	1102.03617
926.518	1070.31686
926.695	869.46005
926.871	1106.2655
927.048	1049.1713
927.224	1044.94226
927.401	981.50947
927.577	1008.99632
927.754	886.37178
927.93	1063.97313
928.107	892.71381
928.283	996.30995
928.459	913.85444
928.636	1036.48424
928.812	854.66273
928.988	1038.59873
929.165	793.36416
929.341	1063.97313
929.517	903.28403
929.693	1044.94226
929.87	869.46005
930.046	1061.85857
930.222	782.79623
930.398	947.68104
930.574	880.02982
930.751	825.06936
930.927	848.32114
931.103	791.25055
931.279	706.71465
931.455	672.90511
931.631	651.77565
931.807	757.43422
931.983	806.04598
932.159	812.38703
932.335	675.01812
932.511	617.971
932.687	670.79211
932.863	780.68268
933.039	622.19641
933.215	757.43422
933.391	592.61962
933.566	685.58335
933.742	634.87293
933.918	601.06987
934.094	474.33885
934.27	546.14697
934.445	362.43791
934.621	518.68897
934.797	453.22206
934.973	455.33367
935.148	465.89196
935.324	446.88733
935.5	385.65888
935.675	554.59606
935.851	436.32974
936.027	425.77255
936.202	394.10337
936.378	404.65936
936.553	324.44443
936.729	419.43842
936.904	284.34646
937.08	309.67074
937.255	242.1453
937.431	337.1083
937.606	294.89792
937.782	343.44047
937.957	267.46509
938.133	233.70599
938.308	233.70599
938.483	189.40476
938.659	267.46509
938.834	191.51415
939.009	218.93794
939.185	231.59621
939.36	121.91552
939.535	132.45929
939.71	202.06136
939.886	64.98867
940.061	248.47499
940.236	115.58952
940.411	134.5681
940.586	151.43941
940.761	187.2954
940.937	98.72115
941.112	132.45929
941.287	109.26371
941.462	98.72115
941.637	134.5681
941.812	208.38993
941.987	102.93811
942.162	204.17086
942.337	185.18606
942.512	81.85419
942.687	216.8283
942.862	77.63768
943.037	69.20492
943.212	98.72115
943.386	132.45929
943.561	100.82962
943.736	115.58952
943.911	172.53045
944.086	107.15516
944.26	157.7665
944.435	107.15516
944.61	195.73297
944.785	90.28749
944.959	18.61609
945.134	81.85419
945.309	134.5681
945.483	170.42125
945.658	92.39587
945.833	73.42125
946.007	115.58952
946.182	157.7665
946.357	174.63967
946.531	102.93811
946.706	138.7858
946.88	115.58952
947.055	109.26371
947.229	121.91552
947.404	149.33043
947.578	134.5681
947.752	64.98867
947.927	98.72115
948.101	117.69816
948.276	90.28749
948.45	100.82962
948.624	157.7665
948.799	176.7489
948.973	100.82962
949.147	174.63967
949.321	100.82962
949.496	119.80683
949.67	58.66448
949.844	143.00359
950.018	136.67694
950.193	115.58952
950.367	107.15516
950.541	124.02423
950.715	195.73297
950.889	178.85816
951.063	168.31207
951.237	107.15516
951.411	73.42125
951.585	64.98867
951.759	96.6127
951.933	117.69816
952.107	191.51415
952.281	111.37229
952.455	109.26371
952.629	132.45929
952.803	132.45929
952.977	60.77252
953.151	94.50427
953.325	176.7489
953.499	64.98867
953.672	83.96248
953.846	168.31207
954.02	132.45929
954.194	109.26371
954.368	107.15516
954.541	193.62355
954.715	132.45929
954.889	134.5681
955.062	193.62355
955.236	172.53045
955.41	191.51415
955.583	134.5681
955.757	168.31207
955.93	75.52945
956.104	107.15516
956.278	117.69816
956.451	191.51415
956.625	130.35049
956.798	126.13296
956.972	193.62355
957.145	109.26371
957.319	140.89469
957.492	149.33043
957.665	132.45929
957.839	155.65745
958.012	174.63967
958.185	107.15516
958.359	151.43941
958.532	109.26371
958.705	128.24171
958.879	193.62355
959.052	199.95188
959.225	107.15516
959.398	242.1453
959.572	90.28749
959.745	157.7665
959.918	174.63967
960.091	147.22146
960.264	92.39587
960.438	60.77252
960.611	202.06136
960.784	143.00359
960.957	96.6127
961.13	90.28749
961.303	94.50427
961.476	153.54842
961.649	136.67694
961.822	212.60907
961.995	128.24171
962.168	52.34049
962.341	81.85419
962.514	58.66448
962.686	161.98467
962.859	132.45929
963.032	124.02423
963.205	178.85816
963.378	151.43941
963.551	159.87558
963.723	183.07674
963.896	126.13296
964.069	96.6127
964.242	124.02423
964.414	140.89469
964.587	111.37229
964.76	134.5681
964.932	105.04662
965.105	124.02423
965.278	132.45929
965.45	39.69314
965.623	52.34049
965.795	98.72115
965.968	77.63768
966.14	161.98467
966.313	166.20292
966.485	140.89469
966.658	166.20292
966.83	81.85419
967.003	140.89469
967.175	92.39587
967.348	143.00359
967.52	155.65745
967.692	77.63768
967.865	3.86356
968.037	81.85419
968.209	143.00359
968.382	126.13296
968.554	83.96248
968.726	73.42125
968.898	83.96248
969.071	109.26371
969.243	161.98467
969.415	109.26371
969.587	58.66448
969.759	180.96744
969.932	109.26371
970.104	94.50427
970.276	90.28749
970.448	107.15516
970.62	157.7665
970.792	29.15432
970.964	111.37229
971.136	18.61609
971.308	111.37229
971.48	107.15516
971.652	77.63768
971.824	64.98867
971.996	73.42125
972.168	48.12461
972.339	132.45929
972.511	121.91552
972.683	111.37229
972.855	117.69816
973.027	43.90883
973.199	81.85419
973.37	46.01671
973.542	86.0708
973.714	124.02423
973.886	92.39587
974.057	31.26204
974.229	83.96248
974.401	75.52945
974.572	39.69314
974.744	94.50427
974.915	111.37229
975.087	56.55646
975.259	62.88058
975.43	46.01671
975.602	22.83131
975.773	145.11251
975.945	115.58952
976.116	69.20492
976.288	69.20492
976.459	124.02423
976.63	96.6127
976.802	5.97099
976.973	64.98867
977.145	126.13296
977.316	43.90883
977.487	111.37229
977.659	126.13296
977.83	128.24171
978.001	35.47754
978.172	94.50427
978.344	56.55646
978.515	64.98867
978.686	132.45929
978.857	102.93811
979.028	117.69816
979.2	67.09678
979.371	102.93811
979.542	98.72115
979.713	90.28749
979.884	39.69314
980.055	94.50427
980.226	-2.45859
980.397	39.69314
980.568	58.66448
980.739	48.12461
980.91	81.85419
981.081	98.72115
981.252	73.42125
981.423	73.42125
981.594	98.72115
981.765	39.69314
981.936	48.12461
982.106	73.42125
982.277	83.96248
982.448	67.09678
982.619	48.12461
982.79	56.55646
982.96	52.34049
983.131	124.02423
983.302	16.50851
983.472	73.42125
983.643	73.42125
983.814	39.69314
983.984	27.04663
984.155	83.96248
984.326	41.80097
984.496	20.72369
984.667	31.26204
984.837	-61.45468
985.008	14.40096
985.178	117.69816
985.349	14.40096
985.519	81.85419
985.69	90.28749
985.86	54.44846
986.031	29.15432
986.201	102.93811
986.371	1.75615
986.542	100.82962
986.712	73.42125
986.882	-8.78052
987.053	33.36978
987.223	39.69314
987.393	90.28749
987.563	147.22146
987.734	48.12461
987.904	75.52945
988.074	109.26371
988.244	73.42125
988.414	14.40096
988.585	98.72115
988.755	73.42125
988.925	107.15516
989.095	5.97099
989.265	31.26204
989.435	33.36978
989.605	73.42125
989.775	73.42125
989.945	41.80097
990.115	98.72115
990.285	64.98867
990.455	48.12461
990.625	109.26371
990.795	48.12461
990.965	77.63768
991.134	48.12461
991.304	83.96248
991.474	67.09678
991.644	100.82962
991.814	31.26204
991.984	88.17913
992.153	90.28749
992.323	14.40096
992.493	48.12461
992.662	64.98867
992.832	81.85419
993.002	22.83131
993.171	58.66448
993.341	-2.45859
993.511	58.66448
993.68	33.36978
993.85	50.23254
994.019	56.55646
994.189	-2.45859
994.358	111.37229
994.528	35.47754
994.697	62.88058
994.867	86.0708
995.036	48.12461
995.206	18.61609
995.375	86.0708
995.544	48.12461
995.714	35.47754
995.883	50.23254
996.052	43.90883
996.222	62.88058
996.391	77.63768
996.56	75.52945
996.73	16.50851
996.899	22.83131
997.068	27.04663
997.237	64.98867
997.406	-0.35123
997.576	102.93811
997.745	60.77252
997.914	24.93896
998.083	8.07845
998.252	90.28749
998.421	8.07845
998.59	64.98867
998.759	136.67694
998.928	60.77252
999.097	-2.45859
999.266	73.42125
999.435	62.88058
999.604	111.37229
999.773	-2.45859
999.942	98.72115
1000.111	8.07845
1000.28	50.23254
1000.448	62.88058
1000.617	16.50851
1000.786	-10.88778
1000.955	98.72115
1001.124	48.12461
1001.292	67.09678
1001.461	197.84241
1001.63	35.47754
1001.798	48.12461
1001.967	52.34049
1002.136	8.07845
1002.304	98.72115
1002.473	52.34049
1002.642	48.12461
1002.81	73.42125
1002.979	75.52945
1003.147	107.15516
1003.316	22.83131
1003.484	86.0708
1003.653	14.40096
1003.821	14.40096
1003.99	10.18593
1004.158	58.66448
1004.327	41.80097
1004.495	126.13296
1004.663	16.50851
1004.832	64.98867
1005	31.26204
1005.168	48.12461
1005.337	56.55646
1005.505	117.69816
1005.673	86.0708
1005.842	35.47754
1006.01	39.69314
1006.178	39.69314
1006.346	50.23254
1006.514	75.52945
1006.683	-2.45859
1006.851	-23.53085
1007.019	98.72115
1007.187	1.75615
1007.355	43.90883
1007.523	81.85419
1007.691	52.34049
1007.859	-8.78052
1008.027	1.75615
1008.195	-8.78052
1008.363	43.90883
1008.531	22.83131
1008.699	35.47754
1008.867	86.0708
1009.035	56.55646
1009.203	-2.45859
1009.37	-2.45859
1009.538	58.66448
1009.706	64.98867
1009.874	31.26204
1010.042	5.97099
1010.209	8.07845
1010.377	75.52945
1010.545	1.75615
1010.713	43.90883
1010.88	67.09678
1011.048	14.40096
1011.216	90.28749
1011.383	31.26204
1011.551	60.77252
1011.718	69.20492
1011.886	18.61609
1012.054	33.36978
1012.221	14.40096
1012.389	16.50851
1012.556	-15.10224
1012.724	73.42125
1012.891	-27.74501
1013.058	33.36978
1013.226	58.66448
1013.393	64.98867
1013.561	81.85419
1013.728	1.75615
1013.895	8.07845
1014.063	60.77252
1014.23	31.26204
1014.397	31.26204
1014.565	60.77252
1014.732	64.98867
1014.899	5.97099
1015.066	14.40096
1015.233	14.40096
1015.401	86.0708
1015.568	-27.74501
1015.735	37.58533
1015.902	16.50851
1016.069	-44.60065
1016.236	-17.20943
1016.403	54.44846
1016.57	115.58952
1016.737	-15.10224
1016.904	64.98867
1017.071	18.61609
1017.238	43.90883
1017.405	24.93896
1017.572	98.72115
1017.739	39.69314
1017.906	29.15432
1018.073	14.40096
1018.24	14.40096
1018.407	14.40096
1018.573	22.83131
1018.74	16.50851
1018.907	39.69314
1019.074	-25.63794
1019.241	100.82962
1019.407	31.26204
1019.574	39.69314
1019.741	52.34049
1019.907	100.82962
1020.074	10.18593
1020.241	115.58952
1020.407	41.80097
1020.574	-31.95906
1020.74	73.42125
1020.907	58.66448
1021.073	22.83131
1021.24	58.66448
1021.406	24.93896
1021.573	16.50851
1021.739	39.69314
1021.906	22.83131
1022.072	14.40096
1022.239	31.26204
1022.405	75.52945
1022.571	48.12461
1022.738	-19.31659
1022.904	-34.06606
1023.07	5.97099
1023.237	18.61609
1023.403	5.97099
1023.569	1.75615
1023.735	41.80097
1023.902	33.36978
1024.068	1.75615
1024.234	67.09678
1024.4	35.47754
1024.566	24.93896
1024.732	54.44846
1024.898	-12.99502
1025.065	5.97099
1025.231	12.29343
1025.397	-2.45859
1025.563	14.40096
1025.729	-67.77453
1025.895	37.58533
1026.061	56.55646
1026.227	18.61609
1026.392	39.69314
1026.558	117.69816
1026.724	24.93896
1026.89	-0.35123
1027.056	24.93896
1027.222	18.61609
1027.388	46.01671
1027.553	56.55646
1027.719	107.15516
1027.885	-2.45859
1028.051	10.18593
1028.216	73.42125
1028.382	56.55646
1028.548	58.66448
1028.713	8.07845
1028.879	62.88058
1029.045	48.12461
1029.21	5.97099
1029.376	48.12461
1029.541	58.66448
1029.707	-53.02787
1029.873	31.26204
1030.038	107.15516
1030.204	18.61609
1030.369	24.93896
1030.534	-2.45859
1030.7	64.98867
1030.865	69.20492
1031.031	41.80097
1031.196	5.97099
1031.361	102.93811
1031.527	48.12461
1031.692	92.39587
1031.857	-10.88778
1032.023	56.55646
1032.188	35.47754
1032.353	29.15432
1032.518	69.20492
1032.684	-19.31659
1032.849	22.83131
1033.014	33.36978
1033.179	43.90883
1033.344	29.15432
1033.509	48.12461
1033.674	31.26204
1033.839	43.90883
1034.004	64.98867
1034.17	31.26204
1034.335	3.86356
1034.5	-15.10224
1034.664	54.44846
1034.829	35.47754
1034.994	56.55646
1035.159	39.69314
1035.324	113.4809
1035.489	29.15432
1035.654	58.66448
1035.819	-10.88778
1035.984	3.86356
1036.148	-17.20943
1036.313	67.09678
1036.478	-10.88778
1036.643	39.69314
1036.807	64.98867
1036.972	75.52945
1037.137	107.15516
1037.301	56.55646
1037.466	-36.17303
1037.631	8.07845
1037.795	24.93896
1037.96	100.82962
1038.124	46.01671
1038.289	98.72115
1038.454	-29.85205
1038.618	56.55646
1038.783	-76.20064
1038.947	-6.67324
1039.111	20.72369
1039.276	-36.17303
1039.44	27.04663
1039.605	31.26204
1039.769	-10.88778
1039.933	-36.17303
1040.098	54.44846
1040.262	-31.95906
1040.426	-19.31659
1040.591	5.97099
1040.755	-6.67324
1040.919	-27.74501
1041.083	64.98867
1041.248	83.96248
1041.412	-53.02787
1041.576	-17.20943
1041.74	46.01671
1041.904	56.55646
1042.068	-34.06606
1042.232	69.20492
1042.397	27.04663
1042.561	29.15432
1042.725	50.23254
1042.889	22.83131
1043.053	52.34049
1043.217	98.72115
1043.381	83.96248
1043.544	14.40096
1043.708	-31.95906
1043.872	79.74592
1044.036	31.26204
1044.2	-25.63794
1044.364	33.36978
1044.528	24.93896
1044.691	14.40096
1044.855	-27.74501
1045.019	14.40096
1045.183	31.26204
1045.346	-4.56592
1045.51	35.47754
1045.674	64.98867
1045.837	-8.78052
1046.001	22.83131
1046.165	22.83131
1046.328	35.47754
1046.492	31.26204
1046.655	-27.74501
1046.819	64.98867
1046.983	75.52945
1047.146	35.47754
1047.31	27.04663
1047.473	12.29343
1047.636	-25.63794
1047.8	8.07845
1047.963	-48.81431
1048.127	48.12461
1048.29	-10.88778
