Data from mixed_try1_USB4F045381__25__00173.txt Node

Date: Thu Apr 03 20:12:32 EDT 2025
User: mmckonesweet
Spectrometer: USB4F04538
Trigger mode: 4
Integration Time (sec): 2.700000E-3
Scans to average: 1
Electric dark correction enabled: true
Nonlinearity correction enabled: true
Boxcar width: 0
XAxis mode: Wavelengths
Number of Pixels in Spectrum: 3648
>>>>>Begin Spectral Data<<<<<
345.52	-38.10439
345.736	-38.10439
345.952	-38.10439
346.168	10.36155
346.384	-48.63874
346.6	-14.92664
346.816	4.03918
347.032	23.00695
347.248	-6.49763
347.464	-2.28298
347.68	54.62413
347.896	-19.141
348.112	65.16435
348.328	-67.59898
348.544	-48.63874
348.76	50.4082
348.975	-38.10439
349.191	10.36155
349.407	-21.24814
349.623	-31.78348
349.839	-0.17561
350.055	-27.56942
350.27	37.76098
350.486	63.05626
350.702	23.00695
350.918	-105.51324
351.133	35.65319
351.349	-6.49763
351.565	37.76098
351.781	-29.67646
351.996	-23.35526
352.212	113.65661
352.428	-21.24814
352.644	-10.71218
352.859	-38.10439
353.075	44.08449
353.291	-12.81942
353.506	-27.56942
353.722	31.43768
353.938	-46.53192
354.153	-46.53192
354.369	69.38059
354.584	10.36155
354.8	86.24649
355.016	-31.78348
355.231	10.36155
355.447	71.48875
355.662	27.22227
355.878	27.22227
356.093	-63.38577
356.309	-52.8523
356.524	10.36155
356.74	-48.63874
356.955	-35.99745
357.171	-29.67646
357.386	-6.49763
357.602	-99.19478
357.817	31.43768
358.033	52.51615
358.248	31.43768
358.464	10.36155
358.679	-4.39031
358.895	-21.24814
359.11	-2.28298
359.325	4.03918
359.541	18.79172
359.756	-25.46235
359.972	-78.13156
360.187	52.51615
360.402	-21.24814
360.618	-31.78348
360.833	-25.46235
361.048	-14.92664
361.264	6.14661
361.479	14.57659
361.694	-54.95905
361.909	37.76098
362.125	14.57659
362.34	14.57659
362.555	-6.49763
362.77	10.36155
362.986	-61.27913
363.201	-14.92664
363.416	-31.78348
363.631	-6.49763
363.847	-69.70555
364.062	-2.28298
364.277	27.22227
364.492	14.57659
364.707	4.03918
364.922	14.57659
365.138	-29.67646
365.353	23.00695
365.568	-19.141
365.783	-23.35526
365.998	-17.03383
366.213	-6.49763
366.428	-12.81942
366.643	-6.49763
366.858	-0.17561
367.073	1.93177
367.288	-57.06577
367.503	-52.8523
367.718	73.59693
367.933	52.51615
368.148	37.76098
368.363	1.93177
368.578	-14.92664
368.793	-29.67646
369.008	27.22227
369.223	1.93177
369.438	-23.35526
369.653	-46.53192
369.868	-12.81942
370.083	-35.99745
370.298	-2.28298
370.513	35.65319
370.728	56.73213
370.943	1.93177
371.157	101.00532
371.372	10.36155
371.587	1.93177
371.802	52.51615
372.017	4.03918
372.232	29.32996
372.446	50.4082
372.661	-82.34441
372.876	-46.53192
373.091	-17.03383
373.306	-0.17561
373.52	10.36155
373.735	27.22227
373.95	-10.71218
374.165	14.57659
374.379	27.22227
374.594	77.81336
374.809	27.22227
375.023	35.65319
375.238	-57.06577
375.453	-42.31821
375.667	-17.03383
375.882	-40.21131
376.097	63.05626
376.311	29.32996
376.526	82.02988
376.741	-54.95905
376.955	-12.81942
377.17	35.65319
377.384	86.24649
377.599	44.08449
377.813	60.94819
378.028	60.94819
378.242	18.79172
378.457	-52.8523
378.672	-2.28298
378.886	-29.67646
379.101	23.00695
379.315	-6.49763
379.53	-48.63874
379.744	-14.92664
379.958	6.14661
380.173	27.22227
380.387	-52.8523
380.602	8.25407
380.816	6.14661
381.031	29.32996
381.245	-21.24814
381.459	-10.71218
381.674	1.93177
381.888	60.94819
382.103	6.14661
382.317	-12.81942
382.531	48.30027
382.746	73.59693
382.96	10.36155
383.174	27.22227
383.388	18.79172
383.603	18.79172
383.817	-0.17561
384.031	79.92161
384.246	-0.17561
384.46	-21.24814
384.674	-6.49763
384.888	6.14661
385.103	1.93177
385.317	12.46906
385.531	75.70514
385.745	35.65319
385.959	18.79172
386.174	44.08449
386.388	77.81336
386.602	33.54542
386.816	16.68414
387.03	12.46906
387.244	41.97663
387.458	-2.28298
387.672	86.24649
387.887	27.22227
388.101	39.86879
388.315	-10.71218
388.529	-12.81942
388.743	-88.66349
388.957	16.68414
389.171	31.43768
389.385	-99.19478
389.599	-23.35526
389.813	44.08449
390.027	-46.53192
390.241	1.93177
390.455	-44.42508
390.669	-27.56942
390.883	-23.35526
391.097	-17.03383
391.311	-19.141
391.525	-35.99745
391.738	20.89932
391.952	-23.35526
392.166	8.25407
392.38	-86.55716
392.594	10.36155
392.808	-19.141
393.022	27.22227
393.236	-38.10439
393.449	-14.92664
393.663	-10.71218
393.877	16.68414
394.091	35.65319
394.305	10.36155
394.518	-31.78348
394.732	20.89932
394.946	63.05626
395.16	4.03918
395.373	69.38059
395.587	-6.49763
395.801	-29.67646
396.015	12.46906
396.228	-17.03383
396.442	-21.24814
396.656	-23.35526
396.869	27.22227
397.083	56.73213
397.297	-31.78348
397.51	10.36155
397.724	44.08449
397.938	-12.81942
398.151	10.36155
398.365	44.08449
398.578	-44.42508
398.792	23.00695
399.005	63.05626
399.219	20.89932
399.433	-46.53192
399.646	52.51615
399.86	-4.39031
400.073	86.24649
400.287	-2.28298
400.5	12.46906
400.714	-19.141
400.927	14.57659
401.141	77.81336
401.354	29.32996
401.567	60.94819
401.781	-31.78348
401.994	-19.141
402.208	6.14661
402.421	-14.92664
402.635	12.46906
402.848	48.30027
403.061	-4.39031
403.275	54.62413
403.488	73.59693
403.701	18.79172
403.915	10.36155
404.128	29.32996
404.341	69.38059
404.555	27.22227
404.768	-73.91861
404.981	31.43768
405.195	29.32996
405.408	52.51615
405.621	-67.59898
405.834	44.08449
406.048	10.36155
406.261	33.54542
406.474	-46.53192
406.687	4.03918
406.9	-2.28298
407.114	82.02988
407.327	10.36155
407.54	-54.95905
407.753	-2.28298
407.966	-6.49763
408.179	20.89932
408.392	-38.10439
408.605	-21.24814
408.819	44.08449
409.032	-4.39031
409.245	-0.17561
409.458	44.08449
409.671	18.79172
409.884	86.24649
410.097	103.11382
410.31	65.16435
410.523	4.03918
410.736	37.76098
410.949	56.73213
411.162	-54.95905
411.375	-2.28298
411.588	-21.24814
411.801	-63.38577
412.014	-19.141
412.227	31.43768
412.44	12.46906
412.653	-50.74553
412.865	39.86879
413.078	52.51615
413.291	-12.81942
413.504	-0.17561
413.717	-4.39031
413.93	-44.42508
414.143	69.38059
414.356	58.84015
414.568	54.62413
414.781	54.62413
414.994	44.08449
415.207	46.19237
415.42	65.16435
415.632	-61.27913
415.845	56.73213
416.058	1.93177
416.271	-105.51324
416.483	12.46906
416.696	10.36155
416.909	1.93177
417.121	-19.141
417.334	18.79172
417.547	-6.49763
417.759	4.03918
417.972	35.65319
418.185	-10.71218
418.397	-14.92664
418.61	-40.21131
418.823	-12.81942
419.035	52.51615
419.248	4.03918
419.46	27.22227
419.673	-21.24814
419.885	-4.39031
420.098	69.38059
420.311	-29.67646
420.523	12.46906
420.736	-19.141
420.948	75.70514
421.161	-6.49763
421.373	10.36155
421.586	18.79172
421.798	138.96154
422.01	56.73213
422.223	63.05626
422.435	4.03918
422.648	-25.46235
422.86	29.32996
423.073	-4.39031
423.285	-40.21131
423.497	10.36155
423.71	18.79172
423.922	31.43768
424.134	-4.39031
424.347	-23.35526
424.559	-10.71218
424.771	4.03918
424.984	29.32996
425.196	-12.81942
425.408	-23.35526
425.621	27.22227
425.833	-38.10439
426.045	50.4082
426.257	48.30027
426.47	18.79172
426.682	14.57659
426.894	-14.92664
427.106	44.08449
427.318	73.59693
427.531	69.38059
427.743	54.62413
427.955	60.94819
428.167	71.48875
428.379	-35.99745
428.591	35.65319
428.804	52.51615
429.016	31.43768
429.228	10.36155
429.44	25.11459
429.652	1.93177
429.864	-48.63874
430.076	37.76098
430.288	39.86879
430.5	20.89932
430.712	-23.35526
430.924	-2.28298
431.136	44.08449
431.348	14.57659
431.56	-38.10439
431.772	60.94819
431.984	69.38059
432.196	31.43768
432.408	35.65319
432.62	25.11459
432.832	-4.39031
433.044	-10.71218
433.256	35.65319
433.468	44.08449
433.679	52.51615
433.891	-38.10439
434.103	10.36155
434.315	52.51615
434.527	48.30027
434.739	56.73213
434.95	52.51615
435.162	-21.24814
435.374	-10.71218
435.586	46.19237
435.798	-38.10439
436.009	-78.13156
436.221	46.19237
436.433	35.65319
436.645	39.86879
436.856	79.92161
437.068	14.57659
437.28	12.46906
437.491	46.19237
437.703	-31.78348
437.915	-6.49763
438.126	6.14661
438.338	27.22227
438.55	73.59693
438.761	60.94819
438.973	-23.35526
439.184	-14.92664
439.396	31.43768
439.608	12.46906
439.819	-10.71218
440.031	-6.49763
440.242	23.00695
440.454	103.11382
440.665	-2.28298
440.877	60.94819
441.088	-4.39031
441.3	4.03918
441.511	-19.141
441.723	-25.46235
441.934	46.19237
442.146	69.38059
442.357	-44.42508
442.569	35.65319
442.78	-10.71218
442.991	119.98255
443.203	6.14661
443.414	27.22227
443.626	-2.28298
443.837	71.48875
444.048	46.19237
444.26	103.11382
444.471	31.43768
444.682	29.32996
444.894	44.08449
445.105	73.59693
445.316	33.54542
445.528	111.54801
445.739	1.93177
445.95	65.16435
446.161	82.02988
446.373	-2.28298
446.584	6.14661
446.795	98.89685
447.006	-23.35526
447.217	-52.8523
447.429	20.89932
447.64	-19.141
447.851	10.36155
448.062	25.11459
448.273	-44.42508
448.484	54.62413
448.695	23.00695
448.907	-14.92664
449.118	20.89932
449.329	77.81336
449.54	6.14661
449.751	60.94819
449.962	4.03918
450.173	44.08449
450.384	1.93177
450.595	27.22227
450.806	94.67998
451.017	4.03918
451.228	69.38059
451.439	111.54801
451.65	52.51615
451.861	-14.92664
452.072	73.59693
452.283	77.81336
452.494	52.51615
452.705	31.43768
452.915	27.22227
453.126	-38.10439
453.337	86.24649
453.548	29.32996
453.759	23.00695
453.97	14.57659
454.181	-14.92664
454.391	94.67998
454.602	-33.89048
454.813	94.67998
455.024	27.22227
455.235	105.22233
455.445	-23.35526
455.656	79.92161
455.867	18.79172
456.078	37.76098
456.288	50.4082
456.499	67.27246
456.71	-4.39031
456.921	52.51615
457.131	23.00695
457.342	77.81336
457.553	71.48875
457.763	149.50617
457.974	1.93177
458.184	96.7884
458.395	1.93177
458.606	46.19237
458.816	37.76098
459.027	109.43943
459.237	27.22227
459.448	25.11459
459.659	29.32996
459.869	10.36155
460.08	44.08449
460.29	73.59693
460.501	-2.28298
460.711	71.48875
460.922	65.16435
461.132	56.73213
461.343	71.48875
461.553	52.51615
461.764	63.05626
461.974	18.79172
462.184	109.43943
462.395	60.94819
462.605	65.16435
462.816	98.89685
463.026	1.93177
463.236	88.35483
463.447	37.76098
463.657	103.11382
463.867	-31.78348
464.078	50.4082
464.288	29.32996
464.498	179.03394
464.709	94.67998
464.919	27.22227
465.129	60.94819
465.339	128.41744
465.55	90.46319
465.76	88.35483
465.97	73.59693
466.18	69.38059
466.391	96.7884
466.601	172.70621
466.811	10.36155
467.021	143.17933
467.231	65.16435
467.441	119.98255
467.651	103.11382
467.862	149.50617
468.072	94.67998
468.282	71.48875
468.492	138.96154
468.702	86.24649
468.912	145.28826
469.122	117.87389
469.332	103.11382
469.542	145.28826
469.752	132.63502
469.962	181.14322
470.172	145.28826
470.382	204.34665
470.592	103.11382
470.802	179.03394
471.012	130.52622
471.222	94.67998
471.432	189.58055
471.642	208.56572
471.852	122.09124
472.062	141.07043
472.272	162.16043
472.482	271.86117
472.691	284.52232
472.901	195.90876
473.111	191.68993
473.321	174.81543
473.531	195.90876
473.741	231.77202
473.95	219.11374
474.16	292.96345
474.37	254.98069
474.58	263.42077
474.79	299.2945
474.999	271.86117
475.209	273.97131
475.419	254.98069
475.628	276.08147
475.838	269.75104
476.048	225.4428
476.258	352.0595
476.467	371.05758
476.677	328.84154
476.886	328.84154
477.096	387.9459
477.306	453.39803
477.515	337.28419
477.725	383.72372
477.935	402.72406
478.144	457.62127
478.354	432.28277
478.563	504.08088
478.773	449.17485
478.982	601.24592
479.192	491.40936
479.401	552.65979
479.611	565.33375
479.82	550.54751
480.03	542.09852
480.239	624.48519
480.449	588.57061
480.658	639.27461
480.868	580.12066
481.077	685.75944
481.287	592.79566
481.496	757.61034
481.705	630.82344
481.915	761.83724
482.124	728.02317
482.333	749.15665
482.543	702.6644
482.752	863.29445
482.961	782.97236
483.171	971.11408
483.38	702.6644
483.589	882.31996
483.799	890.77596
484.008	1013.40137
484.217	861.18054
484.426	1002.82931
484.636	842.15579
484.845	1066.26392
485.054	1144.50651
485.263	1142.39176
485.472	1087.4099
485.682	1205.83591
485.891	1072.60766
486.1	1184.68748
486.309	1207.95077
486.518	1298.89256
486.727	1269.28308
486.936	1349.65257
487.146	1220.64001
487.355	1336.96248
487.564	1260.82331
487.773	1597.11172
487.982	1474.44013
488.191	1495.59062
488.4	1478.67023
488.609	1459.63477
488.818	1616.14654
489.027	1544.23649
489.236	1679.59464
489.445	1692.28397
489.654	1793.79431
489.863	1713.43262
490.072	1772.64703
490.281	1812.82651
490.49	1819.17049
490.698	1819.17049
490.907	1823.3998
491.116	1971.41263
491.325	2072.89017
491.534	1996.78344
491.743	1903.75289
491.952	1920.66837
492.16	1914.32511
492.369	2091.91543
492.578	2155.32852
492.787	2165.89668
492.996	2216.62095
493.204	2271.56659
493.413	2165.89668
493.622	2334.95764
493.831	2250.43437
494.039	2337.07053
494.248	2334.95764
494.457	2463.82502
494.665	2434.25236
494.874	2520.8519
495.083	2334.95764
495.291	2537.74716
495.5	2514.51598
495.709	2664.43731
495.917	2546.19451
496.126	2624.32352
496.335	2630.65757
496.543	2643.32535
496.752	2550.41812
496.96	2719.32243
497.169	2700.32472
497.377	2793.19222
497.586	2848.05611
497.794	3054.76297
498.003	2708.76828
498.211	2942.99019
498.42	2807.96419
498.628	3065.30536
498.837	2919.78679
499.045	2995.7185
499.254	2854.38595
499.462	2976.73739
499.671	2930.33401
499.879	3238.14347
500.087	3288.70929
500.296	3412.97492
500.504	3174.92267
500.713	3238.14347
500.921	3160.16902
501.129	3387.70548
501.338	3153.84578
501.546	3381.38772
501.754	3044.2202
501.962	3457.19029
502.171	3318.20151
502.379	3545.59714
502.587	3461.40087
502.795	3501.39773
503.004	3452.97964
503.212	3686.55947
503.42	3547.70168
503.628	3667.62916
503.837	3585.58008
504.045	3610.829
504.253	3566.64163
504.461	3747.54656
504.669	3617.14081
504.877	3694.97244
505.085	3636.07522
505.294	3850.55647
505.502	3617.14081
505.71	3911.49912
505.918	3734.92987
506.126	4150.90083
506.334	3978.72653
506.542	3978.72653
506.75	3877.87767
506.958	3982.92755
507.166	4045.93306
507.374	4171.88811
507.582	4073.22969
507.79	4039.63334
507.998	4098.42346
508.206	4285.18277
508.414	4125.71333
508.622	4335.51593
508.83	4039.63334
509.037	4285.18277
509.245	4197.07006
509.453	4165.59215
509.661	4337.61288
509.869	4352.29089
510.077	4381.64372
510.285	4371.16106
510.492	4339.7098
510.7	4683.30841
510.908	4469.67659
511.116	4519.96369
511.324	4364.87119
511.531	4519.96369
511.739	4484.34497
511.947	4507.39311
512.155	4612.12357
512.362	4536.72323
512.57	4469.67659
512.778	4599.55885
512.985	4658.18731
513.193	4752.37472
513.401	4553.48135
513.608	4672.84168
513.816	4475.96317
514.024	4607.93542
514.231	4607.93542
514.439	4844.42474
514.646	4844.42474
514.854	5070.17783
515.061	4555.57602
515.269	4902.97905
515.477	4796.31317
515.684	4884.15998
515.892	4967.78607
516.099	4850.69927
516.307	5151.63358
516.514	5143.28077
516.722	4961.51539
516.929	5088.97845
517.136	5105.68853
517.344	4938.52112
517.551	4982.41686
517.759	5172.51398
517.966	5124.48559
518.173	5293.57429
518.381	4997.04652
518.588	5347.81718
518.796	5276.88099
519.003	5427.06672
519.21	5335.30099
519.418	5349.90313
519.625	5341.55919
519.832	5460.4248
520.039	5418.72626
520.247	5572.96384
520.454	5404.12955
520.661	5693.76256
520.868	5560.46289
521.076	5831.12661
521.283	5695.8446
521.49	5647.95169
521.697	5735.39888
521.904	5712.50007
522.112	5700.00861
522.319	5951.75561
522.526	5768.70115
522.733	6045.29244
522.94	5597.96319
523.147	5731.23567
523.354	5785.35001
523.561	5770.78234
523.768	5941.35968
523.975	6028.66715
524.183	5883.1316
524.39	6078.53848
524.597	5941.35968
524.804	6134.62753
525.011	5997.49069
525.218	6122.16478
525.425	6034.90181
525.632	6238.45092
525.838	6063.99408
526.045	6225.99521
526.252	6167.8574
526.459	6582.72574
526.666	6252.98152
526.873	6377.48247
527.08	6180.31705
527.287	6524.7002
527.494	6462.50982
527.701	6678.01413
527.907	6269.58651
528.114	6369.18502
528.321	6516.40935
528.528	6617.9467
528.735	6491.53459
528.941	6611.73172
529.148	6416.89025
529.355	6752.55371
529.562	6653.16099
529.768	6843.61739
529.975	6611.73172
530.182	6626.23301
530.388	6665.58797
530.595	6897.40702
530.802	6675.94316
531.008	7075.21772
531.215	6978.06276
531.422	7153.7324
531.628	6893.2699
531.835	6872.58294
532.042	6856.03174
532.248	7081.41742
532.455	7155.79814
532.661	7161.99523
532.868	6899.47555
533.074	7174.38881
533.281	6876.72052
533.487	7236.34474
533.694	7205.36926
533.9	7343.688
534.107	7195.043
534.313	7372.57799
534.52	7296.21658
534.726	7500.46811
534.933	7327.17752
535.139	7690.08827
535.345	7320.98573
535.552	7644.76072
535.758	7537.58194
535.965	7584.99506
536.171	7438.5962
536.377	7560.2592
536.584	7483.97083
536.79	7741.58445
536.996	7471.59697
537.203	7650.94235
537.409	7366.38764
537.615	7607.6669
537.821	7549.95168
538.028	7766.29794
538.234	7718.92775
538.44	7834.24454
538.646	7655.06333
538.853	7922.74709
539.059	7640.63952
539.265	7819.83352
539.471	7933.03561
539.677	7953.61111
539.883	7595.30076
540.09	8163.3651
540.296	8021.49575
540.502	8183.91796
540.708	7891.87845
540.914	8227.07248
541.12	7908.3423
541.326	8487.87065
541.532	8249.67375
541.738	8352.37685
541.944	8122.2534
542.15	8146.92138
542.356	8338.00135
542.562	8461.1891
542.768	8440.66262
542.974	8434.50431
543.18	8405.76321
543.386	8469.39915
543.592	8651.99444
543.798	8502.23631
544.004	8481.71366
544.21	8801.65354
544.415	8709.40951
544.621	8783.20769
544.827	8366.75139
545.033	8807.80183
545.239	8752.46133
545.445	8916.39485
545.651	8729.91139
545.856	8703.25859
546.062	8713.51004
546.268	8697.1075
546.474	8760.66076
546.679	8738.11162
546.885	8777.05875
547.091	8887.7148
547.297	8850.83529
547.502	8963.50451
547.708	8803.70298
547.914	8971.69653
548.119	8850.83529
548.325	8998.31868
548.531	8811.90059
548.736	8873.37346
548.942	8908.2009
549.147	9008.55718
549.353	9192.77596
549.559	9258.24263
549.764	9194.82205
549.97	9133.43179
550.175	9358.4553
550.381	9632.30697
550.586	9139.57151
550.792	9530.15704
550.997	9436.14403
551.203	9423.87895
551.408	9321.64711
551.614	9407.52461
551.819	9511.76586
552.025	9515.8529
552.23	9630.26436
552.435	9620.05105
552.641	9687.4517
552.846	9393.2137
553.052	9783.4177
553.257	9544.46041
553.462	9809.95557
553.668	9664.98669
553.873	9744.62698
554.078	9671.1137
554.283	9609.83736
554.489	9899.75735
554.694	9826.28531
554.899	9805.87299
555.105	9754.8356
555.31	9956.88909
555.515	9891.59474
555.72	10209.76626
555.925	10062.9608
556.131	9920.16286
556.336	10009.92979
556.541	10101.70816
556.746	10128.21659
556.951	10079.2761
557.156	9879.35038
557.361	10380.94977
557.567	10205.6893
557.772	10291.29402
557.977	10191.41951
558.182	10405.3969
558.387	10311.67259
558.592	10435.95317
558.797	10270.91411
559.002	10327.97448
559.207	10207.72778
559.412	10537.7865
559.617	10083.35478
559.822	10564.25797
560.027	10378.91242
560.232	10596.83533
560.437	10181.22639
560.642	10338.16273
560.847	10488.91049
561.051	10452.24866
561.256	10476.69034
561.461	10637.55256
561.666	10782.05939
561.871	10946.8467
562.076	10637.55256
562.281	10822.75469
562.485	10354.46324
562.69	10820.72004
562.895	10550.00436
563.1	10731.18362
563.305	10462.43292
563.509	10543.89549
563.714	10676.22937
563.919	10617.19456
564.123	10796.30328
564.328	10755.60492
564.533	10729.14844
564.737	10836.99694
564.942	10832.92778
565.147	10999.72553
565.351	10893.96024
565.556	11060.73024
565.761	10893.96024
565.965	11113.59304
566.17	10824.78933
566.374	10938.71082
566.579	10735.25396
566.784	10873.61724
566.988	11070.89673
567.193	11146.12038
567.397	10889.89173
567.602	11264.00936
567.806	11001.75918
568.011	11129.85705
568.215	11371.7053
568.42	11292.4601
568.624	11231.49176
568.828	11276.20278
569.033	11117.65911
569.237	11324.9728
569.442	11333.10057
569.646	11324.9728
569.85	11213.19945
570.055	11572.79937
570.259	11438.74714
570.463	11440.77854
570.668	11272.13835
570.872	11438.74714
571.076	11440.77854
571.281	11463.12336
571.485	11591.07605
571.689	11637.77974
571.893	11341.22818
572.098	11777.86234
572.302	11434.6843
572.506	11674.3271
572.71	11426.5585
572.914	11576.86092
573.119	11591.07605
573.323	11759.59307
573.527	11745.38315
573.731	11903.69856
573.935	11662.14497
574.139	11645.90162
574.343	11680.41804
574.547	12019.35872
574.751	11897.61045
574.955	11958.48821
575.159	11816.4285
575.364	11982.83728
575.568	11798.1607
575.772	11942.25486
575.976	11676.35742
576.18	11867.16879
576.383	11913.84524
576.587	11891.52227
576.791	11641.8407
576.995	11995.01138
577.199	11936.16722
577.403	12003.12728
577.607	11804.25005
577.811	12183.6741
578.015	12183.6741
578.219	12043.70492
578.422	12108.62267
578.626	12347.94103
578.83	12285.07896
579.034	12319.55254
579.238	12165.41929
579.442	12337.80244
579.645	12439.18068
579.849	12319.55254
580.053	12611.48607
580.257	12485.80907
580.46	12380.38337
580.664	12737.13954
580.868	12538.51528
581.071	12680.39564
581.275	12382.41095
581.479	12678.36899
581.682	12495.94521
581.886	12712.82129
582.09	12702.68843
582.293	12799.95788
582.497	12970.14881
582.7	12895.1884
582.904	12866.82312
583.107	12935.70842
583.311	12816.16818
583.515	12826.29944
583.718	12635.80789
583.922	12783.74721
584.125	12710.79473
584.329	12720.92746
584.532	12806.03678
584.735	12822.24696
584.939	12771.58898
585.142	13049.15356
585.346	12862.77085
585.549	12860.7447
585.753	12903.29257
585.956	13164.60875
586.159	12822.24696
586.363	13383.32594
586.566	13371.17628
586.769	13016.74228
586.973	13199.03983
587.176	13383.32594
587.379	13071.4356
587.582	13514.93836
587.786	13032.94808
587.989	13176.76104
588.192	13500.76549
588.395	13239.54531
588.599	13004.58771
588.802	13521.0124
589.005	13083.58918
589.208	13433.94803
589.411	13247.6462
589.615	13494.69134
589.818	13462.29533
590.021	13549.35746
590.224	13391.42564
590.427	13504.8149
590.63	13423.82381
590.833	13867.18242
591.036	13599.97192
591.239	13863.13417
591.442	13397.50038
591.645	13940.04911
591.848	13826.69938
592.051	13863.13417
592.254	13654.63311
592.457	13974.4572
592.66	13591.87375
592.863	13889.44761
593.066	13948.1452
593.269	13855.03763
593.472	13966.36124
593.675	13907.66435
593.878	13632.36404
594.081	14004.81666
594.284	14110.05864
594.486	14055.41455
594.689	14223.38949
594.892	14079.70102
595.095	14095.89181
595.298	13676.90179
595.5	14273.98161
595.703	14389.32745
595.906	13899.56805
596.109	14292.19448
596.311	14152.55848
596.514	14468.24529
596.717	14314.45447
596.92	14490.50377
597.122	14296.24177
597.325	14492.52726
597.528	14441.93959
597.73	14615.95775
597.933	14338.73785
598.136	14492.52726
598.338	14112.08246
598.541	14836.50442
598.743	14502.64469
598.946	14516.80903
599.148	14383.25675
599.351	14597.74697
599.554	14435.86901
599.756	14628.09822
599.959	14698.9169
600.161	14543.11408
600.363	14543.11408
600.566	14723.19732
600.768	14919.46011
600.971	14968.01915
601.173	14692.84677
601.376	15008.48485
601.578	14840.55106
601.78	14933.62319
601.983	14771.7578
602.185	14814.24785
602.388	14842.57438
602.59	14909.34361
602.792	14733.31413
602.995	14860.78423
603.197	14498.59772
603.399	14929.57659
603.601	14876.97073
603.804	14654.40244
604.006	15121.78828
604.208	14903.2737
604.41	14696.89352
604.613	14743.43091
604.815	14628.09822
605.017	15180.46313
605.219	14747.47762
605.421	14874.94742
605.623	14741.40755
605.826	15105.6021
606.028	15000.39172
606.23	15139.99772
606.432	14864.83086
606.634	15117.74173
606.836	14741.40755
607.038	15139.99772
607.24	15042.8806
607.442	15239.138
607.644	15055.02026
607.846	15283.65005
608.048	15020.62453
608.25	15313.99923
608.452	15233.06818
608.654	15269.48712
608.856	15166.30023
609.058	15099.53229
609.26	15113.69519
609.462	15075.25301
609.664	15277.58022
609.866	15524.42259
610.067	15429.32679
610.269	15479.90951
610.471	15348.39505
610.673	15575.00602
610.875	15479.90951
611.077	15595.23951
611.278	15251.27764
611.48	15599.28622
611.682	15154.16061
611.884	15795.55577
612.085	15259.37074
612.287	15738.89972
612.489	15524.42259
612.69	15396.95402
612.892	15453.60646
613.094	15655.94047
613.295	15220.92855
613.497	15674.1509
613.699	15485.97946
613.9	15554.77259
614.102	15168.3235
614.304	15621.54317
614.505	15575.00602
614.707	15900.77647
614.908	15255.32419
615.11	15336.25534
615.311	15413.14039
615.513	15403.0239
615.714	15577.02936
615.916	15856.25963
616.117	15506.21266
616.319	15878.51797
616.52	15589.16945
616.722	15639.75347
616.923	15680.22106
617.124	15686.29123
617.326	15451.58315
617.527	16036.35435
617.729	15738.89972
617.93	15999.92983
618.131	15809.71991
618.333	15706.52519
618.534	15564.8893
618.735	15910.89401
618.937	15678.19768
619.138	15583.0994
619.339	15575.00602
619.54	15510.2593
619.742	15900.77647
619.943	15801.62611
620.144	15914.94104
620.345	15664.03399
620.546	15957.43514
620.748	16052.54317
620.949	15380.76767
621.15	15601.30957
621.351	15676.17429
621.552	15854.23615
621.753	15846.14225
621.954	16121.34675
622.155	15579.05271
622.356	15864.35355
622.558	16159.7966
622.759	16299.43538
622.96	16012.07129
623.161	15941.24684
623.362	15773.29794
623.563	15937.19978
623.764	15803.64956
623.965	16194.1996
624.166	16180.0336
624.366	16119.32309
624.567	15923.03511
624.768	15961.48223
624.969	15692.36141
625.17	15921.01159
625.371	15704.50179
625.572	15793.53232
625.773	15834.00143
625.973	15874.47099
626.174	16151.70185
626.375	16161.82029
626.576	15698.4316
626.777	16163.84399
626.977	15734.85289
627.178	16101.11022
627.379	16003.97698
627.58	15991.83556
627.78	16200.27076
627.981	15783.41512
628.182	15910.89401
628.382	16036.35435
628.583	16400.62831
628.784	16042.42515
628.984	15927.08215
629.185	16101.11022
629.386	15892.68245
629.586	16426.93926
629.787	15870.42401
629.987	15959.45868
630.188	16198.24704
630.388	16040.40155
630.589	15880.54147
630.79	15995.88269
630.99	16070.75571
631.191	16325.74509
631.391	15997.90626
631.591	16382.41323
631.792	16325.74509
631.992	16465.39434
632.193	16459.32244
632.393	16295.38776
632.594	16024.21279
632.794	16216.46062
632.994	16584.8123
633.195	16586.8364
633.395	16289.31635
633.595	16283.24495
633.796	16339.91198
633.996	16435.03501
634.196	16378.36545
634.397	16473.49024
634.597	16358.1267
634.797	16860.11089
634.997	16254.91197
635.198	16639.46372
635.398	16534.21056
635.598	17101.03536
635.798	16795.33076
635.998	16856.06206
636.199	16809.5012
636.399	16793.30642
636.599	16661.72959
636.799	16762.94164
636.999	16382.41323
637.199	16445.15473
637.399	16169.91508
637.599	16645.53621
637.799	16609.10162
637.999	16718.40761
638.199	16291.34015
638.399	16315.62593
638.599	16495.75414
638.799	16833.79366
638.999	16756.86875
639.199	17258.97346
639.399	17111.15908
639.599	17007.9004
639.799	16404.67612
639.999	16904.64874
640.199	16586.8364
640.399	16781.16044
640.599	16159.7966
640.799	17159.7539
640.998	17157.72908
641.198	17226.57447
641.398	16991.70361
641.598	16890.47747
641.798	17244.79881
641.997	16965.38418
642.197	16611.12574
642.397	16716.38336
642.597	16878.33077
642.796	16799.37944
642.996	16858.08648
643.196	17175.95254
643.395	16766.99025
643.595	17214.42504
643.795	16959.31053
643.994	17013.97425
644.194	17007.9004
644.394	17036.24521
644.593	16912.74666
644.793	17250.87364
644.992	16926.91813
645.192	17216.44994
645.392	17113.18383
645.591	17052.44249
645.791	17056.49183
645.99	16969.43329
646.19	16951.21237
646.389	17034.22057
646.589	16724.48036
646.788	17076.73872
646.987	16671.85053
647.187	17562.75176
647.386	17339.97426
647.586	17366.30055
647.785	17337.94918
647.984	17352.12479
648.184	17423.0051
648.383	17319.72361
648.582	17188.10164
648.782	17554.65009
648.981	17056.49183
649.18	17514.14251
649.38	17265.04835
649.579	17182.02707
649.778	17333.89903
649.977	17358.2001
650.177	17165.82837
650.376	17208.35037
650.575	17007.9004
650.774	17289.3482
650.973	17149.62984
651.173	17038.26986
651.372	17109.13433
651.571	17400.72802
651.77	17439.20684
651.969	17497.93984
652.168	17123.30763
652.367	17331.87396
652.566	17060.54119
652.765	17599.20991
652.964	17429.08073
653.163	17508.06649
653.362	17807.85211
653.561	17552.62468
653.76	17518.19321
653.959	17024.09737
654.158	17477.68678
654.357	17384.52675
654.556	17560.72634
654.755	17708.59073
654.954	17283.2732
655.153	17325.79877
655.352	17350.09969
655.551	17548.57387
655.749	17757.20754
655.948	17508.06649
656.147	17637.69466
656.346	17915.22571
656.545	17633.64358
656.743	17489.83858
656.942	17530.34539
657.141	17935.48597
657.34	17396.67769
657.538	17637.69466
657.737	17572.87892
657.936	17903.06972
658.135	17631.61804
658.333	17712.64205
658.532	17431.10594
658.731	17730.87319
658.929	17617.43938
659.128	17487.81327
659.326	17451.35828
659.525	17738.97601
659.724	17611.36286
659.922	17854.44701
660.121	17769.36204
660.319	17619.46489
660.518	17574.90436
660.716	17653.89912
660.915	17749.1046
661.113	18057.05497
661.312	17686.30867
661.51	18306.31211
661.709	17903.06972
661.907	17856.47292
662.105	17745.05315
662.304	17886.86193
662.502	17720.74475
662.701	17696.43683
662.899	17473.63621
663.097	17860.52474
663.296	17767.33628
663.494	17998.29503
663.692	17907.1217
663.891	17852.42111
664.089	17844.31753
664.287	17957.77267
664.485	17791.64562
664.684	18132.02894
664.882	17510.09183
665.08	18136.08173
665.278	17925.3558
665.476	17856.47292
665.675	17530.34539
665.873	17874.70623
666.071	17720.74475
666.269	17643.77131
666.467	17350.09969
666.665	17757.20754
666.863	17317.69856
667.061	17449.33303
667.259	17662.00143
667.457	17868.62843
667.655	17639.7202
667.853	17884.83597
668.051	17649.84798
668.249	17544.52308
668.447	17708.59073
668.645	17815.95544
668.843	18048.94997
669.041	17965.87703
669.239	17670.10379
669.437	17992.21658
669.635	18130.00255
669.833	17668.07819
670.031	17822.03298
670.229	17755.1818
670.426	17504.01582
670.624	17562.75176
670.822	17702.51376
671.02	18144.18735
671.218	17988.1643
671.415	17623.51593
671.613	17828.11054
671.811	17939.53807
672.009	18089.47554
672.206	18178.63689
672.404	17965.87703
672.602	17933.45993
672.799	18077.31772
672.997	18075.29143
673.195	18073.26514
673.392	18089.47554
673.59	17538.44691
673.788	17884.83597
673.985	17380.47646
674.183	17726.8218
674.38	17518.19321
674.578	17976.00755
674.775	17769.36204
674.973	17591.10801
675.17	17580.9807
675.368	17585.03162
675.565	17453.38353
675.763	17526.29465
675.96	17479.71207
676.158	17674.15499
676.355	17352.12479
676.553	17811.90377
676.75	17506.04115
676.947	18057.05497
677.145	17295.42323
677.342	17376.42619
677.539	17451.35828
677.737	17736.9503
677.934	17781.51667
678.131	17757.20754
678.329	17862.55066
678.526	17730.87319
678.723	17862.55066
678.92	18048.94997
679.118	17649.84798
679.315	17520.21857
679.512	17510.09183
679.709	17901.04373
679.906	17368.32567
680.104	17603.26088
680.301	17623.51593
680.498	17374.40105
680.695	17331.87396
680.892	17447.30779
681.089	17277.19822
681.286	17603.26088
681.483	17119.2581
681.68	17360.22521
681.877	17173.9277
682.075	17400.72802
682.272	17165.82837
682.469	17485.78797
682.665	17182.02707
682.862	17390.6022
683.059	17611.36286
683.256	17457.43404
683.453	17250.87364
683.65	17416.92949
683.847	17435.15639
684.044	17372.37592
684.241	16945.13877
684.438	17186.07678
684.635	16716.38336
684.831	17390.6022
685.028	17309.5984
685.225	17364.27543
685.422	16902.62426
685.619	17060.54119
685.815	17056.49183
686.012	17078.76343
686.209	16760.91734
686.405	17165.82837
686.602	16918.82013
686.799	17052.44249
686.996	16704.23793
687.192	16985.62985
687.389	16904.64874
687.586	17015.99887
687.782	16957.28598
687.979	17117.23334
688.175	16696.14103
688.372	17005.8758
688.568	16969.43329
688.765	17147.60504
688.962	17034.22057
689.158	17230.6243
689.355	16874.28189
689.551	16900.59979
689.748	17161.77872
689.944	17218.47484
690.14	16943.11424
690.337	17157.72908
690.533	17287.32319
690.73	16878.33077
690.926	17307.57336
691.123	16969.43329
691.319	16813.54991
691.515	16829.74489
691.712	16542.30675
691.908	16558.49923
692.104	16692.09259
692.301	16896.55086
692.497	16509.92221
692.693	16902.62426
692.889	16854.03765
693.086	16997.77739
693.282	17137.48107
693.478	16882.37966
693.674	16997.77739
693.87	17285.29819
694.067	17139.50586
694.263	17256.9485
694.459	16601.00514
694.655	16874.28189
694.851	16742.69876
695.047	16787.23342
695.243	16607.0775
695.439	16570.64368
695.635	16465.39434
695.831	16607.0775
696.027	16647.56037
696.224	16469.44229
696.42	16437.05895
696.615	16860.11089
696.811	16499.80215
697.007	16748.7716
697.203	16469.44229
697.399	16667.80215
697.595	16686.01995
697.791	16854.03765
697.987	16550.40297
698.183	16532.18652
698.379	16263.00707
698.575	16874.28189
698.77	16528.13844
698.966	16564.57144
699.162	16548.37891
699.358	16594.93281
699.554	16544.3308
699.749	16781.16044
699.945	16647.56037
700.141	16665.77796
700.337	16418.84355
700.532	16311.57828
700.728	16451.2266
700.924	16657.68123
701.119	16400.62831
701.315	16598.98103
701.511	16048.49596
701.706	16455.27451
701.902	16408.72395
702.097	16609.10162
702.293	16447.17869
702.489	16507.89819
702.684	16210.38941
702.88	16463.37037
703.075	16216.46062
703.271	16232.65058
703.466	16368.24605
703.662	16518.01829
703.857	16380.38934
704.053	16422.8914
704.248	16564.57144
704.443	16534.21056
704.639	16811.52555
704.834	16483.61017
705.03	16279.19736
705.225	16546.35486
705.42	16350.03125
705.616	16566.59552
705.811	16437.05895
706.006	16388.4849
706.202	15967.55287
706.397	16222.53184
706.592	16145.6308
706.787	16206.34195
706.983	16263.00707
707.178	16528.13844
707.373	16030.28356
707.568	16157.77291
707.763	16080.87384
707.959	16542.30675
708.154	16469.44229
708.349	16224.55559
708.544	16358.1267
708.739	16072.77934
708.934	16339.91198
709.129	16408.72395
709.324	16321.69742
709.519	16271.1022
709.714	16287.29255
709.909	16445.15473
710.104	16127.41774
710.299	16263.00707
710.494	16273.12599
710.689	16493.73014
710.884	16030.28356
711.079	16281.22115
711.274	16052.54317
711.469	16384.43712
711.664	16345.98354
711.859	16532.18652
712.054	16337.88813
712.249	16333.84044
712.443	16408.72395
712.638	16173.96248
712.833	15949.34098
713.028	16165.86768
713.223	15742.94655
713.417	15906.84699
713.612	16147.65448
713.807	16133.48875
714.002	15736.8763
714.196	15738.89972
714.391	15577.02936
714.586	15649.87034
714.78	15842.0953
714.975	15763.18078
715.17	15542.63257
715.364	15951.36452
715.559	15882.56496
715.754	15890.65895
715.948	15597.26286
716.143	15838.04836
716.337	15817.81373
716.532	16139.55976
716.726	15631.66
716.921	16052.54317
717.115	15680.22106
717.31	15749.01681
717.504	15803.64956
717.699	15904.82348
717.893	15655.94047
718.088	15939.22331
718.282	15635.70673
718.476	16099.08657
718.671	15690.33802
718.865	15659.98723
719.059	15222.95182
719.254	15176.41659
719.448	15046.92715
719.642	15591.19281
719.837	15396.95402
720.031	15629.63663
720.225	15394.93072
720.419	15465.74631
720.614	15384.81425
720.808	15441.46661
721.002	15267.46384
721.196	15449.55984
721.39	15401.00061
721.585	15477.88619
721.779	15392.90743
721.973	15277.58022
722.167	15042.8806
722.361	15057.04353
722.555	15372.6745
722.749	15396.95402
722.943	15218.90528
723.137	15222.95182
723.331	15111.67192
723.525	15437.42001
723.719	15055.02026
723.913	15411.11709
724.107	15152.13734
724.301	14996.34515
724.495	14840.55106
724.689	15324.11564
724.883	15226.99837
725.077	15184.50967
725.271	15255.32419
725.465	15423.25689
725.659	15026.69437
725.853	15243.18455
726.046	14860.78423
726.24	15392.90743
726.434	14862.80755
726.628	15318.04579
726.822	15048.95043
727.015	15301.85955
727.209	15057.04353
727.403	15204.74238
727.596	15160.23042
727.79	15548.70258
727.984	15131.90463
728.177	15229.02164
728.371	15206.76565
728.565	15129.88136
728.758	15267.46384
728.952	15283.65005
729.146	14737.36084
729.339	15417.18699
729.533	15352.44162
729.726	15512.28263
729.92	15309.95267
730.113	15166.30023
730.307	14868.87748
730.5	14672.61296
730.694	14858.76092
730.887	14941.71636
731.081	14870.9008
731.274	15024.67109
731.468	14789.96786
731.661	15243.18455
731.854	14876.97073
732.048	15137.97445
732.241	14872.92411
732.435	15071.20646
732.628	15016.57797
732.821	15279.6035
733.014	14996.34515
733.208	14816.27118
733.401	14937.66977
733.594	14915.41351
733.788	15042.8806
733.981	15065.13663
734.174	15202.71911
734.367	15226.99837
734.56	15148.0908
734.754	15067.15991
734.947	15328.16221
735.14	15392.90743
735.333	15237.11473
735.526	15204.74238
735.719	15111.67192
735.912	15059.06681
736.105	15154.16061
736.298	14765.68776
736.491	14571.44235
736.684	14636.19185
736.877	15057.04353
737.07	14840.55106
737.263	14741.40755
737.456	14814.24785
737.649	14696.89352
737.842	14739.3842
738.035	14702.96364
738.228	14553.23135
738.421	14968.01915
738.614	14765.68776
738.807	15028.71765
739	14666.5428
739.192	15214.85873
739.385	14959.92599
739.578	14870.9008
739.771	14816.27118
739.964	14767.71111
740.156	14921.4834
740.349	14522.87945
740.542	14842.57438
740.735	14429.79842
740.927	14535.02024
741.12	14571.44235
741.313	14664.51941
741.505	14350.87944
741.698	14620.00458
741.891	14692.84677
742.083	14577.51267
742.276	14638.21525
742.468	14541.09062
742.661	14168.74864
742.854	14767.71111
743.046	14553.23135
743.239	14579.5361
743.431	14897.20379
743.624	14796.03787
743.816	14559.30169
744.009	14622.02799
744.201	14539.06716
744.393	14632.14504
744.586	14615.95775
744.778	14391.35101
744.971	14747.47762
745.163	14605.84066
745.355	14518.8325
745.548	14684.75326
745.74	14441.93959
745.932	14654.40244
746.125	14636.19185
746.317	14923.5067
746.509	14510.73861
746.702	14595.72355
746.894	14379.20961
747.086	14221.36579
747.278	14271.95794
747.471	14280.05258
747.663	14441.93959
747.855	14470.26879
748.047	14466.22178
748.239	14417.65719
748.431	14059.46232
748.623	14191.00991
748.815	14142.43955
749.008	14239.5791
749.2	14217.31836
749.392	14466.22178
749.584	13978.50516
749.776	14118.15392
749.968	13844.91689
750.16	13656.65756
750.352	13818.60263
750.544	13909.68841
750.736	13944.09716
750.928	14207.19977
751.12	14160.65358
751.311	14095.89181
751.503	14249.69754
751.695	13933.97702
751.887	13867.18242
752.079	14338.73785
752.271	13964.33725
752.463	13960.28925
752.654	13800.38479
752.846	14233.50801
753.038	13806.45743
753.23	13990.64898
753.421	13640.46193
753.613	13711.31625
753.805	13755.85126
753.997	13757.87554
754.188	13867.18242
754.38	13840.86857
754.572	14027.07992
754.763	13917.78466
754.955	13660.70643
755.146	13689.04818
755.338	13539.23431
755.53	13859.0859
755.721	13998.74481
755.913	13925.88086
756.104	13802.409
756.296	13950.16921
756.487	13927.9049
756.679	14006.84061
756.87	13541.25895
757.062	13561.50513
757.253	13506.8396
757.445	13407.62485
757.636	13535.18502
757.827	13265.87294
758.019	13379.27607
758.21	13502.7902
758.401	13478.49346
758.593	13672.85297
758.784	13284.09933
758.975	13030.92237
759.167	13043.07654
759.358	13599.97192
759.549	13215.24223
759.74	13328.65128
759.932	13180.81177
760.123	13148.40543
760.314	13174.73567
760.505	13348.9015
760.696	13518.98772
760.888	13567.57892
761.079	13178.78641
761.27	13271.94844
761.461	13304.35047
761.652	13391.42564
761.843	13213.21695
762.034	13172.7103
762.225	12955.96765
762.416	12808.06308
762.607	12749.29836
762.798	13059.28183
762.989	13229.41911
763.18	13166.63414
763.371	12733.08656
763.562	12931.65652
763.753	13049.15356
763.944	13118.02342
764.135	13051.17923
764.326	12984.32971
764.517	12836.43057
764.708	12741.1925
764.899	12491.89077
765.089	12917.47467
765.28	12785.77357
765.471	13018.76802
765.662	12692.55543
765.853	12599.32484
766.043	12256.68742
766.234	12404.71398
766.425	12116.73683
766.615	12485.80907
766.806	12390.52124
766.997	12607.43235
767.187	12583.1095
767.378	12512.16272
767.569	12199.9001
767.759	12526.35269
767.95	12639.86145
768.141	12536.4882
768.331	12335.7747
768.522	12885.05806
768.712	12562.83978
768.903	12435.12588
769.093	12254.6594
769.284	12313.46911
769.474	12199.9001
769.665	12291.16268
769.855	12303.32993
770.046	12570.94774
770.236	12520.27131
770.426	12327.66368
770.617	12465.53628
770.807	11990.95338
770.998	12055.8776
771.188	12023.4165
771.378	11919.93315
771.569	12063.99257
771.759	11950.3716
771.949	12090.36535
772.139	12128.90785
772.33	12278.99517
772.52	12161.36258
772.71	12033.56081
772.9	12023.4165
773.09	12078.19346
773.281	12003.12728
773.471	11840.7845
773.661	11887.46344
773.851	12029.50311
774.041	11684.47863
774.231	12007.18519
774.421	11840.7845
774.611	11848.90289
774.802	11288.39583
774.992	11629.6577
775.182	11649.96251
775.372	11629.6577
775.562	11203.03669
775.752	11710.87156
775.942	11501.71621
776.131	11603.26008
776.321	11452.96677
776.511	11678.38774
776.701	11745.38315
776.891	12078.19346
777.081	11637.77974
777.271	11680.41804
777.461	11871.22779
777.651	11954.42992
777.84	11818.45822
778.03	11818.45822
778.22	11903.69856
778.41	11972.69197
778.599	11830.63632
778.789	11654.02337
778.979	11253.84789
779.169	11253.84789
779.358	11062.76356
779.548	11422.49555
779.738	11119.69213
779.927	11351.38747
780.117	11385.92719
780.307	11278.23498
780.496	11119.69213
780.686	11176.61229
780.875	10981.42217
781.065	11284.33152
781.254	11223.36195
781.444	11292.4601
781.633	11083.09617
781.823	11011.92726
782.012	11201.00411
782.202	11176.61229
782.391	11093.26206
782.581	11306.68473
782.77	11036.32954
782.96	11278.23498
783.149	10875.65159
783.338	11235.55661
783.528	10973.28706
783.717	11060.73024
783.906	10942.77878
784.096	10954.9824
784.285	10822.75469
784.474	10749.49976
784.663	10690.47762
784.853	10698.6192
785.042	10716.93707
785.231	10963.11791
785.42	10812.58131
785.61	10761.70998
785.799	10741.35937
785.988	10621.26626
786.177	10325.93679
786.366	10621.26626
786.555	10490.94714
786.744	10437.99015
786.933	10283.14222
787.122	10576.47485
787.312	10810.54659
787.501	10759.67497
787.69	10470.58009
787.879	10629.40951
788.068	10385.02442
788.257	10264.79987
788.445	10077.23673
788.634	10556.11313
788.823	10126.17756
789.012	10209.76626
789.201	10007.88994
789.39	10185.30368
789.579	9969.13012
789.768	9948.72811
789.957	9999.73041
790.145	10372.8003
790.334	10272.95216
790.523	10358.53823
790.712	9907.91973
790.9	10073.15797
791.089	9938.52657
791.278	10175.11035
791.467	10050.72373
791.655	10197.53521
791.844	10203.6508
792.033	10334.08747
792.221	10105.78653
792.41	10262.76177
792.599	9879.35038
792.787	9979.33058
792.976	9805.87299
793.164	10056.84233
793.353	10007.88994
793.541	10387.06173
793.73	10050.72373
793.918	10205.6893
794.107	9822.20297
794.295	10022.16857
794.484	9699.70456
794.672	9681.32507
794.861	9777.29321
795.049	9891.59474
795.238	9771.16859
795.426	9816.07934
795.614	9879.35038
795.803	9822.20297
795.991	9468.84806
796.179	9781.37622
796.368	9897.71672
796.556	9695.62034
796.744	9235.7404
796.932	9474.97961
797.121	9423.87895
797.309	9703.78872
797.497	9687.4517
797.685	9534.2438
797.874	9560.80616
798.062	9438.18816
798.25	9123.19859
798.438	9524.02679
798.626	9421.83472
798.814	9575.10786
799.002	9356.41054
799.19	9474.97961
799.378	9660.90195
799.566	9374.81278
799.755	9274.60661
799.943	9362.54477
800.131	9397.30261
800.318	9419.79046
800.506	9481.11101
800.694	9387.08021
800.882	9340.05187
801.07	9763.00221
801.258	9153.89692
801.446	9538.33049
801.634	9117.05846
801.822	9233.69465
802.01	9382.99113
802.197	9658.85955
802.385	9282.7882
802.573	9730.33429
802.761	9472.93578
802.949	9648.64733
803.136	9501.54798
803.324	9556.71981
803.512	9162.08249
803.699	9233.69465
803.887	9372.76815
804.075	9448.40853
804.262	9260.28818
804.45	9568.97865
804.638	9258.24263
804.825	9380.94657
805.013	9370.72351
805.201	9436.14403
805.388	9470.89193
805.576	9724.20862
805.763	9554.67662
805.951	9399.34704
806.138	9699.70456
806.326	9577.1509
806.513	9401.39146
806.701	9421.83472
806.888	9342.09676
807.075	9417.7462
807.263	9176.40658
807.45	9305.28619
807.638	9090.44944
807.825	9546.50368
808.012	9262.33372
808.2	9411.61329
808.387	9348.23134
808.574	9542.41712
808.761	9485.19853
808.949	9421.83472
809.136	9078.16737
809.323	9540.37381
809.51	9278.69744
809.698	9448.40853
809.885	9270.51571
810.072	9707.87282
810.259	9526.07023
810.446	9503.59159
810.633	9325.73717
810.82	9423.87895
811.008	9409.56896
811.195	9571.02174
811.382	9192.77596
811.569	9425.92317
811.756	9329.82717
811.943	9519.93988
812.13	9374.81278
812.317	9393.2137
812.504	9348.23134
812.691	9732.37615
812.878	9344.14164
813.064	9511.76586
813.251	9528.11364
813.438	9824.24415
813.625	9382.99113
813.812	9566.93555
813.999	9370.72351
814.186	9538.33049
814.372	9421.83472
814.559	9701.74665
814.746	9235.7404
814.933	9405.48024
815.12	9331.87214
815.306	9309.37652
815.493	9305.28619
815.68	9530.15704
815.866	9233.69465
816.053	9454.54056
816.24	9112.96495
816.426	9164.12884
816.613	9096.59024
816.799	9254.15147
816.986	9290.96952
817.173	9372.76815
817.359	8908.2009
817.546	9192.77596
817.732	8775.00906
817.919	9254.15147
818.105	8957.3603
818.292	9145.71107
818.478	8977.84037
818.665	8977.84037
818.851	9184.5914
819.037	9192.77596
819.224	9069.97898
819.41	9239.83187
819.597	8932.78188
819.783	9065.88468
819.969	8957.3603
820.156	9092.49639
820.342	9280.74282
820.528	9135.47838
820.714	8803.70298
820.901	9090.44944
821.087	8920.49171
821.273	8873.37346
821.459	8873.37346
821.646	9174.36033
821.832	9102.73089
822.018	9254.15147
822.204	8850.83529
822.39	8938.92672
822.576	8528.91292
822.762	8840.58995
822.948	8610.97476
823.134	8924.58851
823.32	8701.20825
823.507	8795.50508
823.693	8877.47107
823.879	9194.82205
824.065	8723.76102
824.25	8856.98228
824.436	8850.83529
824.622	8744.26161
824.808	8709.40951
824.994	8963.50451
825.18	8711.45978
825.366	8918.44329
825.552	8818.04861
825.738	8938.92672
825.923	8719.66068
826.109	8955.3122
826.295	8703.25859
826.481	8844.68814
826.667	8887.7148
826.852	8750.41143
827.038	8760.66076
827.224	8879.51985
827.409	8662.2482
827.595	8678.65324
827.781	8393.44444
827.966	8225.01771
828.152	8210.6337
828.338	8383.17827
828.523	8050.2886
828.709	8461.1891
828.894	8352.37685
829.08	8588.41076
829.266	8625.3325
829.451	8543.27592
829.637	8093.47044
829.822	8335.94764
830.008	8241.45539
830.193	8366.75139
830.378	8204.46882
830.564	8477.6089
830.749	8286.65251
830.935	8483.76601
831.12	8054.40154
831.305	8424.24006
831.491	8120.1976
831.676	8463.24164
831.861	7996.81299
832.047	8159.25429
832.232	7978.299
832.417	7990.64185
832.602	7846.59603
832.788	7883.64602
832.973	7723.04734
833.158	8037.94929
833.343	8072.90877
833.528	8148.97691
833.714	7970.07003
833.899	8058.5144
834.084	7924.80484
834.269	7840.42038
834.454	7797.18558
834.639	7854.82994
834.824	7817.77472
835.009	8134.58775
835.194	8066.73987
835.379	8311.30148
835.564	7941.26605
835.749	8128.42066
835.934	7805.42149
836.119	7889.82037
836.304	7817.77472
836.489	7819.83352
836.674	7846.59603
836.859	7537.58194
837.044	7906.28439
837.228	7893.9365
837.413	7741.58445
837.598	8035.89267
837.783	7718.92775
837.968	7918.63154
838.152	7685.96801
838.337	7976.24179
838.522	7683.90784
838.707	7599.42289
838.891	7399.40057
839.076	7428.28232
839.261	7327.17752
839.445	7504.59221
839.63	7372.57799
839.815	7667.42577
839.999	7403.5268
840.184	7417.9679
840.368	7089.68337
840.553	7393.21107
840.737	7327.17752
840.922	7149.60085
841.106	7269.37977
841.291	7354.00635
841.475	7174.38881
841.66	7475.72168
841.844	6938.77323
842.029	7411.77898
842.213	7349.87907
842.397	7281.76645
842.582	7112.4129
842.766	7370.51456
842.951	6944.97738
843.135	7261.12154
843.319	6961.52079
843.504	7054.55061
843.688	7139.27159
843.872	7054.55061
844.056	7093.81622
844.241	7120.67751
844.425	6717.35817
844.609	6926.36432
844.793	6938.77323
844.977	6920.15956
845.161	6845.6865
845.346	7153.7324
845.53	6988.40075
845.714	7141.33748
845.898	6649.01847
846.082	6864.30752
846.266	6582.72574
846.45	6678.01413
846.634	6864.30752
846.818	6798.09107
847.002	6499.82655
847.186	6684.2269
847.37	6503.97239
847.554	6783.60311
847.738	6653.16099
847.922	6849.82467
848.106	6611.73172
848.29	6760.83405
848.473	6557.85987
848.657	6632.4475
848.841	6149.16634
849.025	6514.33658
849.209	6425.18555
849.392	6427.25932
849.576	6371.25942
849.76	6408.59457
849.944	6398.22445
850.127	6506.04528
850.311	6400.29852
850.495	6789.81237
850.678	6458.36305
850.862	6874.65174
851.046	6394.07624
851.229	6435.55416
851.413	6024.5106
851.596	6194.85224
851.78	6385.77954
851.964	6474.94956
852.147	6086.84905
852.331	6255.05722
852.514	6134.62753
852.698	6238.45092
852.881	6147.08943
853.065	6109.70118
853.248	6184.47008
853.431	6201.08126
853.615	6109.70118
853.798	6126.31912
853.982	6234.29911
854.165	6315.24251
854.348	5962.15095
854.532	6244.67846
854.715	5887.29136
854.898	5935.12184
855.081	5752.05077
855.265	5953.83472
855.448	5824.88502
855.631	6018.27559
855.814	5854.01062
855.997	5924.72497
856.181	5962.15095
856.364	6072.30531
856.547	5652.11679
856.73	5697.92661
856.913	5785.35001
857.096	6030.7454
857.279	5841.52878
857.462	5912.24795
857.645	5695.8446
857.828	5878.97174
858.011	5570.88041
858.194	5777.02577
858.377	5537.54229
858.56	5878.97174
858.743	5745.80649
858.926	5756.21351
859.109	5500.0297
859.292	5760.37615
859.475	5554.2121
859.658	5760.37615
859.841	5366.58987
860.023	5489.60818
860.206	5506.28232
860.389	5618.79338
860.572	5260.18619
860.755	5541.70988
860.937	5439.5767
861.12	5512.53474
861.303	5506.28232
861.486	5500.0297
861.668	5191.30435
861.851	5404.12955
862.034	4810.9571
862.216	5185.0411
862.399	4946.88299
862.581	5195.47973
862.764	4921.79626
862.947	5228.87941
863.129	5097.33367
863.312	5084.80069
863.494	4902.97905
863.677	4994.95664
863.859	4921.79626
864.042	5030.48149
864.224	4750.28216
864.406	5134.92759
864.589	5088.97845
864.771	4852.79074
864.954	4647.71923
865.136	4992.86673
865.318	4668.65483
865.501	5059.73224
865.683	4934.34004
865.865	5022.1233
866.048	4817.23273
866.23	4884.15998
866.412	4578.61587
866.594	4819.32456
866.777	4645.62555
866.959	4771.20671
867.141	4582.80464
867.323	4727.26254
867.505	4536.72323
867.687	4921.79626
867.869	4785.85254
868.052	5059.73224
868.234	4718.8911
868.416	5107.77718
868.598	4785.85254
868.78	4792.12899
868.962	4637.25059
869.144	4700.05402
869.326	4723.07686
869.508	4781.66813
869.69	4664.46789
869.872	4804.68127
870.054	4515.77358
870.236	4712.61227
870.417	4517.86865
870.599	4578.61587
870.781	4364.87119
870.963	4603.74718
871.145	4322.93381
871.327	4725.16972
871.508	4331.32198
871.69	4549.29195
871.872	4503.20273
872.054	4658.18731
872.235	4260.01155
872.417	4536.72323
872.599	4241.13112
872.78	4580.71027
872.962	4463.38981
873.144	4457.10283
873.325	4289.37768
873.507	4496.91701
873.689	4343.90358
873.87	4348.09728
874.052	4289.37768
874.233	4385.83664
874.415	4192.87328
874.596	4664.46789
874.778	4201.26675
874.959	4354.38766
875.141	4167.69082
875.322	4555.57602
875.503	4400.51115
875.685	4624.68748
875.866	4440.33659
876.048	4528.34364
876.229	4243.22903
876.41	4381.64372
876.592	4266.30465
876.773	4373.25763
876.954	4087.92642
877.136	4620.4996
877.317	4431.95294
877.498	4570.23805
877.679	4322.93381
877.86	4616.31163
878.042	4331.32198
878.223	4641.43811
878.404	4402.60742
878.585	4431.95294
878.766	4159.296
878.947	4448.71988
879.128	4423.56895
879.309	4503.20273
879.49	4243.22903
879.672	4490.63109
879.853	4358.58114
880.034	4545.10247
880.215	4398.41486
880.396	4603.74718
880.576	4390.02946
880.757	4469.67659
880.938	4314.54529
881.119	4465.48542
881.3	4243.22903
881.481	4270.49994
881.662	4096.32409
881.843	4522.05871
882.023	4469.67659
882.204	4559.76528
882.385	4094.2247
882.566	4301.96187
882.747	4184.47946
882.927	4341.8067
883.108	4031.23343
883.289	4557.67066
883.469	4306.15643
883.65	4467.58101
883.831	4358.58114
884.011	4440.33659
884.192	4695.86775
884.373	4754.46725
884.553	4700.05402
884.734	4524.15371
884.914	4398.41486
885.095	4524.15371
885.275	4197.07006
885.456	4524.15371
885.636	4442.43244
885.817	4341.8067
885.997	4436.14481
886.178	4660.28086
886.358	4557.67066
886.538	4693.77459
886.719	4519.96369
886.899	4557.67066
887.08	4509.48826
887.26	4578.61587
887.44	4310.3509
887.621	4599.55885
887.801	4152.99966
887.981	4570.23805
888.161	4465.48542
888.342	4614.21761
888.522	4511.58339
888.702	4490.63109
888.882	4593.27619
889.062	4641.43811
889.242	4387.93306
889.423	4494.82173
889.603	4066.93077
889.783	4398.41486
889.963	4184.47946
890.143	4668.65483
890.323	4293.57249
890.503	4568.14354
890.683	4322.93381
890.863	4570.23805
891.043	4526.24868
891.223	4616.31163
891.403	4398.41486
891.583	4785.85254
891.763	4289.37768
891.943	4660.28086
892.122	4524.15371
892.302	4607.93542
892.482	4427.76099
892.662	4364.87119
892.842	4182.38096
893.022	4402.60742
893.201	4247.42479
893.381	4528.34364
893.561	4297.76723
893.741	4358.58114
893.92	4348.09728
894.1	4601.65302
894.28	4417.28072
894.459	4413.08846
894.639	4278.89026
894.819	4415.1846
894.998	4117.31682
895.178	4165.59215
895.357	4006.03172
895.537	4268.4023
895.716	4096.32409
895.896	4113.11844
896.075	3978.72653
896.255	4106.82072
896.434	4077.42886
896.614	4230.64124
896.793	4148.80199
896.973	4213.85633
897.152	4024.93328
897.331	4062.7314
897.511	3911.49912
897.69	4155.09846
897.87	4022.83319
898.049	3898.89168
898.228	3768.57281
898.407	3995.53013
898.587	3907.29672
898.766	3972.42485
898.945	3520.34133
899.124	3781.18763
899.304	3802.21076
899.483	3915.70144
899.662	3610.829
899.841	3848.4547
900.02	3543.49259
900.199	3819.02784
900.378	3532.96957
900.557	3728.62127
900.737	3474.03216
900.916	3587.68426
901.095	3549.80619
901.274	3730.72415
901.453	3368.75173
901.632	3476.13731
901.811	3225.5005
901.989	3324.52083
902.168	3326.62724
902.347	3568.74598
902.526	3307.66896
902.705	3509.81729
902.884	3343.47787
903.063	3543.49259
903.242	3337.15901
903.42	3349.79657
903.599	3292.92267
903.778	3200.21277
903.957	2959.86426
904.135	3284.49584
904.314	3002.04527
904.493	3341.3716
904.672	2793.19222
904.85	2961.97346
905.029	2905.02007
905.207	3086.38895
905.386	2913.45828
905.565	2936.66216
905.743	2824.84561
905.922	2820.62534
906.1	2708.76828
906.279	2974.6283
906.457	2550.41812
906.636	2810.07441
906.814	2641.21409
906.993	2493.39553
907.171	2514.51598
907.35	2717.21163
907.528	2396.22728
907.707	2546.19451
907.885	2284.24548
908.063	2484.94704
908.242	2280.01922
908.42	2368.76263
908.598	2199.7134
908.777	2440.58953
908.955	2269.45341
909.133	2554.64168
909.311	2282.13235
909.49	2415.24025
909.668	2444.81427
909.846	2451.15128
910.024	2396.22728
910.202	2392.00206
910.38	2174.35106
910.559	2305.37622
910.737	2058.09234
910.915	2411.01522
911.093	2168.01029
911.271	2455.3759
911.449	2250.43437
911.627	2165.89668
911.805	2098.25705
911.983	2330.73184
912.161	2184.91885
912.339	2569.42377
912.517	2309.60225
912.695	2516.62797
912.872	2501.84385
913.05	2601.0977
913.228	2512.40399
913.406	2537.74716
913.584	2438.47715
913.762	2520.8519
913.939	2326.506
914.117	2495.50763
914.295	2337.07053
914.473	2427.91508
914.65	2307.48924
914.828	2529.29962
915.006	2463.82502
915.184	2484.94704
915.361	2415.24025
915.539	2512.40399
915.716	2372.98808
915.894	2550.41812
916.072	2364.53715
916.249	2512.40399
916.427	2233.52794
916.604	2480.72272
916.782	2381.43884
916.959	2351.86046
917.137	2119.39529
917.314	2258.88736
917.492	2121.50908
917.669	2168.01029
917.847	2015.81095
918.024	2201.82687
918.201	1903.75289
918.379	2275.79292
918.556	1962.95549
918.733	2334.95764
918.911	1874.14996
919.088	2066.54829
919.265	1886.83705
919.442	2136.30533
919.62	1810.71184
919.797	2148.98753
919.974	1776.87652
920.151	2187.03238
920.328	2007.35434
920.506	2110.94009
920.683	2007.35434
920.86	1975.64116
921.037	1823.3998
921.214	2079.23199
921.391	1929.12598
921.568	2066.54829
921.745	1838.20221
921.922	2132.07787
922.099	1882.60804
922.276	2051.75031
922.453	1647.87087
922.63	1833.97297
922.807	1734.58094
922.984	1690.16909
923.161	1611.9166
923.338	1836.08759
923.514	1569.61672
923.691	1795.90902
923.868	1633.06625
924.045	1802.25311
924.222	1622.49145
924.399	1768.41752
924.575	1527.31624
924.752	1770.53228
924.929	1489.24548
925.105	1673.24993
925.282	1573.84674
925.459	1662.67537
925.635	1590.76675
925.812	1711.31777
925.989	1533.66134
926.165	1474.44013
926.342	1501.93576
926.518	1658.44552
926.695	1432.13909
926.871	1491.36052
927.048	1286.20273
927.224	1472.32508
927.401	1226.98467
927.577	1322.15744
927.754	1184.68748
927.93	1482.90033
928.107	1231.21446
928.283	1320.04245
928.459	1301.00754
928.636	1421.56384
928.812	1203.72105
928.988	1313.69746
929.165	1184.68748
929.341	1315.81245
929.517	1163.53942
929.693	1290.43267
929.87	1070.49307
930.046	1237.55917
930.222	1125.47393
930.398	1133.93281
930.574	1081.06605
930.751	1163.53942
930.927	930.94368
931.103	1229.09956
931.279	1019.74468
931.455	1087.4099
931.631	806.22212
931.807	1030.31699
931.983	916.14472
932.159	1093.7538
932.335	804.10846
932.511	930.94368
932.687	842.15579
932.863	954.19992
933.039	732.24978
933.215	1009.17253
933.391	964.77122
933.566	850.61115
933.742	835.81437
933.918	968.99979
934.094	818.90429
934.27	774.5182
934.445	662.51631
934.621	789.31309
934.797	588.57061
934.973	594.90821
935.148	493.52124
935.324	586.4581
935.5	535.76193
935.675	550.54751
935.851	442.8402
936.027	512.52884
936.202	432.28277
936.378	518.86497
936.553	497.74505
936.729	381.61266
936.904	364.72473
937.08	440.72869
937.255	440.72869
937.431	349.94869
937.606	314.06758
937.782	364.72473
937.957	217.0041
938.133	299.2945
938.308	282.41208
938.483	269.75104
938.659	128.41744
938.834	189.58055
939.009	206.45618
939.185	261.31072
939.36	174.81543
939.535	265.53084
939.71	179.03394
939.886	233.8818
940.061	248.65082
940.236	185.36184
940.411	172.70621
940.586	166.37868
940.761	122.09124
940.937	265.53084
941.112	138.96154
941.287	65.16435
941.462	124.19996
941.637	162.16043
941.812	130.52622
941.987	151.61516
942.162	145.28826
942.337	107.33087
942.512	136.85268
942.687	90.46319
942.862	198.0182
943.037	145.28826
943.212	82.02988
943.386	48.30027
943.561	71.48875
943.736	73.59693
943.911	63.05626
944.086	200.12766
944.26	117.87389
944.435	54.62413
944.61	170.59702
944.785	86.24649
944.959	96.7884
945.134	98.89685
945.309	56.73213
945.483	77.81336
945.658	50.4082
945.833	92.57157
946.007	88.35483
946.182	56.73213
946.357	122.09124
946.531	88.35483
946.706	98.89685
946.88	103.11382
947.055	-23.35526
947.229	128.41744
947.404	202.23715
947.578	189.58055
947.752	113.65661
947.927	111.54801
948.101	69.38059
948.276	147.39721
948.45	88.35483
948.624	166.37868
948.799	145.28826
948.973	79.92161
949.147	126.30869
949.321	155.83321
949.496	77.81336
949.67	162.16043
949.844	77.81336
950.018	155.83321
950.193	153.72418
950.367	128.41744
950.541	162.16043
950.715	77.81336
950.889	143.17933
951.063	157.94226
951.237	164.26954
951.411	94.67998
951.585	77.81336
951.759	92.57157
951.933	153.72418
952.107	105.22233
952.281	69.38059
952.455	119.98255
952.629	111.54801
952.803	105.22233
952.977	96.7884
953.151	122.09124
953.325	71.48875
953.499	145.28826
953.672	164.26954
953.846	77.81336
954.02	119.98255
954.194	103.11382
954.368	141.07043
954.541	65.16435
954.715	119.98255
954.889	191.68993
955.062	35.65319
955.236	166.37868
955.41	103.11382
955.583	60.94819
955.757	172.70621
955.93	132.63502
956.104	187.47118
956.278	149.50617
956.451	128.41744
956.625	98.89685
956.798	174.81543
956.972	162.16043
957.145	145.28826
957.319	145.28826
957.492	119.98255
957.665	162.16043
957.839	138.96154
958.012	189.58055
958.185	96.7884
958.359	145.28826
958.532	86.24649
958.705	119.98255
958.879	98.89685
959.052	162.16043
959.225	105.22233
959.398	136.85268
959.572	153.72418
959.745	155.83321
959.918	90.46319
960.091	179.03394
960.264	145.28826
960.438	141.07043
960.611	124.19996
960.784	88.35483
960.957	77.81336
961.13	124.19996
961.303	79.92161
961.476	155.83321
961.649	132.63502
961.822	117.87389
961.995	113.65661
962.168	122.09124
962.341	172.70621
962.514	107.33087
962.686	119.98255
962.859	82.02988
963.032	39.86879
963.205	86.24649
963.378	181.14322
963.551	60.94819
963.723	141.07043
963.896	88.35483
964.069	69.38059
964.242	149.50617
964.414	170.59702
964.587	63.05626
964.76	103.11382
964.932	86.24649
965.105	77.81336
965.278	143.17933
965.45	115.76524
965.623	96.7884
965.795	204.34665
965.968	128.41744
966.14	157.94226
966.313	145.28826
966.485	84.13817
966.658	174.81543
966.83	115.76524
967.003	86.24649
967.175	166.37868
967.348	37.76098
967.52	94.67998
967.692	198.0182
967.865	77.81336
968.037	187.47118
968.209	52.51615
968.382	128.41744
968.554	29.32996
968.726	82.02988
968.898	60.94819
969.071	50.4082
969.243	86.24649
969.415	12.46906
969.587	98.89685
969.759	200.12766
969.932	96.7884
970.104	79.92161
970.276	153.72418
970.448	101.00532
970.62	75.70514
970.792	52.51615
970.964	77.81336
971.136	111.54801
971.308	86.24649
971.48	103.11382
971.652	52.51615
971.824	94.67998
971.996	128.41744
972.168	60.94819
972.339	69.38059
972.511	115.76524
972.683	35.65319
972.855	117.87389
973.027	18.79172
973.199	79.92161
973.37	113.65661
973.542	111.54801
973.714	77.81336
973.886	60.94819
974.057	1.93177
974.229	6.14661
974.401	4.03918
974.572	63.05626
974.744	94.67998
974.915	63.05626
975.087	60.94819
975.259	86.24649
975.43	88.35483
975.602	-17.03383
975.773	56.73213
975.945	105.22233
976.116	82.02988
976.288	60.94819
976.459	153.72418
976.63	84.13817
976.802	73.59693
976.973	39.86879
977.145	103.11382
977.316	65.16435
977.487	119.98255
977.659	29.32996
977.83	119.98255
978.001	39.86879
978.172	77.81336
978.344	138.96154
978.515	23.00695
978.686	46.19237
978.857	113.65661
979.028	56.73213
979.2	105.22233
979.371	31.43768
979.542	82.02988
979.713	44.08449
979.884	63.05626
980.055	52.51615
980.226	54.62413
980.397	27.22227
980.568	69.38059
980.739	69.38059
980.91	103.11382
981.081	113.65661
981.252	54.62413
981.423	84.13817
981.594	10.36155
981.765	69.38059
981.936	44.08449
982.106	113.65661
982.277	86.24649
982.448	29.32996
982.619	4.03918
982.79	63.05626
982.96	50.4082
983.131	44.08449
983.302	90.46319
983.472	86.24649
983.643	1.93177
983.814	48.30027
983.984	35.65319
984.155	56.73213
984.326	96.7884
984.496	29.32996
984.667	147.39721
984.837	29.32996
985.008	23.00695
985.178	31.43768
985.349	60.94819
985.519	86.24649
985.69	52.51615
985.86	86.24649
986.031	23.00695
986.201	54.62413
986.371	20.89932
986.542	44.08449
986.712	69.38059
986.882	46.19237
987.053	41.97663
987.223	14.57659
987.393	60.94819
987.563	31.43768
987.734	54.62413
987.904	29.32996
988.074	46.19237
988.244	65.16435
988.414	115.76524
988.585	23.00695
988.755	12.46906
988.925	18.79172
989.095	50.4082
989.265	-12.81942
989.435	67.27246
989.605	1.93177
989.775	27.22227
989.945	65.16435
990.115	27.22227
990.285	86.24649
990.455	54.62413
990.625	77.81336
990.795	54.62413
990.965	-12.81942
991.134	23.00695
991.304	35.65319
991.474	71.48875
991.644	-29.67646
991.814	75.70514
991.984	86.24649
992.153	18.79172
992.323	69.38059
992.493	20.89932
992.662	-29.67646
992.832	27.22227
993.002	23.00695
993.171	-44.42508
993.341	46.19237
993.511	10.36155
993.68	69.38059
993.85	77.81336
994.019	18.79172
994.189	63.05626
994.358	18.79172
994.528	56.73213
994.697	27.22227
994.867	65.16435
995.036	-2.28298
995.206	27.22227
995.375	-97.08857
995.544	-4.39031
995.714	98.89685
995.883	35.65319
996.052	39.86879
996.222	12.46906
996.391	-33.89048
996.56	-38.10439
996.73	6.14661
996.899	46.19237
997.068	-4.39031
997.237	37.76098
997.406	18.79172
997.576	60.94819
997.745	-27.56942
997.914	6.14661
998.083	29.32996
998.252	35.65319
998.421	10.36155
998.59	69.38059
998.759	60.94819
998.928	48.30027
999.097	46.19237
999.266	6.14661
999.435	10.36155
999.604	-23.35526
999.773	98.89685
999.942	18.79172
1000.111	-4.39031
1000.28	71.48875
1000.448	27.22227
1000.617	63.05626
1000.786	115.76524
1000.955	1.93177
1001.124	18.79172
1001.292	10.36155
1001.461	-14.92664
1001.63	-31.78348
1001.798	8.25407
1001.967	-6.49763
1002.136	20.89932
1002.304	-10.71218
1002.473	-10.71218
1002.642	54.62413
1002.81	69.38059
1002.979	12.46906
1003.147	-4.39031
1003.316	-14.92664
1003.484	14.57659
1003.653	10.36155
1003.821	14.57659
1003.99	1.93177
1004.158	-31.78348
1004.327	18.79172
1004.495	10.36155
1004.663	-54.95905
1004.832	37.76098
1005	69.38059
1005.168	18.79172
1005.337	60.94819
1005.505	60.94819
1005.673	18.79172
1005.842	-35.99745
1006.01	-21.24814
1006.178	-8.60492
1006.346	6.14661
1006.514	-0.17561
1006.683	69.38059
1006.851	1.93177
1007.019	29.32996
1007.187	79.92161
1007.355	35.65319
1007.523	1.93177
1007.691	-21.24814
1007.859	52.51615
1008.027	63.05626
1008.195	6.14661
1008.363	60.94819
1008.531	-78.13156
1008.699	10.36155
1008.867	-46.53192
1009.035	88.35483
1009.203	-54.95905
1009.37	82.02988
1009.538	60.94819
1009.706	27.22227
1009.874	12.46906
1010.042	90.46319
1010.209	-19.141
1010.377	63.05626
1010.545	-2.28298
1010.713	1.93177
1010.88	-21.24814
1011.048	39.86879
1011.216	-27.56942
1011.383	-4.39031
1011.551	50.4082
1011.718	1.93177
1011.886	27.22227
1012.054	-52.8523
1012.221	10.36155
1012.389	18.79172
1012.556	-23.35526
1012.724	-19.141
1012.891	56.73213
1013.058	-14.92664
1013.226	71.48875
1013.393	-27.56942
1013.561	73.59693
1013.728	73.59693
1013.895	14.57659
1014.063	35.65319
1014.23	20.89932
1014.397	-4.39031
1014.565	41.97663
1014.732	52.51615
1014.899	79.92161
1015.066	67.27246
1015.233	60.94819
1015.401	77.81336
1015.568	-57.06577
1015.735	-0.17561
1015.902	-40.21131
1016.069	-14.92664
1016.236	39.86879
1016.403	44.08449
1016.57	-6.49763
1016.737	103.11382
1016.904	18.79172
1017.071	-2.28298
1017.238	39.86879
1017.405	-6.49763
1017.572	77.81336
1017.739	18.79172
1017.906	37.76098
1018.073	14.57659
1018.24	-63.38577
1018.407	-10.71218
1018.573	54.62413
1018.74	39.86879
1018.907	35.65319
1019.074	-40.21131
1019.241	-42.31821
1019.407	-6.49763
1019.574	52.51615
1019.741	23.00695
1019.907	-78.13156
1020.074	35.65319
1020.241	-14.92664
1020.407	-57.06577
1020.574	27.22227
1020.74	67.27246
1020.907	39.86879
1021.073	-65.49239
1021.24	-25.46235
1021.406	71.48875
1021.573	4.03918
1021.739	58.84015
1021.906	-52.8523
1022.072	-23.35526
1022.239	-2.28298
1022.405	88.35483
1022.571	-29.67646
1022.738	-21.24814
1022.904	37.76098
1023.07	18.79172
1023.237	27.22227
1023.403	41.97663
1023.569	12.46906
1023.735	-35.99745
1023.902	-40.21131
1024.068	41.97663
1024.234	14.57659
1024.4	69.38059
1024.566	-6.49763
1024.732	-54.95905
1024.898	31.43768
1025.065	1.93177
1025.231	23.00695
1025.397	23.00695
1025.563	-19.141
1025.729	-65.49239
1025.895	52.51615
1026.061	-35.99745
1026.227	27.22227
1026.392	-27.56942
1026.558	94.67998
1026.724	-48.63874
1026.89	-31.78348
1027.056	69.38059
1027.222	-29.67646
1027.388	44.08449
1027.553	-0.17561
1027.719	-69.70555
1027.885	63.05626
1028.051	52.51615
1028.216	27.22227
1028.382	25.11459
1028.548	27.22227
1028.713	46.19237
1028.879	31.43768
1029.045	-40.21131
1029.21	-4.39031
1029.376	86.24649
1029.541	-6.49763
1029.707	20.89932
1029.873	31.43768
1030.038	4.03918
1030.204	-25.46235
1030.369	4.03918
1030.534	6.14661
1030.7	23.00695
1030.865	6.14661
1031.031	60.94819
1031.196	-44.42508
1031.361	27.22227
1031.527	27.22227
1031.692	4.03918
1031.857	-31.78348
1032.023	-0.17561
1032.188	31.43768
1032.353	39.86879
1032.518	60.94819
1032.684	-19.141
1032.849	-10.71218
1033.014	20.89932
1033.179	18.79172
1033.344	27.22227
1033.509	27.22227
1033.674	12.46906
1033.839	-21.24814
1034.004	44.08449
1034.17	1.93177
1034.335	1.93177
1034.5	37.76098
1034.664	29.32996
1034.829	44.08449
1034.994	77.81336
1035.159	37.76098
1035.324	29.32996
1035.489	-27.56942
1035.654	6.14661
1035.819	-6.49763
1035.984	23.00695
1036.148	-35.99745
1036.313	4.03918
1036.478	-61.27913
1036.643	63.05626
1036.807	-48.63874
1036.972	-14.92664
1037.137	25.11459
1037.301	-4.39031
1037.466	-10.71218
1037.631	14.57659
1037.795	6.14661
1037.96	-21.24814
1038.124	-23.35526
1038.289	29.32996
1038.454	25.11459
1038.618	-4.39031
1038.783	-31.78348
1038.947	-21.24814
1039.111	37.76098
1039.276	-23.35526
1039.44	1.93177
1039.605	10.36155
1039.769	39.86879
1039.933	-14.92664
1040.098	1.93177
1040.262	14.57659
1040.426	39.86879
1040.591	8.25407
1040.755	27.22227
1040.919	-21.24814
1041.083	48.30027
1041.248	-10.71218
1041.412	-25.46235
1041.576	37.76098
1041.74	-40.21131
1041.904	1.93177
1042.068	12.46906
1042.232	-80.238
1042.397	33.54542
1042.561	18.79172
1042.725	-40.21131
1042.889	-6.49763
1043.053	52.51615
1043.217	37.76098
1043.381	-19.141
1043.544	20.89932
1043.708	-2.28298
1043.872	77.81336
1044.036	-38.10439
1044.2	23.00695
1044.364	37.76098
1044.528	-29.67646
1044.691	-2.28298
1044.855	94.67998
1045.019	-59.17246
1045.183	60.94819
1045.346	44.08449
1045.51	39.86879
1045.674	54.62413
1045.837	29.32996
1046.001	60.94819
1046.165	1.93177
1046.328	31.43768
1046.492	1.93177
1046.655	27.22227
1046.819	73.59693
1046.983	6.14661
1047.146	29.32996
1047.31	1.93177
1047.473	-46.53192
1047.636	6.14661
1047.8	-10.71218
1047.963	60.94819
1048.127	63.05626
1048.29	-40.21131
