Data from mixed_try1_USB4F045381__21__00169.txt Node

Date: Thu Apr 03 20:11:43 EDT 2025
User: mmckonesweet
Spectrometer: USB4F04538
Trigger mode: 4
Integration Time (sec): 2.700000E-3
Scans to average: 1
Electric dark correction enabled: true
Nonlinearity correction enabled: true
Boxcar width: 0
XAxis mode: Wavelengths
Number of Pixels in Spectrum: 3648
>>>>>Begin Spectral Data<<<<<
345.52	77.2863
345.736	77.2863
345.952	77.2863
346.168	22.48004
346.384	119.45538
346.6	22.48004
346.816	43.55752
347.032	18.26482
347.248	7.72721
347.464	-28.09618
347.68	-9.13173
347.896	79.39455
348.112	-51.27223
348.328	-2.80981
348.544	-11.23899
348.76	-40.73804
348.975	-28.09618
349.191	-17.56062
349.407	24.58768
349.623	5.61975
349.839	58.31314
350.055	58.31314
350.27	-11.23899
350.486	11.94218
350.702	5.61975
350.918	-2.80981
351.133	35.12624
351.349	-19.66778
351.565	-53.37899
351.781	28.80304
351.996	9.83468
352.212	-53.37899
352.428	56.20513
352.644	49.88122
352.859	66.74543
353.075	56.20513
353.291	-17.56062
353.506	18.26482
353.722	-13.34623
353.938	-53.37899
354.153	22.48004
354.369	26.69535
354.584	-34.41722
354.8	16.15725
355.016	30.91075
355.231	14.04971
355.447	-11.23899
355.662	26.69535
355.878	-7.02445
356.093	-2.80981
356.309	-32.31023
356.524	-59.69913
356.74	-7.02445
356.955	-15.45344
357.171	28.80304
357.386	30.91075
357.602	33.01848
357.817	-74.44523
358.033	49.88122
358.248	-47.05863
358.464	16.15725
358.679	39.34183
358.895	-61.80579
359.11	5.61975
359.325	33.01848
359.541	-23.88203
359.756	-2.80981
359.972	-17.56062
360.187	81.50281
360.402	56.20513
360.618	3.51233
360.833	47.77329
361.048	-36.52418
361.264	20.37242
361.479	-25.98912
361.694	60.42118
361.909	-11.23899
362.125	-21.77492
362.34	-4.91714
362.555	-23.88203
362.77	26.69535
362.986	16.15725
363.201	60.42118
363.416	18.26482
363.631	-15.45344
363.847	113.12946
364.062	43.55752
364.277	-57.59244
364.492	-34.41722
364.707	98.36974
364.922	-0.70246
365.138	-4.91714
365.353	100.4782
365.568	22.48004
365.783	-11.23899
365.998	-7.02445
366.213	49.88122
366.428	58.31314
366.643	-32.31023
366.858	56.20513
367.073	26.69535
367.288	43.55752
367.503	33.01848
367.718	7.72721
367.933	73.06989
368.148	18.26482
368.363	33.01848
368.578	-17.56062
368.793	45.6654
369.008	-57.59244
369.223	-7.02445
369.438	-15.45344
369.653	37.23403
369.868	-36.52418
370.083	43.55752
370.298	-4.91714
370.513	26.69535
370.728	5.61975
370.943	-36.52418
371.157	47.77329
371.372	-28.09618
371.587	7.72721
371.802	-51.27223
372.017	39.34183
372.232	24.58768
372.446	1.40492
372.661	16.15725
372.876	-70.23219
373.091	64.63732
373.306	66.74543
373.52	75.17808
373.735	100.4782
373.95	108.91229
374.165	-23.88203
374.379	-34.41722
374.594	22.48004
374.809	5.61975
375.023	30.91075
375.238	1.40492
375.453	-28.09618
375.667	-66.01904
375.882	14.04971
376.097	-23.88203
376.311	-19.66778
376.526	9.83468
376.741	30.91075
376.955	-23.88203
377.17	85.71941
377.384	22.48004
377.599	11.94218
377.813	5.61975
378.028	73.06989
378.242	54.09713
378.457	-4.91714
378.672	1.40492
378.886	9.83468
379.101	-55.48573
379.315	16.15725
379.53	-25.98912
379.744	1.40492
379.958	39.34183
380.173	-19.66778
380.387	-51.27223
380.602	-17.56062
380.816	18.26482
381.031	56.20513
381.245	-44.95179
381.459	-11.23899
381.674	-25.98912
381.888	-7.02445
382.103	18.26482
382.317	-19.66778
382.531	11.94218
382.746	68.85356
382.96	18.26482
383.174	22.48004
383.388	64.63732
383.603	-9.13173
383.817	22.48004
384.031	-11.23899
384.246	28.80304
384.46	3.51233
384.674	24.58768
384.888	-21.77492
385.103	-15.45344
385.317	1.40492
385.531	22.48004
385.745	89.9361
385.959	14.04971
386.174	-19.66778
386.388	-23.88203
386.602	5.61975
386.816	41.44967
387.03	-7.02445
387.244	43.55752
387.458	9.83468
387.672	5.61975
387.887	-19.66778
388.101	89.9361
388.315	49.88122
388.529	56.20513
388.743	-19.66778
388.957	77.2863
389.171	5.61975
389.385	28.80304
389.599	14.04971
389.813	-59.69913
390.027	-19.66778
390.241	-2.80981
390.455	-32.31023
390.669	-11.23899
390.883	22.48004
391.097	-70.23219
391.311	30.91075
391.525	26.69535
391.738	58.31314
391.952	-34.41722
392.166	35.12624
392.38	-28.09618
392.594	-32.31023
392.808	18.26482
393.022	18.26482
393.236	-53.37899
393.449	5.61975
393.663	9.83468
393.877	-9.13173
394.091	-2.80981
394.305	22.48004
394.518	-49.16544
394.732	14.04971
394.946	73.06989
395.16	28.80304
395.373	20.37242
395.587	20.37242
395.801	16.15725
396.015	33.01848
396.228	-78.65817
396.442	9.83468
396.656	5.61975
396.869	7.72721
397.083	62.52924
397.297	43.55752
397.51	-9.13173
397.724	51.98916
397.938	39.34183
398.151	77.2863
398.365	-28.09618
398.578	-49.16544
398.792	41.44967
399.005	16.15725
399.219	16.15725
399.433	-23.88203
399.646	58.31314
399.86	-70.23219
400.073	56.20513
400.287	87.82774
400.5	-9.13173
400.714	-23.88203
400.927	7.72721
401.141	37.23403
401.354	-13.34623
401.567	-28.09618
401.781	26.69535
401.994	-21.77492
402.208	-25.98912
402.421	-36.52418
402.635	43.55752
402.848	9.83468
403.061	30.91075
403.275	39.34183
403.488	-59.69913
403.701	5.61975
403.915	35.12624
404.128	14.04971
404.341	-44.95179
404.555	14.04971
404.768	51.98916
404.981	64.63732
405.195	-95.5089
405.408	-28.09618
405.621	56.20513
405.834	5.61975
406.048	56.20513
406.261	18.26482
406.474	39.34183
406.687	1.40492
406.9	30.91075
407.114	43.55752
407.327	5.61975
407.54	-23.88203
407.753	60.42118
407.966	-0.70246
408.179	47.77329
408.392	30.91075
408.605	41.44967
408.819	-66.01904
409.032	-25.98912
409.245	33.01848
409.458	39.34183
409.671	39.34183
409.884	-2.80981
410.097	66.74543
410.31	39.34183
410.523	30.91075
410.736	49.88122
410.949	-17.56062
411.162	-17.56062
411.375	-2.80981
411.588	-9.13173
411.801	26.69535
412.014	-68.12563
412.227	14.04971
412.44	-0.70246
412.653	-7.02445
412.865	-61.80579
413.078	-7.02445
413.291	64.63732
413.504	14.04971
413.717	16.15725
413.93	18.26482
414.143	-15.45344
414.356	47.77329
414.568	47.77329
414.781	5.61975
414.994	66.74543
415.207	30.91075
415.42	28.80304
415.632	68.85356
415.845	-0.70246
416.058	-23.88203
416.271	-59.69913
416.483	16.15725
416.696	-9.13173
416.909	16.15725
417.121	81.50281
417.334	98.36974
417.547	58.31314
417.759	18.26482
417.972	-28.09618
418.185	-19.66778
418.397	-25.98912
418.61	-11.23899
418.823	5.61975
419.035	22.48004
419.248	-21.77492
419.46	51.98916
419.673	81.50281
419.885	92.04447
420.098	43.55752
420.311	-28.09618
420.523	28.80304
420.736	9.83468
420.948	14.04971
421.161	-4.91714
421.373	-19.66778
421.586	37.23403
421.798	108.91229
422.01	-7.02445
422.223	37.23403
422.435	-116.56997
422.648	22.48004
422.86	9.83468
423.073	79.39455
423.285	24.58768
423.497	33.01848
423.71	18.26482
423.922	-11.23899
424.134	14.04971
424.347	58.31314
424.559	70.96171
424.771	81.50281
424.984	30.91075
425.196	-17.56062
425.408	43.55752
425.621	-25.98912
425.833	60.42118
426.045	9.83468
426.257	-19.66778
426.47	-57.59244
426.682	-11.23899
426.894	56.20513
427.106	-57.59244
427.318	30.91075
427.531	39.34183
427.743	45.6654
427.955	-9.13173
428.167	16.15725
428.379	-30.20322
428.591	-11.23899
428.804	-38.63112
429.016	-11.23899
429.228	51.98916
429.44	30.91075
429.652	70.96171
429.864	14.04971
430.076	-40.73804
430.288	39.34183
430.5	-11.23899
430.712	45.6654
430.924	-59.69913
431.136	-28.09618
431.348	-36.52418
431.56	-32.31023
431.772	60.42118
431.984	73.06989
432.196	58.31314
432.408	-28.09618
432.62	9.83468
432.832	33.01848
433.044	1.40492
433.256	9.83468
433.468	14.04971
433.679	35.12624
433.891	-2.80981
434.103	33.01848
434.315	-15.45344
434.527	-21.77492
434.739	43.55752
434.95	30.91075
435.162	28.80304
435.374	58.31314
435.586	56.20513
435.798	51.98916
436.009	102.58669
436.221	68.85356
436.433	1.40492
436.645	-19.66778
436.856	35.12624
437.068	81.50281
437.28	-0.70246
437.491	28.80304
437.703	41.44967
437.915	49.88122
438.126	41.44967
438.338	45.6654
438.55	35.12624
438.761	56.20513
438.973	35.12624
439.184	83.6111
439.396	-70.23219
439.608	14.04971
439.819	47.77329
440.031	-44.95179
440.242	60.42118
440.454	30.91075
440.665	5.61975
440.877	56.20513
441.088	60.42118
441.3	35.12624
441.511	30.91075
441.723	60.42118
441.934	18.26482
442.146	5.61975
442.357	-2.80981
442.569	-23.88203
442.78	73.06989
442.991	43.55752
443.203	75.17808
443.414	5.61975
443.626	49.88122
443.837	14.04971
444.048	-21.77492
444.26	77.2863
444.471	35.12624
444.682	-53.37899
444.894	49.88122
445.105	49.88122
445.316	62.52924
445.528	5.61975
445.739	51.98916
445.95	5.61975
446.161	14.04971
446.373	18.26482
446.584	35.12624
446.795	1.40492
447.006	-34.41722
447.217	43.55752
447.429	47.77329
447.64	24.58768
447.851	1.40492
448.062	47.77329
448.273	39.34183
448.484	56.20513
448.695	66.74543
448.907	49.88122
449.118	-2.80981
449.329	30.91075
449.54	39.34183
449.751	47.77329
449.962	73.06989
450.173	26.69535
450.384	-19.66778
450.595	47.77329
450.806	92.04447
451.017	30.91075
451.228	18.26482
451.439	115.23808
451.65	-87.08375
451.861	75.17808
452.072	22.48004
452.283	92.04447
452.494	77.2863
452.705	7.72721
452.915	5.61975
453.126	-13.34623
453.337	18.26482
453.548	68.85356
453.759	37.23403
453.97	58.31314
454.181	98.36974
454.391	47.77329
454.602	56.20513
454.813	47.77329
455.024	54.09713
455.235	58.31314
455.445	-49.16544
455.656	35.12624
455.867	51.98916
456.078	39.34183
456.288	92.04447
456.499	-30.20322
456.71	5.61975
456.921	123.67278
457.131	20.37242
457.342	70.96171
457.553	56.20513
457.763	64.63732
457.974	16.15725
458.184	24.58768
458.395	81.50281
458.606	35.12624
458.816	-0.70246
459.027	7.72721
459.237	49.88122
459.448	104.6952
459.659	22.48004
459.869	43.55752
460.08	5.61975
460.29	92.04447
460.501	127.89025
460.711	81.50281
460.922	-11.23899
461.132	7.72721
461.343	-21.77492
461.553	75.17808
461.764	-2.80981
461.974	47.77329
462.184	83.6111
462.395	85.71941
462.605	98.36974
462.816	79.39455
463.026	22.48004
463.236	-53.37899
463.447	100.4782
463.657	94.15287
463.867	56.20513
464.078	108.91229
464.288	89.9361
464.498	-15.45344
464.709	94.15287
464.919	66.74543
465.129	79.39455
465.339	47.77329
465.55	151.08791
465.76	100.4782
465.97	51.98916
466.18	89.9361
466.391	41.44967
466.601	102.58669
466.811	73.06989
467.021	16.15725
467.231	75.17808
467.441	87.82774
467.651	-7.02445
467.862	129.99903
468.072	14.04971
468.282	102.58669
468.492	106.80373
468.702	73.06989
468.912	113.12946
469.122	132.10782
469.332	127.89025
469.542	140.5432
469.752	148.97893
469.962	104.6952
470.172	125.7815
470.382	108.91229
470.592	85.71941
470.802	73.06989
471.012	56.20513
471.222	148.97893
471.432	108.91229
471.642	73.06989
471.852	49.88122
472.062	35.12624
472.272	132.10782
472.482	58.31314
472.691	123.67278
472.901	111.02086
473.111	98.36974
473.321	68.85356
473.531	89.9361
473.741	165.85139
473.95	201.70978
474.16	123.67278
474.37	140.5432
474.58	123.67278
474.79	132.10782
474.999	231.24458
475.209	108.91229
475.419	176.39736
475.628	182.72519
475.838	75.17808
476.048	199.6003
476.258	208.03833
476.467	233.35436
476.677	254.45319
476.886	216.47669
477.096	212.25747
477.306	227.02509
477.515	292.43587
477.725	267.11341
477.935	252.34322
478.144	269.22351
478.354	294.5462
478.563	296.65654
478.773	239.6838
478.982	324.09267
479.192	258.67319
479.401	336.75651
479.611	302.98769
479.82	353.64262
480.03	324.09267
480.239	397.97385
480.449	395.86267
480.658	351.5318
480.868	368.41887
481.077	402.19626
481.287	364.197
481.496	448.64696
481.705	423.30926
481.915	463.42832
482.124	366.30793
482.333	419.08653
482.543	419.08653
482.752	448.64696
482.961	444.42385
483.171	520.44902
483.38	577.48009
483.589	598.60519
483.799	503.55289
484.008	683.11811
484.217	537.34607
484.426	670.43995
484.636	558.46863
484.845	653.53639
485.054	598.60519
485.263	676.77897
485.472	704.24928
485.682	843.74116
485.891	693.68355
486.1	820.48959
486.309	661.98807
486.518	883.90545
486.727	788.78469
486.936	877.56352
487.146	816.26215
487.355	979.04275
487.564	869.10773
487.773	985.38575
487.982	894.4755
488.191	894.4755
488.4	1027.6739
488.609	938.87185
488.818	993.84318
489.027	1074.1936
489.236	1025.55943
489.445	1019.21607
489.654	1012.87276
489.863	1213.76666
490.072	1122.83055
490.281	1285.67399
490.49	1120.71585
490.698	1253.94978
490.907	1272.98424
491.116	1266.6394
491.325	1296.24884
491.534	1311.05372
491.743	1374.50414
491.952	1281.44406
492.16	1340.66375
492.369	1433.72538
492.578	1342.77877
492.787	1560.62791
492.996	1416.80498
493.204	1492.94681
493.413	1395.65452
493.622	1573.31798
493.831	1442.18558
494.039	1594.46798
494.248	1653.68694
494.457	1575.43299
494.665	1509.86717
494.874	1674.83611
495.083	1700.21475
495.291	1808.06849
495.5	1725.59295
495.709	1786.92149
495.917	1674.83611
496.126	1793.26563
496.335	2002.59746
496.543	1846.13198
496.752	1865.16316
496.96	1860.93404
497.169	1932.82616
497.377	1924.36859
497.586	1839.78817
497.794	2042.76566
498.003	1905.33873
498.211	2118.86685
498.42	2000.48327
498.628	2140.00434
498.837	2135.7769
499.045	2262.5855
499.254	2152.68645
499.462	2306.96098
499.671	2148.45911
499.879	2317.52596
500.087	2207.63888
500.296	2475.97032
500.504	2237.22627
500.713	2304.84796
500.921	2370.34718
501.129	2397.81173
501.338	2281.60407
501.546	2484.419
501.754	2418.93711
501.962	2492.86751
502.171	2520.32391
502.379	2744.1234
502.587	2490.7554
502.795	2731.4593
503.004	2450.6232
503.212	2621.6843
503.42	2636.46369
503.628	2712.46227
503.837	2596.34678
504.045	2767.33966
504.253	2860.18819
504.461	2828.5383
504.669	2780.00239
504.877	2965.66451
505.085	2841.19864
505.294	3012.06237
505.502	2980.42826
505.71	3014.17119
505.918	2877.06683
506.126	2912.9309
506.334	2817.98764
506.542	3016.27999
506.75	2879.1766
506.958	3117.48436
507.166	3056.34436
507.374	3235.50956
507.582	3102.72765
507.79	3212.3301
507.998	3191.25613
508.206	3292.396
508.414	3199.68592
508.622	3281.86241
508.83	3128.0244
509.037	3437.71544
509.245	3014.17119
509.453	3248.15206
509.661	3342.9513
509.869	3330.31341
510.077	3281.86241
510.285	3460.87455
510.492	3555.59351
510.7	3616.61483
510.908	3465.08506
511.116	3625.03033
511.324	3460.87455
511.531	3448.24258
511.739	3553.48904
511.947	3814.29817
512.155	3557.69795
512.362	3656.58577
512.57	3631.34176
512.778	3601.88698
512.985	3780.66203
513.193	3839.52196
513.401	3725.99263
513.608	3774.35469
513.816	3774.35469
514.024	3881.55527
514.231	3646.06776
514.439	3940.38844
514.646	3927.78266
514.854	4032.80844
515.061	3831.11435
515.269	3864.7429
515.477	3797.48072
515.684	4150.37612
515.892	3982.40243
516.099	3892.06235
516.307	3873.14924
516.514	4167.16616
516.722	4024.40826
516.929	4265.78023
517.136	3915.17616
517.344	4175.56067
517.551	4039.10836
517.759	4177.65924
517.966	4095.79925
518.173	4217.52814
518.381	4439.81262
518.588	4314.021
518.796	4251.09601
519.003	4368.5403
519.21	4183.95484
519.418	4360.15367
519.625	4368.5403
519.832	4546.67354
520.039	4286.75587
520.247	4479.63025
520.454	4410.46825
520.661	4712.08903
520.868	4647.19581
521.076	4772.77596
521.283	4504.77413
521.49	4829.26044
521.697	4695.34446
521.904	4758.12913
522.112	4603.22364
522.319	4776.96056
522.526	4720.46077
522.733	4923.36428
522.94	4703.71693
523.147	4825.07697
523.354	4753.94412
523.561	4965.17331
523.768	4686.97164
523.975	5096.81148
524.183	4892.00148
524.39	5046.67443
524.597	4946.36039
524.804	5247.14234
525.011	4904.54722
525.218	5138.58215
525.425	5063.38826
525.632	5255.49051
525.838	5086.36736
526.045	5261.75139
526.252	5222.09559
526.459	5290.96606
526.666	5190.78242
526.873	5407.77883
527.08	5230.44488
527.287	5414.03458
527.494	5297.22575
527.701	5522.43397
527.907	5505.76128
528.114	5739.04161
528.321	5374.41126
528.528	5597.4424
528.735	5409.86411
528.941	5576.60979
529.148	5320.17615
529.355	5543.27271
529.562	5449.47984
529.768	5895.09066
529.975	5624.52127
530.182	5655.76117
530.388	5572.44298
530.595	5664.09091
530.802	5649.51362
531.008	5947.07752
531.215	5955.39404
531.422	5768.18085
531.628	6061.39674
531.835	5884.69152
532.042	5734.87849
532.248	6057.24093
532.455	5853.49056
532.661	6046.85098
532.868	6188.1039
533.074	6343.77176
533.281	6048.92902
533.487	6080.09674
533.694	6105.02711
533.9	6233.78013
534.107	6123.72267
534.313	6368.66642
534.52	6125.79983
534.726	6461.99148
534.933	6403.92809
535.139	6439.18304
535.345	6215.09577
535.552	6430.88836
535.758	6240.00782
535.965	6362.44307
536.171	6364.51754
536.377	6455.77127
536.584	6432.96206
536.79	6687.85091
536.996	6538.69016
537.203	6714.77
537.409	6567.70301
537.615	6623.64358
537.821	6406.0021
538.028	6880.34082
538.234	6594.63946
538.44	6803.78246
538.646	6789.29494
538.853	6698.20487
539.059	6466.13816
539.265	7091.2332
539.471	6977.54584
539.677	6992.01892
539.883	6820.33826
540.09	6934.11998
540.296	6718.91105
540.502	7070.56782
540.708	6977.54584
540.914	7221.37388
541.12	6795.50402
541.326	7545.31312
541.532	7159.41313
541.738	7169.74131
541.944	7153.21596
542.15	7316.34175
542.356	7332.85316
542.562	7508.20073
542.768	7349.36316
542.974	7330.78931
543.18	7260.60539
543.386	7664.85033
543.592	7388.56882
543.798	7462.83168
544.004	7774.02029
544.21	7724.59216
544.415	7405.07411
544.621	7609.21261
544.827	7487.57973
545.033	7718.4128
545.239	7607.15166
545.445	7629.82098
545.651	7603.02969
545.856	7846.0814
546.062	7751.36723
546.268	8004.52667
546.474	7596.84657
546.679	7514.38661
546.885	7561.80528
547.091	7981.89907
547.297	7784.3163
547.502	7759.605
547.708	7745.18869
547.914	7757.54559
548.119	7712.23324
548.325	7850.19841
548.531	7936.63647
548.736	7885.18963
548.942	7769.90174
549.147	7825.49512
549.353	8216.28467
549.559	8263.54153
549.764	8097.06852
549.97	8088.84424
550.175	8047.71797
550.381	8493.51441
550.586	8160.79585
550.792	8282.03051
550.997	8343.64898
551.203	8376.505
551.408	8275.8677
551.614	8277.92199
551.819	8401.14375
552.025	8364.18457
552.23	8540.71116
552.435	8553.02171
552.641	8382.66495
552.846	8674.03944
553.052	8516.08802
553.257	8676.09003
553.462	8592.00064
553.668	8737.59912
553.873	8825.7334
554.078	8565.33158
554.283	8702.74601
554.489	8829.83186
554.694	8909.73729
554.899	8753.99875
555.105	8926.12478
555.31	9134.96674
555.515	9016.23576
555.72	9024.42598
555.925	8856.47003
556.131	8930.22148
556.336	8879.00766
556.541	9139.05987
556.746	8944.55936
556.951	9165.66359
557.156	9108.35968
557.361	9245.45752
557.567	8999.85448
557.772	9280.23148
557.977	8842.12678
558.182	9290.45819
558.387	9057.18406
558.592	8928.17314
558.797	9427.45633
559.002	9237.27471
559.207	9306.82007
559.412	9333.40586
559.617	9104.26602
559.822	9421.32366
560.027	9255.68566
560.232	9233.18321
560.437	9063.32571
560.642	9566.42478
560.847	9357.94411
561.051	9470.38096
561.256	9298.63927
561.461	9496.9498
561.666	9341.58554
561.871	9335.4508
562.076	9637.92408
562.281	9776.78283
562.485	9509.21143
562.69	9421.32366
562.895	9464.24931
563.1	9829.85731
563.305	9476.51248
563.509	9766.57503
563.714	9599.11256
563.919	9838.02172
564.123	9545.99286
564.328	9672.64543
564.533	9566.42478
564.737	9795.15592
564.942	9703.27821
565.147	10021.65863
565.351	9523.51593
565.556	9686.94116
565.761	9721.65621
565.965	10029.81755
566.17	9715.53035
566.374	9915.57175
566.579	9850.26788
566.784	10042.05549
566.988	10139.94072
567.193	9978.82056
567.397	9999.22043
567.602	10333.57806
567.806	10050.21384
568.011	10141.97965
568.215	10321.35194
568.42	10514.87678
568.624	10190.90986
568.828	10245.94688
569.033	10217.41041
569.237	10425.25881
569.442	10105.27674
569.646	10172.56196
569.85	10184.79402
570.055	10429.33289
570.259	10463.96053
570.463	10490.43798
570.668	10097.11992
570.872	10203.14117
571.076	10382.47777
571.281	10425.25881
571.485	10374.32834
571.689	10578.00193
571.893	10349.87881
572.098	10594.29034
572.302	10592.25433
572.506	10441.55484
572.71	10378.40308
572.914	10394.70151
573.119	10594.29034
573.323	10504.69417
573.527	10647.22218
573.731	10704.21643
573.935	10649.25785
574.139	10982.94749
574.343	10496.54785
574.547	10919.89591
574.751	10836.48829
574.955	11076.48819
575.159	10901.58857
575.364	11007.35166
575.568	10860.90228
575.772	10936.16832
575.976	10932.10028
576.18	11027.68725
576.383	10915.82769
576.587	11088.68744
576.791	10842.59195
576.995	11145.61216
577.199	11115.11782
577.403	10844.62648
577.607	11048.02174
577.811	11076.48819
578.015	11259.43673
578.219	11157.80923
578.422	10930.06625
578.626	11208.62624
578.83	11007.35166
579.034	11310.24081
579.238	11316.33687
579.442	11517.45704
579.645	11145.61216
579.849	11267.56581
580.053	11316.33687
580.257	11446.36485
580.46	11580.41474
580.664	11560.10679
580.868	11161.87483
581.071	11761.11553
581.275	11551.98334
581.479	11596.66044
581.682	11403.70387
581.886	11669.75884
582.09	11572.29167
582.293	11600.72177
582.497	11773.29508
582.7	11438.23928
582.904	11915.36722
583.107	11830.1289
583.311	11519.48808
583.515	11771.26518
583.718	11755.02564
583.922	11876.80885
584.125	11878.83831
584.329	12093.91543
584.532	11980.30097
584.735	11907.24992
584.939	11730.66528
585.142	12024.93816
585.346	11925.51367
585.549	12020.88039
585.753	11777.35487
585.956	12197.36482
586.159	12128.40073
586.363	12237.92795
586.566	11618.99731
586.769	12024.93816
586.973	12181.13875
587.176	12154.77037
587.379	12262.26444
587.582	12298.76724
587.786	12039.14009
587.989	12572.46798
588.192	12241.9841
588.395	12343.37869
588.599	12483.275
588.802	12527.87303
589.005	12148.68518
589.208	12331.21226
589.411	12641.38152
589.615	12606.92564
589.818	12809.58279
590.021	12600.845
590.224	12404.2071
590.427	12586.65664
590.63	12700.1552
590.833	12698.1286
591.036	12663.67558
591.239	12756.89751
591.442	12456.92015
591.645	12894.68188
591.848	12728.52692
592.051	12963.56473
592.254	12669.75565
592.457	12659.62217
592.66	12793.37234
592.863	13131.69546
593.066	13000.02971
593.269	13141.82275
593.472	12967.61648
593.675	13046.62148
593.878	13018.26158
594.081	13384.84464
594.284	13004.08127
594.486	13336.24516
594.689	12918.99417
594.892	13338.27019
595.095	13188.40684
595.298	13239.03901
595.5	13052.69847
595.703	13698.66399
595.906	13344.34524
596.109	13141.82275
596.311	13192.45752
596.514	13281.56791
596.717	13447.61557
596.92	13587.31851
597.122	13526.58024
597.325	13149.92451
597.528	13216.7612
597.73	13648.05366
597.933	13220.81175
598.136	13646.0292
598.338	13326.11998
598.541	13639.95581
598.743	13720.93189
598.946	13805.95138
599.148	13613.63745
599.351	13500.25931
599.554	13445.59076
599.756	13652.10256
599.959	13791.78183
600.161	13595.41671
600.363	13769.51511
600.566	13563.02358
600.768	13816.07239
600.971	14008.35856
601.173	13864.65226
601.376	13980.02314
601.578	13781.66064
601.78	14301.80677
601.983	13848.45915
602.185	13818.09658
602.388	13698.66399
602.59	14182.409
602.792	13862.62813
602.995	13846.435
603.197	13994.19091
603.399	14115.62415
603.601	13933.47101
603.804	14065.02799
604.006	14156.10009
604.208	13824.16915
604.41	13708.78581
604.613	14129.79083
604.815	13747.24802
605.017	14214.78872
605.219	13939.54311
605.421	14121.69559
605.623	14139.90982
605.826	14271.45203
606.028	14097.40969
606.23	14328.1139
606.432	14370.60941
606.634	14544.63167
606.836	14036.69351
607.038	14461.66888
607.24	14261.33369
607.442	14433.3396
607.644	14204.67011
607.846	14293.71221
608.048	14184.43274
608.25	14360.4915
608.452	14206.69383
608.654	14647.82641
608.856	14435.36313
609.058	14617.47531
609.26	14479.88042
609.462	14439.41018
609.664	14552.72548
609.866	14528.44398
610.067	14407.03357
610.269	14494.04487
610.471	14184.43274
610.673	14720.66812
610.875	14508.20926
611.077	14342.27915
611.278	14348.34995
611.48	14514.27969
611.682	14417.15131
611.884	14623.54555
612.085	14348.34995
612.287	14858.25509
612.489	14453.57483
612.69	14773.2753
612.892	14479.88042
613.094	14854.20846
613.295	14496.06836
613.497	14904.79118
613.699	14734.83164
613.9	14949.30371
614.102	14746.97178
614.304	14785.41535
614.505	14639.7328
614.707	14773.2753
614.908	14670.08373
615.11	14696.38768
615.311	14556.77238
615.513	14666.03695
615.714	14757.08854
615.916	14603.31139
616.117	14767.20527
616.319	14821.83533
616.52	14753.04184
616.722	14979.65305
616.923	14708.52791
617.124	15038.32822
617.326	14704.48117
617.527	15044.39806
617.729	14787.43869
617.93	15163.77115
618.131	15054.51444
618.333	15252.7951
618.534	14880.51152
618.735	15315.51669
618.937	14838.02191
619.138	15295.2839
619.339	14931.09407
619.54	14878.48821
619.742	15157.70133
619.943	14892.65136
620.144	15311.47013
620.345	15550.22008
620.546	15240.65546
620.748	15119.25919
620.949	14803.62537
621.15	15109.14283
621.351	14811.71869
621.552	15291.23734
621.753	15307.42357
621.954	15076.77046
622.155	14882.53482
622.356	15165.79442
622.558	15159.7246
622.759	15532.01008
622.96	15060.58427
623.161	15226.49255
623.362	15202.21329
623.563	15394.4249
623.764	15457.14725
623.965	15629.13079
624.166	15467.2638
624.366	15194.1202
624.567	14833.97527
624.768	14914.90768
624.969	14799.5787
625.17	15311.47013
625.371	14941.21054
625.572	14979.65305
625.773	14880.51152
625.973	15097.0032
626.174	15374.19197
626.375	15287.19079
626.576	15260.8882
626.777	15463.21718
626.977	15260.8882
627.178	15564.38346
627.379	15159.7246
627.58	15568.43015
627.78	15497.61354
627.981	15244.702
628.182	15548.19675
628.382	15637.22426
628.583	15574.50018
628.784	15685.78538
628.984	15200.19002
629.185	15483.45031
629.386	15186.02712
629.586	15602.82709
629.787	15440.96079
629.987	15449.05401
630.188	15388.35502
630.388	15639.24763
630.589	15283.14423
630.79	15303.37701
630.99	14833.97527
631.191	15544.15007
631.391	15362.05224
631.591	15825.4017
631.792	15210.30637
631.992	15910.38813
632.193	15540.10341
632.393	15596.75703
632.594	15271.00457
632.794	15730.30021
632.994	15677.69183
633.195	15756.60465
633.395	15297.30718
633.595	15592.71032
633.796	15758.62807
633.996	15861.8242
634.196	15669.59829
634.397	15831.47209
634.597	15693.87896
634.797	16009.54181
634.997	15645.31775
635.198	15922.52923
635.398	15598.78038
635.598	16082.39157
635.798	15922.52923
635.998	15675.66844
636.199	15853.73028
636.399	16007.51824
636.599	15880.03559
636.799	15582.59357
636.999	15815.28441
637.199	15900.27059
637.399	15477.38036
637.599	15764.69835
637.799	15434.89088
637.999	15908.36462
638.199	15924.55275
638.399	15809.21405
638.599	15736.37045
638.799	16151.19593
638.999	16068.22619
639.199	16187.62252
639.399	15934.67037
639.599	16298.92943
639.799	16163.33806
639.999	15969.07053
640.199	15683.76199
640.399	16007.51824
640.599	15712.08954
640.799	16207.85975
640.998	16327.26296
641.198	16515.48826
641.398	16104.6516
641.598	16531.68051
641.798	15969.07053
641.997	16529.65647
642.197	16349.52529
642.397	16590.37857
642.597	16402.14624
642.796	16509.4162
642.996	16043.94285
643.196	16252.38225
643.395	16039.89565
643.595	16434.52902
643.795	16161.31437
643.994	16128.93549
644.194	16242.26343
644.394	16685.51389
644.593	16404.17015
644.793	16691.58653
644.992	16404.17015
645.192	16343.45372
645.392	16135.0065
645.591	16422.38542
645.791	16116.79352
645.99	16566.0895
646.19	16173.45656
646.389	16527.63244
646.589	16703.73188
646.788	16375.8356
646.987	16104.6516
647.187	17167.34699
647.386	16659.19937
647.586	16673.36868
647.785	16493.22414
647.984	16689.56232
648.184	16717.90155
648.383	16833.28756
648.582	16618.71623
648.782	16857.58037
648.981	16600.49912
649.18	16288.8104
649.38	16811.01946
649.579	17149.12364
649.778	16806.97075
649.977	17124.82621
650.177	16910.21606
650.376	16972.97628
650.575	16725.99856
650.774	16987.14829
650.973	16825.19004
651.173	16841.38512
651.372	16640.98184
651.571	16693.61075
651.77	16479.05619
651.969	16788.75167
652.168	16752.3141
652.367	16930.46101
652.566	16703.73188
652.765	17084.33138
652.964	17183.54571
653.163	17465.02878
653.362	17286.81694
653.561	17100.52918
653.76	17017.51733
653.959	16821.14129
654.158	17228.09315
654.357	16977.02541
654.556	16539.77669
654.755	17078.25725
654.954	16768.50847
655.153	16750.28981
655.352	17124.82621
655.551	17070.15845
655.749	17187.59542
655.948	17211.89392
656.147	17456.92773
656.346	17260.49218
656.545	16655.15101
656.743	17053.96099
656.942	16902.11815
657.141	17284.79194
657.34	17072.18315
657.538	17197.71975
657.737	17392.12107
657.936	17428.57442
658.135	16981.07455
658.333	17161.27251
658.532	16995.24664
658.731	17201.7695
658.929	16918.31401
659.128	17019.54196
659.326	16924.3875
659.525	17096.47971
659.724	17337.44291
659.922	17029.66512
660.121	17102.55391
660.319	17416.4232
660.518	17070.15845
660.716	17392.12107
660.915	17102.55391
661.113	17068.13376
661.312	16883.898
661.51	17319.21735
661.709	17070.15845
661.907	17173.42149
662.105	17224.04333
662.304	17390.09592
662.502	17598.70354
662.701	17631.11166
662.899	17187.59542
663.097	17416.4232
663.296	17489.33225
663.494	17539.96595
663.692	17207.84414
663.891	17546.04212
664.089	17217.96861
664.287	17357.69382
664.485	17367.81939
664.684	17552.11833
664.882	17173.42149
665.08	17497.43351
665.278	17398.19656
665.476	17258.46722
665.675	16837.33634
665.873	17136.97487
666.071	17359.71893
666.269	17189.62028
666.467	17100.52918
666.665	17351.61852
666.863	17084.33138
667.061	17363.76915
667.259	17179.49601
667.457	17440.72576
667.655	17246.31751
667.853	17432.62486
668.051	17240.2427
668.249	17116.72715
668.447	17043.83766
668.645	17258.46722
668.843	17157.22288
669.041	17416.4232
669.239	17367.81939
669.437	17580.47434
669.635	17266.56708
669.833	17659.46945
670.031	17181.52086
670.229	17311.11717
670.426	17495.40819
670.624	17489.33225
670.822	17420.47359
671.02	17781.01022
671.218	17890.40736
671.415	17596.67806
671.613	17345.54324
671.811	17112.67764
672.009	17479.20575
672.206	17671.62299
672.404	17546.04212
672.602	17305.04208
672.799	17317.1923
672.997	17554.14374
673.195	17481.23105
673.392	17335.41783
673.59	16908.19157
673.788	17400.22173
673.985	17467.05405
674.183	17519.71223
674.38	17428.57442
674.578	17465.02878
674.775	17481.23105
674.973	17436.67531
675.17	17475.15517
675.368	17396.1714
675.565	17311.11717
675.763	17163.29734
675.96	17165.32216
676.158	17578.44889
676.355	16995.24664
676.553	17712.13564
676.75	17485.28164
676.947	17837.73342
677.145	17533.8898
677.342	17539.96595
677.539	17145.07404
677.737	17503.50949
677.934	17412.37281
678.131	17355.66872
678.329	17600.72902
678.526	17781.01022
678.723	17922.82327
678.92	17882.30353
679.118	17369.84451
679.315	17345.54324
679.512	17222.01842
679.709	17620.98403
679.906	17373.89477
680.104	17702.00735
680.301	17317.1923
680.498	17321.2424
680.695	17177.47117
680.892	17404.27208
681.089	17497.43351
681.286	17756.7011
681.483	17116.72715
681.68	17323.26745
681.877	17173.42149
682.075	17284.79194
682.272	17047.88698
682.469	17675.67419
682.665	17436.67531
682.862	17161.27251
683.059	17181.52086
683.256	17120.77667
683.453	16944.63264
683.65	16926.412
683.847	17242.26764
684.044	16859.60479
684.241	16829.23879
684.438	17319.21735
684.635	17134.95009
684.831	17434.65008
685.028	17359.71893
685.225	17189.62028
685.422	16958.80439
685.619	17084.33138
685.815	17039.78835
686.012	17189.62028
686.209	17051.93632
686.405	17102.55391
686.602	16918.31401
686.799	17120.77667
686.996	16821.14129
687.192	17226.06824
687.389	16910.21606
687.586	16772.55709
687.782	16738.14414
687.979	17013.46809
688.175	16946.65717
688.372	16983.09913
688.568	16865.67806
688.765	17195.69488
688.962	17088.38081
689.158	17051.93632
689.355	16950.70623
689.551	16958.80439
689.748	16495.24814
689.944	16845.43392
690.14	16853.53155
690.337	16667.2961
690.533	16981.07455
690.73	16711.82882
690.926	16948.6817
691.123	16719.9258
691.319	16632.88522
691.515	16723.9743
691.712	16493.22414
691.908	16823.16566
692.104	16630.86108
692.301	16839.36073
692.497	16645.03017
692.693	16752.3141
692.889	16590.37857
693.086	16645.03017
693.282	16462.86438
693.478	16535.72859
693.674	16383.93114
693.87	16681.46548
694.067	16503.34416
694.263	16833.28756
694.459	16970.95171
694.655	16742.19269
694.851	16788.75167
695.047	16841.38512
695.243	16934.51004
695.439	16717.90155
695.635	16537.75264
695.831	16823.16566
696.027	16659.19937
696.224	16997.27124
696.42	16517.51229
696.615	16408.21797
696.811	16713.85306
697.007	16861.62921
697.203	16317.1438
697.399	16762.43556
697.595	16371.78784
697.791	16359.6446
697.987	16683.48969
698.183	16835.31195
698.379	16651.10267
698.575	16580.25809
698.77	16612.64384
698.966	16529.65647
699.162	16444.64875
699.358	16464.88835
699.554	16201.78856
699.749	16736.11987
699.945	16311.07233
700.141	16667.2961
700.337	16578.234
700.532	16547.8729
700.728	16586.33037
700.924	16560.01728
701.119	16543.82479
701.315	16438.57691
701.511	16145.12488
701.706	16671.34448
701.902	16003.47109
702.097	16317.1438
702.293	16466.91232
702.489	16327.26296
702.684	16436.55296
702.88	16341.42987
703.075	16357.62073
703.271	16383.93114
703.466	16377.85948
703.662	16835.31195
703.857	16181.55138
704.053	16420.36149
704.248	16236.19215
704.443	16606.57147
704.639	16363.69234
704.834	16327.26296
705.03	16203.81229
705.225	16313.09615
705.42	16298.92943
705.616	16529.65647
705.811	16124.88816
706.006	16284.7628
706.202	16485.12816
706.397	16278.69141
706.592	16349.52529
706.787	16481.08018
706.983	16195.71739
707.178	16827.21441
707.373	16266.54868
707.568	16311.07233
707.763	16268.57247
707.959	16760.41127
708.154	16343.45372
708.349	16335.35833
708.544	16454.76852
708.739	16442.6248
708.934	16335.35833
709.129	16309.04851
709.324	15991.32967
709.519	16319.16763
709.714	16137.03017
709.909	16477.03221
710.104	15894.20008
710.299	16147.14856
710.494	16143.1012
710.689	16033.82485
710.884	16294.88181
711.079	16151.19593
711.274	16149.17224
711.469	16122.8645
711.664	16244.28719
711.859	16497.27214
712.054	16341.42987
712.249	15853.73028
712.443	15944.78803
712.638	16009.54181
712.833	15380.26185
713.028	16100.60431
713.223	15534.03341
713.417	15950.85863
713.612	15914.43516
713.807	16096.55702
714.002	16072.27343
714.196	16043.94285
714.391	15894.20008
714.586	15987.28254
714.78	15855.75376
714.975	16230.12089
715.17	16096.55702
715.364	16124.88816
715.559	16418.33757
715.754	15669.59829
715.948	15728.2768
716.143	15625.08406
716.337	15479.40368
716.532	15851.7068
716.726	15487.49694
716.921	15825.4017
717.115	15054.51444
717.31	15724.22998
717.504	15799.0968
717.699	16009.54181
717.893	15465.24049
718.088	15740.41728
718.282	15880.03559
718.476	15815.28441
718.671	15886.10608
718.865	15724.22998
719.059	15368.1221
719.254	15764.69835
719.448	15738.39386
719.642	15847.65985
719.837	15558.31344
720.031	15608.89716
720.225	15412.63457
720.419	15339.79609
720.614	15776.83895
720.808	15922.52923
721.002	15586.64027
721.196	15906.34111
721.39	15529.98675
721.585	15726.25339
721.779	15453.10063
721.973	15325.6331
722.167	15420.72776
722.361	15708.04274
722.555	15339.79609
722.749	15394.4249
722.943	15287.19079
723.137	14989.76948
723.331	15392.4016
723.525	15546.17341
723.719	15297.30718
723.913	15447.03071
724.107	15345.86594
724.301	15580.57022
724.495	15273.02785
724.689	15305.40029
724.883	14890.62805
725.077	15184.00385
725.271	14955.37359
725.465	15171.86423
725.659	15109.14283
725.853	15544.15007
726.046	15121.28246
726.24	15094.97992
726.434	14639.7328
726.628	14951.327
726.822	14878.48821
727.015	15214.35292
727.209	14997.86261
727.403	15167.81769
727.596	15299.33045
727.79	15256.84165
727.984	15285.16751
728.177	15457.14725
728.371	15370.14539
728.565	15080.81701
728.758	15370.14539
728.952	15327.65638
729.146	15111.1661
729.339	15175.91077
729.533	14941.21054
729.726	14961.44346
729.92	15149.60825
730.113	15513.80012
730.307	15129.37554
730.5	15297.30718
730.694	15382.28514
730.887	15465.24049
731.081	15064.63082
731.274	15331.70295
731.468	14963.46675
731.661	15133.42209
731.854	15177.93404
732.048	15246.72528
732.241	14775.29865
732.435	15117.23592
732.628	15044.39806
732.821	14959.42017
733.014	15105.09629
733.208	15086.88683
733.401	15171.86423
733.594	15335.74952
733.788	15273.02785
733.981	15337.7728
734.174	15483.45031
734.367	15612.94388
734.56	15760.6515
734.754	15509.75347
734.947	15641.271
735.14	15493.5669
735.333	15426.79767
735.526	15323.60982
735.719	15074.74719
735.912	15252.7951
736.105	15050.46789
736.298	15224.46928
736.491	15113.18937
736.684	15412.63457
736.877	15234.58564
737.07	15040.3515
737.263	14842.06855
737.456	15097.0032
737.649	14971.5599
737.842	15111.1661
738.035	15007.97903
738.228	15107.11956
738.421	15157.70133
738.614	14874.44159
738.807	14943.23383
739	15362.05224
739.192	14736.855
739.385	15086.88683
739.578	15204.23656
739.771	15101.04974
739.964	15022.14199
740.156	15014.04887
740.349	14838.02191
740.542	14890.62805
740.735	14757.08854
740.927	14655.91999
741.12	14678.17727
741.313	14757.08854
741.505	14868.37166
741.698	14969.53661
741.891	14884.55813
742.083	14931.09407
742.276	14848.13851
742.468	15056.53771
742.661	14783.39201
742.854	14811.71869
743.046	14649.8498
743.239	14591.17084
743.431	14866.34834
743.624	14577.00681
743.816	14589.14741
744.009	14840.04523
744.201	14803.62537
744.393	14591.17084
744.586	14566.88961
744.778	14635.686
744.971	14696.38768
745.163	14846.11519
745.355	14789.46202
745.548	14489.99789
745.74	14461.66888
745.932	14777.32199
746.125	14593.19427
746.317	14842.06855
746.509	14740.90172
746.702	15070.70064
746.894	14678.17727
747.086	14866.34834
747.278	14856.23178
747.471	14603.31139
747.663	14461.66888
747.855	14556.77238
748.047	14556.77238
748.239	14226.93098
748.431	14350.37355
748.623	14320.01943
748.815	14445.48076
749.008	14795.53203
749.2	14759.11188
749.392	14668.06034
749.584	14483.92741
749.776	14481.90392
749.968	14435.36313
750.16	14411.08067
750.352	14311.92493
750.544	14411.08067
750.736	14287.64128
750.928	14581.05368
751.12	14237.04948
751.311	14437.38666
751.503	14591.17084
751.695	14508.20926
751.887	14334.18473
752.079	14461.66888
752.271	13998.23883
752.463	14141.93361
752.654	14046.81302
752.846	14307.87767
753.038	14186.45649
753.23	14255.26266
753.421	14309.90131
753.613	14275.49935
753.805	14328.1139
753.997	14101.45736
754.188	13969.90323
754.38	14000.26278
754.572	14000.26278
754.763	14105.50503
754.955	13935.49505
755.146	14050.8608
755.338	13961.80725
755.53	14048.83691
755.721	13903.11018
755.913	14022.5261
756.104	14143.9574
756.296	14445.48076
756.487	14184.43274
756.679	14186.45649
756.87	13858.57987
757.062	13858.57987
757.253	13700.68836
757.445	13967.87924
757.636	13795.83029
757.827	13890.96568
758.019	13795.83029
758.21	13842.38669
758.401	13822.14496
758.593	13870.72463
758.784	13607.5639
758.975	13571.12195
759.167	13575.17111
759.358	13973.9512
759.549	13589.34306
759.74	13275.49247
759.932	13198.5335
760.123	13129.66998
760.314	13030.41594
760.505	13356.49523
760.696	13184.35614
760.888	13338.27019
761.079	13226.88754
761.27	13548.85131
761.461	13083.08279
761.652	13635.90687
761.843	13243.08946
762.034	13639.95581
762.225	13459.76435
762.416	13593.39216
762.607	13022.31306
762.798	13322.06987
762.989	13396.99415
763.18	13313.96961
763.371	13208.66004
763.562	13396.99415
763.753	13208.66004
763.944	13560.99898
764.135	13237.01377
764.326	13583.26939
764.517	13311.94454
764.708	13409.14351
764.899	13004.08127
765.089	13364.59514
765.28	13386.86957
765.471	13396.99415
765.662	12981.79743
765.853	13188.40684
766.043	12878.47327
766.234	12937.22788
766.425	12657.59545
766.615	12874.42106
766.806	13077.00601
766.997	12951.40937
767.187	12995.97813
767.378	12783.24063
767.569	12777.16153
767.759	12902.78606
767.95	12878.47327
768.141	12842.00263
768.331	12728.52692
768.522	12898.73398
768.712	12629.22082
768.903	12892.65583
769.093	12345.4064
769.284	12381.90406
769.474	12394.06945
769.665	12556.25198
769.855	12949.38346
770.046	12965.59061
770.236	12525.84591
770.426	12497.46562
770.617	12515.71024
770.807	12600.845
770.998	12773.10877
771.188	12781.21427
771.378	12428.53676
771.569	12515.71024
771.759	12246.04023
771.949	12353.51718
772.139	12383.93164
772.33	12077.68629
772.52	12199.39305
772.71	12576.52191
772.9	12264.29243
773.09	12343.37869
773.281	12290.65571
773.471	12493.41119
773.661	12239.95603
773.851	12347.43411
774.041	12294.71149
774.231	12177.08216
774.421	11943.77676
774.611	12126.37225
774.802	11998.5621
774.992	12047.25532
775.182	11925.51367
775.372	11846.36591
775.562	11907.24992
775.752	12085.80092
775.942	11773.29508
776.131	12087.82956
776.321	11755.02564
776.511	11876.80885
776.701	11822.01019
776.891	11864.6319
777.081	11797.65326
777.271	11860.57285
777.461	11842.30671
777.651	11933.63068
777.84	11848.3955
778.03	11738.78554
778.22	11903.19122
778.41	12018.85149
778.599	11817.95079
778.789	11785.47433
778.979	12031.02475
779.169	11852.45465
779.358	11803.74261
779.548	11757.05561
779.738	11426.05064
779.927	11659.60698
780.117	11296.01631
780.307	11556.04508
780.496	11480.89681
780.686	11592.59907
780.875	11344.78396
781.065	11458.55292
781.254	11612.90555
781.444	11523.55012
781.633	11430.11356
781.823	11596.66044
782.012	11287.8878
782.202	11566.19927
782.391	11056.15523
782.581	11484.95921
782.77	11568.23008
782.96	11752.99566
783.149	11147.64503
783.338	11505.27064
783.528	11450.42758
783.717	11371.19736
783.906	11287.8878
784.096	10917.8618
784.285	11064.28854
784.474	10962.60945
784.663	11200.49596
784.853	11109.01866
785.042	10976.84619
785.231	10877.17735
785.42	10814.10733
785.61	10765.27121
785.799	10767.30619
785.988	10901.58857
786.177	10836.48829
786.366	10871.07429
786.555	10944.30426
786.744	10964.6433
786.933	10718.46351
787.122	10917.8618
787.312	10919.89591
787.501	10881.246
787.69	10724.56922
787.879	11009.38527
788.068	10706.25177
788.257	10848.6955
788.445	10584.11018
788.634	10600.39828
788.823	10771.3761
789.012	10736.78032
789.201	10700.14573
789.39	10535.24106
789.579	10470.0709
789.768	10620.7573
789.957	10447.66564
790.145	10694.03959
790.334	10484.32799
790.523	10523.02264
790.712	10765.27121
790.9	10675.7205
791.089	10588.18228
791.278	10734.74517
791.467	10447.66564
791.655	10624.82895
791.844	10604.47018
792.033	10382.47777
792.221	10333.57806
792.41	10264.29035
792.599	9982.90065
792.787	10254.09967
792.976	9982.90065
793.164	10300.97401
793.353	10115.47245
793.541	10341.72854
793.73	10254.09967
793.918	10484.32799
794.107	10144.01857
794.295	10243.90865
794.484	10239.83215
794.672	10245.94688
794.861	9999.22043
795.049	10282.63272
795.238	10078.76626
795.426	10368.21614
795.614	9944.13746
795.803	10029.81755
795.991	10054.29293
796.179	10192.94844
796.368	9995.14058
796.556	9964.53979
796.744	9680.81451
796.932	9629.7537
797.121	9686.94116
797.309	9803.32134
797.497	9919.65274
797.685	9650.17919
797.874	9737.99118
798.062	9582.76917
798.25	9368.16768
798.438	9954.33881
798.626	9625.66842
798.814	9801.28001
799.002	9868.63612
799.19	9931.89536
799.378	9735.94936
799.566	9938.01648
799.755	9713.48836
799.943	9852.30886
800.131	10048.17427
800.318	9903.32842
800.506	9695.1098
800.694	9891.08457
800.882	9648.13671
801.07	9901.28782
801.258	9509.21143
801.446	9717.57232
801.634	9386.56907
801.822	9752.28348
802.01	9676.73
802.197	9838.02172
802.385	9713.48836
802.573	9954.33881
802.761	9842.10383
802.949	9850.26788
803.136	9552.1226
803.324	9470.38096
803.512	9384.52454
803.699	9545.99286
803.887	9748.20004
804.075	9746.1583
804.262	9748.20004
804.45	9978.82056
804.638	9580.72617
804.825	9780.86584
805.013	9686.94116
805.201	9742.07477
805.388	9780.86584
805.576	9650.17919
805.763	9723.69814
805.951	9623.62576
806.138	9838.02172
806.326	9811.48653
806.513	9664.4761
806.701	9809.44525
806.888	9407.01352
807.075	9744.11654
807.263	9588.89806
807.45	9705.32027
807.638	9654.2641
807.825	9833.93955
808.012	9482.64384
808.2	9770.6582
808.387	9764.53343
808.574	10168.4845
808.761	9799.23866
808.949	9933.93575
809.136	9633.83893
809.323	9942.09715
809.51	9840.06278
809.698	9919.65274
809.885	9703.27821
810.072	10064.49039
810.259	10066.52985
810.446	10056.33245
810.633	9958.41925
810.82	9762.49181
811.008	9760.45017
811.195	9492.86246
811.382	9535.77631
811.569	9978.82056
811.756	9664.4761
811.943	10107.31591
812.13	9527.60279
812.317	9780.86584
812.504	9762.49181
812.691	9707.36232
812.878	9654.2641
813.064	9874.75861
813.251	9976.7805
813.438	10017.57909
813.625	10056.33245
813.812	10091.00216
813.999	9901.28782
814.186	9982.90065
814.372	9523.51593
814.559	10031.85724
814.746	9490.81877
814.933	9580.72617
815.12	9288.41288
815.306	9654.2641
815.493	9359.98886
815.68	9901.28782
815.866	9484.6876
816.053	9829.85731
816.24	9821.69267
816.426	9780.86584
816.613	9762.49181
816.799	9764.53343
816.986	9911.4907
817.173	9756.36686
817.359	9617.49767
817.546	9480.60007
817.732	9474.46865
817.919	9658.34895
818.105	9625.66842
818.292	9627.71107
818.478	9545.99286
818.665	9740.03298
818.851	9731.86568
819.037	9844.14487
819.224	9686.94116
819.41	9782.90733
819.597	9699.19404
819.783	9662.43373
819.969	9717.57232
820.156	9713.48836
820.342	9486.73134
820.528	9707.36232
820.714	9466.29321
820.901	9629.7537
821.087	9177.94126
821.273	9852.30886
821.459	9421.32366
821.646	9825.77502
821.832	9519.42901
822.018	9601.15541
822.204	9151.33887
822.39	9386.56907
822.576	9098.12542
822.762	9390.65809
822.948	9089.9377
823.134	9282.27685
823.32	9263.86787
823.507	9384.52454
823.693	9343.63042
823.879	9590.94099
824.065	8991.66342
824.25	9292.50349
824.436	9478.55628
824.622	9315.00061
824.808	9378.39084
824.994	9149.29241
825.18	9159.52453
825.366	9462.20539
825.552	9257.73124
825.738	9437.67713
825.923	9222.95414
826.109	9490.81877
826.295	9366.123
826.481	9523.51593
826.667	9454.02956
826.852	9308.86523
827.038	9304.77489
827.224	9353.85457
827.409	9175.89502
827.595	9067.42005
827.781	9120.64022
827.966	9364.0783
828.152	8950.7039
828.338	9122.68691
828.523	8735.54908
828.709	8860.56795
828.894	8938.41466
829.08	9001.9022
829.266	8702.74601
829.451	8766.2977
829.637	8530.45185
829.822	8743.74912
830.008	8388.82472
830.193	8464.78103
830.378	8302.57196
830.564	8499.67108
830.749	8466.83354
830.935	8550.97
831.12	8372.39827
831.305	8807.28947
831.491	8345.70263
831.676	8530.45185
831.861	8452.46558
832.047	8649.43093
832.232	8358.0241
832.417	8444.25489
832.602	8109.40435
832.788	8423.72684
832.973	8294.35562
833.158	8411.40908
833.343	8208.06502
833.528	8618.66652
833.714	8140.24075
833.899	8628.92179
834.084	8197.79001
834.269	8678.1406
834.454	8310.78799
834.639	8436.0439
834.824	8208.06502
835.009	8516.08802
835.194	8319.00371
835.379	8782.69528
835.564	8321.05759
835.749	8706.84665
835.934	8444.25489
836.119	8511.9839
836.304	8121.73945
836.489	8047.71797
836.674	8119.68365
836.859	8253.26919
837.044	7895.48003
837.228	8099.12455
837.413	8156.68499
837.598	8444.25489
837.783	8006.5836
837.968	8277.92199
838.152	7903.71197
838.337	8206.01006
838.522	8012.75427
838.707	8236.83242
838.891	7722.53239
839.076	7687.51311
839.261	7780.19796
839.445	7920.17488
839.63	7677.21217
839.815	7798.72984
839.999	7594.78549
840.184	7722.53239
840.368	7367.93524
840.553	7790.49366
840.737	7623.63869
840.922	7833.72988
841.106	7627.76024
841.291	7864.60728
841.475	7588.60212
841.66	7695.75349
841.844	7475.20609
842.029	7619.51706
842.213	7289.50772
842.397	7563.8667
842.582	7477.26842
842.766	7817.26002
842.951	7446.33125
843.135	7644.24557
843.319	7433.95502
843.504	7685.45297
843.688	7495.82839
843.872	7776.07954
844.056	7376.18893
844.241	7757.54559
844.425	7194.52667
844.609	7481.39301
844.793	7339.04457
844.977	7693.69343
845.161	7341.10833
845.346	7374.12554
845.53	7355.55405
845.714	7293.63628
845.898	7124.29317
846.082	7367.93524
846.266	7091.2332
846.45	7347.29949
846.634	7000.28875
846.818	7400.94791
847.002	7233.76364
847.186	7310.14961
847.37	7272.99263
847.554	7085.03382
847.738	7076.76767
847.922	7310.14961
848.106	7227.56886
848.29	7056.10072
848.473	6859.65244
848.657	6869.99691
848.841	6805.85202
849.025	6909.30073
849.209	6584.27975
849.392	6963.07166
849.576	6865.85919
849.76	6747.89586
849.944	6749.96603
850.127	7109.83013
850.311	6942.39234
850.495	7076.76767
850.678	6851.37646
850.862	7178.00345
851.046	6822.40763
851.229	6921.71077
851.413	6607.07035
851.596	6785.15545
851.78	6799.64329
851.964	6689.92175
852.147	6586.35174
852.331	6654.7144
852.514	6254.5383
852.698	6578.06365
852.881	6281.52042
853.065	6607.07035
853.248	6329.24833
853.431	6428.81463
853.615	6397.70593
853.798	6727.19288
853.982	6343.77176
854.165	6482.72398
854.348	6437.1094
854.532	6623.64358
854.715	6030.22584
854.898	6374.88955
855.081	6208.86723
855.265	6461.99148
855.448	6171.49155
855.631	6522.10935
855.814	6150.724
855.997	6495.16237
856.181	6379.0382
856.364	6248.31109
856.547	6063.47461
856.73	6366.59199
856.913	6071.78587
857.096	6395.63183
857.279	6312.64872
857.462	6223.40016
857.645	5901.32986
857.828	6343.77176
858.011	6329.24833
858.194	6345.84645
858.377	5982.42016
858.56	6379.0382
858.743	6063.47461
858.926	6381.11248
859.109	5953.31495
859.292	6140.33934
859.475	5693.24204
859.658	6102.94971
859.841	5622.43842
860.023	5865.97158
860.206	5622.43842
860.389	5841.00869
860.572	5705.73397
860.755	5791.07271
860.937	5637.01787
861.12	5926.28454
861.303	5849.33003
861.486	5938.76061
861.668	5641.18321
861.851	5917.96669
862.034	5662.00851
862.216	5880.5317
862.399	5324.34864
862.581	5672.42028
862.764	5359.81106
862.947	5605.77479
863.129	5217.9208
863.312	5355.63936
863.494	5326.43485
863.677	5470.32682
863.859	5407.77883
864.042	5736.96006
864.224	5280.53278
864.406	5399.4375
864.589	5249.22942
864.771	5632.85243
864.954	5117.69798
865.136	5347.29569
865.318	5109.34366
865.501	5192.87013
865.683	5282.61948
865.865	5434.88556
866.048	5253.4035
866.23	5155.28782
866.412	4988.16436
866.594	5374.41126
866.777	4967.26353
866.959	5374.41126
867.141	4988.16436
867.323	5167.81609
867.505	5059.20994
867.687	4981.89435
867.869	4979.8043
868.052	5134.40551
868.234	5167.81609
868.416	5299.31227
868.598	5100.98897
868.78	5284.70616
868.962	4979.8043
869.144	5025.78005
869.326	4756.03664
869.508	5002.79357
869.69	5006.97314
869.872	5224.18294
870.054	4833.44381
870.236	4979.8043
870.417	4772.77596
870.599	4804.15827
870.781	4532.00975
870.963	4636.72714
871.145	4695.34446
871.327	4946.36039
871.508	4787.42167
871.69	5061.29911
871.872	4829.26044
872.054	5004.88337
872.235	4825.07697
872.417	4871.09009
872.599	4668.13147
872.78	4908.72895
872.962	4580.18667
873.144	4848.08491
873.325	4538.29436
873.507	5004.88337
873.689	4666.038
873.87	4917.09214
874.052	4624.164
874.233	5013.24232
874.415	4653.47675
874.596	5040.40636
874.778	4569.71443
874.959	4921.27359
875.141	4561.33623
875.322	4845.99339
875.503	4682.78509
875.685	4837.6271
875.866	4552.95768
876.048	4766.49888
876.229	4636.72714
876.41	4603.22364
876.592	4594.84687
876.773	5015.332
876.954	4607.41189
877.136	5040.40636
877.317	4624.164
877.498	4835.53547
877.679	4594.84687
877.86	4638.82092
878.042	4638.82092
878.223	4799.97426
878.404	4588.56406
878.585	4833.44381
878.766	4619.97611
878.947	4873.18133
879.128	4720.46077
879.309	4747.66643
879.49	4588.56406
879.672	4843.90185
879.853	4578.09226
880.034	4691.1581
880.215	4804.15827
880.396	5013.24232
880.576	4831.35214
880.757	5082.18955
880.938	4900.3654
881.119	5048.76374
881.3	4758.12913
881.481	4925.45495
881.662	4908.72895
881.843	4971.44388
882.023	4781.14507
882.204	5034.13808
882.385	4661.85101
882.566	4720.46077
882.747	4582.28105
882.927	4904.54722
883.108	4670.22491
883.289	4666.038
883.469	4561.33623
883.65	4787.42167
883.831	4578.09226
884.011	4747.66643
884.192	4724.6465
884.373	4820.89341
884.553	4712.08903
884.734	4883.6372
884.914	4770.68362
885.095	5238.7938
885.275	4680.69178
885.456	5280.53278
885.636	5238.7938
885.817	5119.7865
885.997	4937.99849
886.178	5268.01207
886.358	4770.68362
886.538	4795.79015
886.719	4563.43081
886.899	4795.79015
887.08	4774.86827
887.26	5021.6009
887.44	5067.56649
887.621	5142.75871
887.801	4856.45075
887.981	4958.90255
888.161	4756.03664
888.342	4818.8016
888.522	4714.182
888.702	4971.44388
888.882	4741.38854
889.062	4940.089
889.242	4678.59845
889.423	4833.44381
889.603	4552.95768
889.783	4871.09009
889.963	4657.66392
890.143	4919.18287
890.323	4829.26044
890.503	5121.875
890.683	4776.96056
890.863	4887.81939
891.043	4753.94412
891.223	5067.56649
891.403	4764.40648
891.583	5063.38826
891.763	4900.3654
891.943	4889.91045
892.122	4739.29587
892.302	4906.6381
892.482	4776.96056
892.662	4894.0925
892.842	4636.72714
893.022	4919.18287
893.201	4555.05235
893.381	5015.332
893.561	4645.10212
893.741	4636.72714
893.92	4500.58371
894.1	4896.18349
894.28	4488.0119
894.459	4766.49888
894.639	4689.06488
894.819	4837.6271
894.998	4594.84687
895.178	4712.08903
895.357	4561.33623
895.537	4724.6465
895.716	4423.04493
895.896	4707.90302
896.075	4301.43755
896.255	4594.84687
896.434	4251.09601
896.614	4525.72494
896.793	4171.36345
896.973	4471.24825
897.152	4259.48712
897.331	4548.76827
897.511	4337.08864
897.69	4471.24825
897.87	4462.8659
898.049	4563.43081
898.228	4318.21531
898.407	4488.0119
898.587	4165.06748
898.766	4368.5403
898.945	4167.16616
899.124	4334.99169
899.304	4228.01869
899.483	4389.50537
899.662	4120.99033
899.841	4158.77131
900.02	3868.94611
900.199	3969.79909
900.378	3885.75816
900.557	4047.50796
900.737	3986.60338
900.916	3934.08564
901.095	3759.63689
901.274	3763.84207
901.453	3559.80238
901.632	3629.23797
901.811	3652.37862
901.989	3683.93035
902.168	3521.91989
902.347	3871.04769
902.526	3601.88698
902.705	3683.93035
902.884	3481.92639
903.063	3763.84207
903.242	3601.88698
903.42	3673.41359
903.599	3380.86123
903.778	3639.75673
903.957	3252.36609
904.135	3608.19903
904.314	3058.45285
904.493	3469.2955
904.672	3269.22153
904.85	3782.76443
905.029	3184.93361
905.207	3370.33126
905.386	3092.18666
905.565	3305.03575
905.743	2993.08231
905.922	3326.10064
906.1	3056.34436
906.279	3128.0244
906.457	2887.61552
906.636	3085.86188
906.814	2853.85847
906.993	2940.35353
907.171	2794.77496
907.35	2885.50581
907.528	2672.35397
907.707	2828.5383
907.885	2670.24288
908.063	2727.23783
908.242	2587.90056
908.42	2788.44394
908.598	2482.30685
908.777	2528.77164
908.955	2421.04959
909.133	2670.24288
909.311	2518.21195
909.49	2752.56586
909.668	2347.1066
909.846	2594.23524
910.024	2273.15147
910.202	2435.83666
910.38	2406.26201
910.559	2668.13177
910.737	2467.52145
910.915	2630.12974
911.093	2558.33726
911.271	2704.01881
911.449	2590.01213
911.627	2678.68717
911.805	2554.11374
911.983	2896.05421
912.161	2630.12974
912.339	2843.30864
912.517	2571.00753
912.695	2872.84726
912.872	2761.00812
913.05	2803.21613
913.228	2674.46505
913.406	2870.73745
913.584	2619.5729
913.762	2750.45527
913.939	2828.5383
914.117	2946.68147
914.295	2609.01576
914.473	2942.46286
914.65	2642.79754
914.828	2714.57311
915.006	2516.09997
915.184	2714.57311
915.361	2410.48708
915.539	2735.68072
915.716	2581.56576
915.894	2729.34858
916.072	2404.14945
916.249	2771.56063
916.427	2524.5478
916.604	2661.79838
916.782	2509.76398
916.959	2556.2255
917.137	2389.36128
917.314	2581.56576
917.492	2478.0825
917.669	2410.48708
917.847	2254.13257
918.024	2359.78343
918.201	2349.21943
918.379	2507.65196
918.556	2247.79278
918.733	2423.16206
918.911	2213.97918
919.088	2469.63369
919.265	2237.22627
919.442	2287.94343
919.62	2080.81744
919.797	2319.63893
919.974	2101.9563
920.151	2347.1066
920.328	2142.11804
920.506	2306.96098
920.683	2068.13377
920.86	2203.41197
921.037	1983.56959
921.214	2099.84245
921.391	1966.6555
921.568	2186.504
921.745	2135.7769
921.922	2262.5855
922.099	2011.05412
922.276	2271.03829
922.453	2076.58957
922.63	2209.75232
922.807	2051.2218
922.984	2118.86685
923.161	1850.36117
923.338	1920.13977
923.514	1890.53742
923.691	2002.59746
923.868	1791.15092
924.045	2099.84245
924.222	1915.91093
924.399	1994.14069
924.575	1827.10042
924.752	2156.91376
924.929	1858.81948
925.105	1886.30843
925.282	1653.68694
925.459	1666.37647
925.635	1738.28187
925.812	2034.30939
925.989	1797.49504
926.165	1951.85535
926.342	1898.99534
926.518	1994.14069
926.695	1670.6063
926.871	1797.49504
927.048	1579.663
927.224	1729.8226
927.401	1433.72538
927.577	1569.08797
927.754	1374.50414
927.93	1613.50283
928.107	1380.84924
928.283	1579.663
928.459	1433.72538
928.636	1503.52204
928.812	1440.07053
928.988	1404.1147
929.165	1260.29458
929.341	1289.90392
929.517	1196.84779
929.693	1410.45983
929.87	1120.71585
930.046	1296.24884
930.222	1251.83485
930.398	1404.1147
930.574	1192.6181
930.751	1340.66375
930.927	1129.17468
931.103	1188.38843
931.279	1046.70436
931.455	1078.42279
931.631	1055.16249
931.807	1131.2894
931.983	987.5001
932.159	1146.09257
932.335	1021.33052
932.511	1029.78837
932.687	932.52931
932.863	1131.2894
933.039	964.24265
933.215	1160.89594
933.391	934.64348
933.566	1093.22514
933.742	951.55712
933.918	981.15708
934.094	793.01189
934.27	900.81763
934.445	833.17213
934.621	945.21445
934.797	725.38156
934.973	752.85512
935.148	655.64929
935.324	740.1748
935.5	609.16823
935.675	689.45734
935.851	573.25523
936.027	651.4235
936.202	615.5062
936.378	537.34607
936.553	444.42385
936.729	539.45826
936.904	516.2249
937.08	492.99327
937.255	387.41813
937.431	450.75854
937.606	429.64347
937.782	431.75491
937.957	311.42946
938.133	313.53995
938.308	309.31899
938.483	305.0981
938.659	235.46415
938.834	294.5462
939.009	271.33363
939.185	279.77431
939.36	256.56318
939.535	258.67319
939.71	199.6003
939.886	237.57397
940.061	191.16258
940.236	157.41499
940.411	302.98769
940.586	170.06972
940.761	254.45319
940.937	182.72519
941.112	258.67319
941.287	243.90353
941.462	182.72519
941.637	151.08791
941.812	132.10782
941.987	142.6521
942.162	174.28813
942.337	193.27198
942.512	115.23808
942.687	136.32547
942.862	148.97893
943.037	68.85356
943.212	184.83451
943.386	144.76102
943.561	157.41499
943.736	178.50662
943.911	125.7815
944.086	178.50662
944.26	123.67278
944.435	186.94385
944.61	132.10782
944.785	199.6003
944.959	237.57397
945.134	39.34183
945.309	167.96055
945.483	170.06972
945.658	123.67278
945.833	138.43433
946.007	155.30595
946.182	148.97893
946.357	161.63315
946.531	89.9361
946.706	170.06972
946.88	174.28813
947.055	163.74226
947.229	184.83451
947.404	132.10782
947.578	155.30595
947.752	144.76102
947.927	174.28813
948.101	210.14789
948.276	184.83451
948.45	64.63732
948.624	199.6003
948.799	153.19692
948.973	140.5432
949.147	134.21663
949.321	208.03833
949.496	174.28813
949.67	176.39736
949.844	148.97893
950.018	129.99903
950.193	100.4782
950.367	165.85139
950.541	132.10782
950.715	144.76102
950.889	134.21663
951.063	167.96055
951.237	195.3814
951.411	235.46415
951.585	148.97893
951.759	182.72519
951.933	182.72519
952.107	140.5432
952.281	216.47669
952.455	165.85139
952.629	117.34672
952.803	102.58669
952.977	165.85139
953.151	229.13482
953.325	161.63315
953.499	180.61589
953.672	100.4782
953.846	111.02086
954.02	167.96055
954.194	201.70978
954.368	174.28813
954.541	182.72519
954.715	199.6003
954.889	167.96055
955.062	157.41499
955.236	222.80567
955.41	170.06972
955.583	224.91537
955.757	163.74226
955.93	254.45319
956.104	241.79366
956.278	134.21663
956.451	108.91229
956.625	119.45538
956.798	75.17808
956.972	163.74226
957.145	134.21663
957.319	201.70978
957.492	83.6111
957.665	77.2863
957.839	233.35436
958.012	197.49084
958.185	106.80373
958.359	170.06972
958.532	132.10782
958.705	182.72519
958.879	140.5432
959.052	138.43433
959.225	119.45538
959.398	191.16258
959.572	151.08791
959.745	129.99903
959.918	199.6003
960.091	85.71941
960.264	170.06972
960.438	233.35436
960.611	117.34672
960.784	157.41499
960.957	134.21663
961.13	123.67278
961.303	136.32547
961.476	115.23808
961.649	201.70978
961.822	193.27198
961.995	161.63315
962.168	68.85356
962.341	157.41499
962.514	224.91537
962.686	125.7815
962.859	161.63315
963.032	111.02086
963.205	127.89025
963.378	176.39736
963.551	148.97893
963.723	153.19692
963.896	144.76102
964.069	75.17808
964.242	132.10782
964.414	132.10782
964.587	193.27198
964.76	98.36974
964.932	212.25747
965.105	174.28813
965.278	165.85139
965.45	56.20513
965.623	140.5432
965.795	186.94385
965.968	26.69535
966.14	174.28813
966.313	176.39736
966.485	94.15287
966.658	167.96055
966.83	81.50281
967.003	140.5432
967.175	178.50662
967.348	111.02086
967.52	26.69535
967.692	193.27198
967.865	142.6521
968.037	96.26129
968.209	132.10782
968.382	155.30595
968.554	134.21663
968.726	113.12946
968.898	73.06989
969.071	227.02509
969.243	134.21663
969.415	106.80373
969.587	100.4782
969.759	121.56407
969.932	119.45538
970.104	148.97893
970.276	47.77329
970.448	119.45538
970.62	174.28813
970.792	117.34672
970.964	157.41499
971.136	41.44967
971.308	144.76102
971.48	33.01848
971.652	94.15287
971.824	144.76102
971.996	94.15287
972.168	121.56407
972.339	102.58669
972.511	123.67278
972.683	161.63315
972.855	140.5432
973.027	98.36974
973.199	140.5432
973.37	73.06989
973.542	94.15287
973.714	201.70978
973.886	60.42118
974.057	85.71941
974.229	58.31314
974.401	144.76102
974.572	148.97893
974.744	89.9361
974.915	73.06989
975.087	144.76102
975.259	140.5432
975.43	125.7815
975.602	56.20513
975.773	92.04447
975.945	106.80373
976.116	47.77329
976.288	77.2863
976.459	108.91229
976.63	66.74543
976.802	5.61975
976.973	98.36974
977.145	73.06989
977.316	157.41499
977.487	47.77329
977.659	89.9361
977.83	106.80373
978.001	117.34672
978.172	102.58669
978.344	115.23808
978.515	123.67278
978.686	56.20513
978.857	87.82774
979.028	51.98916
979.2	24.58768
979.371	30.91075
979.542	51.98916
979.713	16.15725
979.884	89.9361
980.055	16.15725
980.226	58.31314
980.397	-19.66778
980.568	77.2863
980.739	47.77329
980.91	73.06989
981.081	106.80373
981.252	41.44967
981.423	77.2863
981.594	47.77329
981.765	49.88122
981.936	157.41499
982.106	89.9361
982.277	26.69535
982.448	117.34672
982.619	73.06989
982.79	104.6952
982.96	45.6654
983.131	49.88122
983.302	43.55752
983.472	100.4782
983.643	92.04447
983.814	64.63732
983.984	81.50281
984.155	62.52924
984.326	66.74543
984.496	75.17808
984.667	14.04971
984.837	14.04971
985.008	89.9361
985.178	136.32547
985.349	64.63732
985.519	98.36974
985.69	115.23808
985.86	49.88122
986.031	113.12946
986.201	54.09713
986.371	45.6654
986.542	22.48004
986.712	24.58768
986.882	75.17808
987.053	64.63732
987.223	45.6654
987.393	41.44967
987.563	39.34183
987.734	-7.02445
987.904	106.80373
988.074	30.91075
988.244	49.88122
988.414	140.5432
988.585	-0.70246
988.755	37.23403
988.925	-17.56062
989.095	-11.23899
989.265	66.74543
989.435	-0.70246
989.605	-9.13173
989.775	14.04971
989.945	106.80373
990.115	66.74543
990.285	140.5432
990.455	5.61975
990.625	115.23808
990.795	22.48004
990.965	60.42118
991.134	119.45538
991.304	14.04971
991.474	26.69535
991.644	5.61975
991.814	39.34183
991.984	49.88122
992.153	5.61975
992.323	77.2863
992.493	35.12624
992.662	37.23403
992.832	26.69535
993.002	35.12624
993.171	108.91229
993.341	98.36974
993.511	-7.02445
993.68	75.17808
993.85	22.48004
994.019	100.4782
994.189	94.15287
994.358	73.06989
994.528	18.26482
994.697	70.96171
994.867	18.26482
995.036	14.04971
995.206	22.48004
995.375	-17.56062
995.544	56.20513
995.714	66.74543
995.883	14.04971
996.052	-0.70246
996.222	14.04971
996.391	28.80304
996.56	51.98916
996.73	37.23403
996.899	-0.70246
997.068	-0.70246
997.237	100.4782
997.406	43.55752
997.576	66.74543
997.745	60.42118
997.914	100.4782
998.083	43.55752
998.252	35.12624
998.421	14.04971
998.59	41.44967
998.759	5.61975
998.928	62.52924
999.097	102.58669
999.266	22.48004
999.435	41.44967
999.604	106.80373
999.773	14.04971
999.942	16.15725
1000.111	60.42118
1000.28	64.63732
1000.448	-4.91714
1000.617	39.34183
1000.786	-21.77492
1000.955	22.48004
1001.124	18.26482
1001.292	24.58768
1001.461	49.88122
1001.63	49.88122
1001.798	81.50281
1001.967	-47.05863
1002.136	39.34183
1002.304	47.77329
1002.473	60.42118
1002.642	-7.02445
1002.81	-19.66778
1002.979	60.42118
1003.147	56.20513
1003.316	47.77329
1003.484	43.55752
1003.653	24.58768
1003.821	75.17808
1003.99	49.88122
1004.158	75.17808
1004.327	18.26482
1004.495	-30.20322
1004.663	35.12624
1004.832	98.36974
1005	39.34183
1005.168	85.71941
1005.337	-2.80981
1005.505	26.69535
1005.673	58.31314
1005.842	1.40492
1006.01	1.40492
1006.178	-38.63112
1006.346	5.61975
1006.514	26.69535
1006.683	56.20513
1006.851	-23.88203
1007.019	9.83468
1007.187	5.61975
1007.355	-7.02445
1007.523	22.48004
1007.691	37.23403
1007.859	49.88122
1008.027	30.91075
1008.195	-7.02445
1008.363	85.71941
1008.531	30.91075
1008.699	22.48004
1008.867	73.06989
1009.035	33.01848
1009.203	56.20513
1009.37	35.12624
1009.538	66.74543
1009.706	56.20513
1009.874	98.36974
1010.042	-40.73804
1010.209	5.61975
1010.377	66.74543
1010.545	1.40492
1010.713	51.98916
1010.88	89.9361
1011.048	43.55752
1011.216	26.69535
1011.383	-40.73804
1011.551	39.34183
1011.718	66.74543
1011.886	81.50281
1012.054	-9.13173
1012.221	-7.02445
1012.389	14.04971
1012.556	-11.23899
1012.724	-17.56062
1012.891	-25.98912
1013.058	14.04971
1013.226	1.40492
1013.393	-19.66778
1013.561	22.48004
1013.728	30.91075
1013.895	-11.23899
1014.063	39.34183
1014.23	-28.09618
1014.397	33.01848
1014.565	14.04971
1014.732	-11.23899
1014.899	-28.09618
1015.066	73.06989
1015.233	83.6111
1015.401	81.50281
1015.568	43.55752
1015.735	-15.45344
1015.902	-2.80981
1016.069	28.80304
1016.236	20.37242
1016.403	14.04971
1016.57	7.72721
1016.737	41.44967
1016.904	73.06989
1017.071	-19.66778
1017.238	41.44967
1017.405	-2.80981
1017.572	14.04971
1017.739	51.98916
1017.906	5.61975
1018.073	43.55752
1018.24	-34.41722
1018.407	5.61975
1018.573	132.10782
1018.74	-49.16544
1018.907	14.04971
1019.074	39.34183
1019.241	-13.34623
1019.407	30.91075
1019.574	22.48004
1019.741	-59.69913
1019.907	-13.34623
1020.074	64.63732
1020.241	33.01848
1020.407	28.80304
1020.574	30.91075
1020.74	-2.80981
1020.907	30.91075
1021.073	62.52924
1021.24	89.9361
1021.406	26.69535
1021.573	49.88122
1021.739	5.61975
1021.906	81.50281
1022.072	-23.88203
1022.239	-13.34623
1022.405	81.50281
1022.571	45.6654
1022.738	58.31314
1022.904	11.94218
1023.07	125.7815
1023.237	30.91075
1023.403	16.15725
1023.569	56.20513
1023.735	39.34183
1023.902	-2.80981
1024.068	47.77329
1024.234	-36.52418
1024.4	18.26482
1024.566	60.42118
1024.732	-42.84492
1024.898	-36.52418
1025.065	22.48004
1025.231	-19.66778
1025.397	54.09713
1025.563	-51.27223
1025.729	-19.66778
1025.895	-19.66778
1026.061	-32.31023
1026.227	33.01848
1026.392	-32.31023
1026.558	58.31314
1026.724	58.31314
1026.89	37.23403
1027.056	41.44967
1027.222	18.26482
1027.388	-0.70246
1027.553	-59.69913
1027.719	47.77329
1027.885	39.34183
1028.051	30.91075
1028.216	-28.09618
1028.382	41.44967
1028.548	5.61975
1028.713	132.10782
1028.879	-11.23899
1029.045	45.6654
1029.21	26.69535
1029.376	75.17808
1029.541	77.2863
1029.707	7.72721
1029.873	30.91075
1030.038	1.40492
1030.204	-11.23899
1030.369	49.88122
1030.534	43.55752
1030.7	1.40492
1030.865	16.15725
1031.031	18.26482
1031.196	39.34183
1031.361	24.58768
1031.527	28.80304
1031.692	-70.23219
1031.857	14.04971
1032.023	58.31314
1032.188	7.72721
1032.353	5.61975
1032.518	7.72721
1032.684	5.61975
1032.849	-57.59244
1033.014	26.69535
1033.179	-11.23899
1033.344	7.72721
1033.509	58.31314
1033.674	73.06989
1033.839	-15.45344
1034.004	-11.23899
1034.17	-25.98912
1034.335	47.77329
1034.5	30.91075
1034.664	-7.02445
1034.829	73.06989
1034.994	54.09713
1035.159	83.6111
1035.324	-19.66778
1035.489	33.01848
1035.654	-80.7646
1035.819	56.20513
1035.984	18.26482
1036.148	43.55752
1036.313	24.58768
1036.478	16.15725
1036.643	66.74543
1036.807	-44.95179
1036.972	39.34183
1037.137	108.91229
1037.301	60.42118
1037.466	89.9361
1037.631	-30.20322
1037.795	26.69535
1037.96	28.80304
1038.124	9.83468
1038.289	39.34183
1038.454	-9.13173
1038.618	-23.88203
1038.783	73.06989
1038.947	62.52924
1039.111	5.61975
1039.276	-11.23899
1039.44	22.48004
1039.605	73.06989
1039.769	-9.13173
1039.933	-36.52418
1040.098	28.80304
1040.262	-19.66778
1040.426	26.69535
1040.591	77.2863
1040.755	-17.56062
1040.919	77.2863
1041.083	41.44967
1041.248	58.31314
1041.412	30.91075
1041.576	-36.52418
1041.74	49.88122
1041.904	26.69535
1042.068	-4.91714
1042.232	1.40492
1042.397	41.44967
1042.561	5.61975
1042.725	-19.66778
1042.889	-17.56062
1043.053	22.48004
1043.217	-7.02445
1043.381	30.91075
1043.544	49.88122
1043.708	-40.73804
1043.872	43.55752
1044.036	-44.95179
1044.2	1.40492
1044.364	-42.84492
1044.528	41.44967
1044.691	14.04971
1044.855	30.91075
1045.019	-2.80981
1045.183	5.61975
1045.346	18.26482
1045.51	-49.16544
1045.674	35.12624
1045.837	92.04447
1046.001	33.01848
1046.165	24.58768
1046.328	-36.52418
1046.492	-9.13173
1046.655	5.61975
1046.819	28.80304
1046.983	-76.55171
1047.146	89.9361
1047.31	-32.31023
1047.473	58.31314
1047.636	22.48004
1047.8	20.37242
1047.963	41.44967
1048.127	47.77329
1048.29	47.77329
