Data from mixed_try1_USB4F045381__33__00181.txt Node

Date: Thu Apr 03 20:13:14 EDT 2025
User: mmckonesweet
Spectrometer: USB4F04538
Trigger mode: 4
Integration Time (sec): 2.700000E-3
Scans to average: 1
Electric dark correction enabled: true
Nonlinearity correction enabled: true
Boxcar width: 0
XAxis mode: Wavelengths
Number of Pixels in Spectrum: 3648
>>>>>Begin Spectral Data<<<<<
345.52	-37.40208
345.736	-37.40208
345.952	-37.40208
346.168	21.60186
346.384	-16.33143
346.6	-33.18815
346.816	25.81715
347.032	17.38667
347.248	-3.68787
347.464	-37.40208
347.68	21.60186
347.896	51.11085
348.112	-7.90249
348.328	40.5714
348.544	-33.18815
348.76	25.81715
348.975	-66.89679
349.191	36.35578
349.407	36.35578
349.623	19.49425
349.839	93.27437
350.055	44.78711
350.27	21.60186
350.486	-33.18815
350.702	-45.82964
350.918	59.54283
351.133	25.81715
351.349	-3.68787
351.565	34.24801
351.781	11.06405
351.996	2.63424
352.212	8.95656
352.428	-24.75999
352.644	-24.75999
352.859	-31.08114
353.075	-18.43861
353.291	11.06405
353.506	-54.2568
353.722	-22.65289
353.938	67.97517
354.153	38.46358
354.369	11.06405
354.584	-3.68787
354.8	63.75895
355.016	-1.58052
355.231	-69.00336
355.447	105.92518
355.662	11.06405
355.878	34.24801
356.093	78.51611
356.309	21.60186
356.524	-50.04327
356.74	70.08331
356.955	-20.54576
357.171	-75.32294
357.386	57.4348
357.602	-28.97412
357.817	13.17157
358.033	6.8491
358.248	-18.43861
358.464	122.79415
358.679	51.11085
358.895	-47.93647
359.11	63.75895
359.325	-28.97412
359.541	36.35578
359.756	-28.97412
359.972	34.24801
360.187	19.49425
360.402	-5.79519
360.618	8.95656
360.833	30.03253
361.048	93.27437
361.264	17.38667
361.479	8.95656
361.694	-16.33143
361.909	-39.50901
362.125	0.52684
362.34	80.62436
362.555	-5.79519
362.77	76.40788
362.986	32.14026
363.201	-20.54576
363.416	76.40788
363.631	30.03253
363.847	51.11085
364.062	67.97517
364.277	63.75895
364.492	6.8491
364.707	36.35578
364.922	2.63424
365.138	30.03253
365.353	53.21881
365.568	4.74166
365.783	-16.33143
365.998	-16.33143
366.213	59.54283
366.428	19.49425
366.643	38.46358
366.858	21.60186
367.073	11.06405
367.288	8.95656
367.503	-5.79519
367.718	17.38667
367.933	27.92483
368.148	0.52684
368.363	25.81715
368.578	-41.61591
368.793	72.19148
369.008	30.03253
369.223	76.40788
369.438	-50.04327
369.653	-5.79519
369.868	-12.11701
370.083	15.2791
370.298	-24.75999
370.513	4.74166
370.728	86.94927
370.943	-47.93647
371.157	42.67924
371.372	2.63424
371.587	42.67924
371.802	-58.47023
372.017	36.35578
372.232	38.46358
372.446	78.51611
372.661	42.67924
372.876	8.95656
373.091	-43.72279
373.306	6.8491
373.52	8.95656
373.735	30.03253
373.95	19.49425
374.165	13.17157
374.379	42.67924
374.594	-83.74867
374.809	36.35578
375.023	17.38667
375.238	2.63424
375.453	46.895
375.667	19.49425
375.882	34.24801
376.097	17.38667
376.311	2.63424
376.526	8.95656
376.741	-31.08114
376.955	67.97517
377.17	-1.58052
377.384	53.21881
377.599	38.46358
377.813	67.97517
378.028	-7.90249
378.242	19.49425
378.457	38.46358
378.672	21.60186
378.886	-31.08114
379.101	80.62436
379.315	8.95656
379.53	27.92483
379.744	27.92483
379.958	0.52684
380.173	25.81715
380.387	32.14026
380.602	27.92483
380.816	95.38278
381.031	6.8491
381.245	42.67924
381.459	51.11085
381.674	4.74166
381.888	36.35578
382.103	55.32679
382.317	53.21881
382.531	19.49425
382.746	17.38667
382.96	-33.18815
383.174	-47.93647
383.388	32.14026
383.603	-20.54576
383.817	78.51611
384.031	-35.29512
384.246	72.19148
384.46	-26.86706
384.674	34.24801
384.888	-5.79519
385.103	-3.68787
385.317	8.95656
385.531	17.38667
385.745	2.63424
385.959	32.14026
386.174	78.51611
386.388	63.75895
386.602	19.49425
386.816	11.06405
387.03	-39.50901
387.244	27.92483
387.458	-5.79519
387.672	70.08331
387.887	-7.90249
388.101	17.38667
388.315	-7.90249
388.529	-16.33143
388.743	17.38667
388.957	67.97517
389.171	97.49122
389.385	42.67924
389.599	6.8491
389.813	51.11085
390.027	8.95656
390.241	-39.50901
390.455	-7.90249
390.669	63.75895
390.883	55.32679
391.097	25.81715
391.311	-5.79519
391.525	4.74166
391.738	-7.90249
391.952	13.17157
392.166	36.35578
392.38	11.06405
392.594	-22.65289
392.808	55.32679
393.022	-7.90249
393.236	-3.68787
393.449	11.06405
393.663	-7.90249
393.877	8.95656
394.091	-58.47023
394.305	-16.33143
394.518	17.38667
394.732	89.05761
394.946	59.54283
395.16	-41.61591
395.373	70.08331
395.587	11.06405
395.801	19.49425
396.015	38.46358
396.228	-12.11701
396.442	42.67924
396.656	36.35578
396.869	-20.54576
397.083	17.38667
397.297	-3.68787
397.51	36.35578
397.724	67.97517
397.938	11.06405
398.151	-33.18815
398.365	84.84094
398.578	2.63424
398.792	67.97517
399.005	25.81715
399.219	-5.79519
399.433	19.49425
399.646	21.60186
399.86	-24.75999
400.073	40.5714
400.287	-22.65289
400.5	23.70949
400.714	8.95656
400.927	63.75895
401.141	112.25088
401.354	-31.08114
401.567	30.03253
401.781	-50.04327
401.994	19.49425
402.208	-22.65289
402.421	-62.68356
402.635	49.00291
402.848	61.65088
403.061	76.40788
403.275	6.8491
403.488	17.38667
403.701	-5.79519
403.915	42.67924
404.128	59.54283
404.341	-16.33143
404.555	8.95656
404.768	8.95656
404.981	13.17157
405.195	27.92483
405.408	99.59967
405.621	30.03253
405.834	2.63424
406.048	4.74166
406.261	-81.64228
406.474	23.70949
406.687	148.10019
406.9	25.81715
407.114	13.17157
407.327	34.24801
407.54	42.67924
407.753	-3.68787
407.966	30.03253
408.179	27.92483
408.392	25.81715
408.605	-41.61591
408.819	-5.79519
409.032	-33.18815
409.245	51.11085
409.458	30.03253
409.671	6.8491
409.884	36.35578
410.097	36.35578
410.31	82.73264
410.523	84.84094
410.736	61.65088
410.949	8.95656
411.162	76.40788
411.375	0.52684
411.588	51.11085
411.801	25.81715
412.014	51.11085
412.227	13.17157
412.44	114.35949
412.653	-33.18815
412.865	114.35949
413.078	13.17157
413.291	13.17157
413.504	27.92483
413.717	-5.79519
413.93	21.60186
414.143	59.54283
414.356	-28.97412
414.568	57.4348
414.781	30.03253
414.994	101.70815
415.207	25.81715
415.42	34.24801
415.632	32.14026
415.845	11.06405
416.058	-3.68787
416.271	57.4348
416.483	27.92483
416.696	25.81715
416.909	59.54283
417.121	0.52684
417.334	40.5714
417.547	-5.79519
417.759	-50.04327
417.972	17.38667
418.185	13.17157
418.397	34.24801
418.61	-50.04327
418.823	-66.89679
419.035	-18.43861
419.248	-35.29512
419.46	67.97517
419.673	59.54283
419.885	-22.65289
420.098	-39.50901
420.311	32.14026
420.523	103.81665
420.736	-5.79519
420.948	46.895
421.161	-56.36353
421.373	76.40788
421.586	2.63424
421.798	46.895
422.01	-33.18815
422.223	-106.91731
422.435	-1.58052
422.648	-10.00976
422.86	89.05761
423.073	59.54283
423.285	8.95656
423.497	46.895
423.71	-39.50901
423.922	0.52684
424.134	46.895
424.347	44.78711
424.559	19.49425
424.771	46.895
424.984	59.54283
425.196	70.08331
425.408	70.08331
425.621	72.19148
425.833	4.74166
426.045	51.11085
426.257	46.895
426.47	2.63424
426.682	-7.90249
426.894	-33.18815
427.106	23.70949
427.318	17.38667
427.531	46.895
427.743	30.03253
427.955	17.38667
428.167	-20.54576
428.379	51.11085
428.591	27.92483
428.804	4.74166
429.016	8.95656
429.228	17.38667
429.44	11.06405
429.652	76.40788
429.864	4.74166
430.076	-14.22423
430.288	6.8491
430.5	25.81715
430.712	103.81665
430.924	8.95656
431.136	51.11085
431.348	17.38667
431.56	30.03253
431.772	46.895
431.984	17.38667
432.196	55.32679
432.408	80.62436
432.62	34.24801
432.832	89.05761
433.044	-16.33143
433.256	93.27437
433.468	49.00291
433.679	17.38667
433.891	51.11085
434.103	-33.18815
434.315	-5.79519
434.527	63.75895
434.739	99.59967
434.95	93.27437
435.162	110.14229
435.374	30.03253
435.586	4.74166
435.798	0.52684
436.009	17.38667
436.221	34.24801
436.433	25.81715
436.645	32.14026
436.856	105.92518
437.068	44.78711
437.28	70.08331
437.491	67.97517
437.703	-3.68787
437.915	61.65088
438.126	27.92483
438.338	42.67924
438.55	-20.54576
438.761	53.21881
438.973	55.32679
439.184	30.03253
439.396	-3.68787
439.608	70.08331
439.819	46.895
440.031	55.32679
440.242	0.52684
440.454	-7.90249
440.665	44.78711
440.877	120.68545
441.088	49.00291
441.3	51.11085
441.511	-41.61591
441.723	86.94927
441.934	42.67924
442.146	-5.79519
442.357	124.90287
442.569	-24.75999
442.78	44.78711
442.991	36.35578
443.203	4.74166
443.414	46.895
443.626	51.11085
443.837	74.29967
444.048	72.19148
444.26	67.97517
444.471	97.49122
444.682	76.40788
444.894	8.95656
445.105	51.11085
445.316	36.35578
445.528	13.17157
445.739	97.49122
445.95	21.60186
446.161	17.38667
446.373	76.40788
446.584	-7.90249
446.795	76.40788
447.006	-20.54576
447.217	17.38667
447.429	25.81715
447.64	-20.54576
447.851	38.46358
448.062	-12.11701
448.273	93.27437
448.484	82.73264
448.695	89.05761
448.907	44.78711
449.118	-33.18815
449.329	53.21881
449.54	6.8491
449.751	72.19148
449.962	-58.47023
450.173	110.14229
450.384	4.74166
450.595	27.92483
450.806	-1.58052
451.017	53.21881
451.228	-5.79519
451.439	82.73264
451.65	59.54283
451.861	154.42718
452.072	114.35949
452.283	46.895
452.494	78.51611
452.705	51.11085
452.915	-7.90249
453.126	25.81715
453.337	67.97517
453.548	42.67924
453.759	101.70815
453.97	108.03372
454.181	34.24801
454.391	46.895
454.602	44.78711
454.813	72.19148
455.024	6.8491
455.235	101.70815
455.445	27.92483
455.656	17.38667
455.867	78.51611
456.078	30.03253
456.288	86.94927
456.499	59.54283
456.71	101.70815
456.921	78.51611
457.131	95.38278
457.342	51.11085
457.553	51.11085
457.763	76.40788
457.974	-33.18815
458.184	25.81715
458.395	95.38278
458.606	97.49122
458.816	84.84094
459.027	89.05761
459.237	70.08331
459.448	116.46812
459.659	40.5714
459.869	91.16598
460.08	105.92518
460.29	46.895
460.501	72.19148
460.711	61.65088
460.922	86.94927
461.132	105.92518
461.343	65.86705
461.553	127.01161
461.764	67.97517
461.974	129.12037
462.184	76.40788
462.395	93.27437
462.605	103.81665
462.816	53.21881
463.026	59.54283
463.236	154.42718
463.447	97.49122
463.657	103.81665
463.867	80.62436
464.078	95.38278
464.288	105.92518
464.498	120.68545
464.709	141.77339
464.919	101.70815
465.129	196.6119
465.339	84.84094
465.55	145.99124
465.76	65.86705
465.97	139.6645
466.18	137.55563
466.391	124.90287
466.601	78.51611
466.811	108.03372
467.021	38.46358
467.231	46.895
467.441	236.69488
467.651	188.1743
467.862	80.62436
468.072	217.70731
468.282	194.50247
468.492	177.62776
468.702	205.04983
468.912	213.48807
469.122	219.81696
469.332	209.26891
469.542	186.06495
469.752	194.50247
469.962	240.91455
470.172	194.50247
470.382	196.6119
470.592	108.03372
470.802	198.72135
471.012	164.97259
471.222	240.91455
471.432	249.35413
471.642	135.44678
471.852	207.15936
472.062	232.47528
472.272	270.45441
472.482	257.79401
472.691	274.6747
472.901	262.01407
473.111	281.00526
473.321	312.66058
473.531	359.09566
473.741	291.55658
473.95	354.87394
474.16	249.35413
474.37	384.42741
474.58	405.53904
474.79	430.87514
474.999	350.65229
475.209	407.65029
475.419	401.31658
475.628	441.43252
475.838	416.09547
476.048	456.21352
476.258	413.98415
476.467	509.00883
476.677	443.54405
476.886	506.89684
477.096	540.69038
477.306	492.11332
477.515	549.13933
477.725	536.46599
477.935	599.83753
478.144	591.3873
478.354	618.85129
478.563	751.97453
478.773	692.80309
478.982	722.38775
479.192	732.95422
479.401	701.25563
479.611	728.7276
479.82	678.01157
480.03	923.1918
480.239	880.91064
480.449	849.20191
480.658	878.79667
480.868	883.02463
481.077	1011.99175
481.287	811.15404
481.496	1024.67841
481.705	1064.8542
481.915	1100.80262
482.124	980.27611
482.333	1166.35914
482.543	988.73347
482.752	1102.91728
482.961	1208.65573
483.171	1221.34497
483.38	1071.19793
483.589	1276.33291
483.799	1257.29842
484.008	1373.62287
484.217	1373.62287
484.426	1413.80866
484.636	1223.45986
484.845	1684.52939
485.054	1515.33103
485.263	1707.79301
485.472	1418.03876
485.682	1627.42636
485.891	1591.47174
486.1	1648.57585
486.309	1750.08949
486.518	1741.63031
486.727	1767.00769
486.936	1760.66339
487.146	1826.21932
487.355	1855.82383
487.564	1760.66339
487.773	1898.11431
487.982	1853.70926
488.191	2158.14672
488.4	1910.80105
488.609	2018.62979
488.818	2037.65668
489.027	2189.85041
489.236	2016.51566
489.445	2143.35103
489.654	2208.87172
489.863	2215.21201
490.072	2363.12865
490.281	2327.21031
490.49	2295.51532
490.698	2487.76322
490.907	2344.11341
491.116	2587.02073
491.325	2430.73166
491.534	2572.23934
491.743	2335.66194
491.952	2555.3456
492.16	2470.86582
492.369	2734.80127
492.578	2620.80455
492.787	2943.69329
492.996	2572.23934
493.204	2840.31946
493.413	2924.70887
493.622	2922.59942
493.831	2865.63869
494.039	2985.8766
494.248	2747.46523
494.457	3042.81447
494.665	3023.83642
494.874	3013.29252
495.083	3154.54837
495.291	3103.9574
495.5	3186.163
495.709	3221.98846
495.917	2981.65854
496.126	3146.11719
496.335	3070.225
496.543	3251.48817
496.752	3506.30918
496.96	3455.78675
497.169	3318.90366
497.377	3438.94363
497.586	3396.83085
497.794	3453.68142
498.003	3384.19563
498.211	3491.57455
498.42	3548.40318
498.628	3657.81284
498.837	3630.46518
499.045	3670.43375
499.254	3558.92553
499.462	3750.35017
499.671	3706.18927
499.879	3876.47667
500.087	3693.5703
500.296	4044.53314
500.504	3805.01369
500.713	4006.7318
500.921	3931.10926
501.129	4004.63154
501.338	3832.34048
501.546	4113.81818
501.754	3842.84989
501.962	3886.98399
502.171	4023.53322
502.379	4222.94832
502.587	3872.2736
502.795	4191.47433
503.004	3977.32617
503.212	4329.92397
503.42	4187.27744
503.628	4197.76951
503.837	4149.50161
504.045	4170.48902
504.253	4222.94832
504.461	4560.46348
504.669	4176.78484
504.877	4384.43901
505.085	4445.22689
505.294	4541.61116
505.502	4256.51531
505.71	4742.60926
505.918	4323.63283
506.126	4518.567
506.334	4472.47065
506.542	4730.05295
506.75	4633.76092
506.958	4790.73424
507.166	4769.81181
507.374	4863.94483
507.582	4681.91288
507.79	4709.12395
507.998	4767.71944
508.206	4995.65327
508.414	4909.9486
508.622	4861.85349
508.83	4765.62705
509.037	4974.75326
509.245	4891.13022
509.453	5116.82775
509.661	4855.57932
509.869	5014.4613
510.077	4826.29716
510.285	5283.83672
510.492	5020.73023
510.7	5125.18174
510.908	5156.50588
511.116	5192.00025
511.324	5066.69603
511.531	5319.30687
511.739	5087.58587
511.947	5267.14254
512.155	5396.48319
512.362	5285.92338
512.57	5237.92413
512.778	5288.01003
512.985	5519.48162
513.193	5415.25095
513.401	5335.99636
513.608	5525.73359
513.816	5425.67667
514.024	5375.62789
514.231	5392.31232
514.439	5694.45657
514.646	5517.39759
514.854	5534.06922
515.061	5388.14135
515.269	5654.89347
515.477	5594.49126
515.684	5642.39809
515.892	5459.035
516.099	5758.98861
516.307	5731.92955
516.514	5727.76626
516.722	5694.45657
516.929	5838.06146
517.136	5725.68458
517.344	5840.14186
517.551	5719.43941
517.759	5746.50031
517.966	5867.18497
518.173	5967.0019
518.381	5958.6859
518.588	6066.76453
518.796	6085.46398
519.003	6220.45907
519.21	5983.63278
519.418	6205.9259
519.625	5904.62269
519.832	6199.69705
520.039	5871.34509
520.247	6176.85612
520.454	6058.45305
520.661	6365.72764
520.868	6135.31988
521.076	6303.48371
521.283	6191.39158
521.49	6338.75785
521.697	6309.70905
521.904	6216.30685
522.112	6467.3476
522.319	6573.05608
522.526	6266.12726
522.733	6709.7661
522.94	6527.46373
523.147	6550.2613
523.354	6581.34439
523.561	6724.25978
523.768	6645.56631
523.975	6751.17362
524.183	6430.02431
524.39	6755.31387
524.597	6558.55064
524.804	6790.50228
525.011	6856.7214
525.218	7098.63775
525.425	6637.28086
525.632	6780.15343
525.838	6610.35058
526.045	7051.10587
526.252	6984.95482
526.459	7210.188
526.666	6819.47602
526.873	7082.10627
527.08	7111.03543
527.287	6920.84899
527.494	7106.90296
527.701	7317.54576
527.907	7239.09787
528.114	7377.39257
528.321	7220.51345
528.528	7185.40465
528.735	7288.6476
528.941	7237.03302
529.148	7063.50663
529.355	7203.99246
529.562	7077.97317
529.768	7437.22104
529.975	7321.67371
530.182	7523.83689
530.388	7183.33923
530.595	7558.88489
530.802	7259.74513
531.008	7602.17093
531.215	7503.21752
531.422	7507.34157
531.628	7523.83689
531.835	7684.59457
532.042	7620.71921
532.248	7762.86569
532.455	7622.78003
532.661	7773.16227
532.868	7538.26917
533.074	7832.87211
533.281	7655.75016
533.487	7939.89434
533.694	7915.20185
533.9	8116.77123
534.107	7892.56447
534.313	7781.39915
534.52	7746.39008
534.726	8124.99443
534.933	7849.34071
535.139	8104.43584
535.345	8081.81907
535.552	7981.04192
535.758	8026.29483
535.965	8240.08563
536.171	8085.93139
536.377	8381.80941
536.584	8087.98752
536.79	8309.93217
536.996	8431.08294
537.203	8363.32896
537.409	8182.54783
537.615	8351.00779
537.821	8299.66204
538.028	8548.06338
538.234	8252.41314
538.44	8615.76078
538.646	8615.76078
538.853	8628.0672
539.059	8375.64943
539.265	8720.34408
539.471	8566.52834
539.677	8509.07677
539.883	8560.37352
540.09	8527.54496
540.296	8420.81854
540.502	8908.88374
540.708	8562.42514
540.914	8921.17452
541.12	8761.34403
541.326	9035.85769
541.532	8964.18719
541.738	8941.65771
541.944	8865.86098
542.15	9078.84973
542.356	8947.80233
542.562	9011.28737
542.768	9044.04724
542.974	9283.46998
543.18	9207.78026
543.386	9260.97003
543.592	9220.05583
543.798	9265.06108
544.004	9046.09459
544.21	9240.51377
544.415	9119.78742
544.621	9422.51613
544.827	9348.91295
545.033	9359.13688
545.239	9328.46384
545.445	9436.82541
545.651	9248.69648
545.856	9534.92492
546.062	9592.13269
546.268	9504.27279
546.474	9555.35769
546.679	9516.53407
546.885	9305.96792
547.091	9369.3604
547.297	9373.4497
547.502	9614.6038
547.708	9420.47188
547.914	9536.96827
548.119	9420.47188
548.325	9675.87905
548.531	9469.52935
548.736	9786.13965
548.942	9820.84217
549.147	9933.08559
549.353	9620.73195
549.559	9788.18109
549.764	9690.17461
549.97	9822.88336
550.175	9739.18223
550.381	10028.96767
550.586	9706.51146
550.792	9992.25064
550.997	9959.60936
551.203	9910.64047
551.408	9904.51877
551.614	9802.47079
551.819	9722.84734
552.025	10147.24683
552.23	9871.86745
552.435	10063.64062
552.641	10216.56107
552.846	10371.44204
553.052	10302.16275
553.257	10310.31406
553.462	10179.86728
553.668	10387.74083
553.873	10259.36489
554.078	10210.44574
554.283	10469.22225
554.489	10780.7028
554.694	10338.84193
554.899	10514.02824
555.105	10342.91713
555.31	10475.33252
555.515	10432.55817
555.72	10784.77256
555.925	10322.54061
556.131	10666.73021
556.336	10493.66265
556.541	10699.29766
556.746	10505.88216
556.951	10571.04518
557.156	10483.47937
557.361	10603.62188
557.567	10733.89719
557.772	10648.40965
557.977	10522.17413
558.182	10768.49325
558.387	10644.33828
558.592	10792.91193
558.797	10752.21318
559.002	11018.70584
559.207	10703.36837
559.412	10579.18965
559.617	10776.633
559.822	11128.50175
560.027	10691.15609
560.232	10831.57139
560.437	10766.45828
560.642	11071.57449
560.847	10882.43268
561.051	10963.79587
561.256	10906.84355
561.461	11197.61644
561.666	11295.16959
561.871	10963.79587
562.076	11201.68163
562.281	11345.96921
562.485	11041.07425
562.69	11104.10538
562.895	10792.91193
563.1	11315.4902
563.305	10963.79587
563.509	11413.01517
563.714	11108.17155
563.919	11280.94457
564.123	11215.90947
564.328	11228.10436
564.533	11303.29796
564.737	11134.60059
564.942	11053.27464
565.147	11561.29144
565.351	11437.39286
565.556	11419.10972
565.761	11291.10535
565.965	11538.95168
566.17	11581.59934
566.374	11282.97674
566.579	11672.97355
566.784	11417.07821
566.988	11534.88978
567.193	11601.90632
567.397	11413.01517
567.602	11733.87957
567.806	11376.44598
568.011	11949.01882
568.215	11603.93697
568.42	11551.13714
568.624	11719.66888
568.828	11709.51812
569.033	11668.91286
569.237	11920.60958
569.442	11741.99977
569.646	11465.83174
569.85	11494.26873
570.055	11851.60899
570.259	11796.80751
570.463	11837.40179
570.668	11967.28106
570.872	11865.81578
571.076	11825.22387
571.281	12026.12166
571.485	11969.31016
571.689	11845.52024
571.893	11855.66812
572.098	12056.55385
572.302	11835.37216
572.506	12050.46756
572.71	11784.62855
572.914	11944.96046
573.119	11875.96324
573.323	11770.41939
573.527	11955.10631
573.731	12145.8116
573.935	12164.06706
574.139	12281.69909
574.343	11922.63886
574.547	12214.77352
574.751	11888.13991
574.955	12374.97643
575.159	12038.29475
575.364	12326.31183
575.568	12277.64321
575.772	12555.40739
575.976	12468.23936
576.18	12269.53138
576.383	12401.33478
576.587	12326.31183
576.791	12220.85799
576.995	12439.85648
577.199	12316.17287
577.403	12460.1301
577.607	12577.7043
577.811	12411.47231
578.015	12417.55474
578.219	12658.7777
578.422	12320.22847
578.626	12668.9112
578.83	12460.1301
579.034	12385.11439
579.238	12660.80441
579.442	12677.01788
579.645	12743.89446
579.849	12863.44623
580.053	12721.60298
580.257	12683.09784
580.46	12920.176
580.664	13041.72609
580.868	12737.81504
581.071	12899.91584
581.275	12829.00109
581.479	12754.02673
581.682	12727.68254
581.886	13001.21142
582.09	12600.00047
582.293	12999.18563
582.497	12814.81734
582.7	12999.18563
582.904	13106.54549
583.107	12910.04599
583.311	12798.607
583.515	12982.97916
583.718	12743.89446
583.922	12985.00499
584.125	13055.90576
584.329	13242.24562
584.532	12928.27991
584.735	13219.96788
584.939	12652.69753
585.142	13337.42643
585.346	13201.74025
585.549	13300.97531
585.753	13219.96788
585.956	13177.43617
586.159	13454.87111
586.363	13181.48689
586.566	13349.5765
586.769	13284.77438
586.973	13238.19516
587.176	13305.0255
587.379	13169.33466
587.582	13578.37669
587.786	13173.38542
587.989	13531.8106
588.192	13315.15091
588.395	13523.71196
588.599	13153.13143
588.802	13566.22919
589.005	13268.57317
589.208	13616.84292
589.411	13566.22919
589.615	13649.23459
589.818	13527.76129
590.021	13732.2344
590.224	13635.06334
590.427	13671.50336
590.63	13610.76939
590.833	13738.30735
591.036	13764.62313
591.239	13936.67573
591.442	13622.91642
591.645	13794.98686
591.848	13750.45316
592.051	13720.08842
592.254	13722.11276
592.457	14027.75456
592.66	13697.8205
592.863	14234.18258
593.066	13962.98792
593.269	14021.68279
593.472	14149.18551
593.675	14116.80471
593.878	13898.21866
594.081	14337.38878
594.284	14213.9455
594.486	14234.18258
594.689	14141.09036
594.892	14292.86903
595.095	14462.84927
595.298	14157.28062
595.5	14155.25685
595.703	14296.91631
595.906	14260.49049
596.109	14094.54259
596.311	14349.53038
596.514	14047.99362
596.717	14343.45959
596.92	14590.32774
597.122	14418.3317
597.325	14327.27073
597.528	14228.11148
597.73	14408.21398
597.933	14543.78856
598.136	14543.78856
598.338	14181.56577
598.541	14525.5774
598.743	14555.92928
598.946	14758.26882
599.148	14695.54461
599.351	14525.5774
599.554	14905.97144
599.756	14651.03012
599.959	14408.21398
600.161	14784.57229
600.363	14863.48198
600.566	14802.78231
600.768	14889.78501
600.971	14875.62185
601.173	14468.91979
601.376	15015.22912
601.578	14675.31081
601.78	15140.67214
601.983	14719.82505
602.185	14889.78501
602.388	14644.95992
602.59	15098.18344
602.792	15015.22912
602.995	14812.89896
603.197	15021.29896
603.399	14869.55192
603.601	14788.61897
603.804	14893.83162
604.006	15146.74195
604.208	14772.43224
604.41	14837.17886
604.613	15201.37026
604.815	14956.55384
605.017	15075.92743
605.219	14780.52561
605.421	15112.34634
605.623	14942.39079
605.826	15122.4627
606.028	14914.06464
606.23	14980.8333
606.432	15268.13827
606.634	15595.91396
606.836	15168.99793
607.038	15391.55856
607.24	15251.95207
607.442	15164.95139
607.644	14982.85659
607.846	15063.78778
608.048	14887.7617
608.25	15156.8583
608.452	15104.25326
608.654	15205.4168
608.856	15156.8583
609.058	15581.75051
609.26	15245.88225
609.462	15251.95207
609.664	15423.93132
609.866	15152.81176
610.067	15338.95305
610.269	14889.78501
610.471	15156.8583
610.673	15478.56063
610.875	15179.11428
611.077	15363.23249
611.278	15359.18591
611.48	15324.79007
611.682	15162.92812
611.884	15591.86726
612.085	15185.18409
612.287	15557.47038
612.489	15219.5797
612.69	15387.51198
612.892	15144.71868
613.094	15494.74717
613.295	15191.2539
613.497	15217.55643
613.699	15138.64887
613.9	15318.72022
614.102	15500.81713
614.304	15409.76823
614.505	15152.81176
614.707	15599.96067
614.908	15387.51198
615.11	15340.97634
615.311	15276.23137
615.513	15543.30702
615.714	15510.93375
615.916	15529.14369
616.117	15241.8357
616.319	15432.02453
616.52	15547.35369
616.722	15587.82055
616.923	15253.97534
617.124	15308.60382
617.326	15177.09101
617.527	15336.92977
617.729	15391.55856
617.93	15541.28368
618.131	15597.93732
618.333	15284.32448
618.534	15314.67366
618.735	15705.17626
618.937	15365.25578
619.138	15802.30059
619.339	15535.21368
619.54	15472.49069
619.742	15484.63058
619.943	15622.21762
620.144	15278.25465
620.345	15599.96067
620.546	15411.79152
620.748	15719.34008
620.949	15699.10606
621.15	15751.71471
621.351	15440.11774
621.552	15624.24099
621.753	15276.23137
621.954	15731.48053
622.155	15338.95305
622.356	15419.88472
622.558	15363.23249
622.759	15597.93732
622.96	15525.09703
623.161	15739.57419
623.362	15510.93375
623.563	15504.86377
623.764	15434.04783
623.965	15802.30059
624.166	15755.76155
624.366	15717.31667
624.567	15697.08266
624.768	15775.99585
624.969	15302.53398
625.17	15529.14369
625.371	15591.86726
625.572	15646.49805
625.773	15486.6539
625.973	15737.55077
626.174	15727.43371
626.375	15871.09851
626.576	15660.66168
626.777	15802.30059
626.977	15264.09172
627.178	15950.01549
627.379	15355.13934
627.58	15468.44406
627.78	15666.73183
627.981	15759.8084
628.182	15808.37094
628.382	15925.73314
628.583	15656.61493
628.784	15775.99585
628.984	15808.37094
629.185	15705.17626
629.386	15470.46738
629.586	15877.16898
629.787	15676.84875
629.987	15990.48652
630.188	15931.80371
630.388	15757.78498
630.589	15848.84021
630.79	15873.122
630.99	15612.10081
631.191	15593.89061
631.391	15788.13648
631.591	15739.57419
631.792	15654.59155
631.992	16067.38301
632.193	15852.88716
632.393	16075.4775
632.594	15830.62898
632.794	15871.09851
632.994	15895.38045
633.195	15775.99585
633.395	15921.6861
633.595	15978.34515
633.796	16053.21771
633.996	16061.31216
634.196	15992.51008
634.397	16146.30536
634.597	16269.75301
634.797	16439.75754
634.997	15804.32404
635.198	16022.86373
635.398	15796.23025
635.598	16221.18268
635.798	16053.21771
635.998	16089.64292
636.199	15915.61554
636.399	16304.15761
636.599	16089.64292
636.799	16200.94534
636.999	15939.89782
637.199	16028.9345
637.399	15935.85076
637.599	16061.31216
637.799	15889.30995
637.999	16075.4775
638.199	16004.6515
638.399	16160.47116
638.599	15911.56852
638.799	16111.90302
638.999	16247.49148
639.199	16099.76112
639.399	16099.76112
639.599	16180.70817
639.799	15998.58079
639.999	16298.08617
640.199	16107.85571
640.399	16128.0923
640.599	15559.49372
640.799	16613.82458
640.998	16221.18268
641.198	16318.32437
641.398	16247.49148
641.598	16441.78149
641.798	16221.18268
641.997	16168.56595
642.197	16154.40009
642.397	16468.09297
642.597	16134.1633
642.796	16304.15761
642.996	16016.79298
643.196	16283.91955
643.395	16316.30054
643.595	16692.76733
643.795	16229.27767
643.994	16567.27021
644.194	16251.53902
644.394	16455.94917
644.593	16488.33281
644.793	16571.31837
644.992	16336.5389
645.192	16666.45269
645.392	16557.14985
645.591	16796.00554
645.791	16666.45269
645.99	16488.33281
646.19	16654.30761
646.389	16439.75754
646.589	16213.08772
646.788	16478.21287
646.987	16397.25513
647.187	16668.47688
647.386	16480.23685
647.586	16630.01768
647.785	16609.77633
647.984	16555.12578
648.184	16494.40481
648.383	16506.54885
648.582	16417.49426
648.782	16935.691
648.981	16646.21093
649.18	16545.00549
649.38	16474.1649
649.579	16887.10338
649.778	16686.69468
649.977	16808.15162
650.177	16401.30294
650.376	16385.11175
650.575	16425.58997
650.774	16520.71699
650.973	16482.26084
651.173	16834.46845
651.372	16273.80058
651.571	16834.46845
651.77	16561.19799
651.969	16779.81089
652.168	16516.66894
652.367	16976.18184
652.566	16814.2247
652.765	16694.79155
652.964	16656.33178
653.163	16719.08236
653.362	16856.73687
653.561	16834.46845
653.76	16700.86422
653.959	16783.85954
654.158	16911.397
654.357	16617.87284
654.556	16528.81312
654.755	16814.2247
654.954	16684.67047
655.153	16492.38081
655.352	16846.61482
655.551	16949.86268
655.749	16739.32496
655.948	17128.0321
656.147	17111.834
656.346	16846.61482
656.545	16763.61641
656.743	16694.79155
656.942	16755.51922
657.141	16972.13271
657.34	17006.55066
657.538	16897.22568
657.737	16899.25015
657.936	16949.86268
658.135	16779.81089
658.333	16820.2978
658.532	16559.17392
658.731	16642.1626
658.929	16737.30069
659.128	16844.59042
659.326	16860.7857
659.525	16846.61482
659.724	16818.27343
659.922	16881.03003
660.121	16951.88721
660.319	16723.13086
660.518	16749.44636
660.716	16646.21093
660.915	16743.37351
661.113	16852.68804
661.312	16692.76733
661.51	17014.64912
661.709	16856.73687
661.907	16777.78657
662.105	16941.76456
662.304	17233.3242
662.502	16852.68804
662.701	16834.46845
662.899	16885.07893
663.097	16964.03448
663.296	17042.99406
663.494	16913.42149
663.692	16706.93691
663.891	16850.66363
664.089	16895.20121
664.287	17042.99406
664.485	17075.38892
664.684	17545.19821
664.882	17123.98255
665.08	17340.64928
665.278	17065.26545
665.476	17095.63607
665.675	16939.74004
665.873	17022.74762
666.071	16816.24907
666.269	16868.8834
666.467	16609.77633
666.665	16650.25926
666.863	16804.10292
667.061	17071.33953
667.259	16852.68804
667.457	17152.32959
667.655	16964.03448
667.853	17200.9258
668.051	16745.39779
668.249	17142.20558
668.447	16895.20121
668.645	17016.67374
668.843	16765.64071
669.041	16808.15162
669.239	16785.88387
669.437	16824.34655
669.635	16970.10815
669.833	17061.21608
670.031	16787.9082
670.229	16834.46845
670.426	16959.98538
670.624	16966.05903
670.822	16702.88845
671.02	17168.52814
671.218	16901.27462
671.415	16929.61747
671.613	16702.88845
671.811	16925.56846
672.009	16868.8834
672.206	16887.10338
672.404	16589.5352
672.602	16798.02988
672.799	16953.91175
672.997	17059.1914
673.195	16733.25216
673.392	16911.397
673.59	16656.33178
673.788	16708.96115
673.985	16516.66894
674.183	16735.27642
674.38	16836.49284
674.578	16642.1626
674.775	16804.10292
674.973	16613.82458
675.17	16530.83716
675.368	16844.59042
675.565	16887.10338
675.763	16951.88721
675.96	16828.3953
676.158	17113.85875
676.355	16879.00559
676.553	17160.42884
676.75	16581.43881
676.947	16929.61747
677.145	16765.64071
677.342	16927.59296
677.539	16903.29909
677.737	16621.92111
677.934	16457.97313
678.131	16862.81012
678.329	16634.06598
678.526	16810.17598
678.723	16832.44407
678.92	16706.93691
679.118	16686.69468
679.315	16540.95738
679.512	16609.77633
679.709	16903.29909
679.906	16314.27672
680.104	16599.65573
680.301	16302.1338
680.498	16381.06397
680.695	16719.08236
680.892	16603.70397
681.089	16435.70965
681.286	16862.81012
681.483	16364.87293
681.68	16945.81361
681.877	16504.52484
682.075	16459.99709
682.272	16715.03387
682.469	16844.59042
682.665	16621.92111
682.862	16652.28343
683.059	16379.04008
683.256	16067.38301
683.453	16399.27904
683.65	16340.5866
683.847	16755.51922
684.044	16417.49426
684.241	16219.15894
684.438	16474.1649
684.635	16281.89575
684.831	16662.40432
685.028	16249.51525
685.225	16405.35076
685.422	15954.06257
685.619	16330.46738
685.815	16000.60436
686.012	16383.08786
686.209	15994.53365
686.405	16219.15894
686.602	16336.5389
686.799	16294.03856
686.996	16364.87293
687.192	16026.91091
687.389	15852.88716
687.586	15980.36871
687.782	15962.15674
687.979	16079.52476
688.175	15941.92135
688.372	15990.48652
688.568	15933.82724
688.765	15818.48822
688.962	15733.50395
689.158	16306.18143
689.355	15695.05927
689.551	15854.91064
689.748	15978.34515
689.944	15972.27449
690.14	15828.60552
690.337	16002.62793
690.533	15695.05927
690.73	15638.40456
690.926	16032.98169
691.123	16099.76112
691.319	15761.83183
691.515	15990.48652
691.712	15707.19966
691.908	15964.18029
692.104	15850.86369
692.301	16002.62793
692.497	15543.30702
692.693	15822.53513
692.889	16089.64292
693.086	16221.18268
693.282	15778.01928
693.478	15842.76979
693.674	15717.31667
693.87	16026.91091
694.067	15715.29327
694.263	15856.93412
694.459	15810.3944
694.655	15895.38045
694.851	15883.23946
695.047	15921.6861
695.243	15407.74493
695.439	15703.15286
695.635	15646.49805
695.831	15895.38045
696.027	15735.52736
696.224	15604.00738
696.42	15551.40036
696.615	15745.64444
696.811	15591.86726
697.007	15630.31109
697.203	15583.77385
697.399	15616.14754
697.595	15500.81713
697.791	15707.19966
697.987	15557.47038
698.183	15860.98108
698.379	15480.58395
698.575	15332.8832
698.77	15057.71796
698.966	15512.95707
699.162	15409.76823
699.358	15618.1709
699.554	15496.77049
699.749	15775.99585
699.945	15381.4421
700.141	15316.69694
700.337	15606.03074
700.532	15711.24646
700.728	15521.05038
700.924	15227.67279
701.119	15351.09276
701.315	15541.28368
701.511	15132.57906
701.706	15148.76522
701.902	15492.72385
702.097	15430.00123
702.293	15654.59155
702.489	15306.58054
702.684	15247.90552
702.88	15496.77049
703.075	15144.71868
703.271	15197.32372
703.466	15324.79007
703.662	15444.16436
703.857	15292.41759
704.053	15737.55077
704.248	15338.95305
704.443	15587.82055
704.639	15310.6271
704.834	15253.97534
705.03	15270.16154
705.225	15063.78778
705.42	14885.73839
705.616	15156.8583
705.811	14990.94973
706.006	15399.65174
706.202	15073.90416
706.397	15268.13827
706.592	15318.72022
706.787	15274.20809
706.983	14596.39802
707.178	15385.48868
707.373	15330.85992
707.568	15213.50989
707.763	14997.01958
707.959	15322.76679
708.154	15298.48742
708.349	15158.88157
708.544	15197.32372
708.739	15201.37026
708.934	14990.94973
709.129	14802.78231
709.324	15007.13599
709.519	15057.71796
709.714	14691.49785
709.909	14986.90316
710.104	14379.88413
710.299	15134.60233
710.494	14794.68898
710.689	15096.16017
710.884	14768.38556
711.079	15061.76451
711.274	14940.3675
711.469	15310.6271
711.664	14875.62185
711.859	15144.71868
712.054	15189.23063
712.249	15237.78915
712.443	14748.15207
712.638	15227.67279
712.833	14905.97144
713.028	14883.71509
713.223	14638.88972
713.417	14885.73839
713.612	15088.06707
713.807	14810.87564
714.002	14780.52561
714.196	15051.64813
714.391	14837.17886
714.586	14918.11124
714.78	14857.41204
714.975	14914.06464
715.17	14644.95992
715.364	14853.36541
715.559	14618.65564
715.754	14685.42772
715.948	14564.02307
716.143	14928.22773
716.337	14483.08429
716.532	14920.13454
716.726	14768.38556
716.921	14711.73158
717.115	14323.22349
717.31	14442.6141
717.504	14653.05351
717.699	14835.15554
717.893	14539.74165
718.088	14837.17886
718.282	14659.1237
718.476	14408.21398
718.671	14268.58517
718.865	14367.74268
719.059	14207.87434
719.254	14566.04651
719.448	13989.29967
719.642	14638.88972
719.837	14110.73325
720.031	14244.30104
720.225	13967.03591
720.419	14195.73196
720.614	13841.54329
720.808	14185.61326
721.002	13960.96392
721.196	14361.67193
721.39	14001.44342
721.585	14076.32792
721.779	14135.01898
721.973	14149.18551
722.167	13956.91591
722.361	14183.58952
722.555	14027.75456
722.749	13918.45934
722.943	14104.66177
723.137	14165.3757
723.331	14151.20929
723.525	14298.93995
723.719	14137.04277
723.913	14078.35178
724.107	13946.79585
724.301	14096.56643
724.495	13956.91591
724.689	14086.4472
724.883	13825.34992
725.077	13877.97771
725.271	13594.57315
725.465	14037.87412
725.659	13714.01539
725.853	13859.76061
726.046	13962.98792
726.24	13969.0599
726.434	13641.13675
726.628	13740.33166
726.822	13790.9384
727.015	14045.96973
727.209	13774.74445
727.403	14090.4949
727.596	13746.40457
727.79	14025.73064
727.984	13821.30155
728.177	14112.75707
728.371	13835.4708
728.565	14072.28019
728.758	14128.94757
728.952	14132.99518
729.146	13833.44663
729.339	13954.89191
729.533	14173.47075
729.726	13849.63991
729.92	13655.30793
730.113	13639.11228
730.307	13639.11228
730.5	13987.27571
730.694	13641.13675
730.887	13746.40457
731.081	13657.33237
731.274	13606.72035
731.468	13631.01438
731.661	13639.11228
731.854	13590.52405
732.048	13483.21787
732.241	13250.34648
732.435	13616.84292
732.628	13718.06408
732.821	13598.62223
733.014	13752.47745
733.208	13821.30155
733.401	13764.62313
733.594	13610.76939
733.788	13505.4898
733.981	13732.2344
734.174	13841.54329
734.367	13744.38027
734.56	13805.10795
734.754	13574.32754
734.947	13730.21008
735.14	13875.9536
735.333	13602.6713
735.526	13930.60363
735.719	13622.91642
735.912	13730.21008
736.105	13867.85713
736.298	13448.79671
736.491	13381.97599
736.684	13371.85126
736.877	13396.15044
737.07	13462.97026
737.263	13420.44905
737.456	13511.56389
737.649	13469.04458
737.842	13764.62313
738.035	13659.35681
738.228	13270.59833
738.421	13414.37445
738.614	13728.18575
738.807	13618.86743
739	13523.71196
739.192	13424.49876
739.385	13424.49876
739.578	13307.05059
739.771	13598.62223
739.964	13096.41778
740.156	13574.32754
740.349	13442.72227
740.542	13363.75141
740.735	13319.20104
740.927	13195.66429
741.12	13335.4014
741.313	13292.87488
741.505	13511.56389
741.698	13195.66429
741.891	13428.54846
742.083	13217.94261
742.276	13266.548
742.468	13371.85126
742.661	13177.43617
742.854	13165.28388
743.046	13307.05059
743.239	13288.82463
743.431	13626.96541
743.624	13130.85151
743.816	13201.74025
744.009	13311.10076
744.201	13029.57189
744.393	13045.77745
744.586	12942.46156
744.778	12958.66885
744.971	13272.6235
745.163	13309.07568
745.355	13469.04458
745.548	13381.97599
745.74	13278.69895
745.932	13076.16201
746.125	12808.7385
746.317	12985.00499
746.509	13181.48689
746.702	13406.27493
746.894	12758.07959
747.086	13143.00426
747.278	13088.31553
747.471	13031.59761
747.663	13329.3263
747.855	13384.00092
748.047	13294.89999
748.239	13161.23308
748.431	12869.52462
748.623	13066.03394
748.815	13124.77507
749.008	13114.64757
749.2	13140.97882
749.392	13088.31553
749.584	12982.97916
749.776	13088.31553
749.968	12883.70734
750.16	13096.41778
750.352	12849.26313
750.544	13005.26297
750.736	12982.97916
750.928	13106.54549
751.12	12995.13404
751.311	13092.36667
751.503	13082.23879
751.695	12847.23695
751.887	12804.68592
752.079	12824.94862
752.271	12733.76206
752.463	12727.68254
752.654	12729.70905
752.846	12841.15838
753.038	12723.6295
753.23	12612.16169
753.421	12537.1639
753.613	12683.09784
753.805	12772.26444
753.997	12668.9112
754.188	12563.51545
754.38	12737.81504
754.572	12456.07543
754.763	12565.54245
754.955	12237.08291
755.146	12780.36995
755.338	12456.07543
755.53	12644.59056
755.721	12360.783
755.913	12439.85648
756.104	12304.00588
756.296	12247.22326
756.487	12516.89274
756.679	12577.7043
756.87	12243.16714
757.062	12387.14197
757.253	12340.50608
757.445	12285.75493
757.636	12529.05551
757.827	12239.111
758.019	12342.5338
758.21	12439.85648
758.401	11991.62971
758.593	11746.05982
758.784	12078.86968
758.975	12273.58731
759.167	12131.61249
759.358	12190.43499
759.549	11969.31016
759.74	11995.68771
759.932	12020.03502
760.123	12013.9483
760.314	12212.74535
760.505	11825.22387
760.696	11750.11984
760.888	12084.95565
761.079	11993.65871
761.27	12058.5826
761.461	11705.45775
761.652	11971.33925
761.843	11871.90428
762.034	11936.84363
762.225	11681.09481
762.416	12001.77464
762.607	11642.51752
762.798	11912.49236
762.989	11701.39735
763.18	11853.63856
763.371	11827.25354
763.562	11926.69741
763.753	11488.17525
763.944	11788.68824
764.135	11727.78932
764.326	11776.50908
764.517	11524.73487
764.708	11804.92664
764.899	11717.63874
765.089	11829.28321
765.28	11559.2606
765.471	11758.23976
765.662	11291.10535
765.853	11528.79686
766.043	11506.45545
766.234	11707.48794
766.425	11238.26648
766.615	11571.44551
766.806	11628.30401
766.997	11433.33001
767.187	11356.12839
767.378	11585.66081
767.569	11473.95679
767.759	11620.18181
767.95	11169.15893
768.141	11563.32227
768.331	11337.8417
768.522	11244.36363
768.712	11132.56766
768.903	11567.38391
769.093	11124.43579
769.284	10898.70678
769.474	11213.87696
769.665	10965.82971
769.855	11228.10436
770.046	11282.97674
770.236	11051.24127
770.426	11004.4707
770.617	10644.33828
770.807	10760.35331
770.998	10827.50217
771.188	10805.12064
771.378	10658.58786
771.569	10819.36359
771.759	10658.58786
771.949	10803.08588
772.139	10957.69426
772.33	10750.17811
772.52	10853.95125
772.71	10817.32892
772.9	10587.33393
773.09	10799.01634
773.281	10737.96749
773.471	10591.40599
773.661	10660.62347
773.851	10383.66621
774.041	10241.02113
774.231	10744.07286
774.421	10660.62347
774.611	10687.08523
774.802	10454.96449
774.992	10664.69464
775.182	10377.55418
775.372	10432.55817
775.562	10446.81692
775.752	10501.80904
775.942	10114.62282
776.131	10269.5554
776.321	9980.01059
776.511	10302.16275
776.701	10094.23099
776.891	10322.54061
777.081	10155.40227
777.271	10251.21225
777.461	10049.36402
777.651	10342.91713
777.84	9869.82662
778.03	10285.85951
778.22	9933.08559
778.41	10371.44204
778.599	10236.94459
778.789	10336.80431
778.979	10210.44574
779.169	10045.28487
779.358	10104.42708
779.548	9971.85028
779.738	10167.63502
779.927	10179.86728
780.117	10110.54457
780.307	9924.92394
780.496	9763.68275
780.686	9853.49942
780.875	9755.51616
781.065	10000.41038
781.254	9671.79447
781.444	9853.49942
781.633	9882.07139
781.823	9839.21234
782.012	9780.01522
782.202	9986.13068
782.391	9818.80097
782.581	9782.05671
782.77	9896.35629
782.96	9871.86745
783.149	9612.56105
783.338	9816.75975
783.528	9487.92351
783.717	9494.05461
783.906	9506.31637
784.096	9383.67265
784.285	9436.82541
784.474	9692.21677
784.663	9567.61659
784.853	9604.38989
785.042	9506.31637
785.231	9430.69296
785.42	9518.57756
785.61	9522.66449
785.799	9218.00995
785.988	9514.49056
786.177	9373.4497
786.366	9575.78887
786.555	9598.26136
786.744	9579.87492
786.933	9404.11732
787.122	9496.09828
787.312	9449.08987
787.501	9367.31573
787.69	9068.61422
787.879	9240.51377
788.068	8990.81017
788.257	9222.1017
788.445	8968.28322
788.634	9273.24298
788.823	9215.96404
789.012	9130.02077
789.201	8896.59233
789.39	8986.71452
789.579	8966.23521
789.768	9095.22563
789.957	8826.92879
790.145	9273.24298
790.334	9134.11399
790.523	8880.20277
790.712	9170.94988
790.9	9140.25369
791.089	8634.22016
791.278	9056.33105
791.467	8605.50491
791.655	9087.03782
791.844	8749.04482
792.033	9005.14439
792.221	8669.08378
792.41	8986.71452
792.599	8650.62724
792.787	8671.13441
792.976	8880.20277
793.164	8857.66527
793.353	9039.9525
793.541	8927.31966
793.73	8794.13874
793.918	9084.99082
794.107	8892.49505
794.295	8912.98074
794.484	8638.32205
794.672	8537.80441
794.861	8683.43783
795.049	8804.38613
795.238	8342.79329
795.426	8644.47473
795.614	8675.23562
795.803	8744.94493
795.991	8441.34687
796.179	8705.99235
796.368	8340.73962
796.556	8482.39778
796.744	8496.76379
796.932	8457.76815
797.121	8211.31867
797.309	8560.37352
797.497	8494.71156
797.685	8424.92436
797.874	8552.16683
798.062	8644.47473
798.25	8186.65819
798.438	8490.60704
798.626	8324.30952
798.814	8264.73994
799.002	8332.52473
799.19	8478.29303
799.378	8408.50062
799.566	8406.44756
799.755	8215.42847
799.943	8383.86269
800.131	8439.29412
800.318	8377.70278
800.506	8496.76379
800.694	8252.41314
800.882	8367.43586
801.07	8468.03083
801.258	8184.60302
801.446	8266.79434
801.634	8042.748
801.822	8472.13577
802.01	8201.04382
802.197	8250.3586
802.385	8149.66209
802.573	8176.38214
802.761	8081.81907
802.949	8268.84872
803.136	8151.7176
803.324	8309.93217
803.512	8104.43584
803.699	8287.33724
803.887	8242.14026
804.075	8205.15382
804.262	8225.70263
804.45	8623.96514
804.638	8166.1056
804.825	8322.25567
805.013	7999.55567
805.201	8400.28829
805.388	8127.05018
805.576	8410.55365
805.763	8289.39142
805.951	8478.29303
806.138	8326.36335
806.326	8342.79329
806.513	8110.60363
806.701	8348.9542
806.888	8120.88287
807.075	8203.09883
807.263	8258.57663
807.45	8190.76847
807.638	7876.09935
807.825	8338.68592
808.012	8161.99484
808.2	8357.16847
808.387	8092.09972
808.574	8240.08563
808.761	8238.03097
808.949	8314.04008
809.136	8087.98752
809.323	8470.08331
809.51	8359.22198
809.698	8418.7656
809.885	8131.16161
810.072	8449.55766
810.259	8141.43985
810.446	8484.45012
810.633	8198.98879
810.82	8445.4523
811.008	8180.49262
811.195	8381.80941
811.382	8063.31263
811.569	8223.64784
811.756	7874.04111
811.943	8260.63109
812.13	8137.32862
812.317	8402.3414
812.504	8441.34687
812.691	8404.39449
812.878	8087.98752
813.064	8392.07565
813.251	8227.75741
813.438	8582.94035
813.625	8194.87866
813.812	8153.77308
813.999	8266.79434
814.186	8275.01174
814.372	8030.40824
814.559	8502.92036
814.746	8050.97409
814.933	7882.27392
815.12	7878.15756
815.306	8059.19987
815.493	8145.55101
815.68	8316.09401
815.866	8178.43739
816.053	8351.00779
816.24	8190.76847
816.426	8174.32687
816.613	8112.65952
816.799	8124.99443
816.986	8044.80455
817.173	7906.97036
817.359	7699.01522
817.546	8100.32388
817.732	7874.04111
817.919	8203.09883
818.105	7470.22205
818.292	7937.83674
818.478	7937.83674
818.665	8055.08702
818.851	7902.8545
819.037	8092.09972
819.224	8092.09972
819.41	8005.72655
819.597	7911.08615
819.783	7863.74964
819.969	7978.98474
820.156	8083.87524
820.342	8166.1056
820.528	7810.22561
820.714	7517.65131
820.901	7707.25512
821.087	7799.93092
821.273	7822.57856
821.459	7655.75016
821.646	8108.54772
821.832	7701.07523
822.018	7814.34334
822.204	7474.34679
822.39	7727.85342
822.576	7497.03129
822.762	7869.92459
822.948	7696.95519
823.134	8044.80455
823.32	7515.5894
823.507	7556.82341
823.693	7711.37495
823.879	7688.71486
824.065	7723.73393
824.25	7486.72048
824.436	7583.62093
824.622	7676.35373
824.808	7795.81289
824.994	7849.34071
825.18	7680.47419
825.366	7878.15756
825.552	7756.6875
825.738	7859.6329
825.923	7624.84082
826.109	7633.08378
826.295	7647.50813
826.481	7725.79368
826.667	7666.05221
826.852	7622.78003
827.038	7563.00778
827.224	7861.69128
827.409	7511.46553
827.595	7532.08404
827.781	7251.48649
827.966	7532.08404
828.152	7367.07546
828.338	7538.26917
828.523	7301.03305
828.709	7453.72224
828.894	7247.35704
829.08	7296.90465
829.266	7166.81505
829.451	7338.18466
829.637	6918.78069
829.822	7292.77617
830.008	7106.90296
830.193	7053.17272
830.378	7003.56213
830.564	7309.28958
830.749	7090.37219
830.935	7100.70409
831.12	6790.50228
831.305	7086.23927
831.491	6931.1901
831.676	7022.16761
831.861	7117.23397
832.047	7395.96198
832.232	6974.61663
832.417	6989.08993
832.602	6579.27235
832.788	6972.54893
832.973	6840.16881
833.158	6647.63762
833.343	6713.90727
833.528	6871.20373
833.714	6635.20944
833.899	6817.40661
834.084	6577.20028
834.269	6823.61476
834.454	6637.28086
834.639	6786.36281
834.824	6689.05891
835.009	6807.05925
835.194	6819.47602
835.379	6916.71238
835.564	6695.27131
835.749	6711.8367
835.934	6556.47834
836.119	6635.20944
836.304	6494.29862
836.489	6604.13535
836.674	6400.98988
836.859	6568.91178
837.044	6210.07835
837.228	6680.77538
837.413	6104.16153
837.598	6527.46373
837.783	6280.65567
837.968	6380.2482
838.152	6427.95057
838.337	6701.4835
838.522	6253.67342
838.707	6573.05608
838.891	6440.39264
839.076	6413.43376
839.261	6299.33337
839.445	6535.75408
839.63	6145.70482
839.815	6448.68689
839.999	6008.57626
840.184	6208.00214
840.368	6363.65318
840.553	6492.2256
840.737	6170.62628
840.922	6311.78412
841.106	6301.40855
841.291	6226.68721
841.475	6114.54823
841.66	6261.97607
841.844	6118.70275
842.029	6208.00214
842.213	6220.45907
842.397	6158.16597
842.582	6127.0115
842.766	6369.87649
842.951	6151.9355
843.135	6135.31988
843.319	5991.94765
843.504	5950.36952
843.688	6033.51635
843.872	5894.22409
844.056	6004.41925
844.241	6052.21919
844.425	5798.52929
844.609	5792.28659
844.793	5858.86444
844.977	5835.98103
845.161	5792.28659
845.346	5863.02475
845.53	5575.74171
845.714	5977.39638
845.898	5786.04368
846.082	5991.94765
846.266	5844.3026
846.45	5869.26504
846.634	5769.39488
846.818	5939.97351
847.002	5721.52116
847.186	5831.8201
847.37	5688.21033
847.554	5773.55722
847.738	5667.388
847.922	5860.94461
848.106	5783.96266
848.29	5919.17974
848.473	5509.0612
848.657	5606.98989
848.841	5498.64019
849.025	5698.62061
849.209	5189.91253
849.392	5463.20437
849.576	5463.20437
849.76	5833.90058
849.944	5346.42653
850.127	5661.14084
850.311	5444.44147
850.495	5848.46324
850.678	5459.035
850.862	5650.72843
851.046	5285.92338
851.229	5325.5656
851.413	5288.01003
851.596	5390.22685
851.78	5246.27272
851.964	5404.82466
852.147	5110.56202
852.331	5267.14254
852.514	5192.00025
852.698	5158.59397
852.881	4985.20355
853.065	5129.3586
853.248	4891.13022
853.431	5116.82775
853.615	4874.40121
853.798	5043.71453
853.982	5056.25024
854.165	5158.59397
854.348	5033.26747
854.532	5235.83693
854.715	4838.8472
854.898	4962.21214
855.081	4826.29716
855.265	5141.8886
855.448	4851.39643
855.631	5150.24147
855.814	5066.69603
855.997	5102.20738
856.181	4983.11354
856.364	5171.12203
856.547	4941.30845
856.73	5035.35693
856.913	4675.63287
857.096	4748.88711
857.279	4560.46348
857.462	4909.9486
857.645	4591.88001
857.828	4843.03037
858.011	4497.61543
858.194	4916.22099
858.377	4675.63287
858.56	4769.81181
858.743	4631.66709
858.926	4834.66395
859.109	4539.51635
859.292	4702.84481
859.475	4489.23419
859.658	4681.91288
859.841	4417.97942
860.023	4665.16572
860.206	4409.59484
860.389	4660.97871
860.572	4346.69939
860.755	4512.28176
860.937	4371.85992
861.12	4397.01732
861.303	4505.99632
861.486	4533.23178
861.668	4237.63455
861.851	4541.61116
862.034	4059.23185
862.216	4269.10152
862.399	4023.53322
862.581	4279.58944
862.764	4113.81818
862.947	4480.8526
863.129	3979.42671
863.312	4281.68696
863.494	4162.09431
863.677	4099.12324
863.859	4040.33332
864.042	3929.00826
864.224	4050.83271
864.406	4103.3219
864.589	3779.78602
864.771	4057.1321
864.954	3912.19951
865.136	4136.90815
865.318	3842.84989
865.501	3954.21894
865.683	3912.19951
865.865	4149.50161
866.048	3821.83057
866.23	4073.92955
866.412	3674.64057
866.594	3893.28814
866.777	3748.24746
866.959	3935.3112
867.141	3821.83057
867.323	3857.56223
867.505	3680.95065
867.687	3842.84989
867.869	3739.83644
868.052	3947.91655
868.234	3775.58113
868.416	3985.72819
868.598	3550.50769
868.78	3922.70513
868.962	3678.84731
869.144	3979.42671
869.326	3548.40318
869.508	3788.19556
869.69	3699.87987
869.872	3817.62647
870.054	3834.4424
870.236	3872.2736
870.417	3670.43375
870.599	3935.3112
870.781	3945.81571
870.963	3901.6934
871.145	3680.95065
871.327	3874.37514
871.508	3466.31311
871.69	3931.10926
871.872	3624.15373
872.054	3767.17112
872.235	3598.90624
872.417	3506.30918
872.599	3590.48981
872.78	3752.45286
872.962	3542.08955
873.144	3649.39851
873.325	3449.47071
873.507	3783.99083
873.689	3531.56646
873.87	3598.90624
874.052	3424.20497
874.233	3481.04927
874.415	3459.99735
874.596	3523.14766
874.778	3401.04244
874.959	3582.07308
875.141	3190.37801
875.322	3706.18927
875.503	3299.94482
875.685	3396.83085
875.866	3506.30918
876.048	3455.78675
876.229	3354.711
876.41	3539.98497
876.592	3415.78248
876.773	3622.04988
876.954	3329.43575
877.136	3615.7382
877.317	3304.15801
877.498	3704.08615
877.679	3371.55978
877.86	3535.77575
878.042	3245.16708
878.223	3582.07308
878.404	3367.34769
878.585	3386.30154
878.766	3346.2862
878.947	3537.88037
879.128	3337.86111
879.309	3344.17995
879.49	3441.04908
879.672	3483.15436
879.853	3299.94482
880.034	3499.99444
880.215	3280.98459
880.396	3615.7382
880.576	3348.39243
880.757	3819.72853
880.938	3525.25239
881.119	3710.39543
881.3	3598.90624
881.481	3605.21836
881.662	3325.22297
881.843	3388.40744
882.023	3156.65613
882.204	3662.01988
882.385	3523.14766
882.566	3613.63427
882.747	3363.13553
882.927	3718.80754
883.108	3447.36533
883.289	3691.46708
883.469	3550.50769
883.65	3521.04291
883.831	3464.20788
884.011	3737.73364
884.192	3337.86111
884.373	3485.25943
884.553	3344.17995
884.734	3590.48981
884.914	3495.78453
885.095	3607.32237
885.275	3445.25993
885.456	3542.08955
885.636	3594.69806
885.817	3668.33031
885.997	3617.84211
886.178	3584.17729
886.358	3624.15373
886.538	3655.70928
886.719	3693.5703
886.899	3718.80754
887.08	3388.40744
887.26	3756.65817
887.44	3550.50769
887.621	3792.40021
887.801	3531.56646
887.981	3834.4424
888.161	3704.08615
888.342	3704.08615
888.522	3598.90624
888.702	3771.37617
888.882	3617.84211
889.062	3783.99083
889.242	3424.20497
889.423	3668.33031
889.603	3550.50769
889.783	3636.77646
889.963	3375.7718
890.143	3678.84731
890.323	3640.98389
890.503	3744.04199
890.683	3449.47071
890.863	3457.89206
891.043	3403.14822
891.223	3582.07308
891.403	3386.30154
891.583	3777.68358
891.763	3662.01988
891.943	3762.966
892.122	3373.6658
892.302	3640.98389
892.482	3348.39243
892.662	3426.31054
892.842	3350.49864
893.022	3615.7382
893.201	3615.7382
893.381	3575.76033
893.561	3213.55937
893.741	3457.89206
893.92	3306.26459
894.1	3504.20428
894.28	3306.26459
894.459	3430.52164
894.639	3331.54212
894.819	3636.77646
894.998	3230.41728
895.178	3379.98375
895.357	3339.96741
895.537	3426.31054
895.716	3337.86111
895.896	3293.62489
896.075	3144.00935
896.255	3392.61918
896.434	3253.59516
896.614	3339.96741
896.793	3099.74107
896.973	3485.25943
897.152	3042.81447
897.331	3333.64847
897.511	3101.84925
897.69	3295.73155
897.87	3099.74107
898.049	3337.86111
898.228	3093.41646
898.407	3188.27051
898.587	3017.51012
898.766	3179.84037
898.945	2926.81831
899.124	3030.16257
899.304	2926.81831
899.483	3051.24876
899.662	2882.51703
899.841	3106.06554
900.02	2855.08926
900.199	3000.63933
900.378	2791.78533
900.557	3078.65848
900.737	2848.75943
900.916	3000.63933
901.095	2743.24396
901.274	2688.36266
901.453	2591.24388
901.632	2804.44711
901.811	2584.90914
901.989	2715.80442
902.168	2622.91594
902.347	2724.24759
902.526	2587.02073
902.705	2713.69359
902.884	2513.10799
903.063	2749.57585
903.242	2405.38178
903.42	2494.09957
903.599	2327.21031
903.778	2409.60686
903.957	2189.85041
904.135	2515.21998
904.314	2200.41789
904.493	2380.03039
904.672	2147.57841
904.85	2350.45191
905.029	2276.49731
905.207	2293.40225
905.386	2156.03307
905.565	2208.87172
905.743	2071.48087
905.922	2210.98516
906.1	2096.84781
906.279	2196.19093
906.457	1931.94516
906.636	2240.57235
906.814	1821.99003
906.993	2198.30441
907.171	1938.28829
907.35	2206.75828
907.528	1758.54862
907.707	2033.42853
907.885	1919.25876
908.063	1809.30205
908.242	1712.02272
908.42	1902.34325
908.598	1802.958
908.777	1777.58143
908.955	1737.40069
909.133	1970.00311
909.311	1826.21932
909.49	1809.30205
909.668	1580.89675
909.846	1936.17392
910.024	1832.56322
910.202	1902.34325
910.38	1665.49526
910.559	1836.79247
910.737	1676.06981
910.915	1815.64606
911.093	1733.17107
911.271	1686.64428
911.449	1762.77816
911.627	1972.11738
911.805	1783.92563
911.983	1931.94516
912.161	1794.49921
912.339	2020.74392
912.517	1665.49526
912.695	2005.9449
912.872	1747.9747
913.05	2103.18938
913.228	1788.15508
913.406	2060.911
913.584	1881.19837
913.762	1887.54189
913.939	1709.90787
914.117	2016.51566
914.295	1667.61017
914.473	1957.31734
914.65	1802.958
914.828	1900.22878
915.006	1720.4821
915.184	1834.67785
915.361	1585.12675
915.539	1982.68866
915.716	1800.84331
915.894	1936.17392
916.072	1692.98893
916.249	1813.5314
916.427	1635.88618
916.604	1908.68661
916.782	1667.61017
916.959	1754.31906
917.137	1642.23103
917.314	1726.8266
917.492	1574.55174
917.669	1684.52939
917.847	1456.10968
918.024	1701.44843
918.201	1477.2602
918.379	1667.61017
918.556	1502.64077
918.733	1665.49526
918.911	1494.18059
919.088	1530.13629
919.265	1604.16167
919.442	1504.75582
919.62	1413.80866
919.797	1629.54132
919.974	1432.84411
920.151	1701.44843
920.328	1337.66748
920.506	1489.95049
920.683	1426.49895
920.86	1559.74665
921.037	1470.91504
921.214	1504.75582
921.391	1354.58762
921.568	1394.77325
921.745	1312.28747
921.922	1576.66675
922.099	1195.9666
922.276	1487.83544
922.453	1367.27778
922.63	1310.17248
922.807	1259.41335
922.984	1365.16275
923.161	1293.25263
923.338	1424.3839
923.514	1221.34497
923.691	1447.64947
923.868	1394.77325
924.045	1354.58762
924.222	1221.34497
924.399	1369.39281
924.575	1157.90001
924.752	1411.69361
924.929	1145.21142
925.105	1208.65573
925.282	1124.06413
925.459	1219.23009
925.635	1086.00015
925.812	1316.51745
925.989	988.73347
926.165	1257.29842
926.342	965.47598
926.518	1132.52299
926.695	959.13317
926.871	1052.16689
927.048	988.73347
927.224	1045.82331
927.401	906.27896
927.577	982.39044
927.754	916.84943
927.93	1140.98193
928.107	912.62122
928.283	1140.98193
928.459	861.88518
928.636	929.53424
928.812	861.88518
928.988	861.88518
929.165	756.20138
929.341	959.13317
929.517	743.52096
929.693	899.93677
929.87	751.97453
930.046	999.30532
930.222	802.69936
930.398	997.19094
930.574	796.35845
930.751	899.93677
930.927	751.97453
931.103	927.42009
931.279	735.06755
931.455	806.92668
931.631	669.55954
931.807	667.44655
931.983	730.84091
932.159	779.44977
932.335	568.15026
932.511	811.15404
932.687	500.56096
932.863	770.99567
933.039	568.15026
933.215	785.79045
933.391	582.93728
933.566	644.20454
933.742	494.22521
933.918	536.46599
934.094	456.21352
934.27	572.37505
934.445	456.21352
934.621	591.3873
934.797	397.09419
934.973	483.66592
935.148	466.77183
935.324	430.87514
935.5	354.87394
935.675	502.6729
935.851	449.87871
936.027	397.09419
936.202	335.87706
936.378	390.76073
936.553	335.87706
936.729	384.42741
936.904	371.76124
937.08	240.91455
937.255	247.24421
937.431	247.24421
937.606	247.24421
937.782	325.32385
937.957	287.336
938.133	215.59768
938.308	152.31817
938.483	253.57403
938.659	179.73703
938.834	221.92663
939.009	228.25576
939.185	162.86346
939.36	162.86346
939.535	181.84631
939.71	143.8823
939.886	152.31817
940.061	143.8823
940.236	202.94032
940.411	181.84631
940.586	145.99124
940.761	76.40788
940.937	177.62776
941.112	63.75895
941.287	249.35413
941.462	118.57677
941.637	160.75436
941.812	143.8823
941.987	160.75436
942.162	49.00291
942.337	108.03372
942.512	110.14229
942.687	122.79415
942.862	133.33796
943.037	145.99124
943.212	63.75895
943.386	80.62436
943.561	135.44678
943.736	95.38278
943.911	164.97259
944.086	141.77339
944.26	84.84094
944.435	114.35949
944.61	112.25088
944.785	93.27437
944.959	129.12037
945.134	53.21881
945.309	164.97259
945.483	101.70815
945.658	84.84094
945.833	164.97259
946.007	74.29967
946.182	59.54283
946.357	59.54283
946.531	78.51611
946.706	139.6645
946.88	84.84094
947.055	120.68545
947.229	76.40788
947.404	173.40929
947.578	110.14229
947.752	63.75895
947.927	171.30008
948.101	122.79415
948.276	101.70815
948.45	101.70815
948.624	137.55563
948.799	51.11085
948.973	171.30008
949.147	116.46812
949.321	131.22915
949.496	21.60186
949.67	131.22915
949.844	164.97259
950.018	202.94032
950.193	131.22915
950.367	84.84094
950.541	127.01161
950.715	110.14229
950.889	145.99124
951.063	164.97259
951.237	65.86705
951.411	84.84094
951.585	169.1909
951.759	93.27437
951.933	67.97517
952.107	93.27437
952.281	120.68545
952.455	131.22915
952.629	152.31817
952.803	135.44678
952.977	141.77339
953.151	99.59967
953.325	152.31817
953.499	95.38278
953.672	186.06495
953.846	139.6645
954.02	135.44678
954.194	110.14229
954.368	141.77339
954.541	84.84094
954.715	175.51851
954.889	217.70731
955.062	101.70815
955.236	108.03372
955.41	112.25088
955.583	162.86346
955.757	145.99124
955.93	164.97259
956.104	152.31817
956.278	169.1909
956.451	135.44678
956.625	154.42718
956.798	118.57677
956.972	152.31817
957.145	129.12037
957.319	196.6119
957.492	114.35949
957.665	99.59967
957.839	32.14026
958.012	143.8823
958.185	76.40788
958.359	135.44678
958.532	57.4348
958.705	86.94927
958.879	127.01161
959.052	127.01161
959.225	131.22915
959.398	120.68545
959.572	101.70815
959.745	139.6645
959.918	63.75895
960.091	160.75436
960.264	145.99124
960.438	143.8823
960.611	114.35949
960.784	122.79415
960.957	211.37848
961.13	80.62436
961.303	156.53622
961.476	171.30008
961.649	143.8823
961.822	131.22915
961.995	114.35949
962.168	139.6645
962.341	61.65088
962.514	198.72135
962.686	17.38667
962.859	114.35949
963.032	74.29967
963.205	-7.90249
963.378	164.97259
963.551	160.75436
963.723	122.79415
963.896	72.19148
964.069	86.94927
964.242	160.75436
964.414	135.44678
964.587	59.54283
964.76	112.25088
964.932	97.49122
965.105	51.11085
965.278	167.08173
965.45	169.1909
965.623	154.42718
965.795	101.70815
965.968	141.77339
966.14	112.25088
966.313	93.27437
966.485	51.11085
966.658	89.05761
966.83	101.70815
967.003	97.49122
967.175	38.46358
967.348	169.1909
967.52	84.84094
967.692	190.28367
967.865	143.8823
968.037	86.94927
968.209	156.53622
968.382	89.05761
968.554	76.40788
968.726	61.65088
968.898	101.70815
969.071	25.81715
969.243	145.99124
969.415	84.84094
969.587	120.68545
969.759	148.10019
969.932	118.57677
970.104	42.67924
970.276	131.22915
970.448	114.35949
970.62	127.01161
970.792	93.27437
970.964	84.84094
971.136	84.84094
971.308	120.68545
971.48	101.70815
971.652	55.32679
971.824	118.57677
971.996	112.25088
972.168	21.60186
972.339	34.24801
972.511	97.49122
972.683	101.70815
972.855	80.62436
973.027	53.21881
973.199	76.40788
973.37	61.65088
973.542	-12.11701
973.714	2.63424
973.886	103.81665
974.057	70.08331
974.229	93.27437
974.401	122.79415
974.572	101.70815
974.744	51.11085
974.915	82.73264
975.087	122.79415
975.259	93.27437
975.43	145.99124
975.602	55.32679
975.773	95.38278
975.945	51.11085
976.116	93.27437
976.288	82.73264
976.459	93.27437
976.63	103.81665
976.802	76.40788
976.973	76.40788
977.145	27.92483
977.316	137.55563
977.487	55.32679
977.659	55.32679
977.83	-16.33143
978.001	42.67924
978.172	51.11085
978.344	127.01161
978.515	105.92518
978.686	76.40788
978.857	51.11085
979.028	55.32679
979.2	86.94927
979.371	70.08331
979.542	2.63424
979.713	80.62436
979.884	124.90287
980.055	27.92483
980.226	0.52684
980.397	101.70815
980.568	70.08331
980.739	17.38667
980.91	95.38278
981.081	84.84094
981.252	13.17157
981.423	21.60186
981.594	61.65088
981.765	42.67924
981.936	97.49122
982.106	-7.90249
982.277	34.24801
982.448	-22.65289
982.619	-5.79519
982.79	30.03253
982.96	42.67924
983.131	8.95656
983.302	74.29967
983.472	67.97517
983.643	101.70815
983.814	101.70815
983.984	97.49122
984.155	53.21881
984.326	110.14229
984.496	110.14229
984.667	44.78711
984.837	82.73264
985.008	108.03372
985.178	67.97517
985.349	93.27437
985.519	91.16598
985.69	110.14229
985.86	19.49425
986.031	118.57677
986.201	59.54283
986.371	93.27437
986.542	38.46358
986.712	55.32679
986.882	55.32679
987.053	-24.75999
987.223	0.52684
987.393	55.32679
987.563	11.06405
987.734	-50.04327
987.904	97.49122
988.074	8.95656
988.244	-3.68787
988.414	-7.90249
988.585	82.73264
988.755	61.65088
988.925	80.62436
989.095	27.92483
989.265	148.10019
989.435	21.60186
989.605	59.54283
989.775	78.51611
989.945	-3.68787
990.115	51.11085
990.285	59.54283
990.455	36.35578
990.625	-5.79519
990.795	44.78711
990.965	55.32679
991.134	55.32679
991.304	19.49425
991.474	129.12037
991.644	25.81715
991.814	27.92483
991.984	17.38667
992.153	103.81665
992.323	59.54283
992.493	42.67924
992.662	84.84094
992.832	44.78711
993.002	0.52684
993.171	51.11085
993.341	82.73264
993.511	95.38278
993.68	127.01161
993.85	-5.79519
994.019	82.73264
994.189	-24.75999
994.358	67.97517
994.528	51.11085
994.697	67.97517
994.867	46.895
995.036	42.67924
995.206	-12.11701
995.375	4.74166
995.544	38.46358
995.714	11.06405
995.883	76.40788
996.052	70.08331
996.222	36.35578
996.391	-3.68787
996.56	80.62436
996.73	-3.68787
996.899	19.49425
997.068	-24.75999
997.237	19.49425
997.406	34.24801
997.576	97.49122
997.745	4.74166
997.914	-7.90249
998.083	70.08331
998.252	59.54283
998.421	36.35578
998.59	42.67924
998.759	17.38667
998.928	72.19148
999.097	72.19148
999.266	78.51611
999.435	101.70815
999.604	-37.40208
999.773	44.78711
999.942	-16.33143
1000.111	13.17157
1000.28	59.54283
1000.448	46.895
1000.617	59.54283
1000.786	13.17157
1000.955	80.62436
1001.124	4.74166
1001.292	51.11085
1001.461	51.11085
1001.63	59.54283
1001.798	76.40788
1001.967	30.03253
1002.136	86.94927
1002.304	8.95656
1002.473	-10.00976
1002.642	38.46358
1002.81	53.21881
1002.979	74.29967
1003.147	2.63424
1003.316	21.60186
1003.484	11.06405
1003.653	86.94927
1003.821	8.95656
1003.99	44.78711
1004.158	78.51611
1004.327	76.40788
1004.495	2.63424
1004.663	-24.75999
1004.832	61.65088
1005	55.32679
1005.168	40.5714
1005.337	30.03253
1005.505	2.63424
1005.673	101.70815
1005.842	61.65088
1006.01	-12.11701
1006.178	-12.11701
1006.346	2.63424
1006.514	25.81715
1006.683	32.14026
1006.851	-33.18815
1007.019	38.46358
1007.187	13.17157
1007.355	27.92483
1007.523	19.49425
1007.691	4.74166
1007.859	30.03253
1008.027	67.97517
1008.195	76.40788
1008.363	-33.18815
1008.531	4.74166
1008.699	-3.68787
1008.867	0.52684
1009.035	11.06405
1009.203	34.24801
1009.37	105.92518
1009.538	46.895
1009.706	133.33796
1009.874	61.65088
1010.042	97.49122
1010.209	8.95656
1010.377	93.27437
1010.545	38.46358
1010.713	-54.2568
1010.88	42.67924
1011.048	15.2791
1011.216	86.94927
1011.383	-7.90249
1011.551	61.65088
1011.718	34.24801
1011.886	38.46358
1012.054	59.54283
1012.221	25.81715
1012.389	38.46358
1012.556	-18.43861
1012.724	46.895
1012.891	0.52684
1013.058	21.60186
1013.226	53.21881
1013.393	8.95656
1013.561	-41.61591
1013.728	63.75895
1013.895	-28.97412
1014.063	57.4348
1014.23	67.97517
1014.397	-7.90249
1014.565	17.38667
1014.732	0.52684
1014.899	59.54283
1015.066	112.25088
1015.233	-22.65289
1015.401	46.895
1015.568	8.95656
1015.735	17.38667
1015.902	55.32679
1016.069	53.21881
1016.236	67.97517
1016.403	11.06405
1016.57	17.38667
1016.737	-1.58052
1016.904	99.59967
1017.071	25.81715
1017.238	21.60186
1017.405	57.4348
1017.572	-3.68787
1017.739	36.35578
1017.906	30.03253
1018.073	55.32679
1018.24	17.38667
1018.407	27.92483
1018.573	55.32679
1018.74	11.06405
1018.907	-7.90249
1019.074	-56.36353
1019.241	34.24801
1019.407	61.65088
1019.574	89.05761
1019.741	42.67924
1019.907	25.81715
1020.074	93.27437
1020.241	17.38667
1020.407	36.35578
1020.574	55.32679
1020.74	-22.65289
1020.907	27.92483
1021.073	86.94927
1021.24	-1.58052
1021.406	59.54283
1021.573	-5.79519
1021.739	34.24801
1021.906	25.81715
1022.072	17.38667
1022.239	55.32679
1022.405	67.97517
1022.571	-22.65289
1022.738	53.21881
1022.904	-24.75999
1023.07	44.78711
1023.237	38.46358
1023.403	-24.75999
1023.569	21.60186
1023.735	67.97517
1023.902	-3.68787
1024.068	21.60186
1024.234	-37.40208
1024.4	42.67924
1024.566	-24.75999
1024.732	38.46358
1024.898	4.74166
1025.065	34.24801
1025.231	-5.79519
1025.397	25.81715
1025.563	70.08331
1025.729	131.22915
1025.895	86.94927
1026.061	30.03253
1026.227	2.63424
1026.392	2.63424
1026.558	70.08331
1026.724	34.24801
1026.89	17.38667
1027.056	70.08331
1027.222	25.81715
1027.388	17.38667
1027.553	-14.22423
1027.719	46.895
1027.885	11.06405
1028.051	19.49425
1028.216	-54.2568
1028.382	11.06405
1028.548	40.5714
1028.713	21.60186
1028.879	-3.68787
1029.045	25.81715
1029.21	-7.90249
1029.376	8.95656
1029.541	55.32679
1029.707	99.59967
1029.873	91.16598
1030.038	86.94927
1030.204	-12.11701
1030.369	51.11085
1030.534	97.49122
1030.7	72.19148
1030.865	-16.33143
1031.031	8.95656
1031.196	-5.79519
1031.361	70.08331
1031.527	-20.54576
1031.692	-37.40208
1031.857	2.63424
1032.023	30.03253
1032.188	59.54283
1032.353	84.84094
1032.518	30.03253
1032.684	25.81715
1032.849	-75.32294
1033.014	53.21881
1033.179	-26.86706
1033.344	-33.18815
1033.509	17.38667
1033.674	27.92483
1033.839	-10.00976
1034.004	-7.90249
1034.17	-14.22423
1034.335	8.95656
1034.5	55.32679
1034.664	-18.43861
1034.829	-12.11701
1034.994	70.08331
1035.159	13.17157
1035.324	-3.68787
1035.489	84.84094
1035.654	17.38667
1035.819	46.895
1035.984	80.62436
1036.148	23.70949
1036.313	-10.00976
1036.478	-31.08114
1036.643	21.60186
1036.807	-20.54576
1036.972	-14.22423
1037.137	-20.54576
1037.301	46.895
1037.466	-20.54576
1037.631	8.95656
1037.795	40.5714
1037.96	6.8491
1038.124	17.38667
1038.289	67.97517
1038.454	-16.33143
1038.618	-33.18815
1038.783	4.74166
1038.947	-20.54576
1039.111	4.74166
1039.276	61.65088
1039.44	34.24801
1039.605	-7.90249
1039.769	32.14026
1039.933	42.67924
1040.098	-18.43861
1040.262	19.49425
1040.426	23.70949
1040.591	36.35578
1040.755	51.11085
1040.919	21.60186
1041.083	6.8491
1041.248	46.895
1041.412	36.35578
1041.576	78.51611
1041.74	34.24801
1041.904	25.81715
1042.068	0.52684
1042.232	51.11085
1042.397	-14.22423
1042.561	2.63424
1042.725	23.70949
1042.889	42.67924
1043.053	42.67924
1043.217	8.95656
1043.381	11.06405
1043.544	78.51611
1043.708	32.14026
1043.872	38.46358
1044.036	51.11085
1044.2	76.40788
1044.364	59.54283
1044.528	0.52684
1044.691	-16.33143
1044.855	8.95656
1045.019	34.24801
1045.183	44.78711
1045.346	67.97517
1045.51	17.38667
1045.674	38.46358
1045.837	42.67924
1046.001	44.78711
1046.165	0.52684
1046.328	-5.79519
1046.492	36.35578
1046.655	-45.82964
1046.819	80.62436
1046.983	17.38667
1047.146	8.95656
1047.31	-16.33143
1047.473	-5.79519
1047.636	59.54283
1047.8	2.63424
1047.963	2.63424
1048.127	-18.43861
1048.29	34.24801
