Data from mixed_try1_USB4F045381__1__00149.txt Node

Date: Thu Apr 03 20:07:16 EDT 2025
User: mmckonesweet
Spectrometer: USB4F04538
Trigger mode: 4
Integration Time (sec): 2.700000E-3
Scans to average: 1
Electric dark correction enabled: true
Nonlinearity correction enabled: true
Boxcar width: 0
XAxis mode: Wavelengths
Number of Pixels in Spectrum: 3648
>>>>>Begin Spectral Data<<<<<
345.52	33.54542
345.736	33.54542
345.952	33.54542
346.168	25.11459
346.384	-97.08857
346.6	-19.141
346.816	16.68414
347.032	-2.28298
347.248	12.46906
347.464	-2.28298
347.68	-25.46235
347.896	16.68414
348.112	-46.53192
348.328	29.32996
348.544	12.46906
348.76	-2.28298
348.975	10.36155
349.191	-63.38577
349.407	-63.38577
349.623	29.32996
349.839	14.57659
350.055	14.57659
350.27	18.79172
350.486	-31.78348
350.702	-44.42508
350.918	6.14661
351.133	-8.60492
351.349	29.32996
351.565	12.46906
351.781	56.73213
351.996	12.46906
352.212	-21.24814
352.428	14.57659
352.644	-27.56942
352.859	39.86879
353.075	-42.31821
353.291	-17.03383
353.506	56.73213
353.722	48.30027
353.938	8.25407
354.153	-12.81942
354.369	-25.46235
354.584	27.22227
354.8	10.36155
355.016	25.11459
355.231	-21.24814
355.447	-27.56942
355.662	-12.81942
355.878	39.86879
356.093	56.73213
356.309	12.46906
356.524	-33.89048
356.74	-63.38577
356.955	-82.34441
357.171	-29.67646
357.386	-29.67646
357.602	33.54542
357.817	-50.74553
358.033	23.00695
358.248	37.76098
358.464	-8.60492
358.679	-12.81942
358.895	-86.55716
359.11	-42.31821
359.325	37.76098
359.541	12.46906
359.756	6.14661
359.972	39.86879
360.187	-33.89048
360.402	-59.17246
360.618	33.54542
360.833	-31.78348
361.048	37.76098
361.264	-27.56942
361.479	-33.89048
361.694	-21.24814
361.909	14.57659
362.125	6.14661
362.34	27.22227
362.555	35.65319
362.77	-80.238
362.986	-33.89048
363.201	-38.10439
363.416	29.32996
363.631	-12.81942
363.847	14.57659
364.062	-52.8523
364.277	6.14661
364.492	-29.67646
364.707	-42.31821
364.922	56.73213
365.138	-12.81942
365.353	20.89932
365.568	16.68414
365.783	12.46906
365.998	-44.42508
366.213	18.79172
366.428	48.30027
366.643	-61.27913
366.858	-35.99745
367.073	-12.81942
367.288	-27.56942
367.503	-12.81942
367.718	44.08449
367.933	6.14661
368.148	-25.46235
368.363	-38.10439
368.578	31.43768
368.793	6.14661
369.008	-4.39031
369.223	39.86879
369.438	48.30027
369.653	23.00695
369.868	14.57659
370.083	56.73213
370.298	-21.24814
370.513	-12.81942
370.728	46.19237
370.943	20.89932
371.157	12.46906
371.372	96.7884
371.587	-21.24814
371.802	4.03918
372.017	39.86879
372.232	8.25407
372.446	29.32996
372.661	-29.67646
372.876	54.62413
373.091	-78.13156
373.306	-21.24814
373.52	18.79172
373.735	12.46906
373.95	37.76098
374.165	-12.81942
374.379	-38.10439
374.594	39.86879
374.809	-27.56942
375.023	-6.49763
375.238	-50.74553
375.453	29.32996
375.667	12.46906
375.882	31.43768
376.097	23.00695
376.311	-17.03383
376.526	37.76098
376.741	-29.67646
376.955	-19.141
377.17	90.46319
377.384	-33.89048
377.599	-38.10439
377.813	56.73213
378.028	37.76098
378.242	-46.53192
378.457	23.00695
378.672	16.68414
378.886	-35.99745
379.101	-88.66349
379.315	14.57659
379.53	67.27246
379.744	41.97663
379.958	-10.71218
380.173	35.65319
380.387	-12.81942
380.602	12.46906
380.816	41.97663
381.031	-14.92664
381.245	-23.35526
381.459	-17.03383
381.674	18.79172
381.888	54.62413
382.103	-27.56942
382.317	48.30027
382.531	56.73213
382.746	-63.38577
382.96	-54.95905
383.174	41.97663
383.388	29.32996
383.603	-4.39031
383.817	-46.53192
384.031	29.32996
384.246	4.03918
384.46	-19.141
384.674	79.92161
384.888	-2.28298
385.103	-29.67646
385.317	-42.31821
385.531	44.08449
385.745	-10.71218
385.959	16.68414
386.174	-65.49239
386.388	10.36155
386.602	75.70514
386.816	-12.81942
387.03	14.57659
387.244	-19.141
387.458	-0.17561
387.672	12.46906
387.887	12.46906
388.101	-2.28298
388.315	1.93177
388.529	-67.59898
388.743	10.36155
388.957	-78.13156
389.171	-86.55716
389.385	-4.39031
389.599	12.46906
389.813	27.22227
390.027	12.46906
390.241	4.03918
390.455	4.03918
390.669	50.4082
390.883	33.54542
391.097	12.46906
391.311	23.00695
391.525	-4.39031
391.738	29.32996
391.952	-4.39031
392.166	117.87389
392.38	-25.46235
392.594	-44.42508
392.808	29.32996
393.022	4.03918
393.236	-19.141
393.449	12.46906
393.663	71.48875
393.877	-0.17561
394.091	71.48875
394.305	41.97663
394.518	-0.17561
394.732	113.65661
394.946	-65.49239
395.16	31.43768
395.373	-21.24814
395.587	29.32996
395.801	-67.59898
396.015	-12.81942
396.228	16.68414
396.442	-10.71218
396.656	4.03918
396.869	29.32996
397.083	-38.10439
397.297	-19.141
397.51	-27.56942
397.724	12.46906
397.938	-2.28298
398.151	-21.24814
398.365	46.19237
398.578	65.16435
398.792	12.46906
399.005	16.68414
399.219	63.05626
399.433	75.70514
399.646	50.4082
399.86	44.08449
400.073	58.84015
400.287	37.76098
400.5	8.25407
400.714	12.46906
400.927	50.4082
401.141	-6.49763
401.354	-2.28298
401.567	-4.39031
401.781	23.00695
401.994	-12.81942
402.208	71.48875
402.421	29.32996
402.635	4.03918
402.848	16.68414
403.061	41.97663
403.275	63.05626
403.488	18.79172
403.701	-2.28298
403.915	-19.141
404.128	1.93177
404.341	48.30027
404.555	60.94819
404.768	-29.67646
404.981	107.33087
405.195	41.97663
405.408	35.65319
405.621	56.73213
405.834	41.97663
406.048	82.02988
406.261	4.03918
406.474	79.92161
406.687	20.89932
406.9	33.54542
407.114	98.89685
407.327	-4.39031
407.54	25.11459
407.753	56.73213
407.966	37.76098
408.179	23.00695
408.392	33.54542
408.605	88.35483
408.819	-10.71218
409.032	4.03918
409.245	12.46906
409.458	48.30027
409.671	-12.81942
409.884	16.68414
410.097	23.00695
410.31	54.62413
410.523	-35.99745
410.736	14.57659
410.949	-21.24814
411.162	-10.71218
411.375	29.32996
411.588	56.73213
411.801	63.05626
412.014	60.94819
412.227	-2.28298
412.44	130.52622
412.653	27.22227
412.865	71.48875
413.078	113.65661
413.291	60.94819
413.504	69.38059
413.717	-0.17561
413.93	113.65661
414.143	54.62413
414.356	29.32996
414.568	-4.39031
414.781	14.57659
414.994	37.76098
415.207	79.92161
415.42	46.19237
415.632	41.97663
415.845	37.76098
416.058	88.35483
416.271	-29.67646
416.483	35.65319
416.696	73.59693
416.909	58.84015
417.121	39.86879
417.334	37.76098
417.547	6.14661
417.759	130.52622
417.972	46.19237
418.185	25.11459
418.397	-4.39031
418.61	63.05626
418.823	52.51615
419.035	-38.10439
419.248	92.57157
419.46	79.92161
419.673	37.76098
419.885	82.02988
420.098	20.89932
420.311	96.7884
420.523	58.84015
420.736	109.43943
420.948	122.09124
421.161	18.79172
421.373	109.43943
421.586	71.48875
421.798	82.02988
422.01	63.05626
422.223	82.02988
422.435	54.62413
422.648	79.92161
422.86	46.19237
423.073	35.65319
423.285	67.27246
423.497	12.46906
423.71	-10.71218
423.922	58.84015
424.134	84.13817
424.347	147.39721
424.559	113.65661
424.771	96.7884
424.984	82.02988
425.196	88.35483
425.408	54.62413
425.621	8.25407
425.833	130.52622
426.045	96.7884
426.257	56.73213
426.47	109.43943
426.682	147.39721
426.894	122.09124
427.106	105.22233
427.318	151.61516
427.531	58.84015
427.743	128.41744
427.955	134.74384
428.167	111.54801
428.379	130.52622
428.591	105.22233
428.804	151.61516
429.016	82.02988
429.228	109.43943
429.44	176.92467
429.652	155.83321
429.864	86.24649
430.076	71.48875
430.288	132.63502
430.5	147.39721
430.712	92.57157
430.924	134.74384
431.136	172.70621
431.348	128.41744
431.56	107.33087
431.772	128.41744
431.984	267.64093
432.196	79.92161
432.408	153.72418
432.62	219.11374
432.832	109.43943
433.044	138.96154
433.256	160.05133
433.468	235.99161
433.679	233.8818
433.891	210.67529
434.103	151.61516
434.315	217.0041
434.527	117.87389
434.739	206.45618
434.95	198.0182
435.162	238.10143
435.374	200.12766
435.586	276.08147
435.798	282.41208
436.009	284.52232
436.221	185.36184
436.433	223.33309
436.645	214.89448
436.856	278.19166
437.068	238.10143
437.28	252.87071
437.491	284.52232
437.703	318.28862
437.915	244.431
438.126	269.75104
438.338	231.77202
438.55	147.39721
438.761	320.39917
438.973	295.07378
439.184	261.31072
439.396	347.8379
439.608	242.32113
439.819	337.28419
440.031	366.83566
440.242	377.39057
440.454	301.40489
440.665	307.73615
440.877	463.95624
441.088	366.83566
441.3	352.0595
441.511	320.39917
441.723	301.40489
441.934	343.61636
442.146	394.2793
442.357	518.86497
442.569	381.61266
442.78	436.5057
442.991	349.94869
443.203	404.83529
443.414	419.61437
443.626	430.17133
443.837	421.72573
444.048	358.39204
444.26	396.39047
444.471	442.8402
444.682	413.28038
444.894	436.5057
445.105	461.84457
445.316	442.8402
445.528	398.50165
445.739	451.28643
445.95	527.31334
446.161	518.86497
446.373	504.08088
446.584	514.64087
446.795	561.10904
447.006	501.96892
447.217	520.97704
447.429	497.74505
447.64	537.87412
447.851	387.9459
448.062	523.08913
448.273	571.67092
448.484	565.33375
448.695	662.51631
448.907	491.40936
449.118	571.67092
449.329	616.03437
449.54	694.21183
449.751	474.51483
449.962	567.44613
450.173	567.44613
450.384	662.51631
450.595	588.57061
450.806	789.31309
451.017	641.38743
451.228	575.89576
451.439	664.62926
451.65	749.15665
451.861	683.64637
452.072	734.3631
452.283	827.35926
452.494	837.92817
452.705	780.85881
452.915	740.70313
453.126	696.32496
453.337	687.87252
453.548	907.68835
453.759	892.88998
453.97	882.31996
454.181	875.97805
454.391	1068.37849
454.602	952.08568
454.813	899.23209
455.024	1034.54595
455.235	867.52228
455.445	928.82952
455.656	990.14304
455.867	884.43395
456.078	1000.71491
456.288	981.68566
456.499	1045.11847
456.71	1076.83684
456.921	1076.83684
457.131	1169.8838
457.342	1032.43147
457.553	1165.65421
457.763	1136.04754
457.974	1203.72105
458.184	1222.75489
458.395	1419.44879
458.606	1267.16813
458.816	1303.12252
459.027	1332.73246
459.237	1307.35249
459.448	1404.64346
459.659	1406.7585
459.869	1364.45774
460.08	1451.17456
460.29	1506.16584
460.501	1643.64099
460.711	1630.95129
460.922	1618.26152
461.132	1525.2012
461.343	1652.10074
461.553	1582.30675
461.764	1848.77522
461.974	1639.4111
462.184	1702.85834
462.395	1893.18053
462.605	1893.18053
462.816	1859.34812
463.026	1840.31682
463.236	1781.10599
463.447	1865.69179
463.657	1922.78278
463.867	2229.30125
464.078	2252.54763
464.288	2203.94034
464.498	2239.86792
464.709	2330.73184
464.919	2277.90607
465.129	2425.80264
465.339	2311.71525
465.55	2457.4882
465.76	2339.18341
465.97	2151.1012
466.18	2430.02752
466.391	2845.94613
466.601	2603.2092
466.811	2837.50609
467.021	2725.65477
467.231	2854.38595
467.441	2567.31208
467.651	2883.92352
467.862	2987.2826
468.072	3252.89283
468.282	3139.091
468.492	3166.49211
468.702	3280.28233
468.912	3370.85777
469.122	3452.97964
469.332	3520.34133
469.542	3385.59957
469.752	3610.829
469.962	3516.13177
470.172	3812.72158
470.382	3665.5257
470.592	3882.08063
470.802	3869.47151
471.012	4022.83319
471.222	4018.63294
471.432	4152.99966
471.642	4014.43262
471.852	4408.89611
472.062	4140.40641
472.272	4446.62409
472.482	4417.28072
472.691	4792.12899
472.901	4633.06298
473.111	4614.21761
473.321	4746.09698
473.531	4915.52407
473.741	4848.60778
473.95	5226.79211
474.16	4940.61162
474.37	5291.48771
474.58	5297.74739
474.79	5554.2121
474.999	5349.90313
475.209	5205.91777
475.419	5608.37858
475.628	5670.85855
475.838	5704.17252
476.048	5814.48189
476.258	5862.33137
476.467	6159.55049
476.677	6178.2405
476.886	6429.33307
477.096	6375.40814
477.306	6522.62752
477.515	6452.14272
477.725	6566.14887
477.935	6667.65905
478.144	6707.00528
478.354	6601.37296
478.563	7027.68
478.773	7077.28431
478.982	7093.81622
479.192	7147.53504
479.401	7294.15234
479.611	7354.00635
479.82	7391.14786
480.03	7626.21467
480.239	7809.53931
480.449	7589.1174
480.658	8021.49575
480.868	8031.77936
481.077	8111.97422
481.287	8005.0409
481.496	8210.6337
481.705	8231.18198
481.915	8541.22412
482.124	8494.02748
482.333	8651.99444
482.543	8608.92358
482.752	8912.29791
482.961	8877.47107
483.171	9100.68402
483.38	8981.93617
483.589	9215.28207
483.799	9427.96738
484.008	9380.94657
484.217	9252.10586
484.426	9544.46041
484.636	9513.80939
484.845	9856.901
485.054	9875.26881
485.263	10199.57375
485.472	9938.52657
485.682	10330.01216
485.891	10120.0604
486.1	10224.03518
486.309	10423.73101
486.518	10627.37371
486.727	10655.8737
486.936	10818.68537
487.146	10733.2188
487.355	10700.65457
487.564	10867.51412
487.773	10973.28706
487.982	11054.63021
488.191	11316.84487
488.4	11389.9905
488.609	11160.35023
488.818	11479.3734
489.027	11570.76858
489.236	11692.59969
489.445	11771.77266
489.654	11785.98179
489.863	12143.10703
490.072	11940.22565
490.281	12175.56093
490.49	11995.01138
490.698	12321.58033
490.907	12487.83631
491.116	12702.68843
491.325	12427.01618
491.534	12502.02683
491.743	12439.18068
491.952	12362.13477
492.16	13134.22729
492.369	12929.63055
492.578	13083.58918
492.787	13261.82258
492.996	12978.25221
493.204	13103.84478
493.413	13403.57507
493.622	13494.69134
493.831	13158.53254
494.039	13504.8149
494.248	13247.6462
494.457	13865.15829
494.665	13871.23066
494.874	13751.80268
495.083	13853.01348
495.291	14298.26541
495.5	14126.24917
495.709	14128.27297
495.917	14164.70112
496.126	14164.70112
496.335	14106.01099
496.543	14524.90291
496.752	14273.98161
496.96	14613.93434
497.169	14640.23865
497.377	14802.10787
497.586	14761.64107
497.794	14887.08727
498.003	14549.18444
498.211	14965.99586
498.42	15006.46156
498.628	15222.95182
498.837	15156.18388
499.045	15148.0908
499.254	15200.69584
499.462	15265.44057
499.671	15593.21616
499.879	15463.723
500.087	15945.29391
500.296	15761.15735
500.504	15854.23615
500.713	15925.05863
500.921	15916.96455
501.129	15923.03511
501.338	16006.00055
501.546	16337.88813
501.754	16034.33075
501.962	16256.93574
502.171	16384.43712
502.379	16335.86429
502.587	16222.53184
502.795	16540.2827
503.004	16127.41774
503.212	16661.72959
503.42	16524.09038
503.628	17036.24521
503.837	16647.56037
504.045	16643.51204
504.253	16706.26217
504.461	16795.33076
504.669	17147.60504
504.877	17070.66463
505.085	17145.58024
505.294	17206.32548
505.502	17090.91171
505.71	17309.5984
505.918	17344.02442
506.126	18022.60912
506.334	17429.08073
506.542	17828.11054
506.75	17258.97346
506.958	17753.15606
507.166	17753.15606
507.374	17826.08468
507.582	17710.61639
507.79	17805.82629
507.998	17868.62843
508.206	18318.47243
508.414	18164.45166
508.622	18146.21377
508.83	18089.47554
509.037	18263.75207
509.245	18022.60912
509.453	18310.36554
509.661	18306.31211
509.869	18652.93475
510.077	18115.81793
510.285	18656.98948
510.492	18448.1909
510.7	18600.22463
510.908	18117.8443
511.116	18541.43568
511.324	18707.67497
511.531	18845.55199
511.739	18482.64998
511.947	18766.47323
512.155	19092.96596
512.362	18768.50081
512.57	18652.93475
512.778	18764.44564
512.985	18796.88742
513.193	18997.64363
513.401	19005.75582
513.608	19441.88221
513.816	19303.92402
514.024	19119.3333
514.231	19050.37403
514.439	19303.92402
514.646	19508.83942
514.854	19303.92402
515.061	19236.9806
515.269	19693.50252
515.477	19529.13038
515.684	19821.36651
515.892	19563.62596
516.099	19945.18719
516.307	19843.69367
516.514	19876.17046
516.722	20103.53808
516.929	20107.59869
517.136	19920.82779
517.344	19999.99807
517.551	19902.55863
517.759	20205.05852
517.966	20462.96766
518.173	20203.02801
518.381	20416.25469
518.588	20373.60565
518.796	20838.78276
519.003	21009.46995
519.21	20913.96282
519.418	20676.25063
519.625	20625.4648
519.832	20867.2286
520.039	20873.32425
520.247	20895.67526
520.454	20865.19673
520.661	21253.35892
520.868	21100.92144
521.076	21674.20353
521.283	21208.64156
521.49	21092.79209
521.697	21186.28362
521.904	21576.60123
522.112	21226.93479
522.319	21625.40125
522.526	21428.18185
522.733	21729.10879
522.94	21476.97493
523.147	21537.9695
523.354	21470.87567
523.561	22058.59945
523.768	22129.79881
523.975	22089.1129
524.183	21853.16444
524.39	22306.79987
524.597	22255.93463
524.804	22365.80643
525.011	22060.63365
525.218	22445.16489
525.425	22345.45899
525.632	22477.7238
525.838	22607.96859
526.045	22632.39111
526.252	22353.59792
526.459	22823.71824
526.666	22856.2876
526.873	22905.14329
527.08	22801.32731
527.287	22913.28609
527.494	22650.70833
527.701	23285.87632
527.907	23289.94895
528.114	23047.65014
528.321	23141.30638
528.528	23015.07569
528.735	23212.57121
528.941	23334.7487
529.148	23316.42134
529.355	23373.44063
529.562	23239.04202
529.768	23536.36643
529.975	23432.49893
530.182	24035.44657
530.388	23479.34014
530.595	23685.05339
530.802	23593.39514
531.008	24004.88565
531.215	23976.36269
531.422	23890.79716
531.628	24006.92302
531.835	23998.77354
532.042	24139.35842
532.248	24332.93864
532.455	24434.83261
532.661	24121.02051
532.868	24125.09558
533.074	24518.39049
533.281	24365.544
533.487	24296.25842
533.694	24159.73413
533.9	24838.39491
534.107	24288.10738
534.313	25111.5661
534.52	24783.35802
534.726	25172.7294
534.933	25021.86356
535.139	24860.81784
535.345	25095.25623
535.552	25229.81694
535.758	25003.51585
535.965	24987.20694
536.171	25429.63653
536.377	25399.05059
536.584	25274.67262
536.79	25435.75377
536.996	25729.40284
537.203	25354.19205
537.409	25350.11406
537.615	25839.53166
537.821	25484.69239
538.028	26120.99636
538.234	25602.96555
538.44	25823.21593
538.646	25623.35815
538.853	25890.51907
539.059	25517.3188
539.265	26104.67864
539.471	26110.79777
539.677	26202.58664
539.883	26343.33623
540.09	26461.65355
540.296	26451.45357
540.502	26667.7016
540.708	26318.85747
540.914	26745.22867
541.12	26463.69355
541.326	26761.55043
541.532	26792.15399
541.738	26932.93458
541.944	26849.28152
542.15	27059.43885
542.356	27155.34077
542.562	27426.73869
542.768	26932.93458
542.974	27351.23471
543.18	27128.81441
543.386	27094.12643
543.592	27634.89367
543.798	27810.40669
544.004	27390.00681
544.21	27226.75903
544.415	27324.7067
544.621	27775.71156
544.827	27730.81249
545.033	27843.06124
545.239	27681.83234
545.445	28104.30819
545.651	27685.91399
545.856	28220.65064
546.062	27765.50718
546.268	28020.6255
546.474	27677.75069
546.679	27561.42574
546.885	27451.22684
547.091	28234.93855
547.297	27894.08456
547.502	27981.84636
547.708	27987.96936
547.914	28349.2438
548.119	28447.22241
548.325	28120.63674
548.531	27673.66904
548.736	28414.5626
548.942	28549.28608
549.147	28279.84378
549.353	29037.18666
549.559	28724.84177
549.764	28941.23499
549.97	28520.70799
550.175	28269.638
550.381	28900.40519
550.586	28328.8319
550.792	29133.14062
550.997	29231.13853
551.203	28726.88316
551.408	29055.56065
551.614	28841.20271
551.819	28951.4425
552.025	28947.3595
552.23	29345.47245
552.435	29288.30508
552.641	29668.07528
552.846	29755.87688
553.052	29951.9064
553.257	29943.73829
553.462	29870.22619
553.668	29717.08058
553.873	30021.33599
554.078	29896.77206
554.283	29904.94006
554.489	30331.74346
554.694	30250.05464
554.899	29978.45285
555.105	30235.75929
555.31	30156.11485
555.515	29988.66307
555.72	30527.80461
555.925	30072.388
556.131	30625.83954
556.336	30100.97743
556.541	30525.76225
556.746	30337.8702
556.951	30466.53427
557.156	30301.10992
557.361	30574.77931
557.567	30793.32285
557.772	30821.91847
557.977	30672.81567
558.182	30883.19569
558.387	30958.77266
558.592	31097.67597
558.797	31444.96482
559.002	30946.5168
559.207	31406.14792
559.412	30975.11388
559.617	30527.80461
559.822	31508.29894
560.027	31083.37679
560.232	31189.60103
560.437	31077.24859
560.642	30838.25894
560.847	30768.81254
561.051	31193.68666
561.256	31146.70229
561.461	31473.56713
561.666	31246.80039
561.871	31357.11689
562.076	31295.82938
562.281	31477.6532
562.485	31214.1149
562.69	31455.1799
562.895	31197.7723
563.1	31690.13816
563.305	30740.21742
563.509	31250.88611
563.714	31177.34418
563.919	31547.11741
564.123	31649.27422
564.328	31561.41911
564.533	31947.59763
564.737	31232.50044
564.942	31342.81634
565.147	32268.4432
565.351	32049.77239
565.556	31708.52717
565.761	31871.99141
565.965	32305.23128
566.17	32252.09316
566.374	32211.21865
566.579	32391.07286
566.784	31959.85835
566.988	32395.16065
567.193	32433.9951
567.397	31943.51074
567.602	32315.45032
567.806	32139.69026
568.011	32474.87434
568.215	32509.62241
568.42	32104.9488
568.624	32922.56377
568.828	33035.0161
569.033	32922.56377
569.237	32673.1517
569.442	32724.25772
569.646	32507.57839
569.85	32932.78638
570.055	33137.25254
570.259	33092.26767
570.463	33623.99662
570.668	32990.03421
570.872	32953.2318
571.076	33131.11816
571.281	33321.29572
571.485	33157.70065
571.689	32881.67398
571.893	33077.95458
572.098	33255.85549
572.302	33255.85549
572.506	33705.81943
572.71	33382.64864
572.914	33212.91195
573.119	33112.71517
573.323	33356.06205
573.527	33425.59728
573.731	33626.04213
573.935	33501.27194
574.139	34145.7097
574.343	33431.73291
574.547	34057.71864
574.751	33750.8242
574.955	33769.2357
575.159	33583.08714
575.364	33644.45184
575.568	34022.93332
575.772	33450.13996
575.976	33578.99626
576.18	33538.08816
576.383	33793.78479
576.587	34405.63073
576.791	33585.13258
576.995	34010.6564
577.199	33791.73901
577.403	33773.32718
577.607	33971.78031
577.811	34350.36674
578.015	34014.74869
578.219	34274.63921
578.422	34145.7097
578.626	34391.30276
578.83	34305.33892
579.034	34360.6006
579.238	34162.08088
579.442	34774.13302
579.645	34145.7097
579.849	34837.61114
580.053	34800.75237
580.257	34583.72341
580.46	34810.99077
580.664	34862.18446
580.868	34278.73245
581.071	34571.44017
581.275	34720.89652
581.479	34645.14187
581.682	34567.34579
581.886	34575.53457
582.09	34845.80218
582.293	35208.32826
582.497	35503.37559
582.7	34894.94987
582.904	35177.60003
583.107	34845.80218
583.311	34794.60937
583.515	35591.50042
583.718	35425.50577
583.922	35239.05757
584.125	35347.64328
584.329	35374.27963
584.532	35556.65922
584.735	36050.73101
584.939	35433.70225
585.142	35970.75551
585.346	35452.14461
585.549	35991.26122
585.753	35579.20335
585.956	35761.62952
586.159	35778.02947
586.363	35712.43176
586.566	36124.56239
586.769	35841.58261
586.973	35704.23243
587.176	36235.32381
587.379	36348.15446
587.582	36346.10283
587.786	36358.41271
587.989	36089.69663
588.192	36352.25774
588.395	36553.34919
588.599	36522.56594
588.802	35964.60391
589.005	35935.89712
589.208	36520.51378
589.411	36458.95179
589.615	36512.30518
589.818	36253.78575
590.021	36694.97084
590.224	36438.43239
590.427	36805.82704
590.63	36637.49744
590.833	36335.84476
591.036	36272.24818
591.239	36836.6239
591.442	36744.23786
591.645	36793.50872
591.848	37157.00318
592.051	37269.99855
592.254	37013.22224
592.457	36929.02365
592.66	37204.25313
592.863	37993.71145
593.066	37707.81154
593.269	37748.93869
593.472	37892.9088
593.675	37950.50791
593.878	37401.51196
594.081	37631.7346
594.284	37438.5056
594.486	37948.45069
594.689	37600.89564
594.892	37029.65259
595.095	37491.94517
595.298	37450.83736
595.5	37621.45475
595.703	37633.79059
595.906	37520.72245
596.109	37440.56088
596.311	37413.84291
596.514	37498.11161
596.717	37857.94101
596.92	38568.05496
597.122	38285.94609
597.325	38193.31811
597.528	38008.11343
597.73	38555.69636
597.933	38191.2599
598.136	38306.53244
598.338	38502.14613
598.541	38421.83201
598.743	38310.64981
598.946	38086.3027
599.148	38281.82892
599.351	37991.65405
599.554	38516.56291
599.756	37917.59335
599.959	38895.67694
600.161	38780.26163
600.363	38666.93541
600.566	38718.44391
600.768	39095.66236
600.971	39044.11119
601.173	38860.63707
601.376	39386.52432
601.578	38840.02664
601.78	39456.69055
601.983	38910.10591
602.185	39013.18335
602.388	39196.72008
602.59	39196.72008
602.792	39322.55925
602.995	39141.03235
603.197	38477.43267
603.399	39081.22743
603.601	39054.42095
603.804	38827.66083
604.006	38918.35124
604.208	38891.55446
604.41	38837.96565
604.613	38811.1736
604.815	39021.43056
605.017	39559.89723
605.219	38856.51491
605.421	38833.84369
605.623	39054.42095
605.826	39244.16336
606.028	38753.47294
606.23	39165.78158
606.432	39809.76288
606.634	39820.09116
606.836	39209.0961
607.038	39458.75443
607.24	38920.41259
607.442	39324.62249
607.644	38928.65811
607.846	39180.21928
608.048	39268.91843
608.25	39528.93258
608.452	39675.51883
608.654	40020.5118
608.856	39171.96911
609.058	39167.84408
609.26	39365.88939
609.462	39370.01629
609.664	39840.74851
609.866	39382.39726
610.067	39508.29074
610.269	39448.4351
610.471	39314.30638
610.673	39873.80244
610.875	39880.00035
611.077	39497.9702
611.278	39301.92738
611.48	39528.93258
611.682	39229.72356
611.884	40138.33141
612.085	39603.25158
612.287	39400.96937
612.489	39687.90876
612.69	39921.32217
612.892	39650.74007
613.094	39762.25613
613.295	39062.66892
613.497	39448.4351
613.699	39592.92871
613.9	39960.58181
614.102	40156.9377
614.304	39706.49435
614.505	39378.27023
614.707	39863.4728
614.908	39613.57471
615.11	39741.60274
615.311	40196.22053
615.513	39444.30743
615.714	39535.12533
615.916	39840.74851
616.117	39696.16892
616.319	39675.51883
616.52	39778.7796
616.722	39975.04686
616.923	39956.44904
617.124	40061.84805
617.326	39151.34436
617.527	39611.51006
617.729	39081.22743
617.93	39270.98141
618.131	39890.33041
618.333	39811.82851
618.534	40485.79471
618.735	40392.69372
618.937	40051.51359
619.138	39900.66073
619.339	39886.19835
619.54	40161.07255
619.742	40146.60077
619.943	39753.99465
620.144	39308.11683
620.345	39935.78581
620.546	39231.78636
620.748	40028.77871
620.949	39621.83339
621.15	39380.33374
621.351	39557.83285
621.552	39716.82004
621.753	39650.74007
621.954	40183.815
622.155	39147.21953
622.356	39638.35125
622.558	39491.77799
622.759	39964.71463
622.96	39634.22172
623.161	39477.32987
623.362	39328.749
623.563	39954.38267
623.764	39944.05097
623.965	40262.38994
624.166	40349.25428
624.366	39975.04686
624.567	39813.89416
624.768	39500.03429
624.969	39390.65143
625.17	39576.41265
625.371	39863.4728
625.572	39702.36414
625.773	39458.75443
625.973	39871.73649
626.174	39902.72683
626.375	39772.58322
626.576	40552.0136
626.777	40276.86598
626.977	39652.80491
627.178	40287.20635
627.379	39853.14342
627.58	40055.64734
627.78	39615.63936
627.981	39791.17263
628.182	40094.92013
628.382	39910.99132
628.583	40299.61514
628.784	40262.38994
628.984	40175.54487
629.185	40481.65641
629.386	39983.31283
629.586	40256.18608
629.787	40161.07255
629.987	40237.5751
630.188	40268.59389
630.388	39929.58704
630.589	39528.93258
630.79	39906.85905
630.99	40351.32271
631.191	40487.86388
631.391	41117.41812
631.591	40223.10051
631.792	40101.12145
631.992	40239.64294
632.193	40738.31611
632.393	40061.84805
632.594	40305.81969
632.794	40632.73343
632.994	40943.35579
633.195	40409.24337
633.395	40492.00225
633.595	40427.86256
633.796	40698.97793
633.996	41150.58225
634.196	40698.97793
634.397	40843.9285
634.597	40351.32271
634.797	40984.79171
634.997	40870.85409
635.198	41065.60521
635.398	40270.6619
635.598	40020.5118
635.798	40142.46607
635.998	40411.31212
636.199	40473.37994
636.399	40560.29177
636.599	39824.22255
636.799	40502.34836
636.999	39683.77874
637.199	39857.27514
637.399	40196.22053
637.599	39968.84749
637.799	40080.45076
637.999	40806.65013
638.199	40411.31212
638.399	40403.03717
638.599	40429.93142
638.799	40771.4462
638.999	41214.84638
639.199	40995.15142
639.399	40912.28189
639.599	40655.50366
639.799	40616.17411
639.999	40543.73561
640.199	40438.20695
640.399	40396.83107
640.599	39663.12926
640.799	41476.1671
640.998	40545.80509
641.198	40427.86256
641.398	40384.41917
641.598	40997.2234
641.798	40887.42466
641.997	40518.90272
642.197	40549.94408
642.397	40578.9183
642.597	40991.0075
642.796	40986.86363
642.996	40719.68172
643.196	40742.45721
643.395	40858.42665
643.595	41055.24351
643.795	41474.09238
643.994	41173.38435
644.194	41341.33499
644.394	41351.70489
644.593	41038.6654
644.793	41204.48042
644.992	41003.4394
645.192	41393.18747
645.392	41250.09284
645.591	41314.37467
645.791	41212.77316
645.99	40785.94153
646.19	41003.4394
646.389	40941.28411
646.589	41017.94382
646.788	41218.99284
646.987	41561.24136
647.187	41652.56338
647.386	41496.91504
647.586	41393.18747
647.785	40953.71433
647.984	41926.67264
648.184	41600.67296
648.383	41469.94296
648.582	41289.49002
648.782	41658.79075
648.981	41337.18712
649.18	41318.52228
649.38	41563.3166
649.579	42134.47599
649.778	42219.71189
649.977	42681.60734
650.177	42692.01774
650.376	42119.92565
650.575	41409.78185
650.774	42136.55466
650.973	42028.48055
651.173	40810.79199
651.372	40794.22483
651.571	41596.52206
651.77	41102.90977
651.969	41227.28591
652.168	41270.82766
652.367	41557.09092
652.566	41422.22814
652.765	41745.98548
652.964	41810.35748
653.163	42049.26139
653.362	41536.33946
653.561	41486.54092
653.76	41741.83286
653.959	41750.13816
654.158	41534.26438
654.357	41216.9196
654.556	40955.78607
654.755	41662.94238
654.954	41442.97293
655.153	40850.14193
655.352	41501.06477
655.551	41700.30934
655.749	41968.22325
655.948	41654.63916
656.147	41534.26438
656.346	41571.61767
656.545	41629.73065
656.743	40922.63957
656.942	41308.15335
657.141	41725.22286
657.34	41810.35748
657.538	42257.13928
657.737	41903.82193
657.936	42271.69549
658.135	41200.33413
658.333	41621.42821
658.532	42061.73049
658.731	42026.40254
658.929	41646.33613
659.128	41627.65502
659.326	41710.68976
659.525	42552.54543
659.724	41974.45628
659.922	42090.82683
660.121	42026.40254
660.319	41552.94053
660.518	41604.82392
660.716	41752.21451
660.915	42124.08283
661.113	42302.88948
661.312	41945.36979
661.51	42490.11404
661.709	42550.4642
661.907	42481.79073
662.105	42009.77888
662.304	41785.43788
662.502	42063.80872
662.701	42090.82683
662.899	41555.01572
663.097	41876.8185
663.296	41951.6024
663.494	41912.1311
663.692	41799.97409
663.891	41528.03922
664.089	41498.9899
664.287	41648.41186
664.485	41839.43261
664.684	42221.79108
664.882	41129.85432
665.08	41528.03922
665.278	41579.91894
665.476	41642.18468
665.675	41611.05043
665.873	41982.76715
666.071	41789.59102
666.269	41802.05075
666.467	41204.48042
666.665	41192.04167
666.863	41146.43657
667.061	41057.31583
667.259	41380.74219
667.457	41847.74024
667.655	41571.61767
667.853	41505.21455
668.051	41330.9654
668.249	40717.61129
668.447	40980.64791
668.645	41337.18712
668.843	41449.1966
669.041	41136.07257
669.239	41071.82237
669.437	41669.16993
669.635	41478.24184
669.833	40562.36134
670.031	40877.06797
670.229	40765.23408
670.426	41386.96477
670.624	41424.30257
670.822	41115.34546
671.02	41187.89552
671.218	41889.28136
671.415	40964.07317
671.613	41679.54943
671.811	41671.24581
672.009	42217.63271
672.206	41887.20418
672.404	41192.04167
672.602	41003.4394
672.799	41152.65511
672.997	41845.66331
673.195	41665.01822
673.392	41924.59524
673.59	41841.5095
673.788	40593.40624
673.985	40746.59836
674.183	40843.9285
674.38	41243.87262
674.578	41185.82246
674.775	41370.37145
674.973	41227.28591
675.17	40962.00138
675.368	40235.50727
675.565	40864.64032
675.763	40605.82491
675.96	40719.68172
676.158	41057.31583
676.355	40879.13928
676.553	41814.51092
676.75	41005.51143
676.947	41115.34546
677.145	40609.96456
677.342	40552.0136
677.539	40487.86388
677.737	40972.36045
677.934	40438.20695
678.131	41513.51426
678.329	41171.31137
678.526	41156.80086
678.723	41318.52228
678.92	41472.01766
679.118	40980.64791
679.315	40717.61129
679.512	41007.58346
679.709	40864.64032
679.906	40500.27911
680.104	40839.78627
680.301	40361.66505
680.498	40185.88256
680.695	40415.44967
680.892	40163.13999
681.089	40442.34478
681.286	40132.12951
681.483	39880.00035
681.68	39915.12363
681.877	40136.2641
682.075	40187.95013
682.272	39723.01557
682.469	40107.32287
682.665	39303.99052
682.862	39541.31817
683.059	39628.02751
683.256	39508.29074
683.453	39324.62249
683.65	39347.31879
683.847	39390.65143
684.044	39473.20192
684.241	40119.726
684.438	39985.37935
684.635	39112.16
684.831	39886.19835
685.028	39654.86976
685.225	39791.17263
685.422	39285.42259
685.619	39599.1224
685.815	39332.87555
686.012	39731.27643
686.209	39413.35122
686.405	39776.71413
686.602	39615.63936
686.799	38860.63707
686.996	39324.62249
687.192	39299.86424
687.389	39370.01629
687.586	39169.90659
687.782	39143.09474
687.979	39163.7191
688.175	38514.50334
688.372	38792.62617
688.568	38549.51718
688.765	38829.72177
688.962	39044.11119
689.158	38889.49324
689.355	38930.71951
689.551	39153.40679
689.748	39161.65662
689.944	38699.90019
690.14	38996.68937
690.337	39442.24361
690.533	39716.82004
690.73	39009.05979
690.926	39334.93884
691.123	38368.29667
691.319	38475.37327
691.515	39260.66658
691.712	38390.94552
691.908	38508.3247
692.104	38675.17639
692.301	38652.51405
692.497	38442.4241
692.693	38683.41751
692.889	38763.7761
693.086	38730.80679
693.282	38308.59112
693.478	37966.96597
693.674	37890.85181
693.87	38425.95036
694.067	38580.41389
694.263	38619.55261
694.459	38232.42559
694.655	38718.44391
694.851	38358.00209
695.047	38158.3298
695.243	38736.98836
695.439	38170.67833
695.635	37584.4489
695.831	38438.30561
696.027	37617.34287
696.224	37528.9448
696.42	37995.76885
696.615	38351.82545
696.811	38300.35644
697.007	38382.70945
697.203	37897.02281
697.399	37354.24584
697.595	37083.05436
697.791	36996.79233
697.987	37126.19005
698.183	37862.05475
698.379	37368.63076
698.575	37958.73688
698.77	37989.59667
698.966	38127.45978
699.162	37773.6165
699.358	37341.91619
699.554	37200.14428
699.749	37319.31253
699.945	37085.10837
700.141	37095.37852
700.337	37459.05868
700.532	37426.17412
700.728	37794.18221
700.924	37642.01464
701.119	37387.1262
701.315	37280.27195
701.511	37107.70294
701.706	37689.30535
701.902	36972.1483
702.097	36711.39276
702.293	36647.76017
702.489	36789.40267
702.684	36344.0512
702.88	36629.28738
703.075	36965.98745
703.271	37007.06097
703.466	36775.0317
703.662	36857.15598
703.857	36805.82704
704.053	37163.166
704.248	37167.27459
704.443	36881.79538
704.639	36651.86531
704.834	36824.30497
705.03	36690.86542
705.225	36848.94307
705.42	36701.12901
705.616	36713.44552
705.811	36877.68875
706.006	37269.99855
706.202	36986.52386
706.397	36259.93984
706.592	37017.32978
706.787	37358.35578
706.983	37193.98108
707.178	37931.99321
707.373	36699.07628
707.568	36514.35732
707.763	36143.02142
707.959	36764.76692
708.154	36885.90205
708.349	36575.92448
708.544	36758.60813
708.739	36580.02916
708.934	37177.54617
709.129	36832.51756
709.324	36660.07566
709.519	37021.43736
709.714	36742.18499
709.909	36931.07714
710.104	35716.53145
710.299	35726.78078
710.494	36249.68305
710.689	36259.93984
710.884	36102.00199
711.079	36364.56773
711.274	35780.07949
711.469	36030.22364
711.664	35782.12951
711.859	35946.14942
712.054	36231.22123
712.249	36011.7675
712.443	35868.23551
712.638	35909.24182
712.833	35685.78427
713.028	35866.18525
713.223	35761.62952
713.417	36015.86882
713.612	35593.54995
713.807	35876.43659
714.002	35439.84966
714.196	35554.60978
714.391	35405.01494
714.586	35544.36268
714.78	35542.31328
714.975	35812.88053
715.17	35069.03553
715.364	34931.81232
715.559	35390.67165
715.754	34772.08541
715.948	35515.6715
716.143	35448.04628
716.337	35023.97489
716.532	35685.78427
716.726	35417.30938
716.921	34909.28509
717.115	34931.81232
717.31	35013.73414
717.504	35216.52263
717.699	35064.93901
717.893	35175.55152
718.088	35159.16361
718.282	35042.40851
718.476	35150.96977
718.671	35099.75999
718.865	35073.13206
719.059	35419.35847
719.254	34847.84995
719.448	34360.6006
719.642	35042.40851
719.837	34661.52076
720.031	35103.85666
720.225	34620.57404
720.419	35038.31212
720.614	34452.70974
720.808	34872.42352
721.002	34121.15338
721.196	34526.40288
721.39	34675.85252
721.585	34925.66848
721.779	34520.26158
721.973	34419.95891
722.167	33984.05683
722.361	33759.00705
722.555	34207.10285
722.749	33824.47183
722.943	33943.13559
723.137	33462.41146
723.331	33869.48086
723.525	34317.61905
723.719	33971.78031
723.913	34117.06071
724.107	33928.81348
724.301	34483.41458
724.495	34471.13254
724.689	34309.43228
724.883	34078.18108
725.077	34153.89526
725.271	33536.04279
725.465	33857.20551
725.659	33701.72817
725.853	33658.77068
726.046	33439.91379
726.24	33169.96965
726.434	33063.64162
726.628	33546.26968
726.822	33448.09472
727.015	33513.54391
727.209	32799.89745
727.403	33900.16979
727.596	33636.26971
727.79	34288.96563
727.984	33918.58351
728.177	34121.15338
728.371	33407.19056
728.565	33609.67816
728.758	33695.5913
728.952	33750.8242
729.146	33593.31439
729.339	33734.45864
729.533	33912.44557
729.726	33752.86991
729.92	33456.2757
730.113	33619.90561
730.307	33840.83856
730.5	33163.83514
730.694	32728.34627
730.887	32534.15085
731.081	33589.22348
731.274	33169.96965
731.468	32399.24845
731.661	32812.16367
731.854	32822.38559
732.048	32726.30199
732.241	33178.14904
732.435	33656.72512
732.628	33589.22348
732.821	33961.54997
733.014	33390.82924
733.208	33546.26968
733.401	33251.76558
733.594	32990.03421
733.788	33026.83748
733.981	33153.61101
734.174	33221.09157
734.367	33225.1814
734.56	33354.01695
734.754	33347.88166
734.947	33214.95685
735.14	33114.75994
735.333	32754.92207
735.526	32530.06275
735.719	32568.90005
735.912	32446.25878
736.105	32593.42929
736.298	32693.59393
736.491	32505.53437
736.684	32495.3143
736.877	32258.22441
737.07	32654.7539
737.263	32759.01069
737.456	33145.43175
737.649	32603.64991
737.842	33090.22293
738.035	32959.36548
738.228	32957.32091
738.421	32975.72206
738.614	32806.03055
738.807	32953.2318
739	32748.78915
739.192	32217.34978
739.385	32575.03233
739.578	32955.27636
739.771	33237.45096
739.964	32548.45926
740.156	33229.27125
740.349	32887.80738
740.542	32832.60757
740.735	32174.43231
740.927	32687.46123
741.12	32851.0073
741.313	32411.5119
741.505	32775.36527
741.698	32454.43461
741.891	32910.29672
742.083	33186.32848
742.276	32967.54375
742.468	33088.1782
742.661	32411.5119
742.854	32260.26816
743.046	32280.70582
743.239	32059.99013
743.431	32583.20873
743.624	32039.55469
743.816	32346.10775
744.009	32094.73084
744.201	32237.78699
744.393	32035.46763
744.586	31896.51206
744.778	31927.16326
744.971	32133.55937
745.163	32423.77543
745.355	32068.16437
745.548	31690.13816
745.74	32000.7279
745.932	32268.4432
746.125	31898.55546
746.317	31706.48394
746.509	31508.29894
746.702	31669.70611
746.894	31585.93649
747.086	31087.46226
747.278	31216.15773
747.471	31118.1035
747.663	31559.376
747.855	31824.99424
748.047	31737.13257
748.239	31892.42527
748.431	31397.97602
748.623	31777.99804
748.815	31743.26235
749.008	31777.99804
749.2	31796.38774
749.392	31250.88611
749.584	30789.23779
749.776	30652.39118
749.968	31081.33406
750.16	30971.02856
750.352	31455.1799
750.544	31067.03496
750.736	31107.88972
750.928	31459.26594
751.12	31126.27456
751.311	30950.60208
751.503	31109.93247
751.695	31022.0954
751.887	30290.89881
752.079	30907.70693
752.271	30640.13655
752.463	30889.32348
752.654	30791.28032
752.846	31161.0018
753.038	30554.35544
753.23	31056.82136
753.421	30797.40792
753.613	30466.53427
753.805	30178.57849
753.997	30056.05127
754.188	30286.81437
754.38	29862.05827
754.572	29745.66729
754.763	29813.05111
754.955	29684.41031
755.146	29860.01629
755.338	29735.45773
755.53	29992.74717
755.721	30037.67255
755.913	29925.36013
756.104	29949.86437
756.296	30509.42339
756.487	29976.41081
756.679	29821.21892
756.87	30047.88294
757.062	29772.21229
757.253	30188.78928
757.445	29374.05645
757.636	29521.06311
757.827	29425.09981
758.019	29757.91881
758.21	29759.96073
758.401	29541.48113
758.593	29455.72614
758.784	29543.52294
758.975	29286.2634
759.167	29886.56209
759.358	29674.20091
759.549	29357.72271
759.74	29533.31391
759.932	29406.72412
760.123	28965.73307
760.314	29057.6022
760.505	28637.06296
760.696	28545.20349
760.888	28537.0383
761.079	28447.22241
761.27	28655.43511
761.461	28626.85624
761.652	29129.05743
761.843	28610.52556
762.034	28447.22241
762.225	28265.55569
762.416	28126.75996
762.607	27987.96936
762.798	28190.03386
762.989	28239.02082
763.18	28575.82307
763.371	27947.14959
763.562	28257.3911
763.753	28087.97971
763.944	28604.40157
764.135	28079.8155
764.326	27987.96936
764.517	27859.38862
764.708	28179.82832
764.899	27563.4665
765.089	27379.80358
765.28	27979.80537
765.471	27771.6298
765.662	26990.06488
765.853	27200.23206
766.043	26667.7016
766.234	26771.75158
766.425	26545.2949
766.615	27088.00507
766.806	27249.20511
766.997	27224.71849
767.187	27279.81365
767.378	27412.45402
767.569	27032.91332
767.759	27492.04083
767.95	26922.73286
768.141	27024.75166
768.331	27455.30822
768.522	27096.16689
768.712	27498.16297
768.903	27365.51912
769.093	26959.45922
769.284	26467.77356
769.474	26602.41734
769.665	26373.93501
769.855	26981.90334
770.046	26718.706
770.236	26108.75806
770.426	26749.3091
770.617	26902.32952
770.807	26802.35525
770.998	27206.35365
771.188	27026.79207
771.378	26924.7732
771.569	27094.12643
771.759	26635.05927
771.949	26455.53356
772.139	26369.85516
772.33	25447.98832
772.52	25864.00547
772.71	26000.65581
772.9	25839.53166
773.09	25898.67717
773.281	26004.73505
773.471	25992.49735
773.661	25843.61061
773.851	25810.97921
774.041	25870.12397
774.231	25466.34027
774.421	25172.7294
774.611	25201.27296
774.802	25472.45763
774.992	25136.03118
775.182	25286.90617
775.372	25566.25937
775.562	25246.12797
775.752	25089.14006
775.942	24966.821
776.131	25184.9623
776.321	24924.01127
776.511	24801.70346
776.701	24779.28129
776.891	24907.70307
777.081	24934.20397
777.271	25162.53538
777.461	25362.34808
777.651	25109.52736
777.84	24824.12592
778.03	24948.47385
778.22	24854.70247
778.41	25101.37241
778.599	24979.05253
778.789	25178.84584
778.979	25019.82492
779.169	24828.20276
779.358	24606.02896
779.548	24652.90725
779.738	24797.62668
779.927	24799.66507
780.117	25017.78628
780.307	24630.48703
780.496	24640.678
780.686	24489.85804
780.875	24294.22066
781.065	24253.46593
781.254	24092.49532
781.444	24110.83288
781.633	23911.16945
781.823	23984.51205
782.012	23680.97956
782.202	24145.4711
782.391	23888.75994
782.581	24212.71227
782.77	23583.21126
782.96	24047.67112
783.149	23522.10963
783.338	23919.31844
783.528	23935.61657
783.717	24412.41537
783.906	24392.03634
784.096	23691.16416
784.285	23903.0205
784.474	23703.38577
784.663	23860.23927
784.853	23589.32158
785.042	23499.7064
785.231	23379.54999
785.42	23033.39871
785.61	23155.55903
785.799	22858.32322
785.988	22799.29179
786.177	22302.73057
786.366	22679.20235
786.555	22526.56388
786.744	22850.18078
786.933	23023.21922
787.122	23599.5055
787.312	23340.85787
787.501	22941.78633
787.69	22638.49681
787.879	22522.4938
788.068	22536.73916
788.257	22050.46267
788.445	22139.97053
788.634	22353.59792
788.823	22349.52845
789.012	22152.17671
789.201	22074.87318
789.39	22237.62371
789.579	22198.9683
789.768	22479.75876
789.957	22276.28045
790.145	22225.4166
790.334	22601.86304
790.523	22491.96861
790.712	22587.61688
790.9	22323.07724
791.089	22139.97053
791.278	22469.58398
791.467	22331.21601
791.655	22473.65388
791.844	22233.55466
792.033	22282.38427
792.221	21552.20208
792.41	22270.17667
792.599	21525.7703
792.787	21863.33357
792.976	22009.77969
793.164	21739.27675
793.353	21741.31035
793.541	21875.53666
793.73	21922.31643
793.918	21889.77377
794.107	21562.36832
794.295	21566.43485
794.484	21712.84027
794.672	21399.72028
794.861	21291.98003
795.049	21147.6665
795.238	21373.29238
795.426	21509.50492
795.614	21131.40711
795.803	21039.95286
795.991	21196.44626
796.179	21375.32528
796.368	21184.2511
796.556	20725.00748
796.744	20389.85268
796.932	20649.84168
797.121	20339.08159
797.309	20633.59036
797.497	21265.5549
797.685	20901.77108
797.874	20546.2441
798.062	20310.65092
798.25	20420.3166
798.438	20759.54503
798.626	20810.33772
798.814	21100.92144
799.002	21194.41372
799.19	20978.98797
799.378	20584.83801
799.566	20765.64002
799.755	20454.8435
799.943	20830.65552
800.131	20905.83498
800.318	20907.86693
800.506	20976.95587
800.694	20601.08853
800.882	20568.58776
801.07	20515.7763
801.258	20361.42055
801.446	20619.37068
801.634	20168.50995
801.822	20448.75043
802.01	20540.15047
802.197	20680.31361
802.385	20322.83539
802.573	20578.74413
802.761	20377.66738
802.949	20647.81025
803.136	20113.68965
803.324	20414.22374
803.512	20544.21289
803.699	20674.21915
803.887	20617.33931
804.075	20422.34756
804.262	20420.3166
804.45	20676.25063
804.638	20012.17868
804.825	20420.3166
805.013	19918.79787
805.201	20712.81805
805.388	20160.38823
805.576	20211.15008
805.763	20501.55831
805.951	20448.75043
806.138	20550.30655
806.326	20517.80745
806.513	19930.97747
806.701	20203.02801
806.888	20194.906
807.075	20603.11986
807.263	20507.65171
807.45	20869.26048
807.638	20107.59869
807.825	20605.1512
808.012	20180.69265
808.2	20497.49606
808.387	20188.81454
808.574	20966.79543
808.761	20848.94189
808.949	21096.85676
809.136	20475.15402
809.323	20863.16486
809.51	20603.11986
809.698	20038.57052
809.885	20418.28564
810.072	20698.59723
810.259	20274.09842
810.446	20662.03034
810.633	20574.68157
810.82	20546.2441
811.008	20125.87167
811.195	20223.33331
811.382	20046.69123
811.569	20211.15008
811.756	19746.26977
811.943	20253.79206
812.13	20190.84502
812.317	20353.29723
812.504	20729.07066
812.691	20999.30919
812.878	20733.13386
813.064	20765.64002
813.251	20806.27421
813.438	20588.90061
813.625	20330.95846
813.812	20203.02801
813.999	19821.36651
814.186	19833.5449
814.372	19782.8026
814.559	19876.17046
814.746	19474.34575
814.933	19933.00742
815.12	20251.76145
815.306	20211.15008
815.493	20288.31312
815.68	20418.28564
815.866	20146.17538
816.053	20343.14318
816.24	19709.7383
816.426	19847.75321
816.613	19778.74333
816.799	19695.53198
816.986	19784.83224
817.173	20318.77389
817.359	19821.36651
817.546	20064.96307
817.732	19563.62596
817.919	19679.29644
818.105	19366.81435
818.292	19679.29644
818.478	19056.45848
818.665	19742.21065
818.851	19819.33679
819.037	19902.55863
819.224	19265.38029
819.41	19669.14936
819.597	19415.50637
819.783	19799.03985
819.969	19890.37939
820.156	19764.53601
820.342	20131.96274
820.528	20154.29698
820.714	19784.83224
820.901	19567.68435
821.087	19624.50347
821.273	19872.1108
821.459	19815.27737
821.646	19551.45091
821.832	19677.26701
822.018	19415.50637
822.204	18979.39144
822.39	19198.43945
822.576	19157.87142
822.762	19429.70866
822.948	19255.23745
823.134	19310.01
823.32	19030.09278
823.507	19135.5597
823.693	19157.87142
823.879	19332.32561
824.065	19038.20523
824.25	18906.38594
824.436	18930.72053
824.622	18985.47547
824.808	18989.53151
824.994	19161.92815
825.18	18411.70601
825.366	18922.60893
825.552	18754.3078
825.738	19332.32561
825.923	19157.87142
826.109	19671.17877
826.295	19149.75801
826.481	19441.88221
826.667	19028.06468
826.852	19094.9942
827.038	19107.16368
827.224	19257.26601
827.409	19121.36159
827.595	19283.63766
827.781	18634.68864
827.966	18699.56513
828.152	18213.08749
828.338	18346.84702
828.523	17894.9658
828.709	18557.653
828.894	18184.71633
829.08	18452.24485
829.266	18273.88527
829.451	18113.79157
829.637	17734.92459
829.822	17779.49089
830.008	17599.20991
830.193	17676.18059
830.378	17787.59403
830.564	17957.77267
830.749	17635.66912
830.935	17722.77043
831.12	17714.66772
831.305	18373.19552
831.491	18048.94997
831.676	18010.45201
831.861	17799.74884
832.047	18004.3735
832.232	17333.89903
832.417	17568.82805
832.602	17664.02701
832.788	17702.51376
832.973	17909.1477
833.158	18160.39877
833.343	18022.60912
833.528	17836.21401
833.714	17698.46247
833.899	17919.27774
834.084	17657.95027
834.269	17844.31753
834.454	17530.34539
834.639	17657.95027
834.824	17538.44691
835.009	17256.9485
835.194	17210.37525
835.379	17291.3732
835.564	16852.01324
835.749	17410.85392
835.934	17360.22521
836.119	17111.15908
836.304	17157.72908
836.489	16979.55612
836.674	16880.35522
836.859	17028.14664
837.044	17103.0601
837.228	17186.07678
837.413	17333.89903
837.598	17499.96516
837.783	17115.20858
837.968	16819.62301
838.152	16864.15974
838.337	17052.44249
838.522	16754.84446
838.707	16886.42856
838.891	16491.70614
839.076	16722.45611
839.261	16546.35486
839.445	16669.82634
839.63	16329.79276
839.815	16611.12574
839.999	16783.18477
840.184	16807.47684
840.368	16609.10162
840.553	16746.74731
840.737	16362.17443
840.922	16580.76411
841.106	16232.65058
841.291	16325.74509
841.475	16250.86443
841.66	16441.10684
841.844	16038.37795
842.029	16147.65448
842.213	16362.17443
842.397	16060.63762
842.582	15860.30659
842.766	15834.00143
842.951	15759.13393
843.135	16034.33075
843.319	16099.08657
843.504	15793.53232
843.688	15494.07273
843.872	15730.80606
844.056	15795.55577
844.241	16076.82659
844.425	15793.53232
844.609	15939.22331
844.793	15643.80022
844.977	15613.44972
845.161	15568.93598
845.346	15425.28019
845.53	15409.09379
845.714	15666.05737
845.898	15220.92855
846.082	15848.16572
846.266	15558.81927
846.45	15356.48819
846.634	15255.32419
846.818	15046.92715
847.002	15075.25301
847.186	15123.81155
847.37	14905.297
847.554	15275.55694
847.738	15461.69969
847.922	15388.86084
848.106	15528.46925
848.29	15214.85873
848.473	15198.67256
848.657	14903.2737
848.841	14953.85612
849.025	14947.78624
849.209	14743.43091
849.392	14874.94742
849.576	14500.6212
849.76	14660.47263
849.944	14864.83086
850.127	14794.01453
850.311	14781.87451
850.495	14769.73445
850.678	14911.36691
850.862	14998.36843
851.046	14984.20544
851.229	14512.76208
851.413	14658.44923
851.596	14624.0514
851.78	14563.34858
851.964	14632.14504
852.147	14120.17774
852.331	14387.30388
852.514	14041.24729
852.698	14164.70112
852.881	13994.6969
853.065	14267.91061
853.248	14278.02892
853.431	14241.60279
853.615	14114.10628
853.798	14387.30388
853.982	14346.83225
854.165	14176.84368
854.348	13893.4958
854.532	14063.51008
854.715	14053.39067
854.898	14081.72488
855.081	13735.60826
855.265	13982.55311
855.448	13727.51098
855.631	13962.31325
855.814	13891.47171
855.997	13824.6752
856.181	13830.74773
856.364	13844.91689
856.547	13800.38479
856.73	13976.48118
856.913	13770.02118
857.096	13719.41364
857.279	13371.17628
857.462	13332.70136
857.645	13140.30367
857.828	13300.30028
858.011	13361.05144
858.194	13435.97286
858.377	12891.13628
858.56	13282.07419
858.743	12824.2732
858.926	12962.04532
859.109	12872.90148
859.292	12897.21445
859.475	12927.60459
859.658	12945.8381
859.841	12860.7447
860.023	12599.32484
860.206	12623.64709
860.389	12848.58773
860.572	12512.16272
860.755	12516.21703
860.937	12447.29022
861.12	12520.27131
861.303	12623.64709
861.486	12621.62027
861.668	12392.54879
861.851	12418.90638
862.034	12143.10703
862.216	12520.27131
862.399	12473.64547
862.581	12260.74344
862.764	11848.90289
862.947	12037.61848
863.129	11834.69561
863.312	11891.52227
863.494	11771.77266
863.677	12114.7083
863.859	12066.02129
864.042	12349.96873
864.224	12236.40688
864.406	12100.50838
864.589	11877.31622
864.771	11838.75488
864.954	11463.12336
865.136	11434.6843
865.318	11308.71678
865.501	11322.94083
865.683	11231.49176
865.865	11422.49555
866.048	11209.13438
866.23	11318.87687
866.412	11375.76874
866.594	11290.42797
866.777	11257.91251
866.959	11471.24845
867.141	11503.74732
867.323	11347.32378
867.505	11639.81022
867.687	11436.71572
867.869	11300.58852
868.052	11493.59169
868.234	11261.97709
868.416	11550.46018
868.598	11700.72061
868.78	11593.10674
868.962	11721.02229
869.144	11420.46406
869.326	11314.81286
869.508	11477.34218
869.69	11068.86346
869.872	11365.61005
870.054	10904.13131
870.236	11032.26261
870.417	10993.62451
870.599	11091.2289
870.781	11091.2289
870.963	11113.59304
871.145	11113.59304
871.327	11247.75089
871.508	11015.99442
871.69	11044.46328
871.872	10790.19883
872.054	11133.92295
872.235	10796.30328
872.417	11013.96085
872.599	10735.25396
872.78	11131.89001
872.962	11099.36147
873.144	10965.15177
873.325	10971.25325
873.507	11123.75813
873.689	11056.66357
873.87	10940.74481
874.052	10745.42959
874.233	11087.16256
874.415	11097.32834
874.596	11383.89552
874.778	10971.25325
874.959	10999.72553
875.141	10826.82396
875.322	11420.46406
875.503	11148.15325
875.685	11229.45932
875.866	10598.87131
876.048	10861.41089
876.229	10617.19456
876.41	10431.87917
876.592	10627.37371
876.773	10753.56988
876.954	10680.30036
877.136	10792.23366
877.317	10700.65457
877.498	11129.85705
877.679	10523.53175
877.86	10954.9824
878.042	10529.64101
878.223	10596.83533
878.404	10633.48106
878.585	10401.32251
878.766	10733.2188
878.947	10877.68593
879.128	10554.07688
879.309	10932.60879
879.49	10564.25797
879.672	11079.02973
879.853	10786.12914
880.034	10906.16549
880.215	10879.72026
880.396	11135.95588
880.576	10875.65159
880.757	10826.82396
880.938	10747.46468
881.119	11097.32834
881.3	10924.4726
881.481	11324.9728
881.662	11083.09617
881.843	11424.52703
882.023	11022.09507
882.204	11184.74306
882.385	10639.58829
882.566	10543.89549
882.747	10769.84989
882.927	10979.38841
883.108	10865.47972
883.289	10763.74497
883.469	10710.83122
883.65	11570.76858
883.831	10938.71082
884.011	11341.22818
884.192	11300.58852
884.373	11473.27971
884.553	11186.77573
884.734	11550.46018
884.914	11115.62608
885.095	11327.00476
885.275	11196.93891
885.456	11327.00476
885.636	11164.41581
885.817	11477.34218
885.997	11369.67356
886.178	11192.87367
886.358	10906.16549
886.538	10969.21943
886.719	10782.05939
886.899	11178.645
887.08	10881.75458
887.26	11083.09617
887.44	10782.05939
887.621	11152.21895
887.801	10633.48106
887.981	10875.65159
888.161	11036.32954
888.342	11056.66357
888.522	11101.39458
888.702	10893.96024
888.882	10971.25325
889.062	11026.16212
889.242	10777.98961
889.423	10967.18561
889.603	10983.45592
889.783	11231.49176
889.963	11038.363
890.143	11024.1286
890.323	11099.36147
890.503	11178.645
890.683	10981.42217
890.863	11038.363
891.043	10747.46468
891.223	11074.96325
891.403	10863.44531
891.583	10977.35464
891.763	10334.08747
891.943	10688.44219
892.122	10609.05102
892.302	10948.88064
892.482	10698.6192
892.662	10554.07688
892.842	10863.44531
893.022	10885.82318
893.201	10714.9018
893.381	11074.96325
893.561	10784.09427
893.741	11030.22912
893.92	10975.32085
894.1	11113.59304
894.28	11097.32834
894.459	11018.02798
894.639	10814.61601
894.819	10672.15834
894.998	10580.54705
895.178	10822.75469
895.357	10527.6046
895.537	10765.77996
895.716	10761.70998
895.896	10684.3713
896.075	10798.33808
896.255	10725.07803
896.434	10464.46973
896.614	10657.90933
896.793	10185.30368
896.973	10682.33584
897.152	10568.33031
897.331	10631.44529
897.511	10454.28554
897.69	10592.76333
897.87	10446.13795
898.049	10708.79592
898.228	10873.61724
898.407	10851.23861
898.587	10706.7606
898.766	11034.29608
898.945	10423.73101
899.124	10568.33031
899.304	10562.22178
899.483	10572.40261
899.662	10433.91618
899.841	10444.10102
900.02	10083.35478
900.199	9930.36507
900.378	9836.49091
900.557	9912.00083
900.737	9370.72351
900.916	9646.60484
901.095	9505.63518
901.274	9611.88013
901.453	9918.12238
901.632	9852.8191
901.811	9675.19829
901.989	9724.20862
902.168	9918.12238
902.347	10040.52578
902.526	9683.3673
902.705	9846.69614
902.884	9938.52657
903.063	10211.80472
903.242	9832.40872
903.42	9852.8191
903.599	9742.58522
903.778	9758.91894
903.957	9112.96495
904.135	9726.25052
904.314	9393.2137
904.493	9783.4177
904.672	9521.98334
904.85	9462.71637
905.029	9423.87895
905.207	9552.63341
905.386	9644.56234
905.565	9669.07138
905.743	9679.28283
905.922	9562.84931
906.1	9524.02679
906.279	9583.27991
906.457	9446.36449
906.636	9419.79046
906.814	8916.39485
906.993	9243.92327
907.171	9137.52495
907.35	8940.97497
907.528	8934.83018
907.707	9272.56117
907.885	8836.49169
908.063	9020.84279
908.242	8918.44329
908.42	9072.02611
908.598	8719.66068
908.777	8940.97497
908.955	8795.50508
909.133	8859.03124
909.311	8645.84197
909.49	8891.81216
909.668	8608.92358
909.846	8738.11162
910.024	8526.86098
910.202	8742.21163
910.38	8405.76321
910.559	8185.97313
910.737	7996.81299
910.915	8309.24751
911.093	8068.79619
911.271	8132.53207
911.449	7869.23849
911.627	8056.45798
911.805	7838.36179
911.983	8085.24601
912.161	7984.47052
912.339	8103.75052
912.517	7823.95106
912.695	8163.3651
912.872	7720.98755
913.05	8064.68353
913.228	7731.28626
913.406	7947.43867
913.584	7871.29677
913.762	7926.86256
913.939	7797.18558
914.117	7667.42577
914.295	7564.38205
914.473	7364.32414
914.65	7296.21658
914.828	7634.45757
915.006	7519.0259
915.184	7448.90953
915.361	7207.43445
915.539	7576.75011
915.716	7168.19212
915.894	7382.8948
916.072	7459.22233
916.249	7502.53017
916.427	7486.03307
916.604	7521.08777
916.782	7403.5268
916.959	7597.36184
917.137	7370.51456
917.314	7801.30357
917.492	7428.28232
917.669	7054.55061
917.847	6694.58105
918.024	6880.858
918.201	6680.08507
918.379	7172.32327
918.556	6824.99432
918.733	7118.61139
918.911	6884.99539
919.088	6998.73818
919.265	6686.29777
919.442	6775.32377
919.62	6348.43977
919.797	6735.99193
919.974	6423.11176
920.151	6889.13269
920.328	6779.46349
920.506	6717.35817
920.683	6555.78757
920.86	6474.94956
921.037	6172.01071
921.214	6545.42569
921.391	6091.0042
921.568	6568.22106
921.745	6290.34064
921.922	6371.25942
922.099	6165.78071
922.276	6344.29044
922.453	6219.76704
922.63	6402.37257
922.807	6080.61616
922.984	6082.69381
923.161	5810.32048
923.338	5920.56606
923.514	5774.94465
923.691	6030.7454
923.868	5700.00861
924.045	6103.46906
924.222	5585.46394
924.399	5781.18794
924.575	5614.62753
924.752	5841.52878
924.929	5616.71047
925.105	5866.4916
925.282	5512.53474
925.459	5820.72384
925.635	5520.87097
925.812	5768.70115
925.989	5395.78805
926.165	5520.87097
926.342	5320.69772
926.518	5245.57702
926.695	5287.31448
926.871	5452.08584
927.048	5134.92759
927.224	5082.71178
927.401	4905.06994
927.577	5015.85442
927.754	5099.42242
927.93	5141.19251
928.107	4702.14712
928.283	4909.25166
928.459	4584.899
928.636	5034.66044
928.812	4566.04901
928.988	4664.46789
929.165	4492.72642
929.341	4752.37472
929.517	4551.38666
929.693	4879.97771
929.87	4366.96784
930.046	4626.78139
930.222	4320.83671
930.398	4513.6785
930.574	4255.81605
930.751	4400.51115
930.927	4190.77486
931.103	4431.95294
931.279	3884.18209
931.455	4140.40641
931.631	3976.62599
931.807	4356.48441
931.983	4039.63334
932.159	4333.41896
932.335	3896.79037
932.511	4077.42886
932.687	3785.39241
932.863	4022.83319
933.039	3610.829
933.215	4029.1334
933.391	3835.84367
933.566	4123.61423
933.742	3497.18784
933.918	3678.14619
934.094	3366.64567
934.27	3724.41543
934.445	3288.70929
934.621	3383.49366
934.797	3046.32879
934.973	3094.82194
935.148	2959.86426
935.324	3244.46472
935.5	2970.41008
935.675	2936.66216
935.851	2759.42521
936.027	2810.07441
936.202	2408.90269
936.378	2725.65477
936.553	2356.08606
936.729	2510.29198
936.904	2244.09452
937.08	2328.61893
937.255	2070.77622
937.431	2195.48643
937.606	1914.32511
937.782	2060.20634
937.957	1905.86734
938.133	1924.89719
938.308	1702.85834
938.483	1635.1812
938.659	1508.28089
938.834	1569.61672
939.009	1366.57277
939.185	1520.97113
939.36	1571.73173
939.535	1375.0329
939.71	1303.12252
939.886	1180.45784
940.061	1366.57277
940.236	1239.67408
940.411	1087.4099
940.586	1072.60766
940.761	840.04198
940.937	1017.63024
941.112	772.40468
941.287	979.57133
941.462	725.90988
941.637	861.18054
941.812	787.19951
941.987	816.79058
942.162	692.09872
942.337	840.04198
942.512	772.40468
942.687	789.31309
942.862	687.87252
943.037	673.0812
943.212	620.25976
943.386	698.43809
943.561	630.82344
943.736	670.9682
943.911	613.9217
944.086	675.19421
944.26	563.22139
944.435	778.74526
944.61	641.38743
944.785	673.0812
944.959	569.55852
945.134	611.80904
945.309	590.68313
945.483	588.57061
945.658	630.82344
945.833	734.3631
946.007	624.48519
946.182	713.23036
946.357	616.03437
946.531	664.62926
946.706	611.80904
946.88	590.68313
947.055	531.53761
947.229	594.90821
947.404	689.98561
947.578	759.72379
947.752	620.25976
947.927	721.68333
948.101	662.51631
948.276	645.61311
948.45	561.10904
948.624	654.06461
948.799	692.09872
948.973	761.83724
949.147	616.03437
949.321	770.29117
949.496	723.7966
949.67	814.67687
949.844	696.32496
950.018	801.99481
950.193	704.77757
950.367	766.06419
950.541	723.7966
950.715	810.44948
950.889	732.24978
951.063	766.06419
951.237	713.23036
951.411	859.06665
951.585	772.40468
951.759	886.54795
951.933	740.70313
952.107	865.40836
952.281	732.24978
952.455	791.42669
952.629	738.58978
952.803	895.00401
952.977	751.27006
953.151	933.05785
953.325	759.72379
953.499	884.43395
953.672	698.43809
953.846	911.91652
954.02	793.54029
954.194	878.09201
954.368	806.22212
954.541	937.28621
954.715	628.71068
954.889	886.54795
955.062	797.76753
955.236	806.22212
955.41	721.68333
955.583	882.31996
955.757	732.24978
955.93	787.19951
956.104	709.00395
956.278	801.99481
956.451	780.85881
956.625	734.3631
956.798	751.27006
956.972	689.98561
957.145	622.37247
957.319	848.4973
957.492	696.32496
957.665	840.04198
957.839	649.83884
958.012	823.13176
958.185	747.04326
958.359	916.14472
958.532	799.88117
958.705	780.85881
958.879	683.64637
959.052	721.68333
959.225	721.68333
959.398	799.88117
959.572	675.19421
959.745	831.58679
959.918	848.4973
960.091	818.90429
960.264	706.89075
960.438	797.76753
960.611	569.55852
960.784	825.2455
960.957	611.80904
961.13	734.3631
961.303	573.78333
961.476	738.58978
961.649	529.42547
961.822	666.74223
961.995	578.0082
962.168	692.09872
962.341	607.58375
962.514	563.22139
962.686	620.25976
962.859	616.03437
963.032	520.97704
963.205	628.71068
963.378	561.10904
963.551	611.80904
963.723	544.21075
963.896	641.38743
964.069	616.03437
964.242	721.68333
964.414	599.13334
964.587	607.58375
964.76	639.27461
964.932	620.25976
965.105	592.79566
965.278	578.0082
965.45	544.21075
965.623	649.83884
965.795	493.52124
965.968	637.1618
966.14	578.0082
966.313	700.55124
966.485	603.35852
966.658	692.09872
966.83	662.51631
967.003	664.62926
967.175	518.86497
967.348	582.23313
967.52	413.28038
967.692	523.08913
967.865	523.08913
968.037	590.68313
968.209	404.83529
968.382	544.21075
968.554	442.8402
968.726	618.14706
968.898	542.09852
969.071	578.0082
969.243	485.0738
969.415	548.43524
969.587	489.29749
969.759	470.29135
969.932	413.28038
970.104	478.73838
970.276	474.51483
970.448	518.86497
970.62	392.16815
970.792	506.19285
970.964	504.08088
971.136	554.77208
971.308	434.39422
971.48	487.18564
971.652	396.39047
971.824	447.06329
971.996	398.50165
972.168	345.72712
972.339	333.06283
972.511	375.27956
972.683	409.05781
972.855	417.50302
973.027	303.51529
973.199	425.9485
973.37	430.17133
973.542	392.16815
973.714	487.18564
973.886	324.62032
974.057	292.96345
974.229	385.8348
974.401	316.17809
974.572	290.85314
974.744	339.39489
974.915	352.0595
975.087	269.75104
975.259	354.17033
975.43	309.84661
975.602	409.05781
975.773	263.42077
975.945	326.73092
976.116	333.06283
976.288	362.61382
976.459	335.1735
976.63	385.8348
976.802	278.19166
976.973	314.06758
977.145	246.5409
977.316	358.39204
977.487	282.41208
977.659	301.40489
977.83	286.63257
978.001	269.75104
978.172	185.36184
978.344	318.28862
978.515	341.50562
978.686	333.06283
978.857	276.08147
979.028	311.95708
979.2	252.87071
979.371	204.34665
979.542	132.63502
979.713	157.94226
979.884	299.2945
980.055	244.431
980.226	250.76076
980.397	231.77202
980.568	208.56572
980.739	248.65082
980.91	273.97131
981.081	227.55252
981.252	166.37868
981.423	223.33309
981.594	172.70621
981.765	257.09068
981.936	219.11374
982.106	295.07378
982.277	164.26954
982.448	202.23715
982.619	217.0041
982.79	244.431
982.96	254.98069
983.131	233.8818
983.302	181.14322
983.472	206.45618
983.643	240.21127
983.814	134.74384
983.984	149.50617
984.155	206.45618
984.326	164.26954
984.496	181.14322
984.667	248.65082
984.837	202.23715
985.008	162.16043
985.178	157.94226
985.349	172.70621
985.519	149.50617
985.69	181.14322
985.86	204.34665
986.031	183.25252
986.201	134.74384
986.371	96.7884
986.542	176.92467
986.712	210.67529
986.882	214.89448
987.053	217.0041
987.223	206.45618
987.393	65.16435
987.563	138.96154
987.734	227.55252
987.904	157.94226
988.074	96.7884
988.244	157.94226
988.414	141.07043
988.585	185.36184
988.755	134.74384
988.925	65.16435
989.095	124.19996
989.265	155.83321
989.435	54.62413
989.605	63.05626
989.775	181.14322
989.945	88.35483
990.115	189.58055
990.285	44.08449
990.455	71.48875
990.625	27.22227
990.795	84.13817
990.965	130.52622
991.134	94.67998
991.304	67.27246
991.474	107.33087
991.644	73.59693
991.814	79.92161
991.984	90.46319
992.153	117.87389
992.323	105.22233
992.493	124.19996
992.662	82.02988
992.832	25.11459
993.002	88.35483
993.171	71.48875
993.341	145.28826
993.511	130.52622
993.68	75.70514
993.85	90.46319
994.019	117.87389
994.189	65.16435
994.358	54.62413
994.528	82.02988
994.697	96.7884
994.867	136.85268
995.036	50.4082
995.206	29.32996
995.375	117.87389
995.544	90.46319
995.714	37.76098
995.883	29.32996
996.052	109.43943
996.222	79.92161
996.391	46.19237
996.56	164.26954
996.73	101.00532
996.899	132.63502
997.068	107.33087
997.237	130.52622
997.406	20.89932
997.576	82.02988
997.745	98.89685
997.914	65.16435
998.083	37.76098
998.252	105.22233
998.421	14.57659
998.59	63.05626
998.759	73.59693
998.928	71.48875
999.097	-0.17561
999.266	14.57659
999.435	27.22227
999.604	4.03918
999.773	-0.17561
999.942	63.05626
1000.111	25.11459
1000.28	109.43943
1000.448	132.63502
1000.617	88.35483
1000.786	79.92161
1000.955	153.72418
1001.124	58.84015
1001.292	82.02988
1001.461	86.24649
1001.63	52.51615
1001.798	29.32996
1001.967	29.32996
1002.136	75.70514
1002.304	69.38059
1002.473	71.48875
1002.642	155.83321
1002.81	60.94819
1002.979	33.54542
1003.147	-23.35526
1003.316	29.32996
1003.484	6.14661
1003.653	35.65319
1003.821	96.7884
1003.99	50.4082
1004.158	58.84015
1004.327	-33.89048
1004.495	132.63502
1004.663	58.84015
1004.832	73.59693
1005	4.03918
1005.168	71.48875
1005.337	105.22233
1005.505	50.4082
1005.673	14.57659
1005.842	109.43943
1006.01	-8.60492
1006.178	27.22227
1006.346	48.30027
1006.514	12.46906
1006.683	6.14661
1006.851	41.97663
1007.019	65.16435
1007.187	46.19237
1007.355	6.14661
1007.523	84.13817
1007.691	46.19237
1007.859	63.05626
1008.027	8.25407
1008.195	37.76098
1008.363	14.57659
1008.531	-12.81942
1008.699	46.19237
1008.867	-21.24814
1009.035	-14.92664
1009.203	122.09124
1009.37	4.03918
1009.538	75.70514
1009.706	-12.81942
1009.874	-33.89048
1010.042	8.25407
1010.209	56.73213
1010.377	63.05626
1010.545	4.03918
1010.713	63.05626
1010.88	-21.24814
1011.048	29.32996
1011.216	-21.24814
1011.383	-50.74553
1011.551	-38.10439
1011.718	6.14661
1011.886	-46.53192
1012.054	65.16435
1012.221	20.89932
1012.389	52.51615
1012.556	46.19237
1012.724	29.32996
1012.891	79.92161
1013.058	-0.17561
1013.226	20.89932
1013.393	-0.17561
1013.561	16.68414
1013.728	29.32996
1013.895	20.89932
1014.063	54.62413
1014.23	-12.81942
1014.397	8.25407
1014.565	31.43768
1014.732	46.19237
1014.899	105.22233
1015.066	-27.56942
1015.233	12.46906
1015.401	31.43768
1015.568	-27.56942
1015.735	12.46906
1015.902	18.79172
1016.069	27.22227
1016.236	14.57659
1016.403	4.03918
1016.57	94.67998
1016.737	71.48875
1016.904	-44.42508
1017.071	20.89932
1017.238	39.86879
1017.405	136.85268
1017.572	-12.81942
1017.739	4.03918
1017.906	20.89932
1018.073	-8.60492
1018.24	33.54542
1018.407	33.54542
1018.573	14.57659
1018.74	-21.24814
1018.907	-25.46235
1019.074	23.00695
1019.241	-0.17561
1019.407	29.32996
1019.574	41.97663
1019.741	29.32996
1019.907	-4.39031
1020.074	16.68414
1020.241	10.36155
1020.407	-35.99745
1020.574	46.19237
1020.74	-33.89048
1020.907	-8.60492
1021.073	29.32996
1021.24	-63.38577
1021.406	4.03918
1021.573	33.54542
1021.739	-35.99745
1021.906	23.00695
1022.072	96.7884
1022.239	16.68414
1022.405	-42.31821
1022.571	37.76098
1022.738	-46.53192
1022.904	12.46906
1023.07	46.19237
1023.237	-19.141
1023.403	90.46319
1023.569	37.76098
1023.735	-61.27913
1023.902	12.46906
1024.068	29.32996
1024.234	54.62413
1024.4	4.03918
1024.566	14.57659
1024.732	39.86879
1024.898	10.36155
1025.065	46.19237
1025.231	8.25407
1025.397	105.22233
1025.563	-38.10439
1025.729	33.54542
1025.895	71.48875
1026.061	8.25407
1026.227	79.92161
1026.392	-12.81942
1026.558	-8.60492
1026.724	4.03918
1026.89	65.16435
1027.056	-61.27913
1027.222	-35.99745
1027.388	39.86879
1027.553	31.43768
1027.719	-17.03383
1027.885	54.62413
1028.051	-14.92664
1028.216	41.97663
1028.382	48.30027
1028.548	75.70514
1028.713	-8.60492
1028.879	-0.17561
1029.045	48.30027
1029.21	33.54542
1029.376	48.30027
1029.541	-12.81942
1029.707	-94.98234
1029.873	-4.39031
1030.038	54.62413
1030.204	39.86879
1030.369	-35.99745
1030.534	105.22233
1030.7	12.46906
1030.865	-8.60492
1031.031	-12.81942
1031.196	48.30027
1031.361	-40.21131
1031.527	6.14661
1031.692	-38.10439
1031.857	-94.98234
1032.023	63.05626
1032.188	-8.60492
1032.353	8.25407
1032.518	-29.67646
1032.684	-29.67646
1032.849	4.03918
1033.014	14.57659
1033.179	-61.27913
1033.344	25.11459
1033.509	27.22227
1033.674	29.32996
1033.839	8.25407
1034.004	-12.81942
1034.17	35.65319
1034.335	23.00695
1034.5	-4.39031
1034.664	27.22227
1034.829	-44.42508
1034.994	4.03918
1035.159	-21.24814
1035.324	-21.24814
1035.489	-19.141
1035.654	-10.71218
1035.819	-12.81942
1035.984	23.00695
1036.148	-23.35526
1036.313	-35.99745
1036.478	12.46906
1036.643	54.62413
1036.807	33.54542
1036.972	31.43768
1037.137	-48.63874
1037.301	54.62413
1037.466	8.25407
1037.631	50.4082
1037.795	12.46906
1037.96	20.89932
1038.124	8.25407
1038.289	27.22227
1038.454	-10.71218
1038.618	65.16435
1038.783	-35.99745
1038.947	-12.81942
1039.111	-35.99745
1039.276	113.65661
1039.44	25.11459
1039.605	-33.89048
1039.769	54.62413
1039.933	-29.67646
1040.098	-12.81942
1040.262	-23.35526
1040.426	4.03918
1040.591	-14.92664
1040.755	14.57659
1040.919	23.00695
1041.083	-27.56942
1041.248	12.46906
1041.412	37.76098
1041.576	-44.42508
1041.74	-12.81942
1041.904	50.4082
1042.068	16.68414
1042.232	71.48875
1042.397	-59.17246
1042.561	37.76098
1042.725	-38.10439
1042.889	-19.141
1043.053	12.46906
1043.217	-59.17246
1043.381	-52.8523
1043.544	-25.46235
1043.708	41.97663
1043.872	-25.46235
1044.036	-25.46235
1044.2	-2.28298
1044.364	-29.67646
1044.528	-38.10439
1044.691	4.03918
1044.855	-27.56942
1045.019	27.22227
1045.183	23.00695
1045.346	4.03918
1045.51	-12.81942
1045.674	31.43768
1045.837	-33.89048
1046.001	-46.53192
1046.165	10.36155
1046.328	-0.17561
1046.492	98.89685
1046.655	-4.39031
1046.819	16.68414
1046.983	50.4082
1047.146	27.22227
1047.31	23.00695
1047.473	-27.56942
1047.636	25.11459
1047.8	4.03918
1047.963	29.32996
1048.127	37.76098
1048.29	-35.99745
