Data from mixed_try1_USB4F045381__28__00132.txt Node

Date: Thu Apr 03 20:01:57 EDT 2025
User: mmckonesweet
Spectrometer: USB4F04538
Trigger mode: 4
Integration Time (sec): 2.700000E-3
Scans to average: 1
Electric dark correction enabled: true
Nonlinearity correction enabled: true
Boxcar width: 0
XAxis mode: Wavelengths
Number of Pixels in Spectrum: 3648
>>>>>Begin Spectral Data<<<<<
345.52	-12.81942
345.736	-12.81942
345.952	-12.81942
346.168	18.79172
346.384	-31.78348
346.6	-48.63874
346.816	58.84015
347.032	-17.03383
347.248	16.68414
347.464	-2.28298
347.68	-14.92664
347.896	33.54542
348.112	50.4082
348.328	-42.31821
348.544	-8.60492
348.76	-0.17561
348.975	-25.46235
349.191	-2.28298
349.407	4.03918
349.623	-25.46235
349.839	-17.03383
350.055	-12.81942
350.27	-48.63874
350.486	12.46906
350.702	-63.38577
350.918	4.03918
351.133	52.51615
351.349	-38.10439
351.565	8.25407
351.781	-67.59898
351.996	-6.49763
352.212	1.93177
352.428	-6.49763
352.644	33.54542
352.859	23.00695
353.075	18.79172
353.291	-27.56942
353.506	33.54542
353.722	50.4082
353.938	-71.81209
354.153	-0.17561
354.369	-57.06577
354.584	10.36155
354.8	1.93177
355.016	-21.24814
355.231	-46.53192
355.447	37.76098
355.662	84.13817
355.878	27.22227
356.093	-27.56942
356.309	-4.39031
356.524	-71.81209
356.74	69.38059
356.955	14.57659
357.171	-25.46235
357.386	-17.03383
357.602	23.00695
357.817	-4.39031
358.033	16.68414
358.248	-8.60492
358.464	4.03918
358.679	-8.60492
358.895	16.68414
359.11	-50.74553
359.325	20.89932
359.541	12.46906
359.756	69.38059
359.972	-33.89048
360.187	-6.49763
360.402	-88.66349
360.618	-38.10439
360.833	-6.49763
361.048	-46.53192
361.264	-0.17561
361.479	-6.49763
361.694	33.54542
361.909	-38.10439
362.125	8.25407
362.34	-40.21131
362.555	29.32996
362.77	-0.17561
362.986	-25.46235
363.201	-17.03383
363.416	44.08449
363.631	-76.0251
363.847	1.93177
364.062	-17.03383
364.277	12.46906
364.492	-25.46235
364.707	41.97663
364.922	10.36155
365.138	44.08449
365.353	-0.17561
365.568	58.84015
365.783	35.65319
365.998	-14.92664
366.213	-8.60492
366.428	-54.95905
366.643	-8.60492
366.858	-40.21131
367.073	-12.81942
367.288	-67.59898
367.503	-82.34441
367.718	-0.17561
367.933	-76.0251
368.148	-23.35526
368.363	-40.21131
368.578	12.46906
368.793	8.25407
369.008	-33.89048
369.223	-33.89048
369.438	-17.03383
369.653	-50.74553
369.868	35.65319
370.083	-10.71218
370.298	41.97663
370.513	-40.21131
370.728	75.70514
370.943	-14.92664
371.157	-12.81942
371.372	25.11459
371.587	-8.60492
371.802	10.36155
372.017	8.25407
372.232	-0.17561
372.446	50.4082
372.661	18.79172
372.876	-2.28298
373.091	25.11459
373.306	-14.92664
373.52	-23.35526
373.735	-27.56942
373.95	-0.17561
374.165	67.27246
374.379	23.00695
374.594	33.54542
374.809	-8.60492
375.023	8.25407
375.238	-67.59898
375.453	-6.49763
375.667	-4.39031
375.882	-23.35526
376.097	-17.03383
376.311	37.76098
376.526	1.93177
376.741	44.08449
376.955	46.19237
377.17	12.46906
377.384	-8.60492
377.599	-44.42508
377.813	-25.46235
378.028	-21.24814
378.242	20.89932
378.457	29.32996
378.672	-8.60492
378.886	-59.17246
379.101	-50.74553
379.315	8.25407
379.53	4.03918
379.744	-12.81942
379.958	8.25407
380.173	-33.89048
380.387	20.89932
380.602	-25.46235
380.816	-38.10439
381.031	-67.59898
381.245	-42.31821
381.459	-23.35526
381.674	35.65319
381.888	-59.17246
382.103	84.13817
382.317	-29.67646
382.531	56.73213
382.746	29.32996
382.96	1.93177
383.174	6.14661
383.388	27.22227
383.603	-82.34441
383.817	58.84015
384.031	-14.92664
384.246	-8.60492
384.46	-73.91861
384.674	16.68414
384.888	25.11459
385.103	-38.10439
385.317	-69.70555
385.531	12.46906
385.745	-17.03383
385.959	8.25407
386.174	12.46906
386.388	16.68414
386.602	67.27246
386.816	-73.91861
387.03	-0.17561
387.244	-19.141
387.458	4.03918
387.672	-8.60492
387.887	-12.81942
388.101	-54.95905
388.315	4.03918
388.529	35.65319
388.743	8.25407
388.957	-25.46235
389.171	33.54542
389.385	-19.141
389.599	44.08449
389.813	-4.39031
390.027	-21.24814
390.241	12.46906
390.455	-0.17561
390.669	6.14661
390.883	12.46906
391.097	-46.53192
391.311	-8.60492
391.525	-19.141
391.738	-14.92664
391.952	103.11382
392.166	16.68414
392.38	52.51615
392.594	67.27246
392.808	35.65319
393.022	-25.46235
393.236	94.67998
393.449	4.03918
393.663	16.68414
393.877	75.70514
394.091	-4.39031
394.305	-31.78348
394.518	-25.46235
394.732	-8.60492
394.946	-46.53192
395.16	52.51615
395.373	-21.24814
395.587	-25.46235
395.801	1.93177
396.015	25.11459
396.228	84.13817
396.442	33.54542
396.656	16.68414
396.869	4.03918
397.083	35.65319
397.297	-50.74553
397.51	16.68414
397.724	-46.53192
397.938	41.97663
398.151	58.84015
398.365	-31.78348
398.578	-38.10439
398.792	56.73213
399.005	58.84015
399.219	33.54542
399.433	25.11459
399.646	67.27246
399.86	20.89932
400.073	35.65319
400.287	4.03918
400.5	-6.49763
400.714	-21.24814
400.927	41.97663
401.141	-2.28298
401.354	92.57157
401.567	-17.03383
401.781	103.11382
401.994	54.62413
402.208	8.25407
402.421	-17.03383
402.635	-17.03383
402.848	-17.03383
403.061	-42.31821
403.275	12.46906
403.488	8.25407
403.701	50.4082
403.915	25.11459
404.128	-8.60492
404.341	126.30869
404.555	-54.95905
404.768	18.79172
404.981	58.84015
405.195	-29.67646
405.408	33.54542
405.621	58.84015
405.834	23.00695
406.048	-2.28298
406.261	-54.95905
406.474	67.27246
406.687	-40.21131
406.9	67.27246
407.114	-21.24814
407.327	-40.21131
407.54	-17.03383
407.753	-6.49763
407.966	50.4082
408.179	-17.03383
408.392	33.54542
408.605	41.97663
408.819	-23.35526
409.032	18.79172
409.245	-4.39031
409.458	77.81336
409.671	67.27246
409.884	12.46906
410.097	-54.95905
410.31	20.89932
410.523	20.89932
410.736	14.57659
410.949	-8.60492
411.162	27.22227
411.375	71.48875
411.588	63.05626
411.801	-17.03383
412.014	73.59693
412.227	-19.141
412.44	-90.7698
412.653	-8.60492
412.865	10.36155
413.078	12.46906
413.291	-8.60492
413.504	-46.53192
413.717	-17.03383
413.93	25.11459
414.143	8.25407
414.356	-25.46235
414.568	-14.92664
414.781	67.27246
414.994	48.30027
415.207	-25.46235
415.42	-65.49239
415.632	-48.63874
415.845	46.19237
416.058	-21.24814
416.271	8.25407
416.483	67.27246
416.696	-6.49763
416.909	20.89932
417.121	50.4082
417.334	-17.03383
417.547	-0.17561
417.759	-12.81942
417.972	41.97663
418.185	52.51615
418.397	-84.4508
418.61	33.54542
418.823	-50.74553
419.035	18.79172
419.248	46.19237
419.46	-8.60492
419.673	-12.81942
419.885	35.65319
420.098	-82.34441
420.311	-17.03383
420.523	1.93177
420.736	-21.24814
420.948	-31.78348
421.161	44.08449
421.373	-2.28298
421.586	-14.92664
421.798	29.32996
422.01	16.68414
422.223	-0.17561
422.435	-0.17561
422.648	58.84015
422.86	-67.59898
423.073	-4.39031
423.285	41.97663
423.497	18.79172
423.71	41.97663
423.922	-17.03383
424.134	-67.59898
424.347	-4.39031
424.559	20.89932
424.771	-8.60492
424.984	12.46906
425.196	12.46906
425.408	-0.17561
425.621	8.25407
425.833	25.11459
426.045	29.32996
426.257	50.4082
426.47	20.89932
426.682	8.25407
426.894	-17.03383
427.106	-17.03383
427.318	77.81336
427.531	16.68414
427.743	41.97663
427.955	41.97663
428.167	8.25407
428.379	132.63502
428.591	-10.71218
428.804	-10.71218
429.016	25.11459
429.228	25.11459
429.44	-19.141
429.652	18.79172
429.864	16.68414
430.076	48.30027
430.288	-29.67646
430.5	103.11382
430.712	-12.81942
430.924	-0.17561
431.136	10.36155
431.348	6.14661
431.56	46.19237
431.772	41.97663
431.984	-19.141
432.196	12.46906
432.408	6.14661
432.62	-42.31821
432.832	-21.24814
433.044	-8.60492
433.256	48.30027
433.468	27.22227
433.679	84.13817
433.891	-14.92664
434.103	25.11459
434.315	20.89932
434.527	-59.17246
434.739	48.30027
434.95	27.22227
435.162	-8.60492
435.374	12.46906
435.586	-0.17561
435.798	8.25407
436.009	6.14661
436.221	29.32996
436.433	25.11459
436.645	10.36155
436.856	33.54542
437.068	-29.67646
437.28	8.25407
437.491	50.4082
437.703	-65.49239
437.915	14.57659
438.126	25.11459
438.338	8.25407
438.55	60.94819
438.761	-59.17246
438.973	-6.49763
439.184	109.43943
439.396	46.19237
439.608	33.54542
439.819	-21.24814
440.031	-29.67646
440.242	58.84015
440.454	50.4082
440.665	-0.17561
440.877	1.93177
441.088	-14.92664
441.3	25.11459
441.511	35.65319
441.723	4.03918
441.934	-2.28298
442.146	-6.49763
442.357	41.97663
442.569	8.25407
442.78	8.25407
442.991	27.22227
443.203	84.13817
443.414	20.89932
443.626	50.4082
443.837	71.48875
444.048	-23.35526
444.26	25.11459
444.471	25.11459
444.682	-0.17561
444.894	20.89932
445.105	27.22227
445.316	-17.03383
445.528	58.84015
445.739	12.46906
445.95	122.09124
446.161	-29.67646
446.373	35.65319
446.584	44.08449
446.795	50.4082
447.006	-73.91861
447.217	-14.92664
447.429	8.25407
447.64	41.97663
447.851	29.32996
448.062	101.00532
448.273	-14.92664
448.484	16.68414
448.695	50.4082
448.907	58.84015
449.118	39.86879
449.329	65.16435
449.54	63.05626
449.751	63.05626
449.962	27.22227
450.173	54.62413
450.384	25.11459
450.595	12.46906
450.806	8.25407
451.017	35.65319
451.228	33.54542
451.439	41.97663
451.65	-42.31821
451.861	27.22227
452.072	-6.49763
452.283	56.73213
452.494	-14.92664
452.705	50.4082
452.915	71.48875
453.126	58.84015
453.337	-6.49763
453.548	6.14661
453.759	79.92161
453.97	58.84015
454.181	-23.35526
454.391	115.76524
454.602	27.22227
454.813	58.84015
455.024	48.30027
455.235	54.62413
455.445	25.11459
455.656	29.32996
455.867	39.86879
456.078	75.70514
456.288	10.36155
456.499	37.76098
456.71	94.67998
456.921	1.93177
457.131	77.81336
457.342	23.00695
457.553	27.22227
457.763	-12.81942
457.974	-8.60492
458.184	-17.03383
458.395	88.35483
458.606	96.7884
458.816	41.97663
459.027	96.7884
459.237	46.19237
459.448	50.4082
459.659	6.14661
459.869	14.57659
460.08	115.76524
460.29	37.76098
460.501	33.54542
460.711	69.38059
460.922	35.65319
461.132	90.46319
461.343	136.85268
461.553	71.48875
461.764	75.70514
461.974	96.7884
462.184	29.32996
462.395	90.46319
462.605	134.74384
462.816	58.84015
463.026	50.4082
463.236	71.48875
463.447	96.7884
463.657	1.93177
463.867	92.57157
464.078	109.43943
464.288	92.57157
464.498	50.4082
464.709	1.93177
464.919	58.84015
465.129	143.17933
465.339	115.76524
465.55	77.81336
465.76	109.43943
465.97	122.09124
466.18	46.19237
466.391	117.87389
466.601	136.85268
466.811	96.7884
467.021	128.41744
467.231	50.4082
467.441	69.38059
467.651	143.17933
467.862	94.67998
468.072	210.67529
468.282	155.83321
468.492	143.17933
468.702	147.39721
468.912	160.05133
469.122	82.02988
469.332	204.34665
469.542	151.61516
469.752	244.431
469.962	214.89448
470.172	185.36184
470.382	183.25252
470.592	122.09124
470.802	109.43943
471.012	217.0041
471.222	134.74384
471.432	202.23715
471.642	229.66226
471.852	257.09068
472.062	246.5409
472.272	282.41208
472.482	235.99161
472.691	278.19166
472.901	246.5409
473.111	221.22341
473.321	290.85314
473.531	345.72712
473.741	303.51529
473.95	252.87071
474.16	318.28862
474.37	345.72712
474.58	390.05702
474.79	392.16815
474.999	316.17809
475.209	375.27956
475.419	371.05758
475.628	444.95174
475.838	404.83529
476.048	409.05781
476.258	409.05781
476.467	527.31334
476.677	474.51483
476.886	459.73291
477.096	428.0599
477.306	592.79566
477.515	447.06329
477.725	677.30723
477.935	525.20123
478.144	675.19421
478.354	535.76193
478.563	692.09872
478.773	685.75944
478.982	658.29044
479.192	706.89075
479.401	776.63172
479.611	635.049
479.82	810.44948
480.03	717.45683
480.239	776.63172
480.449	713.23036
480.658	789.31309
480.868	854.83888
481.077	907.68835
481.287	821.01802
481.496	975.34269
481.705	1000.71491
481.915	1015.5158
482.124	1123.35923
482.333	1142.39176
482.543	1040.88944
482.752	1074.72225
482.961	1125.47393
483.171	1252.36358
483.38	1169.8838
483.589	1347.53755
483.799	1210.06564
484.008	1360.22769
484.217	1163.53942
484.426	1364.45774
484.636	1286.20273
484.845	1559.04165
485.054	1309.46748
485.263	1504.0508
485.472	1351.76759
485.682	1480.78528
485.891	1580.19175
486.1	1580.19175
486.309	1647.87087
486.518	1704.9732
486.727	1609.80162
486.936	1751.49935
487.146	1749.38456
487.355	1711.31777
487.564	1717.66231
487.773	1910.09624
487.982	1973.52689
488.191	2011.58266
488.4	1907.98179
488.609	2064.43431
488.818	1853.0044
489.027	2034.83791
489.236	1937.5835
489.445	2197.59992
489.654	2123.62285
489.863	2385.66416
490.072	2163.78307
490.281	2392.00206
490.49	2296.92403
490.698	2332.84475
490.907	2366.6499
491.116	2582.09366
491.325	2487.05918
491.534	2436.36476
491.743	2265.22702
491.952	2592.65158
492.16	2480.72272
492.369	2691.88096
492.578	2582.09366
492.787	2655.99268
492.996	2531.41152
493.204	2856.49587
493.413	2765.75679
493.622	2936.66216
493.831	2704.54653
494.039	2976.73739
494.248	2814.29482
494.457	2917.6773
494.665	2822.73548
494.874	2980.95552
495.083	2837.50609
495.291	3118.01137
495.5	3090.60548
495.709	3265.53449
495.917	2997.82744
496.126	3271.8551
496.335	3227.6077
496.543	3438.24181
496.752	3120.11941
496.96	3328.73363
497.169	3360.32739
497.377	3349.79657
497.586	3252.89283
497.794	3366.64567
498.003	3214.96423
498.211	3636.07522
498.42	3554.01516
498.628	3562.43288
498.837	3591.89257
499.045	3825.33393
499.254	3547.70168
499.462	3734.92987
499.671	3732.82702
499.879	3837.94556
500.087	3718.10654
500.296	4194.97168
500.504	3688.66274
500.713	3985.02804
500.921	3863.16668
501.129	3911.49912
501.338	3903.09424
501.546	4232.73926
501.754	3526.65553
501.962	4274.69514
502.171	4194.97168
502.379	4064.8311
502.587	4111.01922
502.795	4320.83671
503.004	4102.62213
503.212	4371.16106
503.42	4318.73959
503.628	4375.35419
503.837	4236.93523
504.045	4270.49994
504.253	4354.38766
504.461	4413.08846
504.669	4400.51115
504.877	4563.95446
505.085	4488.53574
505.294	4641.43811
505.502	4417.28072
505.71	4589.08764
505.918	4714.70524
506.126	4654.00015
506.334	4714.70524
506.542	4785.85254
506.75	4295.66987
506.958	4842.33318
507.166	4408.89611
507.374	4902.97905
507.582	4741.91171
507.79	4902.97905
507.998	4917.61482
508.206	5164.1621
508.414	4827.69165
508.622	5272.70743
508.83	4965.69587
509.037	5070.17783
509.245	4919.70555
509.453	5084.80069
509.661	5043.01808
509.869	5157.89795
510.077	5118.22011
510.285	5224.70478
510.492	5168.33809
510.7	5387.44618
510.908	5201.74262
511.116	5051.37534
511.324	5347.81718
511.531	5245.57702
511.739	5124.48559
511.947	5427.06672
512.155	5241.40276
512.362	5450.00104
512.57	5193.39205
512.778	5216.35523
512.985	5301.92038
513.193	5497.94544
513.401	5412.47067
513.608	5710.41822
513.816	5575.04725
514.024	5516.7029
514.231	5608.37858
514.439	5593.79686
514.646	5583.38065
514.854	5826.96557
515.061	5572.96384
515.269	5737.48045
515.477	5668.77623
515.684	5912.24795
515.892	5749.96937
516.099	5808.23974
516.307	5949.67647
516.514	5966.30892
516.722	5885.21149
516.929	6032.82361
517.136	5893.53083
517.344	6261.2842
517.551	5953.83472
517.759	6097.23673
517.966	6074.38305
518.173	5989.17607
518.381	5799.91653
518.588	6124.24196
518.796	5957.99288
519.003	6192.77585
519.21	6248.83003
519.418	6290.34064
519.625	6043.21436
519.832	6383.70531
520.039	6225.99521
520.247	6439.70144
520.454	6228.07122
520.661	6642.80453
520.868	6545.42569
521.076	6634.51896
521.283	6441.77505
521.49	6593.08554
521.697	6472.87633
521.904	6779.46349
522.112	6506.04528
522.319	6721.49916
522.526	6512.26379
522.733	6955.31718
522.94	6746.34321
523.147	6665.58797
523.354	6651.08974
523.561	6913.95459
523.768	6764.97409
523.975	6889.13269
524.183	6800.16069
524.39	6994.60328
524.597	6918.09126
524.804	7052.48377
525.011	6920.15956
525.218	6916.02294
525.425	6990.46828
525.632	7209.49961
525.838	6851.89371
526.045	7275.57321
526.252	7038.0153
526.459	7149.60085
526.666	7207.43445
526.873	7378.76814
527.08	7279.70206
527.287	7531.39679
527.494	7110.34669
527.701	7467.47218
527.907	7259.05693
528.114	7739.52485
528.321	7349.87907
528.528	7492.21964
528.735	7459.22233
528.941	7500.46811
529.148	7420.03082
529.355	7873.35503
529.562	7685.96801
529.768	8013.26849
529.975	7420.03082
530.182	7692.14837
530.388	7710.68832
530.595	7731.28626
530.802	7725.1071
531.008	7902.16851
531.215	7749.82261
531.422	8000.92699
531.628	8021.49575
531.835	7900.11054
532.042	7994.75596
532.248	8216.79839
532.455	8011.21162
532.661	8155.1434
532.868	8017.38216
533.074	8210.6337
533.281	8074.96503
533.487	8350.32326
533.694	8124.30917
533.9	8434.50431
534.107	8315.40937
534.313	8430.39867
534.52	8183.91796
534.726	8298.97735
534.933	8266.10954
535.139	8491.97522
535.345	8703.25859
535.552	8834.44253
535.758	8418.08128
535.965	8695.0571
536.171	8444.76807
536.377	8584.30796
536.584	8436.5571
536.79	8645.84197
536.996	8875.42227
537.203	8678.65324
537.409	8381.12498
537.615	8672.50149
537.821	8613.02593
538.028	9086.35549
538.234	8723.76102
538.44	9016.74766
538.646	8701.20825
538.853	8969.64855
539.059	8744.26161
539.265	9200.96023
539.471	8834.44253
539.677	8924.58851
539.883	9209.14424
540.09	9104.77773
540.296	8959.40839
540.502	9190.72984
540.708	8904.10382
540.914	9423.87895
541.12	9153.89692
541.326	9454.54056
541.532	9489.28599
541.738	9313.46678
541.944	9356.41054
542.15	9389.12472
542.356	9624.13642
542.562	9724.20862
542.768	9477.02343
542.974	9803.83167
543.18	9687.4517
543.386	10050.72373
543.592	9713.99886
543.798	9981.37063
544.004	9669.07138
544.21	9811.99684
544.415	9642.51981
544.621	9730.33429
544.827	9705.83078
545.033	9993.61061
545.239	9936.48621
545.445	10081.31545
545.651	9852.8191
545.856	9993.61061
546.062	9967.08998
546.268	9828.32646
546.474	9581.23692
546.679	9924.24379
546.885	10003.81021
547.091	10122.09947
547.297	10126.17756
547.502	10256.64737
547.708	9942.60723
547.914	10118.02132
548.119	10134.33358
548.325	10213.84316
548.531	10173.07164
548.736	10113.94311
548.942	10003.81021
549.147	10277.02822
549.353	10083.35478
549.559	10570.36646
549.764	10050.72373
549.97	10446.13795
550.175	10452.24866
550.381	10834.96236
550.586	10657.90933
550.792	10733.2188
550.997	10704.72527
551.203	10824.78933
551.408	10478.72706
551.614	10580.54705
551.819	10741.35937
552.025	10629.40951
552.23	10643.65972
552.435	10950.91457
552.641	11026.16212
552.846	10922.43852
553.052	10985.48966
553.257	11144.0875
553.462	11079.02973
553.668	11034.29608
553.873	10731.18362
554.078	11109.52693
554.283	10922.43852
554.489	11304.65267
554.694	10871.58288
554.899	11117.65911
555.105	11056.66357
555.31	11300.58852
555.515	11174.57957
555.72	11290.42797
555.925	11091.2289
556.131	11515.93376
556.336	11172.54684
556.541	11217.26448
556.746	11148.15325
556.951	11550.46018
557.156	11266.04162
557.361	11587.01463
557.567	11641.8407
557.772	11603.26008
557.977	11280.26717
558.182	11444.84132
558.387	11477.34218
558.592	11704.78102
558.797	11337.1644
559.002	11261.97709
559.207	11696.66017
559.412	11692.59969
559.617	11322.94083
559.822	11562.64533
560.027	11578.89168
560.232	11785.98179
560.437	11544.36748
560.642	11562.64533
560.847	11607.32136
561.051	11891.52227
561.256	11733.20288
561.461	12102.53696
561.666	12139.05016
561.871	11889.49285
562.076	12108.62267
562.281	12011.24306
562.485	11968.6338
562.69	12009.21413
562.895	11708.84139
563.1	12041.67611
563.305	11850.93247
563.509	11712.90173
563.714	11873.25727
563.919	12059.9351
564.123	12163.39094
564.328	12139.05016
564.533	11802.22028
564.737	12051.82007
564.942	12157.30585
565.147	12508.10838
565.351	12171.5043
565.556	12303.32993
565.761	12313.46911
565.965	12575.00169
566.17	11968.6338
566.374	12224.23822
566.579	12447.29022
566.784	12287.10687
566.988	12370.24532
567.193	12510.13555
567.397	12110.65122
567.602	12325.6359
567.806	12181.64582
568.011	12473.64547
568.215	12360.10711
568.42	12597.29794
568.624	12299.27421
568.828	12437.15328
569.033	12530.40692
569.237	12874.92759
569.442	12696.60865
569.646	12528.37981
569.85	12566.89377
570.055	12816.16818
570.259	12968.12294
570.463	12658.10213
570.668	12666.20894
570.872	12951.91585
571.076	12751.3248
571.281	13091.69148
571.485	12941.78625
571.689	12899.2405
571.893	12836.43057
572.098	12844.53537
572.302	12941.78625
572.506	13211.19166
572.71	13069.40998
572.914	13020.79376
573.119	12990.40717
573.323	13138.27821
573.527	12949.88994
573.731	13134.22729
573.935	13192.96385
574.139	13387.3758
574.343	13259.7974
574.547	13142.32912
574.751	13233.4696
574.955	13419.77409
575.159	13160.55795
575.364	13328.65128
575.568	13401.55018
575.772	13415.72436
575.976	13286.12446
576.18	13271.94844
576.383	13581.75097
576.587	13646.53531
576.791	13395.47547
576.995	13557.45592
577.199	13525.06174
577.403	13395.47547
577.607	13419.77409
577.811	13660.70643
578.015	13332.70136
578.219	13444.07215
578.422	13363.07642
578.626	13721.43798
578.83	13640.46193
579.034	13557.45592
579.238	13525.06174
579.442	13767.99691
579.645	13709.2919
579.849	14110.05864
580.053	13948.1452
580.257	13865.15829
580.46	13379.27607
580.664	13593.8983
580.868	13500.76549
581.071	13982.55311
581.275	13529.11106
581.479	13956.24124
581.682	13735.60826
581.886	13832.77191
582.09	14053.39067
582.293	14391.35101
582.497	14103.98716
582.7	13927.9049
582.904	14288.14719
583.107	14099.93949
583.311	14195.05739
583.515	14018.98422
583.718	14207.19977
583.922	14221.36579
584.125	14031.12775
584.329	14456.10423
584.532	14229.46061
584.735	14492.52726
584.939	14284.09989
585.142	14302.31268
585.346	14377.18604
585.549	14464.19827
585.753	14379.20961
585.956	14456.10423
586.159	14502.64469
586.363	14443.96311
586.566	14617.98117
586.769	14615.95775
586.973	14719.15059
587.176	14751.52432
587.379	14563.34858
587.582	14765.68776
587.786	14674.63635
587.989	14951.83283
588.192	14569.41891
588.395	14812.22452
588.599	14652.37905
588.802	14775.80448
589.005	14350.87944
589.208	15034.78749
589.411	14796.03787
589.615	14721.17396
589.818	14834.4811
590.021	14965.99586
590.224	14897.20379
590.427	15133.9279
590.63	14996.34515
590.833	14925.53
591.036	14939.69307
591.239	15036.81076
591.442	14895.18049
591.645	15196.64929
591.848	15202.71911
592.051	15295.78972
592.254	14889.11057
592.457	15332.20877
592.66	15144.04426
592.863	15087.39265
593.066	15439.44331
593.269	15599.28622
593.472	15566.91264
593.675	15617.49644
593.878	15546.67924
594.081	15589.16945
594.284	15591.19281
594.486	15655.94047
594.689	15581.07606
594.892	15469.79294
595.095	15645.82359
595.298	15591.19281
595.5	15696.4082
595.703	15874.47099
595.906	15419.21029
596.109	15898.75296
596.311	15641.77685
596.514	15819.83719
596.717	15757.1105
596.92	15975.64708
597.122	15645.82359
597.325	15593.21616
597.528	15449.55984
597.73	15872.4475
597.933	15880.54147
598.136	16196.22332
598.338	15785.43856
598.541	15807.69646
598.743	15981.71775
598.946	15688.31462
599.148	15860.30659
599.351	15945.29391
599.554	16117.29943
599.756	15993.85913
599.959	16042.42515
600.161	16125.39408
600.363	16449.20264
600.566	16477.53821
600.768	16200.27076
600.971	16305.50682
601.173	16026.23638
601.376	16420.86747
601.578	16287.29255
601.78	16568.6196
601.983	16390.5088
602.185	16354.07897
602.388	16398.6044
602.59	16611.12574
602.792	16171.93878
602.995	16277.17357
603.197	16408.72395
603.399	16321.69742
603.601	16295.38776
603.804	16447.17869
604.006	16084.92111
604.208	16661.72959
604.41	16362.17443
604.613	16609.10162
604.815	16501.82616
605.017	16625.29468
605.219	16455.27451
605.421	16471.46626
605.623	16617.19813
605.826	16451.2266
606.028	16613.14987
606.23	16916.79564
606.432	16596.95692
606.634	17115.20858
606.836	16605.05338
607.038	16898.57532
607.24	16582.7882
607.442	16880.35522
607.644	16295.38776
607.846	16926.91813
608.048	16738.65021
608.25	17277.19822
608.452	16746.74731
608.654	16953.2369
608.856	16886.42856
609.058	16886.42856
609.26	16750.79588
609.462	16823.67175
609.664	16937.04068
609.866	16870.23302
610.067	16866.18416
610.269	17153.67946
610.471	16671.85053
610.673	17028.14664
610.875	17005.8758
611.077	16918.82013
611.278	16696.14103
611.48	17036.24521
611.682	16609.10162
611.884	16953.2369
612.085	16829.74489
612.287	16951.21237
612.489	16898.57532
612.69	17420.97989
612.892	17159.7539
613.094	17240.74893
613.295	16991.70361
613.497	16959.31053
613.699	17060.54119
613.9	17469.58565
614.102	17131.40672
614.304	17009.92502
614.505	16926.91813
614.707	17054.46716
614.908	16734.60167
615.11	17030.17128
615.311	17020.04811
615.513	16775.08749
615.714	16764.96594
615.916	17032.19592
616.117	16924.89362
616.319	17356.17499
616.52	16870.23302
616.722	17202.27572
616.923	16827.72051
617.124	17425.0303
617.326	17076.73872
617.527	17366.30055
617.729	17198.22596
617.93	16971.45785
618.131	16953.2369
618.333	17024.09737
618.534	16926.91813
618.735	17358.2001
618.937	17005.8758
619.138	17240.74893
619.339	17271.12327
619.54	17325.79877
619.742	17291.3732
619.943	17516.16786
620.144	17009.92502
620.345	17066.61524
620.546	17348.0746
620.748	17260.99842
620.949	17129.38195
621.15	17038.26986
621.351	17210.37525
621.552	17289.3482
621.753	17307.57336
621.954	17169.87803
622.155	17052.44249
622.356	17218.47484
622.558	17380.47646
622.759	17406.80355
622.96	17173.9277
623.161	17508.06649
623.362	17206.32548
623.563	17394.65252
623.764	17532.37076
623.965	17427.05551
624.166	17301.49828
624.366	17475.66149
624.567	17512.11717
624.768	17378.45132
624.969	16957.28598
625.17	17258.97346
625.371	17416.92949
625.572	17267.07332
625.773	17113.18383
625.973	17445.28255
626.174	17400.72802
626.375	17479.71207
626.576	17307.57336
626.777	17580.9807
626.977	17578.95525
627.178	17860.52474
627.379	17372.37592
627.58	17580.9807
627.78	17487.81327
627.981	17745.05315
628.182	17911.1737
628.382	17830.1364
628.583	17767.33628
628.784	17337.94918
628.984	17084.83756
629.185	17696.43683
629.386	17453.38353
629.586	18028.68773
629.787	17674.15499
629.987	17738.97601
630.188	17420.97989
630.388	17771.3878
630.589	17686.30867
630.79	17706.56507
630.99	17548.57387
631.191	17844.31753
631.391	17686.30867
631.591	17767.33628
631.792	17366.30055
631.992	18016.53055
632.193	17903.06972
632.393	17645.79686
632.594	17678.2062
632.794	17884.83597
632.994	17854.44701
633.195	18085.42292
633.395	17637.69466
633.595	17576.92981
633.796	17627.56698
633.996	18176.61042
634.196	17860.52474
634.397	17903.06972
634.597	17805.82629
634.797	17892.93982
634.997	18081.37031
635.198	17836.21401
635.398	17890.91386
635.598	18472.51484
635.798	17945.61624
635.998	18065.16003
636.199	17933.45993
636.399	18192.8223
636.599	17830.1364
636.799	18164.45166
636.999	17888.88789
637.199	17791.64562
637.399	17828.11054
637.599	17724.79612
637.799	17623.51593
637.999	18085.42292
638.199	17896.99177
638.399	18221.19367
638.599	18237.4062
638.799	18612.38827
638.999	18411.70601
639.199	18156.34589
639.399	18245.51256
639.599	18202.95485
639.799	18046.92373
639.999	18101.63349
640.199	17994.24273
640.399	18448.1909
640.599	17763.28477
640.799	18711.72992
640.998	18209.03442
641.198	18356.98098
641.398	18099.60716
641.598	18748.22514
641.798	18302.25871
641.997	18373.19552
642.197	18253.61897
642.397	18409.67911
642.597	18470.48782
642.796	18373.19552
642.996	18176.61042
643.196	18405.62532
643.395	18411.70601
643.595	18397.51778
643.795	18531.29999
643.994	18381.30288
644.194	18245.51256
644.394	18314.41898
644.593	18310.36554
644.793	18448.1909
644.992	18213.08749
645.192	18614.41556
645.392	18275.91192
645.591	18748.22514
645.791	18541.43568
645.99	18772.55599
646.19	18679.29079
646.389	18863.8018
646.589	18764.44564
646.788	18914.4974
646.987	18403.59842
647.187	18616.44285
647.386	18186.74282
647.586	18594.14287
647.785	18754.3078
647.984	18969.25148
648.184	19024.00849
648.383	18827.30251
648.582	18663.07161
648.782	18734.0324
648.981	18600.22463
649.18	18640.77064
649.38	18500.89347
649.579	18869.88514
649.778	18782.69402
649.977	19056.45848
650.177	19042.26148
650.376	18811.08102
650.575	18800.94271
650.774	18894.21886
650.973	18910.44166
651.173	18894.21886
651.372	18476.56889
651.571	18707.67497
651.77	18685.37305
651.969	18782.69402
652.168	18644.82533
652.367	18780.66641
652.566	18760.39049
652.765	19208.58171
652.964	18875.96851
653.163	18894.21886
653.362	18873.94072
653.561	18697.53768
653.76	19226.83805
653.959	19224.80955
654.158	19090.93774
654.357	19131.50307
654.556	18817.16405
654.755	19024.00849
654.954	18659.01685
655.153	18928.69262
655.352	19218.72408
655.551	19289.72352
655.749	19253.20889
655.948	19488.54888
656.147	19320.1534
656.346	19504.78128
656.545	19054.43033
656.743	19062.54297
656.942	18910.44166
657.141	19320.1534
657.34	19109.19194
657.538	19186.26887
657.737	19374.92952
657.936	19559.5676
658.135	18861.77403
658.333	19107.16368
658.532	19168.01327
658.731	19070.65568
658.929	19109.19194
659.128	19026.03658
659.326	19040.23335
659.525	19661.03178
659.724	19518.98485
659.922	19328.26819
660.121	19115.27674
660.319	18995.6156
660.518	18474.54186
660.716	19251.18034
660.915	18959.11161
661.113	19163.95652
661.312	18983.44746
661.51	18853.66298
661.709	19032.12089
661.907	18922.60893
662.105	19295.80942
662.304	19734.09246
662.502	19794.98051
662.701	19472.31674
662.899	19080.79666
663.097	19125.41817
663.296	19437.82434
663.494	19770.62484
663.692	19675.2376
663.891	19236.9806
664.089	19247.12325
664.287	19545.36345
664.485	19230.89506
664.684	19677.26701
664.882	19101.07892
665.08	19277.55183
665.278	19403.33314
665.476	19117.30502
665.675	19040.23335
665.873	19184.24045
666.071	19328.26819
666.269	19283.63766
666.467	19285.66628
666.665	19320.1534
666.863	19115.27674
667.061	19269.43745
667.259	19050.37403
667.457	19348.55546
667.655	19064.57114
667.853	19490.57791
668.051	19405.362
668.249	19376.95832
668.447	19159.89978
668.645	19338.41177
668.843	19314.06735
669.041	19395.21774
669.239	19058.48664
669.437	19149.75801
669.635	19253.20889
669.833	19019.95231
670.031	18683.34563
670.229	19080.79666
670.426	19024.00849
670.624	18942.88804
670.822	19113.24847
671.02	19312.03868
671.218	19437.82434
671.415	19409.41974
671.613	19275.52323
671.811	19129.47477
672.009	19060.5148
672.206	19537.24688
672.404	19539.27601
672.602	19064.57114
672.799	19117.30502
672.997	19180.18363
673.195	19088.90951
673.392	19178.15523
673.59	19182.21204
673.788	19261.32314
673.985	18800.94271
674.183	18989.53151
674.38	19030.09278
674.578	19163.95652
674.775	19224.80955
674.973	19149.75801
675.17	18983.44746
675.368	19088.90951
675.565	18778.6388
675.763	19385.07358
675.96	19178.15523
676.158	19097.02243
676.355	18884.07974
676.553	18936.80426
676.75	18861.77403
676.947	19409.41974
677.145	18971.27946
677.342	18997.64363
677.539	18622.52474
677.737	18768.50081
677.934	18616.44285
678.131	18784.72164
678.329	18825.27481
678.526	18918.55316
678.723	18973.30745
678.92	19565.65515
679.118	19251.18034
679.315	19405.362
679.512	18961.13958
679.709	18839.46879
679.906	19149.75801
680.104	19072.68387
680.301	19121.36159
680.498	18734.0324
680.695	18750.25269
680.892	19243.06618
681.089	18851.63522
681.286	19143.67299
681.483	18519.13728
681.68	18807.02568
681.877	19064.57114
682.075	19206.55325
682.272	18804.99802
682.469	19409.41974
682.665	18798.91506
682.862	18973.30745
683.059	18855.69073
683.256	18764.44564
683.453	18788.77688
683.65	18786.74926
683.847	19078.76845
684.044	18361.0346
684.241	18610.36099
684.438	18786.74926
684.635	18245.51256
684.831	18847.57973
685.028	18490.75816
685.225	18723.89485
685.422	18381.30288
685.619	18920.58104
685.815	18732.00488
686.012	18648.88003
686.209	18517.11017
686.405	18742.14251
686.602	18549.54431
686.799	18431.97524
686.996	18024.63532
687.192	18488.73111
687.389	18306.31211
687.586	18361.0346
687.782	18429.9483
687.979	18665.09899
688.175	18286.04522
688.372	18533.32712
688.568	18217.14057
688.765	18389.4103
688.962	18446.16393
689.158	18705.64751
689.355	18571.84335
689.551	18744.17005
689.748	18312.39226
689.944	18215.11403
690.14	18225.24678
690.337	18732.00488
690.533	18513.05597
690.73	18466.4338
690.926	18555.62582
691.123	18359.00779
691.319	18281.99189
691.515	18640.77064
691.712	18318.47243
691.908	18200.92833
692.104	18265.7787
692.301	18736.05992
692.497	18310.36554
692.693	18391.43716
692.889	18387.38344
693.086	18359.00779
693.282	18444.13696
693.478	18103.65983
693.674	18024.63532
693.87	18306.31211
694.067	18188.76931
694.263	18462.3798
694.459	18180.66337
694.655	18318.47243
694.851	18079.34401
695.047	18148.24018
695.243	18344.82024
695.439	18237.4062
695.635	18223.22022
695.831	18075.29143
696.027	18245.51256
696.224	18012.47819
696.42	17801.77465
696.615	18328.60613
696.811	18063.13376
697.007	18050.97622
697.203	18154.31946
697.399	17779.49089
697.595	17850.39521
697.791	17751.13033
697.987	17587.05708
698.183	17882.81002
698.379	17767.33628
698.575	17994.24273
698.77	17777.46511
698.966	17854.44701
699.162	17655.92469
699.358	17706.56507
699.554	17945.61624
699.749	18350.9006
699.945	17828.11054
700.141	18059.08123
700.337	17629.59251
700.532	17811.90377
700.728	17862.55066
700.924	17919.27774
701.119	17548.57387
701.315	17451.35828
701.511	17591.10801
701.706	17878.75812
701.902	17552.62468
702.097	17712.64205
702.293	17878.75812
702.489	17864.57658
702.684	17734.92459
702.88	17842.29165
703.075	17497.93984
703.271	17483.76267
703.466	17556.6755
703.662	17583.00616
703.857	17463.50983
704.053	17830.1364
704.248	17240.74893
704.443	17674.15499
704.639	17585.03162
704.834	18034.76636
705.03	17637.69466
705.225	18034.76636
705.42	17807.85211
705.616	17512.11717
705.811	17700.48811
706.006	17890.91386
706.202	17570.85348
706.397	17619.46489
706.592	17662.00143
706.787	17880.78406
706.983	17651.87355
707.178	17747.07887
707.373	17674.15499
707.568	17410.85392
707.763	17214.42504
707.959	17463.50983
708.154	17325.79877
708.349	17518.19321
708.544	17412.87911
708.739	17765.31053
708.934	17510.09183
709.129	17597.18443
709.324	17297.44824
709.519	17384.52675
709.714	17358.2001
709.909	17722.77043
710.104	17327.82383
710.299	17453.38353
710.494	17516.16786
710.689	17657.95027
710.884	17333.89903
711.079	17609.33736
711.274	17350.09969
711.469	17759.23328
711.664	17439.20684
711.859	18196.87531
712.054	17738.97601
712.249	17631.61804
712.443	17621.49041
712.638	17366.30055
712.833	17038.26986
713.028	17327.82383
713.223	17032.19592
713.417	17028.14664
713.612	16706.26217
713.807	17242.77387
714.002	16941.08972
714.196	17319.72361
714.391	17054.46716
714.586	17279.22321
714.78	17461.48456
714.975	17477.68678
715.17	17277.19822
715.364	17350.09969
715.559	17230.6243
715.754	16987.65444
715.948	16827.72051
716.143	16651.60871
716.337	16983.60527
716.532	17451.35828
716.726	17046.36849
716.921	17062.56587
717.115	16771.03886
717.31	16999.80198
717.504	17096.98589
717.699	17220.49974
717.893	16821.64738
718.088	17364.27543
718.282	17026.12201
718.476	17394.65252
718.671	16532.18652
718.865	17186.07678
719.059	16643.51204
719.254	16726.50462
719.448	16659.70541
719.642	16856.06206
719.837	16528.13844
720.031	16740.67448
720.225	16366.22218
720.419	16775.08749
720.614	16459.32244
720.808	16631.36711
721.002	16277.17357
721.196	16657.68123
721.39	16406.70004
721.585	16586.8364
721.779	16313.60211
721.973	16617.19813
722.167	16228.60308
722.361	16394.5566
722.555	16615.174
722.749	16675.89893
722.943	16254.91197
723.137	16675.89893
723.331	16485.63416
723.525	16657.68123
723.719	16702.2137
723.913	16688.04416
724.107	16639.46372
724.301	16619.22226
724.495	15921.01159
724.689	16372.29381
724.883	15943.27038
725.077	16283.24495
725.271	16204.31822
725.465	16026.23638
725.659	15852.21267
725.853	16236.69809
726.046	15809.71991
726.24	16003.97698
726.434	15645.82359
726.628	16491.70614
726.822	16010.04771
727.015	16184.08102
727.209	15955.4116
727.403	16252.8882
727.596	16204.31822
727.79	16394.5566
727.984	15908.8705
728.177	16366.22218
728.371	16372.29381
728.565	16394.5566
728.758	16093.01565
728.952	15941.24684
729.146	15959.45868
729.339	16424.91533
729.533	16099.08657
729.726	16339.91198
729.92	15991.83556
730.113	16050.51956
730.307	16058.61401
730.5	16178.00989
730.694	16090.99201
730.887	16143.60712
731.081	16099.08657
731.274	16267.05463
731.468	15937.19978
731.661	16123.37041
731.854	16149.67816
732.048	16143.60712
732.241	15789.48544
732.435	15769.25107
732.628	16074.80296
732.821	16295.38776
733.014	15963.50577
733.208	16277.17357
733.401	16208.36568
733.594	16093.01565
733.788	16123.37041
733.981	16285.26875
734.174	16441.10684
734.367	15985.76487
734.56	16026.23638
734.754	16339.91198
734.947	16449.20264
735.14	16182.05731
735.333	16192.17588
735.526	15876.49448
735.719	15562.86595
735.912	15649.87034
736.105	15789.48544
736.298	15856.25963
736.491	15894.70595
736.684	16012.07129
736.877	16050.51956
737.07	15836.02489
737.263	15736.8763
737.456	15807.69646
737.649	15744.96997
737.842	15803.64956
738.035	15817.81373
738.228	15647.84696
738.421	15664.03399
738.614	15876.49448
738.807	15631.66
739	15775.32137
739.192	15700.45499
739.385	16080.87384
739.578	15779.36824
739.771	15765.20421
739.964	15918.98807
740.156	15894.70595
740.349	15799.60266
740.542	15767.22764
740.735	15720.68902
740.927	15785.43856
741.12	15811.74336
741.313	15767.22764
741.505	15585.12275
741.698	15542.63257
741.891	15755.08708
742.083	15637.7301
742.276	15742.94655
742.468	15524.42259
742.661	15433.3734
742.854	15235.09146
743.046	15261.39402
743.239	15362.55806
743.431	15591.19281
743.624	15627.61326
743.816	15413.14039
744.009	15795.55577
744.201	15542.63257
744.393	15496.09605
744.586	15168.3235
744.778	15548.70258
744.971	15253.30092
745.163	15322.09236
745.355	15220.92855
745.548	15550.72592
745.74	15305.90611
745.932	15261.39402
746.125	15063.11336
746.317	15287.69661
746.509	14834.4811
746.702	15208.78892
746.894	15188.55621
747.086	15071.20646
747.278	15275.55694
747.471	15518.35261
747.663	15332.20877
747.855	15591.19281
748.047	15316.02251
748.239	15593.21616
748.431	15324.11564
748.623	15467.76963
748.815	15490.02609
749.008	15560.84261
749.2	15469.79294
749.392	15324.11564
749.584	14951.83283
749.776	15378.74438
749.968	15350.41833
750.16	15475.86288
750.352	15431.3501
750.544	15311.97595
750.736	15208.78892
750.928	15257.34747
751.12	15156.18388
751.311	14965.99586
751.503	14852.69097
751.695	15097.50901
751.887	14666.5428
752.079	15137.97445
752.271	14885.06396
752.463	14909.34361
752.654	14824.36448
752.846	14998.36843
753.038	14838.52774
753.23	14968.01915
753.421	15089.41592
753.613	14806.15453
753.805	15190.57948
753.997	14704.98702
754.188	15079.29956
754.38	14702.96364
754.572	14856.7376
754.763	14933.62319
754.955	14601.79382
755.146	15055.02026
755.338	14702.96364
755.53	14526.92638
755.721	14763.66442
755.913	14860.78423
756.104	14709.03376
756.296	14674.63635
756.487	14785.92118
756.679	14601.79382
756.87	14395.39813
757.062	14571.44235
757.253	14367.06815
757.445	14423.72781
757.636	14419.68073
757.827	14599.7704
758.019	14711.05713
758.21	14565.37203
758.401	14763.66442
758.593	14532.99678
758.784	14496.57423
758.975	14172.79617
759.167	14221.36579
759.358	14176.84368
759.549	14330.64341
759.74	14124.22536
759.932	14124.22536
760.123	14170.77241
760.314	14126.24917
760.505	14140.41576
760.696	14010.88849
760.888	14474.3158
761.079	13962.31325
761.27	13950.16921
761.461	13869.20654
761.652	14063.51008
761.843	13887.42352
762.034	14110.05864
762.225	13966.36124
762.416	14006.84061
762.607	14114.10628
762.798	14095.89181
762.989	14122.20155
763.18	14182.91493
763.371	14203.15231
763.562	14464.19827
763.753	13666.77972
763.944	13927.9049
764.135	14035.17558
764.326	14051.36678
764.517	13826.69938
764.708	14091.84413
764.899	13531.13572
765.089	13571.62809
765.28	13352.9515
765.471	13753.82697
765.662	13494.69134
765.853	13521.0124
766.043	13282.07419
766.234	13597.94738
766.425	13190.93851
766.615	13348.9015
766.806	13304.35047
766.997	13529.11106
767.187	13225.3686
767.378	13589.8492
767.569	13300.30028
767.759	13472.41919
767.95	13425.84866
768.141	13442.04733
768.331	13089.66591
768.522	13122.07441
768.712	13257.77221
768.903	13344.85149
769.093	13371.17628
769.284	13079.53801
769.474	13122.07441
769.665	13134.22729
769.855	13028.89666
770.046	13280.04905
770.236	13059.28183
770.426	13162.58335
770.617	13253.72182
770.807	12935.70842
770.998	12862.77085
771.188	12919.50067
771.378	12645.94173
771.569	12889.11021
771.759	12806.03678
771.949	12741.1925
772.139	12960.01944
772.33	12639.86145
772.52	12722.95399
772.71	12964.0712
772.9	12911.39666
773.09	12864.79698
773.281	12799.95788
773.471	12672.28899
773.661	12889.11021
773.851	12714.84784
774.041	12627.70072
774.231	12846.56155
774.421	12447.29022
774.611	12317.52474
774.802	12621.62027
774.992	12564.86678
775.182	12364.16242
775.372	12457.42698
775.562	12250.60333
775.752	12266.82741
775.942	12175.56093
776.131	12218.15379
776.321	12108.62267
776.511	12173.53262
776.701	12177.58923
776.891	12457.42698
777.081	12368.2177
777.271	12469.59089
777.461	12433.09846
777.651	12335.7747
777.84	12063.99257
778.03	12360.10711
778.22	12137.02172
778.41	12366.19006
778.599	12343.88561
778.789	12260.74344
778.979	12114.7083
779.169	11643.87117
779.358	12053.84884
779.548	12230.32258
779.738	11952.40077
779.927	12027.47424
780.117	12027.47424
780.307	12134.99326
780.496	11997.04037
780.686	12193.81541
780.875	12005.15624
781.065	12289.13478
781.254	11982.83728
781.444	12218.15379
781.633	11767.71283
781.823	11844.84371
782.012	11692.59969
782.202	12029.50311
782.391	11733.20288
782.581	11871.22779
782.77	11800.19049
782.96	11903.69856
783.149	11790.04146
783.338	11601.22943
783.528	11639.81022
783.717	11859.0507
783.906	11802.22028
784.096	11741.32309
784.285	11662.14497
784.474	11343.26006
784.663	11331.06864
784.853	11442.80994
785.042	11083.09617
785.231	11207.10182
785.42	11329.03671
785.61	11550.46018
785.799	11178.645
785.988	11444.84132
786.177	11066.83017
786.366	11302.6206
786.555	11091.2289
786.744	11018.02798
786.933	11020.06153
787.122	11499.68509
787.312	11207.10182
787.501	11188.80839
787.69	11245.71854
787.879	11308.71678
788.068	10989.55711
788.257	10904.13131
788.445	10727.11324
788.634	11018.02798
788.823	11170.5141
789.012	11213.19945
789.201	11125.79111
789.39	11351.38747
789.579	10973.28706
789.768	11231.49176
789.957	11013.96085
790.145	11416.40104
790.334	11074.96325
790.523	11030.22912
790.712	10839.0315
790.9	10810.54659
791.089	10539.82284
791.278	10869.5485
791.467	10841.06604
791.655	10900.06292
791.844	10692.51303
792.033	10684.3713
792.221	10570.36646
792.41	10790.19883
792.599	10238.30344
792.787	10464.46973
792.976	10639.58829
793.164	10602.94323
793.353	10462.43292
793.541	10560.18557
793.73	10277.02822
793.918	10376.87506
794.107	10085.3941
794.295	10515.3859
794.484	10452.24866
794.672	10523.53175
794.861	11026.16212
795.049	10814.61601
795.238	10344.27552
795.426	10765.77996
795.614	10484.83716
795.803	10193.45809
795.991	10101.70816
796.179	10071.11856
796.368	10024.20832
796.556	10291.29402
796.744	9875.26881
796.932	10543.89549
797.121	9885.47263
797.309	10240.34171
797.497	10148.60608
797.685	10060.92132
797.874	9985.45068
798.062	10120.0604
798.25	9701.74665
798.438	10003.81021
798.626	10034.40684
798.814	9991.57065
799.002	9891.59474
799.19	10034.40684
799.378	9836.49091
799.566	9844.65513
799.755	9893.63542
799.943	10228.1119
800.131	10164.91668
800.318	9914.04136
800.506	9965.04983
800.694	10048.68417
800.882	9914.04136
801.07	10230.15023
801.258	10073.15797
801.446	10203.6508
801.634	9852.8191
801.822	10252.57104
802.01	10048.68417
802.197	10287.21814
802.385	9775.25168
802.573	9897.71672
802.761	9630.26436
802.949	10081.31545
803.136	9879.35038
803.324	9858.94192
803.512	9869.14634
803.699	9852.8191
803.887	9952.80863
804.075	9948.72811
804.262	9983.41066
804.45	10038.48615
804.638	9860.98284
804.825	9881.39114
805.013	9526.07023
805.201	10052.76327
805.388	9722.1667
805.576	10224.03518
805.763	10158.80031
805.951	10366.68807
806.138	9936.48621
806.326	10107.8257
806.513	9930.36507
806.701	10099.66895
806.888	9905.87916
807.075	9975.25044
807.263	9844.65513
807.45	10036.4465
807.638	9873.228
807.825	10122.09947
808.012	9918.12238
808.2	10254.60921
808.387	10158.80031
808.574	10191.41951
808.761	10016.04925
808.949	9901.79797
809.136	9889.55405
809.323	10272.95216
809.51	10126.17756
809.698	9912.00083
809.885	9716.04084
810.072	10189.38091
810.259	9905.87916
810.446	9922.20333
810.633	10044.605
810.82	10040.52578
811.008	9763.00221
811.195	9897.71672
811.382	9550.59018
811.569	9928.32465
811.756	9664.98669
811.943	10242.37997
812.13	9828.32646
812.317	10103.74735
812.504	9836.49091
812.691	10289.25609
812.878	10221.99681
813.064	10207.72778
813.251	10136.37255
813.438	10246.45643
813.625	10097.62973
813.812	10007.88994
813.999	9926.28423
814.186	10058.88183
814.372	9918.12238
814.559	9989.53067
814.746	9624.13642
814.933	9977.29051
815.12	9824.24415
815.306	9540.37381
815.493	9887.51335
815.68	10073.15797
815.866	9950.76838
816.053	9995.65056
816.24	9805.87299
816.426	9718.08281
816.613	9697.66246
816.799	9914.04136
816.986	9746.66874
817.173	9699.70456
817.359	9858.94192
817.546	9854.86006
817.732	9834.44982
817.919	9954.84887
818.105	9607.79457
818.292	9811.99684
818.478	9515.8529
818.665	9779.33472
818.851	9640.47728
819.037	9763.00221
819.224	9542.41712
819.41	9889.55405
819.597	9930.36507
819.783	9795.66626
819.969	9509.72232
820.156	9758.91894
820.342	9650.68981
820.528	9730.33429
820.714	9705.83078
820.901	9738.50163
821.087	9738.50163
821.273	9644.56234
821.459	9542.41712
821.646	9938.52657
821.832	9509.72232
822.018	9554.67662
822.204	9239.83187
822.39	9534.2438
822.576	9479.06723
822.762	9438.18816
822.948	9583.27991
823.134	9552.63341
823.32	9556.71981
823.507	9427.96738
823.693	9530.15704
823.879	9340.05187
824.065	9415.70191
824.25	9313.46678
824.436	9135.47838
824.622	9454.54056
824.808	9166.17517
824.994	9162.08249
825.18	8842.63905
825.366	9405.48024
825.552	9288.92421
825.738	9280.74282
825.923	9080.21443
826.109	9487.24227
826.295	9182.54522
826.481	9542.41712
826.667	9086.35549
826.852	9407.52461
827.038	9331.87214
827.224	9595.53753
827.409	9436.14403
827.595	9430.01157
827.781	9215.28207
827.966	9538.33049
828.152	9088.40247
828.338	9190.72984
828.523	8723.76102
828.709	8986.03191
828.894	8623.28145
829.08	8871.32462
829.266	8684.80483
829.451	8947.1196
829.637	8754.51122
829.822	8854.9333
830.008	8895.90945
830.193	9047.45947
830.378	8873.37346
830.564	8932.78188
830.749	8756.56108
830.935	9008.55718
831.12	8567.89605
831.305	9074.07321
831.491	8576.10216
831.676	8772.95936
831.861	8723.76102
832.047	8645.84197
832.232	8340.05505
832.417	8639.68932
832.602	8561.74127
832.788	8629.43454
832.973	8518.65306
833.158	8647.89281
833.343	8352.37685
833.528	8526.86098
833.714	8409.86931
833.899	8413.97534
834.084	8247.61919
834.269	8387.2848
834.454	8280.48983
834.639	8569.94761
834.824	8539.1723
835.009	8803.70298
835.194	8662.2482
835.379	8734.01154
835.564	8446.82076
835.749	8731.96148
835.934	8699.15788
836.119	8619.1793
836.304	8266.10954
836.489	8329.78636
836.674	7918.63154
836.859	8138.69904
837.044	8518.65306
837.228	8551.48293
837.413	8259.94627
837.598	8563.79288
837.783	8132.53207
837.968	8391.39124
838.152	8401.65703
838.337	8434.50431
838.522	8227.07248
838.707	8374.96498
838.891	8255.83732
839.076	8323.62491
839.261	7998.87
839.445	7819.83352
839.63	7655.06333
839.815	7795.12655
839.999	7945.38115
840.184	8077.02126
840.368	8027.66598
840.553	7918.63154
840.737	7545.82852
840.922	7667.42577
841.106	7473.65934
841.291	7607.6669
841.475	7461.28482
841.66	7479.8463
841.844	7378.76814
842.029	7475.72168
842.213	7481.90858
842.397	7861.00516
842.582	7653.00285
842.766	7926.86256
842.951	7552.01322
843.135	7716.86792
843.319	7267.31524
843.504	7543.76691
843.688	7267.31524
843.872	7537.58194
844.056	7444.78426
844.241	7514.9021
844.425	7481.90858
844.609	7609.72785
844.793	7323.04968
844.977	7384.9581
845.161	7318.92175
845.346	7584.99506
845.53	7508.71623
845.714	7671.54642
845.898	7310.66563
846.082	7308.60155
846.266	7277.63764
846.45	7420.03082
846.634	7038.0153
846.818	7139.27159
847.002	6878.78927
847.186	7238.40959
847.37	7147.53504
847.554	7073.15111
847.738	6856.03174
847.922	7002.873
848.106	6903.61253
848.29	6818.78622
848.473	6891.20131
848.657	6969.79195
848.841	6907.74942
849.025	6887.06405
849.209	6686.29777
849.392	7042.14926
849.576	6957.38507
849.76	7025.61288
849.944	6924.29609
850.127	7048.35003
850.311	6804.29985
850.495	7035.94828
850.678	6632.4475
850.862	7054.55061
851.046	6858.10072
851.229	7060.75098
851.413	6924.29609
851.596	7052.48377
851.78	6988.40075
851.964	7112.4129
852.147	6752.55371
852.331	6930.50071
852.514	6663.51686
852.698	6907.74942
852.881	6311.09243
853.065	6673.87217
853.248	6338.06627
853.431	6793.95177
853.615	6485.31538
853.798	6497.7536
853.982	6433.48049
854.165	6651.08974
854.348	6445.92219
854.532	6595.15743
854.715	6238.45092
854.898	6352.589
855.081	6296.56642
855.265	6416.89025
855.448	6470.80307
855.631	6580.65371
855.814	6317.31751
855.997	6456.28963
856.181	6539.20829
856.364	6365.03616
856.547	6184.47008
856.73	6273.73752
856.913	6072.30531
857.096	6377.48247
857.279	6286.19
857.462	6468.7298
857.645	6427.25932
857.828	6530.91809
858.011	6329.76704
858.194	6196.9286
858.377	6007.88343
858.56	6255.05722
858.743	6165.78071
858.926	6244.67846
859.109	6115.93308
859.292	6167.8574
859.475	5901.84978
859.658	6142.93556
859.841	5677.10538
860.023	6103.46906
860.206	5928.88379
860.389	5874.81179
860.572	5439.5767
860.755	5689.5984
860.937	5493.77686
861.12	5631.29037
861.303	5745.80649
861.486	5883.1316
861.668	5604.21249
861.851	5685.43416
862.034	5583.38065
862.216	5520.87097
862.399	5345.73121
862.581	5608.37858
862.764	5287.31448
862.947	5741.64352
863.129	5527.12289
863.312	5675.02313
863.494	5650.03425
863.677	5727.07237
863.859	5276.88099
864.042	5435.4068
864.224	5397.87346
864.406	5566.71347
864.589	5134.92759
864.771	5570.88041
864.954	5078.53389
865.136	5191.30435
865.318	5143.28077
865.501	5358.24668
865.683	5258.09924
865.865	5316.52514
866.048	5078.53389
866.23	5241.40276
866.412	4967.78607
866.594	5249.75118
866.777	5274.79422
866.959	5218.44265
867.141	5086.88958
867.323	5086.88958
867.505	4890.43321
867.687	5099.42242
867.869	4781.66813
868.052	5107.77718
868.234	4702.14712
868.416	5057.64305
868.598	4790.03686
868.78	5057.64305
868.962	4938.52112
869.144	5143.28077
869.326	4842.33318
869.508	5157.89795
869.69	4750.28216
869.872	5283.14116
870.054	4980.32682
870.236	5312.35247
870.417	5009.58532
870.599	4944.79256
870.781	4798.40523
870.963	4854.88218
871.145	4758.65225
871.327	4873.70414
871.508	4612.12357
871.69	4716.79818
871.872	4674.93507
872.054	4831.87506
872.235	4624.68748
872.417	4815.14087
872.599	4488.53574
872.78	4804.68127
872.962	4607.93542
873.144	4723.07686
873.325	4612.12357
873.507	4971.96641
873.689	4668.65483
873.87	4723.07686
874.052	4635.15679
874.233	4723.07686
874.415	4639.34436
874.596	4769.11436
874.778	4371.16106
874.959	4779.57589
875.141	4580.71027
875.322	4850.69927
875.503	4674.93507
875.685	4969.87626
875.866	4790.03686
876.048	4802.58928
876.229	4599.55885
876.41	4440.33659
876.592	4570.23805
876.773	4748.18958
876.954	4392.12585
877.136	4702.14712
877.317	4574.427
877.498	4767.02198
877.679	4310.3509
877.86	4892.52424
878.042	4522.05871
878.223	4833.96673
878.404	4706.33325
878.585	4898.79719
878.766	4735.63363
878.947	5070.17783
879.128	4697.9609
879.309	4825.59991
879.49	4863.24772
879.672	4729.35535
879.853	4572.33254
880.034	4894.61525
880.215	4524.15371
880.396	4896.70623
880.576	4850.69927
880.757	4882.06885
880.938	4557.67066
881.119	4823.50815
881.3	4584.899
881.481	4890.43321
881.662	4792.12899
881.843	4704.24019
882.023	4685.40169
882.204	4827.69165
882.385	4779.57589
882.566	4790.03686
882.747	4882.06885
882.927	4942.7021
883.108	4670.74827
883.289	4792.12899
883.469	4689.58818
883.65	4990.7768
883.831	4547.19722
884.011	4905.06994
884.192	4718.8911
884.373	4957.33482
884.553	5007.49558
884.734	4733.54089
884.914	4900.88813
885.095	4978.23675
885.275	4798.40523
885.456	4915.52407
885.636	4951.06379
885.817	5024.21288
885.997	4563.95446
886.178	4974.05655
886.358	4856.9736
886.538	4714.70524
886.719	4823.50815
886.899	4842.33318
887.08	4624.68748
887.26	4909.25166
887.44	4668.65483
887.621	5105.68853
887.801	4769.11436
887.981	4842.33318
888.161	4658.18731
888.342	4840.2416
888.522	4710.51929
888.702	4865.33905
888.882	4702.14712
889.062	4815.14087
889.242	4785.85254
889.423	4787.94471
889.603	4758.65225
889.783	5168.33809
889.963	4697.9609
890.143	5053.4646
890.323	4790.03686
890.503	4846.51627
890.683	4553.48135
890.863	4756.55976
891.043	4457.10283
891.223	4739.81904
891.403	4499.01227
891.583	4825.59991
891.763	4664.46789
891.943	4656.09374
892.122	4543.00769
892.302	4563.95446
892.482	4421.47289
892.662	4731.44813
892.842	4519.96369
893.022	4771.20671
893.201	4490.63109
893.381	4582.80464
893.561	4563.95446
893.741	4714.70524
893.92	4327.12793
894.1	4526.24868
894.28	4431.95294
894.459	4538.81807
894.639	4314.54529
894.819	4689.58818
894.998	4337.61288
895.178	4543.00769
895.357	4540.91289
895.537	4683.30841
895.716	4390.02946
895.896	4557.67066
896.075	4253.71827
896.255	4626.78139
896.434	4406.7999
896.614	4702.14712
896.793	4304.05916
896.973	4524.15371
897.152	4092.1253
897.331	4455.00712
897.511	4325.03088
897.69	4528.34364
897.87	4333.41896
898.049	4538.81807
898.228	4247.42479
898.407	4379.54723
898.587	4243.22903
898.766	4475.96317
898.945	4102.62213
899.124	4031.23343
899.304	3938.81276
899.483	3886.28352
899.662	3852.65822
899.841	4167.69082
900.02	3856.86167
900.199	4003.93144
900.378	3926.20689
900.557	4092.1253
900.737	3875.77616
900.916	4207.56164
901.095	3861.06503
901.274	3964.02231
901.453	3816.92578
901.632	3808.51731
901.811	3608.72503
901.989	3707.59133
902.168	3589.78842
902.347	3762.26514
902.526	3412.97492
902.705	3682.35287
902.884	3463.50613
903.063	3724.41543
903.242	3219.17879
903.42	3577.16318
903.599	3347.69035
903.778	3596.10079
903.957	3259.21374
904.135	3370.85777
904.314	3290.81599
904.493	3480.34756
904.672	3269.74825
904.85	3305.5624
905.029	3206.53492
905.207	3324.52083
905.386	3058.97997
905.565	3212.85693
905.743	3016.80719
905.922	3164.38443
906.1	2763.64628
906.279	3006.26304
906.457	2729.87626
906.636	3031.56837
906.814	2932.44341
906.993	2928.22459
907.171	2822.73548
907.35	2953.5366
907.528	2712.98998
907.707	2698.2138
907.885	2672.88174
908.063	2820.62534
908.242	2708.76828
908.42	2698.2138
908.598	2636.99152
908.777	2698.2138
908.955	2468.04951
909.133	2845.94613
909.311	2535.63529
909.49	2727.76552
909.668	2537.74716
909.846	2934.55279
910.024	2520.8519
910.202	2468.04951
910.38	2501.84385
910.559	2666.54844
910.737	2677.10388
910.915	2632.7689
911.093	2704.54653
911.271	2664.43731
911.449	2421.57771
911.627	2605.32069
911.805	2512.40399
911.983	2544.08269
912.161	2417.35274
912.339	2799.52314
912.517	2438.47715
912.695	2533.52341
912.872	2442.70191
913.05	2563.08866
913.228	2292.69789
913.406	2590.54002
913.584	2535.63529
913.762	2622.21214
913.939	2328.61893
914.117	2712.98998
914.295	2459.60048
914.473	2746.76169
914.65	2662.32617
914.828	2928.22459
915.006	2408.90269
915.184	2907.12964
915.361	2484.94704
915.539	2662.32617
915.716	2468.04951
915.894	2662.32617
916.072	2326.506
916.249	2615.87794
916.427	2537.74716
916.604	2816.40501
916.782	2379.32616
916.959	2687.659
917.137	2216.62095
917.314	2639.10281
917.492	2248.32109
917.669	2402.56503
917.847	2214.50754
918.024	2590.54002
918.201	2307.48924
918.379	2277.90607
918.556	2239.86792
918.733	2529.29962
918.911	2096.14319
919.088	2214.50754
919.265	2022.15333
919.442	2328.61893
919.62	2140.53276
919.797	2318.0542
919.974	2106.71244
920.151	2320.16717
920.328	2108.82627
920.506	2146.87385
920.683	2020.03921
920.86	1994.66924
921.037	2015.81095
921.214	2106.71244
921.391	1901.63843
921.568	2212.39411
921.745	1979.86966
921.922	2113.0539
922.099	1946.04092
922.276	2351.86046
922.453	1872.03543
922.63	2214.50754
922.807	1979.86966
922.984	2060.20634
923.161	1907.98179
923.338	2197.59992
923.514	2020.03921
923.691	2030.60975
923.868	1757.8437
924.045	1872.03543
924.222	1721.89199
924.399	1829.74372
924.575	1662.67537
924.752	1827.62908
924.929	1728.23648
925.105	1743.04018
925.282	1584.42175
925.459	1753.61414
925.635	1660.56045
925.812	1800.13841
925.989	1660.56045
926.165	1795.90902
926.342	1626.72138
926.518	1768.41752
926.695	1569.61672
926.871	1607.68664
927.048	1506.16584
927.224	1550.58156
927.401	1330.61746
927.577	1556.92663
927.754	1446.94445
927.93	1542.12146
928.107	1406.7585
928.283	1459.63477
928.459	1309.46748
928.636	1571.73173
928.812	1284.08777
928.988	1383.49304
929.165	1254.47851
929.341	1417.33374
929.517	1191.03198
929.693	1440.5993
929.87	1144.50651
930.046	1385.60808
930.222	1138.16228
930.398	1415.21869
930.574	1286.20273
930.751	1284.08777
930.927	1091.63916
931.103	1303.12252
931.279	1066.26392
931.455	1184.68748
931.631	1220.64001
931.807	1174.11341
931.983	1072.60766
932.159	1108.5564
932.335	1013.40137
932.511	1026.08805
932.687	859.06665
932.863	1053.57658
933.039	954.19992
933.215	1017.63024
933.391	856.95276
933.566	981.68566
933.742	821.01802
933.918	949.97145
934.094	725.90988
934.27	785.08593
934.445	806.22212
934.621	871.75015
934.797	675.19421
934.973	768.17767
935.148	514.64087
935.324	616.03437
935.5	637.1618
935.675	658.29044
935.851	666.74223
936.027	670.9682
936.202	582.23313
936.378	586.4581
936.553	529.42547
936.729	556.88439
936.904	396.39047
937.08	463.95624
937.255	303.51529
937.431	292.96345
937.606	303.51529
937.782	356.28118
937.957	364.72473
938.133	290.85314
938.308	246.5409
938.483	280.30186
938.659	297.18413
938.834	229.66226
939.009	219.11374
939.185	166.37868
939.36	235.99161
939.535	179.03394
939.71	235.99161
939.886	206.45618
940.061	219.11374
940.236	206.45618
940.411	227.55252
940.586	252.87071
940.761	143.17933
940.937	176.92467
941.112	170.59702
941.287	153.72418
941.462	223.33309
941.637	183.25252
941.812	212.78487
941.987	168.48784
942.162	130.52622
942.337	185.36184
942.512	162.16043
942.687	170.59702
942.862	160.05133
943.037	160.05133
943.212	71.48875
943.386	109.43943
943.561	117.87389
943.736	50.4082
943.911	29.32996
944.086	130.52622
944.26	164.26954
944.435	58.84015
944.61	111.54801
944.785	103.11382
944.959	130.52622
945.134	138.96154
945.309	126.30869
945.483	27.22227
945.658	117.87389
945.833	109.43943
946.007	119.98255
946.182	101.00532
946.357	117.87389
946.531	109.43943
946.706	122.09124
946.88	160.05133
947.055	117.87389
947.229	195.90876
947.404	179.03394
947.578	94.67998
947.752	96.7884
947.927	82.02988
948.101	122.09124
948.276	153.72418
948.45	138.96154
948.624	143.17933
948.799	124.19996
948.973	195.90876
949.147	58.84015
949.321	143.17933
949.496	130.52622
949.67	145.28826
949.844	122.09124
950.018	176.92467
950.193	117.87389
950.367	138.96154
950.541	103.11382
950.715	101.00532
950.889	143.17933
951.063	143.17933
951.237	44.08449
951.411	147.39721
951.585	134.74384
951.759	170.59702
951.933	168.48784
952.107	138.96154
952.281	67.27246
952.455	162.16043
952.629	111.54801
952.803	151.61516
952.977	79.92161
953.151	128.41744
953.325	126.30869
953.499	134.74384
953.672	113.65661
953.846	134.74384
954.02	132.63502
954.194	50.4082
954.368	101.00532
954.541	143.17933
954.715	219.11374
954.889	198.0182
955.062	181.14322
955.236	107.33087
955.41	117.87389
955.583	204.34665
955.757	126.30869
955.93	111.54801
956.104	134.74384
956.278	168.48784
956.451	172.70621
956.625	128.41744
956.798	111.54801
956.972	101.00532
957.145	134.74384
957.319	176.92467
957.492	143.17933
957.665	92.57157
957.839	141.07043
958.012	202.23715
958.185	229.66226
958.359	132.63502
958.532	103.11382
958.705	193.79933
958.879	79.92161
959.052	155.83321
959.225	176.92467
959.398	257.09068
959.572	92.57157
959.745	113.65661
959.918	128.41744
960.091	176.92467
960.264	143.17933
960.438	101.00532
960.611	77.81336
960.784	124.19996
960.957	179.03394
961.13	115.76524
961.303	88.35483
961.476	153.72418
961.649	162.16043
961.822	103.11382
961.995	52.51615
962.168	134.74384
962.341	141.07043
962.514	92.57157
962.686	124.19996
962.859	82.02988
963.032	202.23715
963.205	105.22233
963.378	257.09068
963.551	109.43943
963.723	113.65661
963.896	126.30869
964.069	103.11382
964.242	117.87389
964.414	124.19996
964.587	136.85268
964.76	94.67998
964.932	162.16043
965.105	124.19996
965.278	92.57157
965.45	111.54801
965.623	69.38059
965.795	117.87389
965.968	94.67998
966.14	126.30869
966.313	130.52622
966.485	115.76524
966.658	124.19996
966.83	153.72418
967.003	145.28826
967.175	193.79933
967.348	113.65661
967.52	185.36184
967.692	94.67998
967.865	151.61516
968.037	151.61516
968.209	50.4082
968.382	86.24649
968.554	143.17933
968.726	189.58055
968.898	65.16435
969.071	63.05626
969.243	122.09124
969.415	107.33087
969.587	126.30869
969.759	37.76098
969.932	101.00532
970.104	119.98255
970.276	60.94819
970.448	92.57157
970.62	103.11382
970.792	41.97663
970.964	98.89685
971.136	122.09124
971.308	60.94819
971.48	103.11382
971.652	105.22233
971.824	27.22227
971.996	94.67998
972.168	117.87389
972.339	54.62413
972.511	132.63502
972.683	105.22233
972.855	52.51615
973.027	117.87389
973.199	119.98255
973.37	35.65319
973.542	141.07043
973.714	54.62413
973.886	1.93177
974.057	84.13817
974.229	111.54801
974.401	109.43943
974.572	117.87389
974.744	54.62413
974.915	84.13817
975.087	33.54542
975.259	75.70514
975.43	75.70514
975.602	77.81336
975.773	122.09124
975.945	84.13817
976.116	50.4082
976.288	71.48875
976.459	143.17933
976.63	29.32996
976.802	46.19237
976.973	73.59693
977.145	46.19237
977.316	-4.39031
977.487	37.76098
977.659	46.19237
977.83	86.24649
978.001	103.11382
978.172	12.46906
978.344	60.94819
978.515	134.74384
978.686	12.46906
978.857	63.05626
979.028	84.13817
979.2	-6.49763
979.371	25.11459
979.542	67.27246
979.713	69.38059
979.884	20.89932
980.055	50.4082
980.226	84.13817
980.397	105.22233
980.568	58.84015
980.739	-6.49763
980.91	67.27246
981.081	75.70514
981.252	84.13817
981.423	88.35483
981.594	92.57157
981.765	126.30869
981.936	58.84015
982.106	65.16435
982.277	71.48875
982.448	-23.35526
982.619	48.30027
982.79	96.7884
982.96	16.68414
983.131	48.30027
983.302	50.4082
983.472	25.11459
983.643	105.22233
983.814	86.24649
983.984	79.92161
984.155	-14.92664
984.326	-6.49763
984.496	37.76098
984.667	86.24649
984.837	77.81336
985.008	75.70514
985.178	16.68414
985.349	60.94819
985.519	27.22227
985.69	-8.60492
985.86	33.54542
986.031	-14.92664
986.201	-29.67646
986.371	44.08449
986.542	29.32996
986.712	44.08449
986.882	54.62413
987.053	29.32996
987.223	50.4082
987.393	65.16435
987.563	65.16435
987.734	-33.89048
987.904	50.4082
988.074	35.65319
988.244	18.79172
988.414	94.67998
988.585	75.70514
988.755	16.68414
988.925	63.05626
989.095	39.86879
989.265	44.08449
989.435	37.76098
989.605	84.13817
989.775	52.51615
989.945	-12.81942
990.115	-59.17246
990.285	20.89932
990.455	50.4082
990.625	67.27246
990.795	67.27246
990.965	8.25407
991.134	18.79172
991.304	29.32996
991.474	29.32996
991.644	37.76098
991.814	12.46906
991.984	50.4082
992.153	4.03918
992.323	101.00532
992.493	10.36155
992.662	52.51615
992.832	92.57157
993.002	107.33087
993.171	94.67998
993.341	67.27246
993.511	50.4082
993.68	25.11459
993.85	31.43768
994.019	-40.21131
994.189	25.11459
994.358	-0.17561
994.528	23.00695
994.697	-17.03383
994.867	31.43768
995.036	-0.17561
995.206	-2.28298
995.375	67.27246
995.544	12.46906
995.714	8.25407
995.883	-71.81209
996.052	10.36155
996.222	29.32996
996.391	130.52622
996.56	63.05626
996.73	16.68414
996.899	-17.03383
997.068	67.27246
997.237	16.68414
997.406	25.11459
997.576	58.84015
997.745	-2.28298
997.914	25.11459
998.083	-0.17561
998.252	16.68414
998.421	27.22227
998.59	1.93177
998.759	29.32996
998.928	75.70514
999.097	-17.03383
999.266	-4.39031
999.435	69.38059
999.604	67.27246
999.773	75.70514
999.942	-40.21131
1000.111	50.4082
1000.28	10.36155
1000.448	50.4082
1000.617	71.48875
1000.786	117.87389
1000.955	-19.141
1001.124	58.84015
1001.292	35.65319
1001.461	-59.17246
1001.63	92.57157
1001.798	8.25407
1001.967	-8.60492
1002.136	-65.49239
1002.304	-31.78348
1002.473	35.65319
1002.642	25.11459
1002.81	-33.89048
1002.979	8.25407
1003.147	-2.28298
1003.316	-31.78348
1003.484	-25.46235
1003.653	16.68414
1003.821	69.38059
1003.99	37.76098
1004.158	35.65319
1004.327	-8.60492
1004.495	-6.49763
1004.663	25.11459
1004.832	41.97663
1005	16.68414
1005.168	65.16435
1005.337	-25.46235
1005.505	-33.89048
1005.673	-25.46235
1005.842	27.22227
1006.01	1.93177
1006.178	88.35483
1006.346	12.46906
1006.514	16.68414
1006.683	86.24649
1006.851	-10.71218
1007.019	46.19237
1007.187	67.27246
1007.355	1.93177
1007.523	-0.17561
1007.691	84.13817
1007.859	84.13817
1008.027	16.68414
1008.195	-48.63874
1008.363	8.25407
1008.531	8.25407
1008.699	-0.17561
1008.867	4.03918
1009.035	18.79172
1009.203	-0.17561
1009.37	-21.24814
1009.538	29.32996
1009.706	-6.49763
1009.874	23.00695
1010.042	35.65319
1010.209	25.11459
1010.377	-6.49763
1010.545	-4.39031
1010.713	1.93177
1010.88	-99.19478
1011.048	69.38059
1011.216	-25.46235
1011.383	25.11459
1011.551	-14.92664
1011.718	10.36155
1011.886	8.25407
1012.054	69.38059
1012.221	8.25407
1012.389	-8.60492
1012.556	-8.60492
1012.724	-40.21131
1012.891	10.36155
1013.058	-29.67646
1013.226	-50.74553
1013.393	-65.49239
1013.561	1.93177
1013.728	-17.03383
1013.895	41.97663
1014.063	-2.28298
1014.23	41.97663
1014.397	-65.49239
1014.565	46.19237
1014.732	25.11459
1014.899	-63.38577
1015.066	44.08449
1015.233	-8.60492
1015.401	-23.35526
1015.568	14.57659
1015.735	-14.92664
1015.902	69.38059
1016.069	-10.71218
1016.236	25.11459
1016.403	31.43768
1016.57	39.86879
1016.737	-23.35526
1016.904	18.79172
1017.071	-8.60492
1017.238	-61.27913
1017.405	37.76098
1017.572	41.97663
1017.739	52.51615
1017.906	-23.35526
1018.073	-25.46235
1018.24	-0.17561
1018.407	84.13817
1018.573	-33.89048
1018.74	-42.31821
1018.907	18.79172
1019.074	-14.92664
1019.241	46.19237
1019.407	27.22227
1019.574	44.08449
1019.741	-6.49763
1019.907	-0.17561
1020.074	-19.141
1020.241	-8.60492
1020.407	-17.03383
1020.574	16.68414
1020.74	1.93177
1020.907	-17.03383
1021.073	16.68414
1021.24	-46.53192
1021.406	8.25407
1021.573	25.11459
1021.739	27.22227
1021.906	-8.60492
1022.072	37.76098
1022.239	33.54542
1022.405	-17.03383
1022.571	-38.10439
1022.738	50.4082
1022.904	-12.81942
1023.07	-21.24814
1023.237	25.11459
1023.403	54.62413
1023.569	-59.17246
1023.735	-23.35526
1023.902	-17.03383
1024.068	8.25407
1024.234	-40.21131
1024.4	33.54542
1024.566	-42.31821
1024.732	54.62413
1024.898	29.32996
1025.065	27.22227
1025.231	136.85268
1025.397	10.36155
1025.563	-21.24814
1025.729	-8.60492
1025.895	-6.49763
1026.061	86.24649
1026.227	-35.99745
1026.392	4.03918
1026.558	-54.95905
1026.724	29.32996
1026.89	-14.92664
1027.056	46.19237
1027.222	33.54542
1027.388	-29.67646
1027.553	69.38059
1027.719	-25.46235
1027.885	-46.53192
1028.051	-61.27913
1028.216	10.36155
1028.382	-0.17561
1028.548	16.68414
1028.713	-25.46235
1028.879	-2.28298
1029.045	-52.8523
1029.21	18.79172
1029.376	20.89932
1029.541	-21.24814
1029.707	-14.92664
1029.873	-38.10439
1030.038	-33.89048
1030.204	48.30027
1030.369	44.08449
1030.534	12.46906
1030.7	-8.60492
1030.865	-31.78348
1031.031	4.03918
1031.196	-6.49763
1031.361	4.03918
1031.527	56.73213
1031.692	20.89932
1031.857	-0.17561
1032.023	31.43768
1032.188	-25.46235
1032.353	-0.17561
1032.518	-29.67646
1032.684	-38.10439
1032.849	8.25407
1033.014	60.94819
1033.179	-50.74553
1033.344	67.27246
1033.509	27.22227
1033.674	-12.81942
1033.839	-19.141
1034.004	37.76098
1034.17	-42.31821
1034.335	-8.60492
1034.5	-12.81942
1034.664	-35.99745
1034.829	-40.21131
1034.994	77.81336
1035.159	105.22233
1035.324	-6.49763
1035.489	71.48875
1035.654	4.03918
1035.819	-31.78348
1035.984	67.27246
1036.148	50.4082
1036.313	-40.21131
1036.478	54.62413
1036.643	6.14661
1036.807	52.51615
1036.972	-25.46235
1037.137	46.19237
1037.301	33.54542
1037.466	-4.39031
1037.631	79.92161
1037.795	-61.27913
1037.96	8.25407
1038.124	-38.10439
1038.289	-46.53192
1038.454	-33.89048
1038.618	10.36155
1038.783	-4.39031
1038.947	8.25407
1039.111	-99.19478
1039.276	-14.92664
1039.44	-76.0251
1039.605	-35.99745
1039.769	-25.46235
1039.933	1.93177
1040.098	12.46906
1040.262	-107.61934
1040.426	-14.92664
1040.591	25.11459
1040.755	-12.81942
1040.919	35.65319
1041.083	101.00532
1041.248	-14.92664
1041.412	29.32996
1041.576	-76.0251
1041.74	-35.99745
1041.904	-50.74553
1042.068	79.92161
1042.232	-4.39031
1042.397	4.03918
1042.561	-23.35526
1042.725	-50.74553
1042.889	54.62413
1043.053	-0.17561
1043.217	-78.13156
1043.381	75.70514
1043.544	-8.60492
1043.708	-21.24814
1043.872	92.57157
1044.036	-54.95905
1044.2	-52.8523
1044.364	58.84015
1044.528	-19.141
1044.691	25.11459
1044.855	18.79172
1045.019	10.36155
1045.183	-25.46235
1045.346	-67.59898
1045.51	-21.24814
1045.674	25.11459
1045.837	-8.60492
1046.001	8.25407
1046.165	10.36155
1046.328	18.79172
1046.492	-50.74553
1046.655	10.36155
1046.819	1.93177
1046.983	37.76098
1047.146	-23.35526
1047.31	-46.53192
1047.473	-46.53192
1047.636	58.84015
1047.8	-25.46235
1047.963	29.32996
1048.127	50.4082
1048.29	-69.70555
