Data from mixed_try1_USB4F045381__35__00139.txt Node

Date: Thu Apr 03 20:04:56 EDT 2025
User: mmckonesweet
Spectrometer: USB4F04538
Trigger mode: 4
Integration Time (sec): 2.700000E-3
Scans to average: 1
Electric dark correction enabled: true
Nonlinearity correction enabled: true
Boxcar width: 0
XAxis mode: Wavelengths
Number of Pixels in Spectrum: 3648
>>>>>Begin Spectral Data<<<<<
345.52	62.17789
345.736	62.17789
345.952	62.17789
346.168	-41.08919
346.384	-20.01897
346.6	-22.12611
346.816	34.77495
347.032	-13.69743
347.248	11.59093
347.464	-38.98228
347.68	30.55946
347.896	-9.48295
348.112	15.80599
348.328	3.16109
348.544	-36.87534
348.76	51.63784
348.975	-26.3403
349.191	-30.55439
349.407	26.34407
349.623	-24.23321
349.839	-47.40976
350.055	7.37596
350.27	-24.23321
350.486	-24.23321
350.702	-22.12611
350.918	-57.94356
351.133	68.5022
351.349	-20.01897
351.565	3.16109
351.781	-24.23321
351.996	-13.69743
352.212	30.55946
352.428	-7.37567
352.644	22.12877
352.859	-81.11567
353.075	-15.80464
353.291	-15.80464
353.506	-5.26836
353.722	-7.37567
353.938	66.39408
354.153	-22.12611
354.369	26.34407
354.584	11.59093
354.8	15.80599
355.016	-17.91182
355.231	-24.23321
355.447	13.69845
355.662	55.85379
355.878	11.59093
356.093	-7.37567
356.309	11.59093
356.524	-11.5902
356.74	-15.80464
356.955	-9.48295
357.171	11.59093
357.386	-49.51657
357.602	17.91356
357.817	-47.40976
358.033	-7.37567
358.248	30.55946
358.464	-7.37567
358.679	26.34407
358.895	13.69845
359.11	13.69845
359.325	-11.5902
359.541	36.88273
359.756	-20.01897
359.972	-28.44736
360.187	43.20621
360.402	-13.69743
360.618	-13.69743
360.833	-20.01897
361.048	-7.37567
361.264	-41.08919
361.479	-41.08919
361.694	43.20621
361.909	-15.80464
362.125	17.91356
362.34	-49.51657
362.555	47.42198
362.77	-60.05024
362.986	-45.30293
363.201	26.34407
363.416	9.48343
363.631	-3.16104
363.847	-5.26836
364.062	-49.51657
364.277	30.55946
364.492	3.16109
364.707	70.61035
364.922	1.05369
365.138	26.34407
365.353	-57.94356
365.568	-28.44736
365.783	74.82672
365.998	17.91356
366.213	43.20621
366.428	13.69845
366.643	24.2364
366.858	-24.23321
367.073	51.63784
367.288	-9.48295
367.503	-30.55439
367.718	15.80599
367.933	-7.37567
368.148	-55.83685
368.363	-32.6614
368.578	26.34407
368.793	1.05369
369.008	76.93493
369.223	-49.51657
369.438	17.91356
369.653	34.77495
369.868	38.99053
370.083	22.12877
370.298	3.16109
370.513	60.06984
370.728	13.69845
370.943	38.99053
371.157	13.69845
371.372	43.20621
371.587	-36.87534
371.802	-20.01897
372.017	-38.98228
372.232	9.48343
372.446	70.61035
372.661	47.42198
372.876	-66.37014
373.091	-43.19607
373.306	-22.12611
373.52	1.05369
373.735	-28.44736
373.95	-57.94356
374.165	-45.30293
374.379	17.91356
374.594	-3.16104
374.809	-53.73012
375.023	-41.08919
375.238	-81.11567
375.453	17.91356
375.667	68.5022
375.882	-22.12611
376.097	-55.83685
376.311	22.12877
376.526	-45.30293
376.741	-83.22208
376.955	-47.40976
377.17	11.59093
377.384	-55.83685
377.599	-51.62336
377.813	-24.23321
378.028	9.48343
378.242	47.42198
378.457	20.02115
378.672	9.48343
378.886	26.34407
379.101	-24.23321
379.315	-68.47672
379.53	-74.79631
379.744	-11.5902
379.958	-66.37014
380.173	-22.12611
380.387	-20.01897
380.602	-7.37567
380.816	-11.5902
381.031	-66.37014
381.245	-85.32845
381.459	-53.73012
381.674	22.12877
381.888	-60.05024
382.103	-22.12611
382.317	-30.55439
382.531	57.9618
382.746	-11.5902
382.96	-22.12611
383.174	-38.98228
383.388	64.28597
383.603	-36.87534
383.817	-15.80464
384.031	62.17789
384.246	114.88664
384.46	9.48343
384.674	38.99053
384.888	9.48343
385.103	-11.5902
385.317	-15.80464
385.531	-3.16104
385.745	62.17789
385.959	30.55946
386.174	-38.98228
386.388	-55.83685
386.602	26.34407
386.816	53.7458
387.03	-74.79631
387.244	3.16109
387.458	-7.37567
387.672	17.91356
387.887	38.99053
388.101	9.48343
388.315	43.20621
388.529	-1.05368
388.743	-51.62336
388.957	17.91356
389.171	-85.32845
389.385	-13.69743
389.599	22.12877
389.813	-26.3403
390.027	1.05369
390.241	-7.37567
390.455	20.02115
390.669	5.26851
390.883	53.7458
391.097	-24.23321
391.311	-28.44736
391.525	9.48343
391.738	-30.55439
391.952	-22.12611
392.166	-11.5902
392.38	76.93493
392.594	55.85379
392.808	68.5022
393.022	-74.79631
393.236	20.02115
393.449	-41.08919
393.663	-79.00925
393.877	-24.23321
394.091	-79.00925
394.305	24.2364
394.518	-13.69743
394.732	-100.07236
394.946	1.05369
395.16	-3.16104
395.373	-13.69743
395.587	-53.73012
395.801	3.16109
396.015	-15.80464
396.228	1.05369
396.442	26.34407
396.656	22.12877
396.869	-15.80464
397.083	55.85379
397.297	17.91356
397.51	47.42198
397.724	60.06984
397.938	76.93493
398.151	51.63784
398.365	-7.37567
398.578	15.80599
398.792	43.20621
399.005	36.88273
399.219	1.05369
399.433	1.05369
399.646	89.5847
399.86	-5.26836
400.073	34.77495
400.287	3.16109
400.5	30.55946
400.714	-57.94356
400.927	36.88273
401.141	-38.98228
401.354	74.82672
401.567	9.48343
401.781	-11.5902
401.994	68.5022
402.208	20.02115
402.421	9.48343
402.635	34.77495
402.848	-68.47672
403.061	38.99053
403.275	-38.98228
403.488	34.77495
403.701	-32.6614
403.915	-1.05368
404.128	-11.5902
404.341	-70.58328
404.555	-66.37014
404.768	-32.6614
404.981	7.37596
405.195	87.47635
405.408	-28.44736
405.621	68.5022
405.834	38.99053
406.048	51.63784
406.261	-45.30293
406.474	43.20621
406.687	43.20621
406.9	-28.44736
407.114	55.85379
407.327	-3.16104
407.54	20.02115
407.753	-7.37567
407.966	1.05369
408.179	-55.83685
408.392	51.63784
408.605	-24.23321
408.819	-20.01897
409.032	51.63784
409.245	-55.83685
409.458	24.2364
409.671	-22.12611
409.884	-55.83685
410.097	-3.16104
410.31	-57.94356
410.523	11.59093
410.736	13.69845
410.949	-9.48295
411.162	41.09836
411.375	47.42198
411.588	-57.94356
411.801	26.34407
412.014	26.34407
412.227	9.48343
412.44	-49.51657
412.653	22.12877
412.865	85.36802
413.078	34.77495
413.291	49.5299
413.504	20.02115
413.717	22.12877
413.93	1.05369
414.143	7.37596
414.356	-30.55439
414.568	45.31408
414.781	36.88273
414.994	13.69845
415.207	-7.37567
415.42	-11.5902
415.632	-13.69743
415.845	-5.26836
416.058	-17.91182
416.271	-22.12611
416.483	-32.6614
416.696	5.26851
416.909	-7.37567
417.121	-43.19607
417.334	-20.01897
417.547	-24.23321
417.759	43.20621
417.972	49.5299
418.185	-43.19607
418.397	102.23527
418.61	-57.94356
418.823	45.31408
419.035	-45.30293
419.248	9.48343
419.46	-22.12611
419.673	24.2364
419.885	5.26851
420.098	3.16109
420.311	76.93493
420.523	-15.80464
420.736	11.59093
420.948	9.48343
421.161	3.16109
421.373	57.9618
421.586	-15.80464
421.798	20.02115
422.01	36.88273
422.223	45.31408
422.435	53.7458
422.648	47.42198
422.86	-11.5902
423.073	-17.91182
423.285	9.48343
423.497	-15.80464
423.71	64.28597
423.922	-5.26836
424.134	110.66943
424.347	17.91356
424.559	55.85379
424.771	34.77495
424.984	30.55946
425.196	74.82672
425.408	-5.26836
425.621	5.26851
425.833	34.77495
426.045	28.45175
426.257	-7.37567
426.47	43.20621
426.682	22.12877
426.894	-38.98228
427.106	-15.80464
427.318	-1.05368
427.531	-45.30293
427.743	55.85379
427.955	49.5299
428.167	53.7458
428.379	41.09836
428.591	9.48343
428.804	-17.91182
429.016	106.45231
429.228	-5.26836
429.44	119.10394
429.652	17.91356
429.864	22.12877
430.076	-5.26836
430.288	38.99053
430.5	-7.37567
430.712	5.26851
430.924	43.20621
431.136	17.91356
431.348	7.37596
431.56	17.91356
431.772	30.55946
431.984	17.91356
432.196	9.48343
432.408	-24.23321
432.62	53.7458
432.832	-30.55439
433.044	-5.26836
433.256	55.85379
433.468	55.85379
433.679	11.59093
433.891	38.99053
434.103	100.12679
434.315	43.20621
434.527	60.06984
434.739	-1.05368
434.95	-32.6614
435.162	-5.26836
435.374	26.34407
435.586	-41.08919
435.798	22.12877
436.009	-17.91182
436.221	9.48343
436.433	38.99053
436.645	-66.37014
436.856	9.48343
437.068	11.59093
437.28	-30.55439
437.491	38.99053
437.703	68.5022
437.915	76.93493
438.126	26.34407
438.338	55.85379
438.55	-7.37567
438.761	38.99053
438.973	5.26851
439.184	64.28597
439.396	-20.01897
439.608	-11.5902
439.819	93.80147
440.031	-45.30293
440.242	79.04317
440.454	24.2364
440.665	60.06984
440.877	85.36802
441.088	24.2364
441.3	26.34407
441.511	1.05369
441.723	93.80147
441.934	43.20621
442.146	51.63784
442.357	135.97399
442.569	-26.3403
442.78	66.39408
442.991	51.63784
443.203	-20.01897
443.414	-7.37567
443.626	34.77495
443.837	79.04317
444.048	51.63784
444.26	17.91356
444.471	-17.91182
444.682	-15.80464
444.894	20.02115
445.105	-5.26836
445.316	62.17789
445.528	60.06984
445.739	-30.55439
445.95	1.05369
446.161	53.7458
446.373	110.66943
446.584	5.26851
446.795	53.7458
447.006	45.31408
447.217	85.36802
447.429	45.31408
447.64	43.20621
447.851	38.99053
448.062	-57.94356
448.273	3.16109
448.484	91.69308
448.695	22.12877
448.907	-13.69743
449.118	66.39408
449.329	68.5022
449.54	102.23527
449.751	20.02115
449.962	9.48343
450.173	11.59093
450.384	47.42198
450.595	85.36802
450.806	81.15143
451.017	20.02115
451.228	34.77495
451.439	45.31408
451.65	55.85379
451.861	26.34407
452.072	34.77495
452.283	3.16109
452.494	-7.37567
452.705	3.16109
452.915	64.28597
453.126	135.97399
453.337	-62.1569
453.548	98.01833
453.759	9.48343
453.97	43.20621
454.181	9.48343
454.391	114.88664
454.602	68.5022
454.813	68.5022
455.024	36.88273
455.235	81.15143
455.445	49.5299
455.656	87.47635
455.867	32.66719
456.078	108.56086
456.288	100.12679
456.499	68.5022
456.71	131.75635
456.921	64.28597
457.131	51.63784
457.342	47.42198
457.553	93.80147
457.763	93.80147
457.974	98.01833
458.184	51.63784
458.395	121.21262
458.606	60.06984
458.816	70.61035
459.027	38.99053
459.237	64.28597
459.448	144.40954
459.659	123.32132
459.869	70.61035
460.08	102.23527
460.29	43.20621
460.501	70.61035
460.711	93.80147
460.922	125.43005
461.132	129.64756
461.343	146.51847
461.553	76.93493
461.764	129.64756
461.974	207.68674
462.184	106.45231
462.395	167.60902
462.605	144.40954
462.816	127.53879
463.026	131.75635
463.236	129.64756
463.447	186.59229
463.657	106.45231
463.867	148.62743
464.078	131.75635
464.288	140.19172
464.498	199.24872
464.709	171.82738
464.919	146.51847
465.129	157.06349
465.339	186.59229
465.55	224.56375
465.76	110.66943
465.97	102.23527
466.18	125.43005
466.391	270.98194
466.601	140.19172
466.811	195.02983
467.021	254.10153
467.231	165.49987
467.441	85.36802
467.651	211.90588
467.862	247.77168
468.072	306.8568
468.282	230.89295
468.492	192.92041
468.702	237.22233
468.912	233.00273
469.122	199.24872
469.332	245.66178
469.542	321.63033
469.752	304.74637
469.962	281.53282
470.172	330.07274
470.382	289.97385
470.592	361.73427
470.802	300.52556
471.012	292.08415
471.222	355.40166
471.432	399.73318
471.642	342.73688
471.852	482.08206
472.062	332.18339
472.272	475.74669
472.482	439.84889
472.691	583.4654
472.901	422.95736
473.111	520.09701
473.321	486.30571
473.531	473.63494
473.741	465.18806
473.95	564.4536
474.16	501.08894
474.37	596.14053
474.58	651.07135
474.79	693.33136
474.999	714.46308
475.209	591.91544
475.419	741.93593
475.628	746.16268
475.838	663.74887
476.048	689.10516
476.258	735.59588
476.467	794.77323
476.677	779.97816
476.886	932.17695
477.096	900.46529
477.306	944.86208
477.515	930.06278
477.725	900.46529
477.935	938.51948
478.144	997.71953
478.354	908.92156
478.563	1204.95472
478.773	1101.33129
478.982	1192.26563
479.192	1181.69149
479.401	1166.88784
479.611	1259.94209
479.82	1221.87369
480.03	1336.08123
480.239	1473.55886
480.449	1264.17196
480.658	1534.89511
480.868	1437.60297
481.077	1560.27541
481.287	1479.90401
481.496	1439.71802
481.705	1615.26531
481.915	1746.38861
482.124	1670.25381
482.333	1693.51765
482.543	1742.15901
482.752	1784.45431
482.961	1911.32966
483.171	2008.5876
483.38	1784.45431
483.589	1938.81688
483.799	2048.75544
484.008	1989.5599
484.217	1987.44568
484.426	2171.35682
484.636	2122.74211
484.845	2175.58398
485.054	2107.94551
485.263	2241.10068
485.472	2209.40008
485.682	2452.38347
485.891	2374.22049
486.1	2604.4409
486.309	2429.14734
486.518	2551.65
486.727	2549.53821
486.936	2722.66451
487.146	2642.44566
487.355	2657.2242
487.564	2731.10752
487.773	2925.23623
487.982	2760.65636
488.191	2796.53355
488.4	3003.27546
488.609	2857.72665
488.818	2942.1113
489.027	2893.59295
489.236	2973.74951
489.445	3129.78103
489.654	3037.01575
489.863	3336.28138
490.072	2988.51285
490.281	3266.76351
490.49	3401.56889
490.698	3249.90791
490.907	3199.33468
491.116	3456.31308
491.325	3405.78041
491.534	3485.7857
491.743	3473.15501
491.952	3593.11997
492.16	3591.01584
492.369	3803.43705
492.578	3630.99113
492.787	3792.92578
492.996	3654.13161
493.204	3889.61074
493.413	3845.47716
493.622	3879.10354
493.831	3834.96788
494.039	3921.12932
494.248	4005.1566
494.457	4133.23491
494.665	4204.58908
494.874	4108.04529
495.083	4223.47285
495.291	4200.39245
495.5	4231.86509
495.709	4254.94198
495.917	4355.61077
496.126	4540.04005
496.335	4137.43289
496.543	4483.47188
496.752	4319.96291
496.96	4483.47188
497.169	4368.19087
497.377	4535.85037
497.586	4481.37646
497.794	4699.18189
498.003	4424.79163
498.211	4579.8376
498.42	4523.28079
498.628	4812.17737
498.837	4682.43621
499.045	4648.94054
499.254	4761.96531
499.462	4807.99354
499.671	4925.10651
499.879	4910.47131
500.087	4904.19874
500.296	4925.10651
500.504	5006.62485
500.713	5102.72956
500.921	5188.34673
501.129	4929.28779
501.338	4943.92154
501.546	5359.46342
501.754	5050.50481
501.962	5309.39677
502.171	5221.74769
502.379	5509.58224
502.587	5150.76352
502.795	5501.2455
503.004	5284.35839
503.212	5686.64874
503.42	5376.1493
503.628	5694.97708
503.837	5476.23303
504.045	5401.17531
504.253	5484.5709
504.461	5628.33977
504.669	5553.34392
504.877	5859.38448
505.085	5609.59367
505.294	5780.32083
505.502	5584.5959
505.71	5842.74233
505.918	5774.07751
506.126	6042.34848
506.334	5794.88775
506.542	5979.9949
506.75	5692.89503
506.958	5942.57257
507.166	5998.7032
507.374	5903.06293
507.582	5842.74233
507.79	6042.34848
507.998	6127.53079
508.206	6247.96513
508.414	5952.96843
508.622	6108.83562
508.83	6258.34371
509.037	6333.0522
509.245	6092.21609
509.453	6266.64615
509.661	6058.97253
509.869	6270.79723
510.077	6148.30096
510.285	6202.29243
510.492	6239.66185
510.7	6457.49913
510.908	6384.91528
511.116	6476.15894
511.324	6233.43414
511.531	6523.83659
511.739	6424.32148
511.947	6567.35765
512.155	6480.30531
512.362	6641.94147
512.57	6420.17385
512.778	6569.42982
512.985	6631.58439
513.193	6673.00925
513.401	6648.15544
513.608	6954.45555
513.816	6623.29832
514.024	6985.47171
514.231	6712.35434
514.439	6807.57663
514.646	6737.19961
514.854	7020.61723
515.061	6606.72506
515.269	6793.0894
515.477	6799.29835
515.684	7132.21294
515.892	6844.82437
516.099	7078.48981
516.307	7061.95658
516.514	7227.2247
516.722	7136.34486
516.929	7196.24776
517.136	7154.93741
517.344	7115.68435
517.551	7086.75589
517.759	7305.67739
517.966	7266.45502
518.173	7353.14651
518.381	7293.29224
518.588	7491.36041
518.796	7485.17381
519.003	7577.95252
519.21	7402.66717
519.418	7573.82995
519.625	7313.93372
519.832	7600.62517
520.039	7693.35008
520.247	7726.30862
520.454	7483.11156
520.661	7882.78846
520.868	7664.50693
521.076	7936.29353
521.283	7755.14292
521.49	7874.55567
521.697	7666.5673
521.904	7853.97226
522.112	7771.61782
522.319	7923.94744
522.526	7833.38677
522.733	7845.73831
522.94	7917.77412
523.147	8144.00934
523.354	7847.79683
523.561	8261.1447
523.768	8131.67554
523.975	8472.64888
524.183	8084.38928
524.39	8396.69529
524.597	8181.00642
524.804	8382.32273
525.011	8474.70131
525.218	8595.7614
525.425	8335.09191
525.632	8322.76914
525.838	8380.26943
526.045	8384.37601
526.252	8653.19074
526.459	8718.80643
526.666	8398.74844
526.873	8661.39374
527.08	8474.70131
527.287	8790.55205
527.494	8365.89579
527.701	8845.88343
527.907	8536.26552
528.114	8765.95607
528.321	8591.65875
528.528	8829.49032
528.735	8825.39186
528.941	8905.29881
529.148	8841.78526
529.355	8741.35747
529.562	8688.05143
529.768	8880.71497
529.975	8706.50493
530.182	8958.55502
530.388	8827.4411
530.595	9153.04424
530.802	8919.6382
531.008	9093.69044
531.215	9048.65374
531.422	9333.06503
531.628	8841.78526
531.835	9200.10772
532.042	9183.73883
532.248	9306.47921
532.455	9189.87729
532.661	9457.77685
532.868	9316.70486
533.074	9613.07174
533.281	9220.5673
533.487	9572.21353
533.694	9275.79977
533.9	9572.21353
534.107	9355.55855
534.313	9747.85975
534.52	9776.44258
534.726	9760.1099
534.933	9790.73288
535.139	9645.7538
535.345	9410.76149
535.552	9935.63606
535.758	9772.3595
535.965	9898.90709
536.171	9782.56708
536.377	9976.44048
536.584	9882.58158
536.79	10072.30821
536.996	10210.95536
537.203	10084.54439
537.409	9594.68632
537.615	10149.79543
537.821	9800.93978
538.028	10155.91198
538.234	10043.75517
538.44	10347.50167
538.646	9978.48055
538.853	10384.17554
539.059	10058.03204
539.265	10337.31372
539.471	10082.50506
539.677	10249.6836
539.883	10318.97458
540.09	10396.39921
540.296	10265.98876
540.502	10488.06188
540.708	10461.58424
540.914	10691.66494
541.12	10522.68324
541.326	10897.18111
541.532	10524.71967
541.738	10520.64679
541.944	10661.13237
542.15	10724.23002
542.356	10834.11462
542.562	10880.90695
542.768	10742.54652
542.974	10840.21832
543.18	10880.90695
543.386	11061.91635
543.592	11000.91183
543.798	11019.21422
544.004	10744.58163
544.21	11049.71623
544.415	10779.17663
544.621	11370.85874
544.827	11108.67982
545.033	11098.51433
545.239	10939.89731
545.445	11596.32199
545.651	11076.14931
545.856	11303.80597
546.062	11242.83935
546.268	11108.67982
546.474	11029.38183
546.679	10771.03694
546.885	10893.11264
547.091	11183.89611
547.297	10817.83759
547.502	11699.87469
547.708	11263.16258
547.914	11547.58308
548.119	11474.4646
548.325	11389.14398
548.531	11405.39685
548.736	11441.96352
548.942	11452.12037
549.147	11478.52706
549.353	11446.02629
549.559	11910.97037
549.764	11600.38333
549.97	11807.46384
550.175	11545.55218
550.381	11886.61784
550.586	11675.51146
550.792	11880.52953
550.997	11622.72002
551.203	11736.41715
551.408	11616.6283
551.614	11710.02566
551.819	11945.46775
552.025	11945.46775
552.23	11925.17546
552.435	11967.78834
552.641	11963.73012
552.846	12124.00567
553.052	11720.17641
553.257	12353.17923
553.462	12207.16784
553.668	12265.98242
553.873	12050.97475
554.078	12600.50719
554.283	12304.51284
554.489	12428.19885
554.694	12334.92981
554.899	12158.48907
555.105	12355.20691
555.31	12557.94117
555.515	12426.17142
555.72	12541.72482
555.925	12367.37285
556.131	12699.81743
556.336	12738.32166
556.541	12857.87433
556.746	12695.76423
556.951	12628.88302
557.156	12695.76423
557.361	12568.07618
557.567	12868.00502
557.772	12764.66545
557.977	12681.57785
558.182	12659.28438
558.387	12667.39118
558.592	12726.16265
558.797	12290.31772
559.002	12630.90982
559.207	12549.83304
559.412	12799.11358
559.617	12505.23654
559.822	12618.74893
560.027	12714.00344
560.232	12938.91617
560.437	12537.67067
560.642	12831.53387
560.847	12916.63051
561.051	12957.14943
561.256	12809.24508
561.461	12920.68249
561.666	13036.15544
561.871	13013.87246
562.076	13151.61236
562.281	12967.27883
562.485	12928.7864
562.69	12949.04581
562.895	12979.43395
563.1	13030.07832
563.305	12831.53387
563.509	13072.6172
563.714	13198.19594
563.919	13275.15494
564.123	13218.44893
564.328	13155.66321
564.533	13220.4742
564.737	13179.96787
564.942	13234.651
565.147	13333.88263
565.351	13526.24279
565.556	13578.88283
565.761	13325.78247
565.965	13323.75742
566.17	13210.34779
566.374	13305.53177
566.579	13258.95357
566.784	13422.98012
566.988	13412.85579
567.193	13744.88634
567.397	13252.87799
567.602	13730.71616
567.806	13358.18272
568.011	13593.05474
568.215	13631.5205
568.42	13973.61387
568.624	13473.6003
568.828	13635.56946
569.033	13678.0827
569.237	13698.32659
569.442	13888.60424
569.646	13514.09475
569.85	13939.20577
570.055	13923.01346
570.259	13682.1315
570.463	13963.49392
570.668	13710.47277
570.872	13835.97684
571.076	13890.62834
571.281	14088.97701
571.485	13558.63695
571.689	13799.54136
571.893	14088.97701
572.098	13973.61387
572.302	13914.91724
572.506	14232.6648
572.71	14040.404
572.914	14036.35619
573.119	14084.92931
573.323	14206.35655
573.527	14095.04855
573.731	13995.87754
573.935	14370.27215
574.139	14390.50786
574.343	13953.3739
574.547	14360.15424
574.751	14329.80024
574.955	14404.67276
575.159	14149.69145
575.364	14222.54628
575.568	14273.13841
575.772	14244.80697
575.976	14362.17782
576.18	14145.64389
576.383	14515.96592
576.587	14402.64921
576.791	14263.02008
576.995	14396.57854
577.199	14509.89549
577.403	14641.41897
577.607	14574.64613
577.811	14920.64036
578.015	14481.56667
578.219	14465.37865
578.422	14408.71986
578.626	14963.12953
578.83	14335.87107
579.034	14576.66957
579.238	14584.76331
579.442	14681.8868
579.645	14392.53142
579.849	14882.19761
580.053	14928.73355
580.257	14621.1849
580.46	14635.34876
580.664	14940.87332
580.868	15088.57289
581.071	14961.10624
581.275	14932.78015
581.479	15094.64271
581.682	14938.85003
581.886	14995.50212
582.09	14961.10624
582.293	15074.40998
582.497	15003.59525
582.7	15189.73645
582.904	15033.94445
583.107	15371.83147
583.311	15003.59525
583.515	14991.45555
583.718	15220.08552
583.922	15305.06308
584.125	15013.71166
584.329	15311.13292
584.532	15108.80562
584.735	15392.06439
584.939	15165.4572
585.142	15282.80702
585.346	15260.55098
585.549	15240.31825
585.753	15432.53036
585.956	15638.9104
586.159	15434.55366
586.363	15685.44815
586.566	15541.78952
586.769	15373.85476
586.973	15523.57954
587.176	15521.55621
587.379	15784.59546
587.582	15786.6189
587.786	15539.76618
587.989	15762.33769
588.192	15549.88286
588.395	16045.62918
588.599	15816.97062
588.802	15831.13485
589.005	15829.11139
589.208	16063.84168
589.411	16043.60558
589.615	16059.79445
589.818	15964.68618
590.021	15993.01597
590.224	15778.52514
590.427	16173.11927
590.63	15903.98035
590.833	16011.22813
591.036	15873.62787
591.239	16225.73611
591.442	15891.83933
591.645	16144.7876
591.848	16304.66357
592.051	16430.14382
592.254	15756.26741
592.457	16264.18761
592.66	15978.85104
592.863	16134.66922
593.066	16205.49873
593.269	16652.78948
593.472	16134.66922
593.675	16169.07187
593.878	16173.11927
594.081	16280.3779
594.284	16250.02119
594.486	16606.23411
594.689	16332.99718
594.892	16260.14005
595.095	16505.03084
595.298	16652.78948
595.5	16547.53555
595.703	17027.30304
595.906	16721.61267
596.109	16636.59617
596.311	16298.59213
596.514	16403.83283
596.717	16424.07203
596.92	16766.14678
597.122	16715.53993
597.325	16766.14678
597.528	16446.33537
597.73	16462.52705
597.933	16547.53555
598.136	16982.7617
598.338	16723.63693
598.541	16911.90313
598.743	16899.75626
598.946	16790.43861
599.148	16557.65586
599.351	16626.47543
599.554	16804.60901
599.756	16705.41874
599.959	16879.5117
600.161	17158.91023
600.363	17023.25378
600.566	16920.00109
600.768	17122.46398
600.971	17440.38823
601.173	17199.40714
601.376	17418.11086
601.578	17373.55725
601.78	17432.28732
601.983	17201.43202
602.185	16996.9338
602.388	17160.93504
602.59	17217.63113
602.792	17015.15527
602.995	17108.29068
603.197	17197.38227
603.399	17005.03221
603.601	17033.37696
603.804	17019.20452
604.006	17217.63113
604.208	17029.32768
604.41	17000.983
604.613	17071.8457
604.815	17065.77162
605.017	17369.50699
605.219	17083.99393
605.421	17098.16699
605.623	17108.29068
605.826	17444.4387
606.028	17407.98491
606.23	17541.65377
606.432	17181.18339
606.634	17436.33777
606.836	17229.78059
607.038	17460.6407
607.24	17630.77407
607.442	17379.63265
607.644	17349.2559
607.846	17590.26406
608.048	17590.26406
608.25	17420.13606
608.452	17343.18064
608.654	17559.88241
608.856	17310.77967
609.058	17476.84291
609.26	17521.40003
609.462	17539.62838
609.664	17950.85024
609.866	17740.15767
610.067	17401.90937
610.269	17598.36596
610.471	17108.29068
610.673	17667.23419
610.875	17507.2226
611.077	18119.02634
611.278	17189.2828
611.48	17436.33777
611.682	17381.65779
611.884	17837.39577
612.085	17322.92994
612.287	17434.31254
612.489	17420.13606
612.69	17754.33774
612.892	17717.87504
613.094	17748.26055
613.295	17537.603
613.497	18070.39457
613.699	17687.49028
613.9	17594.31501
614.102	17821.18887
614.304	17938.69388
614.505	17764.46646
614.707	17934.64179
614.908	17432.28732
615.11	17829.29229
615.311	17760.41496
615.513	17555.83158
615.714	17602.41693
615.916	17902.22556
616.117	18046.07947
616.319	18035.94832
616.52	17829.29229
616.722	17879.93992
616.923	18266.96091
617.124	18060.26322
617.326	17881.96587
617.527	18145.36943
617.729	17950.85024
617.93	17752.31201
618.131	17979.21557
618.333	17918.43356
618.534	17738.13196
618.735	17875.88803
618.937	17675.33659
619.138	17778.64682
619.339	17294.57947
619.54	17480.8935
619.742	17958.95455
619.943	17849.55109
620.144	17695.59281
620.345	18074.44714
620.546	17630.77407
620.748	18100.78919
620.949	17770.54374
621.15	17788.77574
621.351	17902.22556
621.552	18056.2107
621.753	18155.50154
621.954	18194.00443
622.155	17859.68061
622.356	18046.07947
622.558	17958.95455
622.759	18031.89589
622.96	18108.89455
623.161	17898.17359
623.362	17863.73244
623.563	18250.74794
623.764	17535.57761
623.965	18007.5816
624.166	17930.58971
624.366	17888.04374
624.567	17667.23419
624.768	17610.5189
624.969	17543.67916
625.17	18102.81552
625.371	17886.01778
625.572	18459.50822
625.773	17519.37467
625.973	17969.08502
626.174	18064.31575
626.375	17525.45075
626.576	18072.42086
626.777	18287.22745
626.977	17764.46646
627.178	18088.63124
627.379	17829.29229
627.58	17877.91397
627.78	18044.05323
627.981	18088.63124
628.182	18297.36086
628.382	18070.39457
628.583	18151.44869
628.784	18163.6073
628.984	17608.4934
629.185	17904.25155
629.386	17642.92733
629.586	18260.88102
629.787	18214.26964
629.987	18210.21657
630.188	18155.50154
630.388	18297.36086
630.589	18141.3166
630.79	18191.97793
630.99	18212.2431
631.191	18064.31575
631.391	18080.52602
631.591	18021.76487
631.792	18350.0561
631.992	18216.29618
632.193	18512.21135
632.393	18232.50864
632.594	18149.42226
632.794	18244.66814
632.994	18360.19009
633.195	18599.37994
633.395	18639.92592
633.595	18781.84918
633.796	18688.58315
633.996	18668.30903
634.196	18716.96758
634.397	18988.6865
634.597	18323.70816
634.797	18386.53891
634.997	18058.23695
635.198	18273.04083
635.398	18198.05744
635.598	18264.93427
635.798	18481.80538
635.998	18396.67324
636.199	18147.39584
636.399	18625.73465
636.599	18346.00253
636.799	18303.44095
636.999	18106.86821
637.199	18346.00253
637.399	18125.10546
637.599	18356.13648
637.799	18418.96911
637.999	18741.2977
638.199	18662.22687
638.399	18457.48123
638.599	18224.40238
638.799	18680.47345
638.999	18952.18276
639.199	18897.4296
639.399	18643.9806
639.599	18765.6284
639.799	18339.9222
639.999	18595.32543
640.199	18313.57451
640.399	18716.96758
640.599	18299.38755
640.799	19049.52897
640.998	18621.68003
641.198	18623.70734
641.398	18489.91356
641.598	18714.94009
641.798	18621.68003
641.997	18573.02589
642.197	18646.00795
642.397	18729.13257
642.597	18745.35278
642.796	18747.38033
642.996	18789.95966
643.196	18980.57444
643.395	18542.61819
643.595	18530.45535
643.795	18416.94219
643.994	18850.79033
644.194	18680.47345
644.394	18915.68033
644.593	18548.69966
644.793	19274.67798
644.992	18806.18082
645.192	19021.13536
645.392	18765.6284
645.591	18976.51844
645.791	18773.73876
645.99	18838.62391
646.19	18613.57085
646.389	18704.80273
646.589	19199.62271
646.788	19197.59426
646.987	19084.00799
647.187	19274.67798
647.386	19002.88275
647.586	19514.08121
647.785	19045.47269
647.984	19230.04984
648.184	19049.52897
648.383	19008.96692
648.582	18897.4296
648.782	19288.87826
648.981	19000.8547
649.18	18974.49045
649.38	18996.79862
649.579	19106.31857
649.778	19173.25327
649.977	19597.27723
650.177	19106.31857
650.376	19144.85619
650.575	18619.65273
650.774	19035.33207
650.973	18706.83019
651.173	18785.90441
651.372	19027.21964
651.571	19142.82785
651.77	19013.02305
651.969	19138.7712
652.168	19008.96692
652.367	19171.22488
652.566	18798.07021
652.765	19134.71456
652.964	19029.24774
653.163	19353.7964
653.362	18832.54075
653.561	19124.57305
653.76	19232.07835
653.959	19069.8106
654.158	19236.13538
654.357	19331.48031
654.556	18676.41863
654.755	19112.40336
654.954	19236.13538
655.153	19029.24774
655.352	19033.30395
655.551	19274.67798
655.749	19641.92189
655.948	19560.75129
656.147	19335.53775
656.346	19428.86328
656.545	19351.76764
656.743	19278.73518
656.942	19179.33846
657.141	19540.45968
657.34	19294.96416
657.538	19406.54551
657.737	19098.20557
657.936	19617.57001
658.135	19236.13538
658.333	19272.64939
658.532	19033.30395
658.731	19367.99781
658.929	19189.48053
659.128	18917.70821
659.326	18946.09893
659.525	19175.28166
659.724	19244.24949
659.922	19528.28491
660.121	19157.02627
660.319	19230.04984
660.518	19473.50033
660.716	19390.31471
660.915	19530.31403
661.113	19643.95124
661.312	19219.90736
661.51	19493.79056
661.709	19481.61637
661.907	19662.21559
662.105	19331.48031
662.304	19195.56583
662.502	19345.6814
662.701	19404.51664
662.899	19370.0266
663.097	19457.26844
663.296	19404.51664
663.494	19424.80546
663.692	19270.6208
663.891	19560.75129
664.089	19457.26844
664.287	19181.36687
664.485	18956.23867
664.684	19637.8632
664.882	19183.39528
665.08	19501.90677
665.278	19159.05463
665.476	19039.3883
665.675	18755.49054
665.873	19167.16811
666.071	18526.4011
666.269	18933.93138
666.467	18680.47345
666.665	19439.00789
666.863	19136.74288
667.061	19323.3655
667.259	19061.6979
667.457	19161.08299
667.655	18751.43543
667.853	18763.60082
668.051	18785.90441
668.249	18972.46245
668.447	19329.4516
668.645	18901.48529
668.843	19045.47269
669.041	18994.77058
669.239	19104.29031
669.437	19217.87888
669.635	19467.41334
669.833	19441.03682
670.031	19114.43163
670.229	19402.48778
670.426	19199.62271
670.624	19211.79345
670.822	19266.56363
671.02	19615.54071
671.218	19090.09264
671.415	18968.40648
671.613	19061.6979
671.811	19013.02305
672.009	19260.4779
672.206	19461.32639
672.404	19264.53505
672.602	19221.93585
672.799	19272.64939
672.997	19501.90677
673.195	19219.90736
673.392	19254.39222
673.59	18802.12551
673.788	18735.21512
673.985	18698.72036
674.183	19309.16473
674.38	18710.88514
674.578	19187.45211
674.775	19142.82785
674.973	18262.90764
675.17	19075.89517
675.368	18940.01514
675.565	19104.29031
675.763	19025.19154
675.96	19021.13536
676.158	19191.50896
676.355	19347.71015
676.553	19589.16024
676.75	19073.86698
676.947	18990.71452
677.145	18718.99507
677.342	18587.21645
677.539	18968.40648
677.737	19363.94024
677.934	18773.73876
678.131	19013.02305
678.329	19213.82192
678.526	18940.01514
678.723	18962.32256
678.92	19394.37239
679.118	18942.04307
679.315	18976.51844
679.512	19006.93886
679.709	19161.08299
679.906	18678.44604
680.104	18834.56847
680.301	18613.57085
680.498	18652.09001
680.695	18408.83457
680.892	18637.89858
681.089	18753.46298
681.286	18832.54075
681.483	18374.37784
681.68	18826.45763
681.877	18781.84918
682.075	18674.39122
682.272	18475.72429
682.469	18540.59104
682.665	18637.89858
682.862	18457.48123
683.059	18072.42086
683.256	18242.64155
683.453	18232.50864
683.65	18072.42086
683.847	18129.15823
684.044	18348.02931
684.241	18327.76165
684.438	18794.01493
684.635	18354.10969
684.831	18935.9593
685.028	18477.75132
685.225	18283.17411
685.422	18354.10969
685.619	18390.59263
685.815	18475.72429
686.012	18350.0561
686.209	18368.29735
686.405	18566.94428
686.602	18368.29735
686.799	18348.02931
686.996	18502.07593
687.192	18325.7349
687.389	18116.99998
687.586	18157.52798
687.782	18297.36086
687.979	18398.70012
688.175	18094.7102
688.372	18238.58837
688.568	18119.02634
688.765	18283.17411
688.962	18137.2638
689.158	18202.11047
689.355	18220.34927
689.551	18402.75389
689.748	18289.25412
689.944	18489.91356
690.14	18096.73652
690.337	18356.13648
690.533	18540.59104
690.73	17898.17359
690.926	18273.04083
691.123	17930.58971
691.319	17807.00802
691.515	18455.45424
691.712	18040.00077
691.908	18287.22745
692.104	18003.52927
692.301	17689.51591
692.497	17561.90783
692.693	18327.76165
692.889	17883.99182
693.086	17906.27754
693.282	17580.13677
693.478	18072.42086
693.674	17725.97777
693.87	17989.34622
694.067	17790.80154
694.263	17685.46466
694.459	18046.07947
694.655	17888.04374
694.851	17827.26643
695.047	17827.26643
695.243	17452.53968
695.439	17667.23419
695.635	17780.67259
695.831	17555.83158
696.027	17774.59527
696.224	17827.26643
696.42	17841.44753
696.615	17596.34048
696.811	17711.79803
697.007	18155.50154
697.203	17387.73324
697.399	17709.77236
697.595	17363.43164
697.791	17580.13677
697.987	17586.21314
698.183	17719.90072
698.379	17675.33659
698.575	17932.61575
698.77	17614.56991
698.966	18023.79107
699.162	17630.77407
699.358	18033.92211
699.554	17715.84936
699.749	18015.68631
699.945	17898.17359
700.141	17780.67259
700.337	17484.94409
700.532	17622.67196
700.728	17529.50149
700.924	17434.31254
701.119	17233.83043
701.315	17567.98412
701.511	17055.64822
701.706	17294.57947
701.902	17326.98006
702.097	17122.46398
702.293	17387.73324
702.489	17339.13047
702.684	17274.32949
702.88	17341.15555
703.075	17565.95868
703.271	17689.51591
703.466	17233.83043
703.662	17314.82975
703.857	17266.22959
704.053	17493.04532
704.248	17142.71178
704.443	17574.06043
704.639	17430.2621
704.834	17339.13047
705.03	17110.31543
705.225	16932.14811
705.42	17051.59887
705.616	17193.33253
705.811	16784.36562
706.006	16934.17262
706.202	17171.05918
706.397	16998.9584
706.592	17047.54954
706.787	17371.53212
706.983	16905.82968
707.178	17412.03528
707.373	17237.88028
707.568	17401.90937
707.763	16920.00109
707.959	17189.2828
708.154	17241.93015
708.349	17148.78618
708.544	17290.52945
708.739	17171.05918
708.934	17187.25795
709.129	17073.8704
709.324	16709.46721
709.519	17252.05486
709.714	16883.56059
709.909	17205.48178
710.104	16895.70733
710.299	17047.54954
710.494	17083.99393
710.689	17142.71178
710.884	17140.68699
711.079	17555.83158
711.274	17148.78618
711.469	17657.10627
711.664	16792.46295
711.859	17395.83387
712.054	17199.40714
712.249	17132.58784
712.443	17320.90489
712.638	17090.06808
712.833	16505.03084
713.028	16768.17109
713.223	16664.93455
713.417	16640.64448
713.612	16822.82826
713.807	16802.58466
714.002	17156.88541
714.196	16885.58504
714.391	16381.56994
714.586	17053.62354
714.78	16677.07971
714.975	16675.05551
715.17	16361.33115
715.364	16450.38328
715.559	16492.88681
715.754	16375.49828
715.948	16630.52372
716.143	16272.28274
716.337	16227.75985
716.532	16223.71236
716.726	16067.88892
716.921	16361.33115
717.115	16193.35638
717.31	16824.85264
717.504	16654.81365
717.699	17035.40161
717.893	16225.73611
718.088	16834.97455
718.282	16743.87958
718.476	16284.4255
718.671	16169.07187
718.865	16328.9495
719.059	15938.38017
719.254	16011.22813
719.448	15802.80645
719.642	16015.27529
719.837	15932.30959
720.031	16535.39125
720.225	15926.23902
720.419	16201.45127
720.614	16037.53478
720.808	16025.39322
721.002	15507.39293
721.196	15867.55741
721.39	15644.98052
721.585	15697.58851
721.779	15924.2155
721.973	15651.05064
722.167	15497.27632
722.361	15926.23902
722.555	16033.48759
722.749	15986.94528
722.943	15954.56846
723.137	15843.27566
723.331	15687.47154
723.525	15972.78038
723.719	15746.1503
723.913	15920.16846
724.107	15780.54858
724.301	16108.36163
724.495	16035.51118
724.689	16027.41681
724.883	15889.81583
725.077	15993.01597
725.271	15926.23902
725.465	15883.74533
725.659	15865.53392
725.853	15841.25219
726.046	15782.57202
726.24	15351.59858
726.434	15124.99179
726.628	16063.84168
726.822	15893.86283
727.015	15778.52514
727.209	15250.43461
727.403	16075.98341
727.596	15626.77019
727.79	15984.92172
727.984	15768.40798
728.177	15746.1503
728.371	15677.3546
728.565	15725.91615
728.758	15713.77571
728.952	15814.94717
729.146	15515.48623
729.339	15978.85104
729.533	15578.20965
729.726	15711.75231
729.92	15693.54172
730.113	15768.40798
730.307	15711.75231
730.5	15719.84593
730.694	15564.04624
730.887	15462.87996
731.081	15723.89274
731.274	15521.55621
731.468	15333.38902
731.661	15634.86366
731.854	15187.71318
732.048	15398.13427
732.241	15513.4629
732.435	15588.32639
732.628	15566.06958
732.821	15331.36574
733.014	15412.29735
733.208	15505.36961
733.401	15050.13067
733.594	15339.45887
733.788	15454.78672
733.981	15475.01983
734.174	15626.77019
734.367	15390.04109
734.56	15659.14415
734.754	15600.46651
734.947	15426.46045
735.14	15725.91615
735.333	15456.81003
735.526	15422.41385
735.719	15388.0178
735.912	15408.25075
736.105	15305.06308
736.298	14987.40898
736.491	15203.89935
736.684	14760.79801
736.877	15161.41066
737.07	15084.52635
737.263	15082.50307
737.456	15317.20276
737.649	15390.04109
737.842	15719.84593
738.035	15347.55201
738.228	15031.92117
738.421	15422.41385
738.614	15080.4798
738.807	15112.85216
739	15292.92341
739.192	15284.8303
739.385	15501.32296
739.578	15252.45789
739.771	15108.80562
739.964	15104.75907
740.156	15673.30783
740.349	15137.13142
740.542	15408.25075
740.735	14975.26926
740.927	15098.68926
741.12	15090.59617
741.313	15234.24843
741.505	15173.55029
741.698	15143.20123
741.891	15005.61853
742.083	15098.68926
742.276	15064.2936
742.468	15274.71391
742.661	14673.79327
742.854	14700.0972
743.046	14671.76988
743.239	14953.01308
743.431	15044.06084
743.624	14724.37762
743.816	14805.31148
744.009	14596.90388
744.201	14689.98032
744.393	14768.89139
744.586	14653.55936
744.778	14831.61473
744.971	14916.59377
745.163	14762.82136
745.355	15001.57197
745.548	14779.00811
745.74	14920.64036
745.932	14797.21814
746.125	14936.82674
746.317	14637.37217
746.509	14451.21406
746.702	14898.38405
746.894	14833.63805
747.086	14578.69301
747.278	14511.91897
747.471	14400.62566
747.663	14534.17713
747.855	14287.304
748.047	14451.21406
748.239	14657.60615
748.431	14558.45859
748.623	14999.54868
748.815	14643.44237
749.008	14803.28814
749.2	14617.13808
749.392	14489.66065
749.584	14228.6174
749.776	14720.33089
749.968	14489.66065
750.16	14526.08327
750.352	14394.55498
750.544	14643.44237
750.736	14471.44917
750.928	14465.37865
751.12	14487.63715
751.311	14443.11998
751.503	14384.43716
751.695	14147.66767
751.887	14345.98909
752.079	14639.39557
752.271	14149.69145
752.463	13896.7006
752.654	14321.70578
752.846	14481.56667
753.038	14224.56999
753.23	14566.55237
753.421	14234.6885
753.613	14404.67276
753.805	14339.91828
753.997	14378.36645
754.188	14497.7546
754.38	14410.74341
754.572	14479.54317
754.763	14105.16772
754.955	13953.3739
755.146	13993.85359
755.338	13864.31491
755.53	13750.95923
755.721	13912.89318
755.913	14133.50113
756.104	14008.02124
756.296	14182.0717
756.487	14117.31066
756.679	14273.13841
756.87	14327.77663
757.062	14228.6174
757.253	14254.92538
757.445	13892.65243
757.636	14143.6201
757.827	14072.78616
758.019	13979.68581
758.21	13995.87754
758.401	13746.91064
758.593	13688.20468
758.784	13524.21813
758.975	13744.88634
759.167	13501.94657
759.358	13757.03209
759.549	13674.03388
759.74	13503.97127
759.932	13491.82298
760.123	13402.73137
760.314	13036.15544
760.505	13230.6005
760.696	13198.19594
760.888	13501.94657
761.079	13273.12979
761.27	13380.45729
761.461	12975.38227
761.652	13692.25346
761.843	13356.15773
762.034	13589.00564
762.225	13384.50715
762.416	13609.251
762.607	13317.68224
762.798	13560.66155
762.989	13368.30758
763.18	13617.34905
763.371	12991.58889
763.562	13210.34779
763.753	13113.12844
763.944	13147.5615
764.135	13364.25765
764.326	13396.65667
764.517	13301.48158
764.708	13380.45729
764.899	13125.28144
765.089	12934.86428
765.28	13107.05187
765.471	12863.95276
765.662	12647.124
765.853	12724.13613
766.043	12515.37238
766.234	12896.37026
766.425	12639.01696
766.615	12872.05726
766.806	12499.15496
766.997	12904.47442
767.187	12732.24218
767.378	13175.91714
767.569	12805.19249
767.759	12855.84817
767.95	12880.16168
768.141	13072.6172
768.331	12823.42893
768.522	12920.68249
768.712	12665.36449
768.903	12795.06094
769.093	12602.53407
769.284	12636.99018
769.474	12724.13613
769.665	12298.42926
769.855	12521.45381
770.046	12807.21879
770.236	12393.73153
770.426	12602.53407
770.617	12622.80259
770.807	12663.33779
770.998	12357.23459
771.188	12525.50806
771.378	12349.12385
771.569	12519.42667
771.759	12148.34712
771.949	12180.8007
772.139	12318.70762
772.33	11941.40936
772.52	12111.83454
772.71	12180.8007
772.9	12028.65775
773.09	11998.22394
773.281	12124.00567
773.471	12217.30872
773.661	12124.00567
773.851	12211.22422
774.041	11949.52611
774.231	12032.71546
774.421	11874.44113
774.611	11850.08681
774.802	11789.1957
774.992	11756.71728
775.182	11904.88235
775.372	11748.59733
775.562	11764.8371
775.752	11937.35093
775.942	11683.63268
776.131	11742.50728
776.321	11703.9351
776.511	11979.9628
776.701	11667.39009
776.891	11890.67668
777.081	11760.77721
777.271	11563.82998
777.461	11839.93882
777.651	11876.47061
777.84	11498.83879
778.03	11679.57208
778.22	11592.26062
778.41	11486.65187
778.599	11336.31777
778.789	11261.1303
778.979	11508.9943
779.169	11206.25492
779.358	11244.87172
779.548	11569.92241
779.738	11340.38156
779.927	11177.79804
780.117	11257.06572
780.307	11344.44532
780.496	10891.07839
780.686	11328.19006
780.875	11043.61603
781.065	11230.64491
781.254	11039.54917
781.444	11167.63436
781.633	11216.4176
781.823	11238.77458
782.012	10742.54652
782.202	11118.84504
782.391	10593.951
782.581	10880.90695
782.77	11106.64674
782.96	10988.70973
783.149	10750.68688
783.338	11004.9791
783.528	11023.2813
783.717	10968.37201
783.906	10736.44113
784.096	10948.03316
784.285	10681.48772
784.474	10766.96702
784.663	11070.04954
784.853	10980.57477
785.042	10665.20354
785.231	10966.33817
785.42	10644.84721
785.61	11068.01625
785.799	10838.18376
785.988	11002.94547
786.177	10353.61428
786.366	10695.73575
786.555	10612.27453
786.744	10351.57675
786.933	10469.73144
787.122	10691.66494
787.312	10677.41675
787.501	10667.2391
787.69	10416.77096
787.879	10483.98854
788.068	10343.42653
788.257	10451.39996
788.445	10080.46572
788.634	10286.369
788.823	10164.06719
789.012	10455.47371
789.201	10441.21535
789.39	10241.53069
789.579	9943.79741
789.768	10404.54807
789.957	10125.32796
790.145	10310.82351
790.334	10131.44502
790.523	10117.1717
790.712	10123.28892
790.9	10298.59649
791.089	9964.19977
791.278	10367.87657
791.467	10518.61033
791.655	10249.6836
791.844	10359.72676
792.033	10274.14102
792.221	9815.22882
792.41	10025.39816
792.599	9760.1099
792.787	10066.18994
792.976	9992.76063
793.164	9953.99877
793.353	10033.55697
793.541	10149.79543
793.73	9900.94772
793.918	9921.35314
794.107	9937.67642
794.295	9841.76366
794.484	9909.11006
794.672	9510.91438
794.861	9598.77208
795.049	9578.34266
795.238	9204.19977
795.426	9482.30321
795.614	9420.98295
795.803	9698.85369
795.991	9478.21565
796.179	9547.69558
796.368	9756.02658
796.556	9586.51462
796.744	9531.34902
796.932	9559.95484
797.121	9255.34473
797.309	9711.10603
797.497	9457.77685
797.685	9447.55685
797.874	9359.64807
798.062	9314.65976
798.25	9200.10772
798.438	9447.55685
798.626	9224.65902
798.814	9341.24472
799.002	9470.04032
799.19	9484.34697
799.378	9564.04113
799.566	9226.70485
799.755	9300.34362
799.943	9396.45076
800.131	9345.33447
800.318	9359.64807
800.506	9333.06503
800.694	9470.04032
800.882	9167.36886
801.07	9482.30321
801.258	9281.93596
801.446	9633.49849
801.634	9150.99779
801.822	9167.36886
802.01	9208.29176
802.197	9073.22025
802.385	9112.11213
802.573	9130.53243
802.761	9202.15375
802.949	9423.02719
803.136	9118.25238
803.324	9416.89441
803.512	9243.0709
803.699	9429.15982
803.887	9416.89441
804.075	9457.77685
804.262	9414.85012
804.45	9345.33447
804.638	9161.22984
804.825	9506.82727
805.013	9314.65976
805.201	9392.36183
805.388	9105.97172
805.576	9326.93009
805.763	9087.54956
805.951	9339.19983
806.138	9269.66343
806.326	9290.11731
806.513	9015.8945
806.701	9367.8269
806.888	9126.43915
807.075	9279.89058
807.263	9114.1589
807.45	9257.39031
807.638	8903.25026
807.825	9138.71878
808.012	9226.70485
808.2	9144.85836
808.387	9275.79977
808.574	9380.09466
808.761	9382.13923
808.949	9629.41327
809.136	9339.19983
809.323	9423.02719
809.51	9527.26222
809.698	9486.39072
809.885	9396.45076
810.072	9588.55757
810.259	9406.67279
810.446	9437.33644
810.633	9500.69647
810.82	9308.52437
811.008	9054.79561
811.195	9470.04032
811.382	9150.99779
811.569	9224.65902
811.756	8915.54132
811.943	9306.47921
812.13	8981.08289
812.317	9150.99779
812.504	9245.11658
812.691	9347.37932
812.878	9163.27619
813.064	9517.04494
813.251	9185.785
813.438	9488.43444
813.625	9155.09066
813.812	9355.55855
813.999	9343.28961
814.186	9547.69558
814.372	9269.66343
814.559	9557.91167
814.746	9171.46145
814.933	9179.64644
815.12	9062.98451
815.306	9212.38367
815.493	9230.79646
815.68	9380.09466
815.866	9124.39248
816.053	9234.88801
816.24	9175.55398
816.426	9101.87803
816.613	9134.62564
816.799	9161.22984
816.986	9257.39031
817.173	9116.20565
817.359	9198.06167
817.546	9034.32212
817.732	8821.29333
817.919	9193.96951
818.105	8923.73501
818.292	8790.55205
818.478	9044.55908
818.665	9075.26735
818.851	8970.84321
819.037	9185.785
819.224	9097.78427
819.41	8921.68662
819.597	8806.94791
819.783	8970.84321
819.969	9015.8945
820.156	9277.84518
820.342	9126.43915
820.528	8970.84321
820.714	8659.34301
820.901	9196.0156
821.087	8806.94791
821.273	9150.99779
821.459	8929.88009
821.646	9298.29839
821.832	9159.18346
822.018	9179.64644
822.204	8804.89849
822.39	8974.93913
822.576	8753.6571
822.762	8702.40428
822.948	8597.8127
823.134	8749.5573
823.32	8448.01816
823.507	8464.43894
823.693	8569.09279
823.879	8620.37577
824.065	8552.67976
824.25	8587.55601
824.436	8515.74602
824.622	8782.35368
824.808	8503.43341
824.994	8784.4033
825.18	8294.01326
825.366	8686.00095
825.552	8454.1761
825.738	8589.60739
825.923	8351.52119
826.109	8806.94791
826.295	8688.05143
826.481	8716.75623
826.667	8778.25439
826.852	8958.55502
827.038	8550.62805
827.224	8519.85007
827.409	8651.13994
827.595	8835.63787
827.781	8519.85007
827.966	8359.73536
828.152	8386.42927
828.338	8404.90776
828.523	8337.14564
828.709	8620.37577
828.894	8581.40178
829.08	8774.15502
829.266	8209.77747
829.451	8370.00264
829.637	8006.24078
829.822	7866.32256
830.008	7856.03069
830.193	8166.61943
830.378	7810.74033
830.564	8372.05604
830.749	8154.28695
830.935	7975.38461
831.12	7806.62253
831.305	8201.55757
831.491	8035.03574
831.676	7864.26423
831.861	8096.72585
832.047	8059.71397
832.232	8084.38928
832.417	8156.34242
832.602	7608.86912
832.788	7928.06289
832.973	7713.9498
833.158	7911.60061
833.343	7623.29523
833.528	8059.71397
833.714	7823.09325
833.899	8168.67478
834.084	7532.59947
834.269	8010.35459
834.454	7940.40873
834.639	7711.88992
834.824	7600.62517
835.009	7868.38087
835.194	7448.05011
835.379	7985.67051
835.564	7503.73303
835.749	8016.52515
835.934	7977.44183
836.119	7796.32765
836.304	7584.13623
836.489	7596.50306
836.674	7435.67399
836.859	7520.22866
837.044	7439.79945
837.228	7551.15425
837.413	7315.99775
837.598	7666.5673
837.783	7359.33728
837.968	7305.67739
838.152	7229.28965
838.337	7474.86237
838.522	7483.11156
838.707	7664.50693
838.891	7375.84504
839.076	7547.03111
839.261	7425.35995
839.445	7299.48491
839.63	7204.50876
839.815	7419.17127
839.999	6995.8093
840.184	7202.44354
840.368	7047.48883
840.553	7272.64855
840.737	6975.13356
840.922	7462.48794
841.106	7260.26129
841.291	7472.80002
841.475	7183.85559
841.66	7367.59133
841.844	6973.06586
842.029	6999.94418
842.213	6846.89348
842.397	7014.41555
842.582	6590.15032
842.766	6879.99603
842.951	6594.29414
843.135	6995.8093
843.319	6813.7851
843.504	6817.92397
843.688	6592.22224
843.872	6724.77739
844.056	6757.90147
844.241	6842.75525
844.425	6623.29832
844.609	6871.72094
844.793	6739.2699
844.977	6774.46132
845.161	6511.40012
845.346	6788.94999
845.53	6954.45555
845.714	6718.56597
845.898	6561.14098
846.082	6908.956
846.266	6480.30531
846.45	6737.19961
846.634	6730.9886
846.818	6612.9402
847.002	6637.79871
847.186	6691.64743
847.37	6266.64615
847.554	6527.98189
847.738	6314.37792
847.922	6610.86851
848.106	6619.15514
848.29	6538.34474
848.473	6463.71927
848.657	6633.65585
848.841	6366.24625
849.025	6287.40061
849.209	6250.04089
849.392	5907.22224
849.576	6000.78178
849.76	6316.45293
849.944	6277.02367
850.127	6615.01187
850.311	6162.83869
850.495	6343.42598
850.678	6212.67358
850.862	6399.43433
851.046	6391.13787
851.229	6324.75275
851.413	6056.8946
851.596	6250.04089
851.78	6042.34848
851.964	6210.5974
852.147	5944.65179
852.331	6191.91069
852.514	5967.52164
852.698	6058.97253
852.881	5701.22309
853.065	5867.70499
853.248	5867.70499
853.431	6019.48797
853.615	5478.31754
853.798	6004.93888
853.982	5692.89503
854.165	5657.49656
854.348	5680.40223
854.532	5942.57257
854.715	5919.69961
854.898	5898.90353
855.081	5555.42755
855.265	5788.64492
855.448	5651.24907
855.631	5930.09676
855.814	5692.89503
855.997	6158.68517
856.181	5769.91518
856.364	5867.70499
856.547	5703.30505
856.73	5620.0084
856.913	5328.17335
857.096	5736.61313
857.279	5530.42243
857.462	5632.50531
857.645	5267.66426
857.828	5547.09289
858.011	5447.04754
858.194	5392.83369
858.377	5054.68332
858.56	5545.00916
858.743	5376.1493
858.926	5609.59367
859.109	5342.77604
859.292	5292.70489
859.475	5276.01151
859.658	5301.05102
859.841	5192.52218
860.023	5476.23303
860.206	5209.22303
860.389	5238.44593
860.572	4989.90599
860.755	5292.70489
860.937	5248.88157
861.12	5190.43446
861.303	5209.22303
861.486	5309.39677
861.668	4960.64445
861.851	5058.86174
862.034	4833.0952
862.216	5012.89404
862.399	4755.68789
862.581	5104.81825
862.764	4688.71601
862.947	5027.52134
863.129	4874.92401
863.312	4902.10784
863.494	4506.52012
863.677	5004.53507
863.859	4862.37633
864.042	4893.744
864.224	5025.43179
864.406	4914.65291
864.589	4753.59537
864.771	4923.01584
864.954	4521.18579
865.136	4816.36112
865.318	4449.94242
865.501	4615.43912
865.683	4523.28079
865.865	4743.13242
866.048	4464.61225
866.23	4569.36534
866.412	4372.38406
866.594	4533.7555
866.777	4491.85337
866.959	4540.04005
867.141	4491.85337
867.323	4615.43912
867.505	4458.32531
867.687	4422.69559
867.869	4263.33293
868.052	4726.39053
868.234	4372.38406
868.416	4529.56568
868.598	4439.46331
868.78	4535.85037
868.962	4678.24956
869.144	4607.06287
869.326	4250.74637
869.508	4311.57428
869.69	4143.7297
869.872	4313.67147
870.054	4217.17845
870.236	4366.09424
870.417	4229.76706
870.599	4720.11195
870.781	4122.7396
870.963	4349.32042
871.145	4129.03685
871.327	4640.56572
871.508	4290.60117
871.69	4290.60117
871.872	4055.55727
872.054	4311.57428
872.235	4011.45734
872.417	4114.34298
872.599	3923.2304
872.78	4426.88765
872.962	4215.08027
873.144	4275.91873
873.325	4063.95622
873.507	4355.61077
873.689	4070.25522
873.87	4317.86579
874.052	4087.05164
874.233	4378.67369
874.415	3898.01614
874.596	4118.54133
874.778	4045.05811
874.959	3862.29099
875.141	4124.83871
875.322	4175.2109
875.503	4070.25522
875.685	4472.99453
875.866	4162.61899
876.048	4332.54522
876.229	4011.45734
876.41	3944.24006
876.592	3986.25331
876.773	4122.7396
876.954	4095.44935
877.136	4343.02988
877.317	3877.00205
877.498	4173.1123
877.679	4120.64048
877.86	4129.03685
878.042	3929.53351
878.223	4137.43289
878.404	4183.60509
878.585	4129.03685
878.766	4108.04529
878.947	4057.65704
879.128	3910.62363
879.309	3952.64336
879.49	3774.00428
879.672	3971.5496
879.853	3874.90053
880.034	4030.35842
880.215	3912.72481
880.396	4114.34298
880.576	3937.93737
880.757	4061.85652
880.938	3849.68074
881.119	3994.65498
881.3	3866.49425
881.481	4313.67147
881.662	4040.8583
881.843	4179.40804
882.023	4078.6536
882.204	4215.08027
882.385	3990.45418
882.566	4114.34298
882.747	4011.45734
882.927	4150.02632
883.108	3868.59585
883.289	3921.12932
883.469	3910.62363
883.65	3891.71212
883.831	4053.45748
884.011	4372.38406
884.192	4206.68736
884.373	4449.94242
884.553	4330.44822
884.734	4533.7555
884.914	4196.19574
885.095	4452.03817
885.275	4191.99894
885.456	4363.99759
885.636	4330.44822
885.817	4548.41915
885.997	4246.55068
886.178	4147.92747
886.358	4179.40804
886.538	4315.76864
886.719	4171.01368
886.899	4298.99067
887.08	4137.43289
887.26	4280.11382
887.44	3845.47716
887.621	4248.64854
887.801	4070.25522
887.981	4347.2236
888.161	4005.1566
888.342	4171.01368
888.522	3929.53351
888.702	4204.58908
888.882	4296.89333
889.062	4263.33293
889.242	3811.8457
889.423	4003.05632
889.603	3979.95184
889.783	4114.34298
889.963	3893.81348
890.143	4007.25687
890.323	4028.25838
890.503	4439.46331
890.683	4141.63078
890.863	4173.1123
891.043	4082.85266
891.223	4112.24377
891.403	3973.65019
891.583	4384.96312
891.763	3834.96788
891.943	4273.82115
892.122	3847.57896
892.302	4204.58908
892.482	3826.56009
892.662	3910.62363
892.842	3748.77314
893.022	3811.8457
893.201	3813.94782
893.381	3921.12932
893.561	3700.40566
893.741	4145.82859
893.92	3923.2304
894.1	4152.12515
894.28	3921.12932
894.459	3828.66206
894.639	3841.27351
894.819	3866.49425
894.998	3645.71715
895.178	4024.05824
895.357	3635.19866
895.537	3977.85131
895.716	3797.13035
895.896	3937.93737
896.075	3820.25404
896.255	3687.78638
896.434	3710.9212
896.614	3902.21871
896.793	3508.94027
896.973	3734.05369
897.152	3456.31308
897.331	3534.19728
897.511	3485.7857
897.69	4034.55843
897.87	3626.78352
898.049	3956.84489
898.228	3759.28646
898.407	3582.59913
898.587	3599.43225
898.766	3902.21871
898.945	3447.89168
899.124	3567.86917
899.304	3315.21733
899.483	3601.53631
899.662	3403.67466
899.841	3582.59913
900.02	3254.12191
900.199	3416.30889
900.378	3340.49398
900.557	3508.94027
900.737	3214.08619
900.916	3405.78041
901.095	2952.65774
901.274	3102.37629
901.453	2904.14107
901.632	3155.07531
901.811	2929.45509
901.989	3032.79843
902.168	3020.1461
902.347	3254.12191
902.526	3037.01575
902.705	3241.4797
902.884	3026.47233
903.063	3138.21272
903.242	2950.54848
903.42	3197.22725
903.599	2823.96639
903.778	2874.60542
903.957	2722.66451
904.135	2927.34567
904.314	2509.41198
904.493	2925.23623
904.672	2699.44518
904.85	2940.00197
905.029	2785.98185
905.207	2826.07651
905.386	2572.76725
905.565	2739.55031
905.743	2427.0349
905.922	2538.97908
906.1	2355.20573
906.279	2644.55692
906.457	2405.90992
906.636	2705.77788
906.814	2355.20573
906.993	2522.08387
907.171	2452.38347
907.35	2612.88675
907.528	2048.75544
907.707	2439.70938
907.885	2097.37627
908.063	2327.73854
908.242	1957.84592
908.42	2258.00685
908.598	2158.67513
908.777	2148.10683
908.955	1993.78832
909.133	2217.85377
909.311	2008.5876
909.49	2122.74211
909.668	1877.49796
909.846	2262.2333
910.024	1945.15995
910.202	2200.94626
910.38	2095.26241
910.559	2253.78036
910.737	2088.92075
910.915	2198.83278
911.093	1970.53168
911.271	2088.92075
911.449	2067.78144
911.627	2236.87405
911.805	2040.29926
911.983	2207.28664
912.161	2181.92466
912.339	2262.2333
912.517	2014.93006
912.695	2380.55856
912.872	1983.21721
913.05	2359.4313
913.228	2065.66747
913.406	2329.85146
913.584	2262.2333
913.762	2243.21398
913.939	2078.35119
914.117	2353.09293
914.295	2103.71784
914.473	2291.81743
914.65	2093.14853
914.828	2274.91244
915.006	1966.30312
915.184	2401.68479
915.361	2027.61478
915.539	2209.40008
915.716	2036.07112
915.894	2145.99315
916.072	1913.44409
916.249	2194.6058
916.427	1862.69617
916.604	2213.62694
916.782	2038.18519
916.959	2230.53403
917.137	1778.11012
917.314	2148.10683
917.492	1885.95601
917.669	1970.53168
917.847	1860.58161
918.024	1964.18883
918.201	1818.28939
918.379	1873.2689
918.556	1795.02789
918.733	1924.01619
918.911	1503.16953
919.088	2038.18519
919.265	1623.72518
919.442	1852.12332
919.62	1581.4255
919.797	1881.727
919.974	1754.84776
920.151	1801.37199
920.328	1634.29997
920.506	1746.38861
920.683	1748.5034
920.86	1748.5034
921.037	1693.51765
921.214	1778.11012
921.391	1511.6297
921.568	1640.64482
921.745	1475.67391
921.922	1615.26531
922.099	1522.2049
922.276	1617.38028
922.453	1515.85979
922.63	1708.32173
922.807	1524.31994
922.984	1570.85047
923.161	1490.47925
923.338	1598.34546
923.514	1498.93944
923.691	1729.47013
923.868	1378.3817
924.045	1604.69042
924.222	1344.54128
924.399	1393.18697
924.575	1247.25252
924.752	1441.83308
924.929	1293.78137
925.105	1361.46145
925.282	1226.10347
925.459	1287.43646
925.635	1336.08123
925.812	1539.12517
925.989	1403.76219
926.165	1572.96548
926.342	1338.19624
926.518	1376.26667
926.695	1099.21663
926.871	1302.24128
927.048	1103.44595
927.224	1287.43646
927.401	1086.52881
927.577	1243.02269
927.754	1128.82223
927.93	1099.21663
928.107	1052.69552
928.283	1056.92461
928.459	1086.52881
928.636	1158.4287
928.812	1016.74922
928.988	1200.72501
929.165	1042.12291
929.341	1162.65826
929.517	930.06278
929.693	978.69036
929.87	940.63367
930.046	1031.55043
930.222	858.18586
930.398	949.09052
930.574	892.00914
930.751	940.63367
930.927	957.54748
931.103	989.26206
931.279	841.27503
931.455	980.80469
931.631	794.77323
931.807	940.63367
931.983	906.80748
932.159	1004.06271
932.335	771.52405
932.511	864.52756
932.687	775.75109
932.863	883.55312
933.039	703.89708
933.215	980.80469
933.391	674.31378
933.566	786.31885
933.742	731.36923
933.918	712.34986
934.094	697.55762
934.27	712.34986
934.445	553.89196
934.621	602.47827
934.797	477.85847
934.973	566.56597
935.148	454.6298
935.324	460.96471
935.5	397.62199
935.675	509.53683
935.851	389.17739
936.027	351.18
936.202	349.06919
936.378	431.403
936.553	292.08415
936.729	380.73305
936.904	294.19448
937.08	425.06875
937.255	302.63595
937.431	279.42261
937.606	190.81102
937.782	294.19448
937.957	237.22233
938.133	279.42261
938.308	190.81102
938.483	251.99156
938.659	222.45405
938.834	171.82738
939.009	173.93659
939.185	104.34378
939.36	110.66943
939.535	152.84542
939.71	157.06349
939.886	112.77803
940.061	114.88664
940.236	161.28164
940.411	127.53879
940.586	146.51847
940.761	93.80147
940.937	135.97399
941.112	131.75635
941.287	152.84542
941.462	112.77803
941.637	76.93493
941.812	68.5022
941.987	104.34378
942.162	131.75635
942.337	89.5847
942.512	104.34378
942.687	112.77803
942.862	104.34378
943.037	110.66943
943.212	98.01833
943.386	123.32132
943.561	135.97399
943.736	95.90989
943.911	95.90989
944.086	140.19172
944.26	49.5299
944.435	102.23527
944.61	51.63784
944.785	62.17789
944.959	60.06984
945.134	85.36802
945.309	89.5847
945.483	114.88664
945.658	161.28164
945.833	108.56086
946.007	110.66943
946.182	102.23527
946.357	95.90989
946.531	85.36802
946.706	93.80147
946.88	169.71819
947.055	106.45231
947.229	62.17789
947.404	146.51847
947.578	127.53879
947.752	142.30062
947.927	81.15143
948.101	28.45175
948.276	110.66943
948.45	100.12679
948.624	114.88664
948.799	152.84542
948.973	148.62743
949.147	110.66943
949.321	85.36802
949.496	104.34378
949.67	36.88273
949.844	68.5022
950.018	146.51847
950.193	131.75635
950.367	119.10394
950.541	110.66943
950.715	87.47635
950.889	135.97399
951.063	98.01833
951.237	121.21262
951.411	70.61035
951.585	60.06984
951.759	110.66943
951.933	178.15507
952.107	129.64756
952.281	106.45231
952.455	163.39074
952.629	17.91356
952.803	17.91356
952.977	129.64756
953.151	70.61035
953.325	57.9618
953.499	125.43005
953.672	140.19172
953.846	85.36802
954.02	140.19172
954.194	157.06349
954.368	150.73642
954.541	127.53879
954.715	116.99528
954.889	154.95444
955.062	55.85379
955.236	148.62743
955.41	100.12679
955.583	60.06984
955.757	108.56086
955.93	95.90989
956.104	57.9618
956.278	74.82672
956.451	98.01833
956.625	43.20621
956.798	62.17789
956.972	131.75635
957.145	98.01833
957.319	148.62743
957.492	57.9618
957.665	127.53879
957.839	173.93659
958.012	186.59229
958.185	110.66943
958.359	64.28597
958.532	95.90989
958.705	127.53879
958.879	161.28164
959.052	152.84542
959.225	95.90989
959.398	138.08285
959.572	104.34378
959.745	93.80147
959.918	144.40954
960.091	159.17255
960.264	91.69308
960.438	110.66943
960.611	152.84542
960.784	157.06349
960.957	144.40954
961.13	106.45231
961.303	131.75635
961.476	150.73642
961.649	123.32132
961.822	87.47635
961.995	146.51847
962.168	123.32132
962.341	133.86516
962.514	152.84542
962.686	38.99053
962.859	85.36802
963.032	102.23527
963.205	91.69308
963.378	102.23527
963.551	85.36802
963.723	135.97399
963.896	131.75635
964.069	60.06984
964.242	74.82672
964.414	138.08285
964.587	119.10394
964.76	123.32132
964.932	60.06984
965.105	157.06349
965.278	87.47635
965.45	93.80147
965.623	36.88273
965.795	102.23527
965.968	95.90989
966.14	119.10394
966.313	68.5022
966.485	148.62743
966.658	87.47635
966.83	62.17789
967.003	85.36802
967.175	102.23527
967.348	85.36802
967.52	68.5022
967.692	64.28597
967.865	85.36802
968.037	114.88664
968.209	34.77495
968.382	85.36802
968.554	76.93493
968.726	51.63784
968.898	144.40954
969.071	79.04317
969.243	102.23527
969.415	62.17789
969.587	43.20621
969.759	76.93493
969.932	85.36802
970.104	87.47635
970.276	93.80147
970.448	13.69845
970.62	100.12679
970.792	93.80147
970.964	85.36802
971.136	140.19172
971.308	68.5022
971.48	53.7458
971.652	9.48343
971.824	135.97399
971.996	28.45175
972.168	-5.26836
972.339	76.93493
972.511	68.5022
972.683	123.32132
972.855	89.5847
973.027	-1.05368
973.199	110.66943
973.37	100.12679
973.542	93.80147
973.714	85.36802
973.886	45.31408
974.057	87.47635
974.229	110.66943
974.401	76.93493
974.572	81.15143
974.744	62.17789
974.915	140.19172
975.087	62.17789
975.259	102.23527
975.43	60.06984
975.602	112.77803
975.773	32.66719
975.945	66.39408
976.116	43.20621
976.288	180.26435
976.459	60.06984
976.63	-3.16104
976.802	68.5022
976.973	55.85379
977.145	68.5022
977.316	47.42198
977.487	129.64756
977.659	34.77495
977.83	36.88273
978.001	34.77495
978.172	43.20621
978.344	-7.37567
978.515	140.19172
978.686	24.2364
978.857	-11.5902
979.028	60.06984
979.2	41.09836
979.371	34.77495
979.542	17.91356
979.713	98.01833
979.884	-11.5902
980.055	9.48343
980.226	9.48343
980.397	51.63784
980.568	93.80147
980.739	85.36802
980.91	55.85379
981.081	-22.12611
981.252	49.5299
981.423	17.91356
981.594	34.77495
981.765	47.42198
981.936	38.99053
982.106	38.99053
982.277	51.63784
982.448	1.05369
982.619	91.69308
982.79	9.48343
982.96	62.17789
983.131	-51.62336
983.302	-3.16104
983.472	43.20621
983.643	93.80147
983.814	104.34378
983.984	62.17789
984.155	-15.80464
984.326	70.61035
984.496	62.17789
984.667	64.28597
984.837	20.02115
985.008	62.17789
985.178	60.06984
985.349	20.02115
985.519	95.90989
985.69	28.45175
985.86	47.42198
986.031	11.59093
986.201	81.15143
986.371	51.63784
986.542	-1.05368
986.712	43.20621
986.882	26.34407
987.053	70.61035
987.223	41.09836
987.393	87.47635
987.563	62.17789
987.734	36.88273
987.904	-3.16104
988.074	-5.26836
988.244	62.17789
988.414	60.06984
988.585	11.59093
988.755	79.04317
988.925	47.42198
989.095	60.06984
989.265	30.55946
989.435	85.36802
989.605	15.80599
989.775	43.20621
989.945	9.48343
990.115	9.48343
990.285	-41.08919
990.455	38.99053
990.625	34.77495
990.795	53.7458
990.965	13.69845
991.134	47.42198
991.304	20.02115
991.474	-15.80464
991.644	-32.6614
991.814	-24.23321
991.984	-13.69743
992.153	43.20621
992.323	60.06984
992.493	76.93493
992.662	43.20621
992.832	72.71852
993.002	-28.44736
993.171	11.59093
993.341	7.37596
993.511	55.85379
993.68	-15.80464
993.85	68.5022
994.019	93.80147
994.189	87.47635
994.358	55.85379
994.528	98.01833
994.697	-49.51657
994.867	30.55946
995.036	1.05369
995.206	20.02115
995.375	55.85379
995.544	1.05369
995.714	-41.08919
995.883	-1.05368
996.052	34.77495
996.222	74.82672
996.391	55.85379
996.56	20.02115
996.73	-15.80464
996.899	17.91356
997.068	7.37596
997.237	30.55946
997.406	-55.83685
997.576	3.16109
997.745	-45.30293
997.914	53.7458
998.083	1.05369
998.252	-7.37567
998.421	1.05369
998.59	34.77495
998.759	60.06984
998.928	-24.23321
999.097	22.12877
999.266	30.55946
999.435	9.48343
999.604	20.02115
999.773	64.28597
999.942	76.93493
1000.111	45.31408
1000.28	-49.51657
1000.448	70.61035
1000.617	43.20621
1000.786	-28.44736
1000.955	5.26851
1001.124	11.59093
1001.292	1.05369
1001.461	36.88273
1001.63	34.77495
1001.798	5.26851
1001.967	26.34407
1002.136	22.12877
1002.304	26.34407
1002.473	-32.6614
1002.642	36.88273
1002.81	-7.37567
1002.979	51.63784
1003.147	47.42198
1003.316	76.93493
1003.484	43.20621
1003.653	-9.48295
1003.821	36.88273
1003.99	45.31408
1004.158	-20.01897
1004.327	-34.76838
1004.495	9.48343
1004.663	-15.80464
1004.832	30.55946
1005	89.5847
1005.168	13.69845
1005.337	-32.6614
1005.505	-24.23321
1005.673	74.82672
1005.842	51.63784
1006.01	26.34407
1006.178	-11.5902
1006.346	17.91356
1006.514	93.80147
1006.683	26.34407
1006.851	7.37596
1007.019	-55.83685
1007.187	60.06984
1007.355	-5.26836
1007.523	-49.51657
1007.691	3.16109
1007.859	72.71852
1008.027	9.48343
1008.195	36.88273
1008.363	34.77495
1008.531	9.48343
1008.699	-5.26836
1008.867	-32.6614
1009.035	9.48343
1009.203	1.05369
1009.37	43.20621
1009.538	26.34407
1009.706	36.88273
1009.874	1.05369
1010.042	-57.94356
1010.209	51.63784
1010.377	-15.80464
1010.545	-28.44736
1010.713	22.12877
1010.88	51.63784
1011.048	-7.37567
1011.216	-62.1569
1011.383	-11.5902
1011.551	5.26851
1011.718	3.16109
1011.886	51.63784
1012.054	-1.05368
1012.221	34.77495
1012.389	1.05369
1012.556	17.91356
1012.724	-9.48295
1012.891	-22.12611
1013.058	-3.16104
1013.226	5.26851
1013.393	9.48343
1013.561	-32.6614
1013.728	-32.6614
1013.895	30.55946
1014.063	72.71852
1014.23	47.42198
1014.397	-7.37567
1014.565	-28.44736
1014.732	17.91356
1014.899	38.99053
1015.066	26.34407
1015.233	20.02115
1015.401	-15.80464
1015.568	60.06984
1015.735	-72.68981
1015.902	-26.3403
1016.069	28.45175
1016.236	5.26851
1016.403	45.31408
1016.57	45.31408
1016.737	36.88273
1016.904	-20.01897
1017.071	-28.44736
1017.238	-22.12611
1017.405	-7.37567
1017.572	-41.08919
1017.739	26.34407
1017.906	-66.37014
1018.073	-3.16104
1018.24	36.88273
1018.407	43.20621
1018.573	-11.5902
1018.74	5.26851
1018.907	-24.23321
1019.074	-3.16104
1019.241	11.59093
1019.407	-5.26836
1019.574	-5.26836
1019.741	-41.08919
1019.907	-36.87534
1020.074	9.48343
1020.241	11.59093
1020.407	11.59093
1020.574	22.12877
1020.74	-13.69743
1020.907	5.26851
1021.073	55.85379
1021.24	-15.80464
1021.406	51.63784
1021.573	7.37596
1021.739	28.45175
1021.906	72.71852
1022.072	-7.37567
1022.239	26.34407
1022.405	-41.08919
1022.571	9.48343
1022.738	26.34407
1022.904	34.77495
1023.07	53.7458
1023.237	1.05369
1023.403	-7.37567
1023.569	26.34407
1023.735	-28.44736
1023.902	45.31408
1024.068	-7.37567
1024.234	1.05369
1024.4	-34.76838
1024.566	5.26851
1024.732	-24.23321
1024.898	-24.23321
1025.065	17.91356
1025.231	51.63784
1025.397	-22.12611
1025.563	-13.69743
1025.729	68.5022
1025.895	49.5299
1026.061	9.48343
1026.227	7.37596
1026.392	-5.26836
1026.558	-11.5902
1026.724	-36.87534
1026.89	-13.69743
1027.056	43.20621
1027.222	-57.94356
1027.388	26.34407
1027.553	-30.55439
1027.719	-41.08919
1027.885	-3.16104
1028.051	-15.80464
1028.216	-41.08919
1028.382	17.91356
1028.548	3.16109
1028.713	-49.51657
1028.879	-38.98228
1029.045	62.17789
1029.21	-74.79631
1029.376	13.69845
1029.541	3.16109
1029.707	34.77495
1029.873	7.37596
1030.038	76.93493
1030.204	51.63784
1030.369	9.48343
1030.534	-24.23321
1030.7	-5.26836
1030.865	-36.87534
1031.031	-17.91182
1031.196	28.45175
1031.361	-15.80464
1031.527	-32.6614
1031.692	68.5022
1031.857	51.63784
1032.023	3.16109
1032.188	51.63784
1032.353	9.48343
1032.518	-15.80464
1032.684	17.91356
1032.849	17.91356
1033.014	36.88273
1033.179	45.31408
1033.344	70.61035
1033.509	-38.98228
1033.674	-20.01897
1033.839	43.20621
1034.004	13.69845
1034.17	-3.16104
1034.335	68.5022
1034.5	5.26851
1034.664	36.88273
1034.829	-47.40976
1034.994	-57.94356
1035.159	68.5022
1035.324	47.42198
1035.489	-36.87534
1035.654	-41.08919
1035.819	20.02115
1035.984	-32.6614
1036.148	34.77495
1036.313	9.48343
1036.478	-17.91182
1036.643	68.5022
1036.807	-83.22208
1036.972	-7.37567
1037.137	34.77495
1037.301	-7.37567
1037.466	70.61035
1037.631	34.77495
1037.795	1.05369
1037.96	49.5299
1038.124	-3.16104
1038.289	47.42198
1038.454	13.69845
1038.618	3.16109
1038.783	9.48343
1038.947	60.06984
1039.111	-83.22208
1039.276	41.09836
1039.44	64.28597
1039.605	-24.23321
1039.769	17.91356
1039.933	22.12877
1040.098	20.02115
1040.262	17.91356
1040.426	-34.76838
1040.591	20.02115
1040.755	43.20621
1040.919	17.91356
1041.083	13.69845
1041.248	-15.80464
1041.412	13.69845
1041.576	26.34407
1041.74	47.42198
1041.904	15.80599
1042.068	64.28597
1042.232	-70.58328
1042.397	-66.37014
1042.561	28.45175
1042.725	68.5022
1042.889	20.02115
1043.053	5.26851
1043.217	-11.5902
1043.381	9.48343
1043.544	-81.11567
1043.708	38.99053
1043.872	-28.44736
1044.036	-5.26836
1044.2	-7.37567
1044.364	-30.55439
1044.528	45.31408
1044.691	26.34407
1044.855	36.88273
1045.019	5.26851
1045.183	9.48343
1045.346	51.63784
1045.51	34.77495
1045.674	-3.16104
1045.837	-30.55439
1046.001	22.12877
1046.165	-1.05368
1046.328	-36.87534
1046.492	76.93493
1046.655	-108.49687
1046.819	20.02115
1046.983	-47.40976
1047.146	34.77495
1047.31	17.91356
1047.473	-49.51657
1047.636	-70.58328
1047.8	-38.98228
1047.963	43.20621
1048.127	5.26851
1048.29	-47.40976
