Data from mixed_try1_USB4F045381__24__00128.txt Node

Date: Thu Apr 03 20:01:15 EDT 2025
User: mmckonesweet
Spectrometer: USB4F04538
Trigger mode: 4
Integration Time (sec): 2.700000E-3
Scans to average: 1
Electric dark correction enabled: true
Nonlinearity correction enabled: true
Boxcar width: 0
XAxis mode: Wavelengths
Number of Pixels in Spectrum: 3648
>>>>>Begin Spectral Data<<<<<
345.52	-4.91714
345.736	-4.91714
345.952	-4.91714
346.168	-21.77492
346.384	14.04971
346.6	-13.34623
346.816	7.72721
347.032	-13.34623
347.248	-19.66778
347.464	7.72721
347.68	-4.91714
347.896	22.48004
348.112	66.74543
348.328	-57.59244
348.544	22.48004
348.76	3.51233
348.975	-21.77492
349.191	39.34183
349.407	-87.08375
349.623	7.72721
349.839	-78.65817
350.055	-89.19007
350.27	-34.41722
350.486	-32.31023
350.702	-97.61513
350.918	-51.27223
351.133	83.6111
351.349	-63.91243
351.565	11.94218
351.781	51.98916
351.996	-2.80981
352.212	56.20513
352.428	-34.41722
352.644	1.40492
352.859	37.23403
353.075	-13.34623
353.291	-25.98912
353.506	39.34183
353.722	3.51233
353.938	9.83468
354.153	75.17808
354.369	5.61975
354.584	26.69535
354.8	-28.09618
355.016	-55.48573
355.231	3.51233
355.447	-4.91714
355.662	7.72721
355.878	54.09713
356.093	-15.45344
356.309	62.52924
356.524	7.72721
356.74	-11.23899
356.955	22.48004
357.171	37.23403
357.386	26.69535
357.602	-80.7646
357.817	-17.56062
358.033	70.96171
358.248	14.04971
358.464	-34.41722
358.679	9.83468
358.895	3.51233
359.11	37.23403
359.325	5.61975
359.541	-21.77492
359.756	-17.56062
359.972	9.83468
360.187	-15.45344
360.402	33.01848
360.618	3.51233
360.833	-2.80981
361.048	-9.13173
361.264	-2.80981
361.479	-21.77492
361.694	-55.48573
361.909	-7.02445
362.125	58.31314
362.34	-0.70246
362.555	30.91075
362.77	7.72721
362.986	-80.7646
363.201	22.48004
363.416	58.31314
363.631	60.42118
363.847	-42.84492
364.062	20.37242
364.277	-34.41722
364.492	66.74543
364.707	64.63732
364.922	96.26129
365.138	39.34183
365.353	79.39455
365.568	26.69535
365.783	-4.91714
365.998	-23.88203
366.213	-15.45344
366.428	-4.91714
366.643	-17.56062
366.858	-44.95179
367.073	-47.05863
367.288	9.83468
367.503	-30.20322
367.718	-9.13173
367.933	-30.20322
368.148	-36.52418
368.363	58.31314
368.578	-47.05863
368.793	54.09713
369.008	37.23403
369.223	45.6654
369.438	22.48004
369.653	-13.34623
369.868	47.77329
370.083	37.23403
370.298	-28.09618
370.513	1.40492
370.728	35.12624
370.943	39.34183
371.157	3.51233
371.372	-17.56062
371.587	11.94218
371.802	47.77329
372.017	-32.31023
372.232	-30.20322
372.446	-42.84492
372.661	37.23403
372.876	-47.05863
373.091	28.80304
373.306	30.91075
373.52	54.09713
373.735	-23.88203
373.95	113.12946
374.165	41.44967
374.379	20.37242
374.594	-17.56062
374.809	-4.91714
375.023	-30.20322
375.238	-13.34623
375.453	-42.84492
375.667	70.96171
375.882	28.80304
376.097	54.09713
376.311	5.61975
376.526	-4.91714
376.741	-42.84492
376.955	37.23403
377.17	-30.20322
377.384	-4.91714
377.599	33.01848
377.813	60.42118
378.028	22.48004
378.242	20.37242
378.457	-70.23219
378.672	-19.66778
378.886	70.96171
379.101	11.94218
379.315	-38.63112
379.53	-9.13173
379.744	-44.95179
379.958	-4.91714
380.173	22.48004
380.387	-34.41722
380.602	85.71941
380.816	14.04971
381.031	-51.27223
381.245	-17.56062
381.459	75.17808
381.674	92.04447
381.888	18.26482
382.103	54.09713
382.317	3.51233
382.531	3.51233
382.746	30.91075
382.96	-42.84492
383.174	7.72721
383.388	24.58768
383.603	-51.27223
383.817	-72.33872
384.031	5.61975
384.246	37.23403
384.46	-19.66778
384.674	3.51233
384.888	11.94218
385.103	49.88122
385.317	45.6654
385.531	33.01848
385.745	30.91075
385.959	5.61975
386.174	47.77329
386.388	7.72721
386.602	18.26482
386.816	-32.31023
387.03	-30.20322
387.244	70.96171
387.458	37.23403
387.672	16.15725
387.887	-36.52418
388.101	33.01848
388.315	-2.80981
388.529	45.6654
388.743	-0.70246
388.957	45.6654
389.171	14.04971
389.385	100.4782
389.599	5.61975
389.813	5.61975
390.027	22.48004
390.241	56.20513
390.455	-9.13173
390.669	-36.52418
390.883	22.48004
391.097	39.34183
391.311	20.37242
391.525	9.83468
391.738	35.12624
391.952	22.48004
392.166	-2.80981
392.38	7.72721
392.594	30.91075
392.808	7.72721
393.022	37.23403
393.236	39.34183
393.449	-25.98912
393.663	22.48004
393.877	-38.63112
394.091	16.15725
394.305	45.6654
394.518	56.20513
394.732	-70.23219
394.946	14.04971
395.16	73.06989
395.373	-0.70246
395.587	-23.88203
395.801	-21.77492
396.015	-70.23219
396.228	24.58768
396.442	-17.56062
396.656	3.51233
396.869	30.91075
397.083	3.51233
397.297	24.58768
397.51	-21.77492
397.724	-51.27223
397.938	-42.84492
398.151	-32.31023
398.365	3.51233
398.578	41.44967
398.792	-15.45344
399.005	-63.91243
399.219	20.37242
399.433	7.72721
399.646	20.37242
399.86	-55.48573
400.073	33.01848
400.287	7.72721
400.5	9.83468
400.714	14.04971
400.927	41.44967
401.141	-53.37899
401.354	-13.34623
401.567	28.80304
401.781	24.58768
401.994	9.83468
402.208	-13.34623
402.421	-13.34623
402.635	22.48004
402.848	-89.19007
403.061	-25.98912
403.275	-23.88203
403.488	-21.77492
403.701	33.01848
403.915	62.52924
404.128	-61.80579
404.341	3.51233
404.555	28.80304
404.768	47.77329
404.981	28.80304
405.195	37.23403
405.408	24.58768
405.621	47.77329
405.834	24.58768
406.048	28.80304
406.261	-23.88203
406.474	28.80304
406.687	37.23403
406.9	16.15725
407.114	-25.98912
407.327	39.34183
407.54	-21.77492
407.753	51.98916
407.966	-53.37899
408.179	39.34183
408.392	-30.20322
408.605	62.52924
408.819	26.69535
409.032	-0.70246
409.245	37.23403
409.458	30.91075
409.671	-4.91714
409.884	28.80304
410.097	-13.34623
410.31	-21.77492
410.523	20.37242
410.736	-13.34623
410.949	-2.80981
411.162	5.61975
411.375	115.23808
411.588	20.37242
411.801	39.34183
412.014	-47.05863
412.227	7.72721
412.44	-0.70246
412.653	37.23403
412.865	-21.77492
413.078	45.6654
413.291	37.23403
413.504	-21.77492
413.717	-66.01904
413.93	87.82774
414.143	5.61975
414.356	68.85356
414.568	-7.02445
414.781	-19.66778
414.994	-2.80981
415.207	-21.77492
415.42	39.34183
415.632	11.94218
415.845	30.91075
416.058	18.26482
416.271	11.94218
416.483	104.6952
416.696	-9.13173
416.909	24.58768
417.121	-30.20322
417.334	7.72721
417.547	58.31314
417.759	22.48004
417.972	-21.77492
418.185	20.37242
418.397	-36.52418
418.61	24.58768
418.823	3.51233
419.035	-63.91243
419.248	62.52924
419.46	41.44967
419.673	-9.13173
419.885	77.2863
420.098	37.23403
420.311	-17.56062
420.523	89.9361
420.736	-9.13173
420.948	60.42118
421.161	-30.20322
421.373	54.09713
421.586	3.51233
421.798	14.04971
422.01	5.61975
422.223	-2.80981
422.435	45.6654
422.648	39.34183
422.86	-42.84492
423.073	11.94218
423.285	24.58768
423.497	-13.34623
423.71	-21.77492
423.922	37.23403
424.134	83.6111
424.347	-28.09618
424.559	16.15725
424.771	37.23403
424.984	-17.56062
425.196	45.6654
425.408	64.63732
425.621	16.15725
425.833	-9.13173
426.045	30.91075
426.257	62.52924
426.47	45.6654
426.682	-30.20322
426.894	-66.01904
427.106	-30.20322
427.318	62.52924
427.531	5.61975
427.743	-4.91714
427.955	41.44967
428.167	89.9361
428.379	58.31314
428.591	-17.56062
428.804	3.51233
429.016	5.61975
429.228	30.91075
429.44	14.04971
429.652	54.09713
429.864	62.52924
430.076	-42.84492
430.288	20.37242
430.5	-30.20322
430.712	37.23403
430.924	-63.91243
431.136	-30.20322
431.348	11.94218
431.56	26.69535
431.772	47.77329
431.984	47.77329
432.196	9.83468
432.408	-4.91714
432.62	24.58768
432.832	-9.13173
433.044	-30.20322
433.256	41.44967
433.468	45.6654
433.679	41.44967
433.891	-61.80579
434.103	37.23403
434.315	-49.16544
434.527	89.9361
434.739	20.37242
434.95	20.37242
435.162	11.94218
435.374	-28.09618
435.586	33.01848
435.798	47.77329
436.009	-30.20322
436.221	66.74543
436.433	37.23403
436.645	-0.70246
436.856	60.42118
437.068	58.31314
437.28	-36.52418
437.491	43.55752
437.703	-4.91714
437.915	5.61975
438.126	-11.23899
438.338	-4.91714
438.55	11.94218
438.761	22.48004
438.973	-4.91714
439.184	18.26482
439.396	-13.34623
439.608	-30.20322
439.819	7.72721
440.031	37.23403
440.242	-32.31023
440.454	56.20513
440.665	14.04971
440.877	47.77329
441.088	3.51233
441.3	49.88122
441.511	20.37242
441.723	-30.20322
441.934	-13.34623
442.146	28.80304
442.357	60.42118
442.569	20.37242
442.78	58.31314
442.991	39.34183
443.203	-11.23899
443.414	58.31314
443.626	49.88122
443.837	-2.80981
444.048	81.50281
444.26	26.69535
444.471	-38.63112
444.682	87.82774
444.894	47.77329
445.105	-13.34623
445.316	-11.23899
445.528	79.39455
445.739	28.80304
445.95	3.51233
446.161	16.15725
446.373	20.37242
446.584	33.01848
446.795	-11.23899
447.006	66.74543
447.217	24.58768
447.429	-51.27223
447.64	49.88122
447.851	-36.52418
448.062	104.6952
448.273	5.61975
448.484	47.77329
448.695	26.69535
448.907	58.31314
449.118	-19.66778
449.329	-30.20322
449.54	33.01848
449.751	33.01848
449.962	62.52924
450.173	5.61975
450.384	37.23403
450.595	-42.84492
450.806	47.77329
451.017	45.6654
451.228	37.23403
451.439	-38.63112
451.65	22.48004
451.861	87.82774
452.072	75.17808
452.283	18.26482
452.494	92.04447
452.705	28.80304
452.915	58.31314
453.126	68.85356
453.337	-15.45344
453.548	16.15725
453.759	3.51233
453.97	41.44967
454.181	20.37242
454.391	-19.66778
454.602	24.58768
454.813	41.44967
455.024	60.42118
455.235	24.58768
455.445	22.48004
455.656	64.63732
455.867	9.83468
456.078	7.72721
456.288	11.94218
456.499	94.15287
456.71	3.51233
456.921	54.09713
457.131	33.01848
457.342	30.91075
457.553	28.80304
457.763	20.37242
457.974	68.85356
458.184	47.77329
458.395	-17.56062
458.606	37.23403
458.816	58.31314
459.027	70.96171
459.237	30.91075
459.448	75.17808
459.659	7.72721
459.869	-0.70246
460.08	54.09713
460.29	70.96171
460.501	33.01848
460.711	49.88122
460.922	81.50281
461.132	-30.20322
461.343	98.36974
461.553	45.6654
461.764	75.17808
461.974	83.6111
462.184	33.01848
462.395	87.82774
462.605	117.34672
462.816	-2.80981
463.026	47.77329
463.236	77.2863
463.447	16.15725
463.657	73.06989
463.867	94.15287
464.078	37.23403
464.288	125.7815
464.498	75.17808
464.709	60.42118
464.919	77.2863
465.129	26.69535
465.339	41.44967
465.55	45.6654
465.76	89.9361
465.97	66.74543
466.18	-55.48573
466.391	62.52924
466.601	92.04447
466.811	70.96171
467.021	68.85356
467.231	104.6952
467.441	37.23403
467.651	-2.80981
467.862	94.15287
468.072	113.12946
468.282	100.4782
468.492	70.96171
468.702	123.67278
468.912	66.74543
469.122	58.31314
469.332	115.23808
469.542	121.56407
469.752	159.52406
469.962	115.23808
470.172	125.7815
470.382	155.30595
470.592	89.9361
470.802	75.17808
471.012	104.6952
471.222	81.50281
471.432	146.86997
471.642	81.50281
471.852	197.49084
472.062	54.09713
472.272	129.99903
472.482	70.96171
472.691	142.6521
472.901	127.89025
473.111	197.49084
473.321	100.4782
473.531	165.85139
473.741	172.17891
473.95	106.80373
474.16	70.96171
474.37	117.34672
474.58	172.17891
474.79	197.49084
474.999	165.85139
475.209	184.83451
475.419	191.16258
475.628	227.02509
475.838	184.83451
476.048	151.08791
476.258	239.6838
476.467	239.6838
476.677	182.72519
476.886	218.58633
477.096	256.56318
477.306	241.79366
477.515	239.6838
477.725	271.33363
477.935	243.90353
478.144	258.67319
478.354	222.80567
478.563	298.76691
478.773	298.76691
478.982	298.76691
479.192	275.55393
479.401	345.19943
479.611	283.99475
479.82	227.02509
480.03	241.79366
480.239	355.75346
480.449	381.08489
480.658	383.19595
480.868	471.87515
481.077	427.53205
481.287	366.30793
481.496	431.75491
481.705	357.86432
481.915	528.89743
482.124	383.19595
482.333	482.43403
482.543	381.08489
482.752	535.23389
482.961	509.88883
483.171	653.53639
483.38	518.33696
483.589	552.13172
483.799	454.98174
484.008	531.00957
484.217	632.40802
484.426	594.38007
484.636	571.14282
484.845	723.26828
485.054	653.53639
485.263	678.89201
485.472	670.43995
485.682	740.1748
485.891	678.89201
486.1	780.33042
486.309	754.96854
486.518	788.78469
486.727	814.14844
486.936	860.65207
487.146	757.08198
487.355	917.73031
487.564	911.388
487.773	953.67136
487.982	928.30098
488.191	1025.55943
488.4	873.33561
488.609	1072.07901
488.818	919.84443
489.027	1101.68373
489.236	1152.43685
489.445	1118.60115
489.654	1099.56908
489.863	1220.11129
490.072	1093.22514
490.281	1230.68574
490.49	1169.3551
490.698	1342.77877
490.907	1154.55162
491.116	1253.94978
491.325	1258.17964
491.534	1456.99095
491.743	1319.5137
491.952	1296.24884
492.16	1222.22617
492.369	1495.06186
492.578	1465.45116
492.787	1511.98221
492.996	1416.80498
493.204	1628.3076
493.413	1541.59271
493.622	1611.38785
493.831	1605.04292
494.039	1693.87013
494.248	1533.13258
494.457	1740.39667
494.665	1566.97295
494.874	1763.65931
495.083	1657.91679
495.291	1613.50283
495.5	1649.45707
495.709	1858.81948
495.917	1903.22427
496.126	1932.82616
496.335	1901.10981
496.543	1979.3411
496.752	1854.59033
496.96	1939.16927
497.169	1915.91093
497.377	1909.56762
497.586	1789.03621
497.794	2068.13377
498.003	1863.0486
498.211	2192.84455
498.42	1937.05491
498.628	2142.11804
498.837	2264.69872
499.045	2057.56384
499.254	2184.39047
499.462	2319.63893
499.671	2264.69872
499.879	2448.51087
500.087	2421.04959
500.296	2325.97777
500.504	2528.77164
500.713	2471.74591
500.921	2281.60407
501.129	2245.67949
501.338	2454.84783
501.546	2666.02066
501.754	2577.3425
501.962	2606.90429
502.171	2446.39853
502.379	2632.24107
502.587	2425.27452
502.795	2685.02025
503.004	2573.1192
503.212	2788.44394
503.42	2691.35322
503.628	2851.74853
503.837	2609.01576
504.045	2763.11864
504.253	2796.88527
504.461	2988.86435
504.669	2663.90953
504.877	2830.64839
505.085	2822.20794
505.294	3060.56133
505.502	2830.64839
505.71	3031.0412
505.918	2891.8349
506.126	3151.21106
506.334	2986.75535
506.542	3319.78135
506.75	2927.69724
506.958	3071.1035
507.166	3039.47583
507.374	3254.47307
507.582	3136.45614
507.79	3370.33126
507.998	3050.01877
508.206	3414.55418
508.414	3149.10326
508.622	3391.39076
508.83	3309.24887
509.037	3353.4824
509.245	3248.15206
509.453	3382.96717
509.661	3222.86647
509.869	3475.61103
510.077	3271.32839
510.285	3475.61103
510.492	3353.4824
510.7	3608.19903
510.908	3498.76656
511.116	3606.09503
511.324	3551.38456
511.531	3530.33874
511.739	3671.31017
511.947	3627.13416
512.155	3545.07101
512.362	3597.67886
512.57	3532.4434
512.778	3702.85933
512.985	3580.84561
513.193	3831.11435
513.401	3646.06776
513.608	3889.96097
513.816	3660.79284
514.024	3753.32897
514.231	3660.79284
514.439	3896.26504
514.646	3900.46765
514.854	4120.99033
515.061	3587.15822
515.269	3955.09426
515.477	3950.8927
515.684	4148.27728
515.892	3931.98467
516.099	3906.77142
516.307	4083.20258
516.514	4131.48573
516.722	4005.50665
516.929	4116.79203
517.136	4066.40586
517.344	4158.77131
517.551	4131.48573
517.759	4162.96878
517.966	4246.90032
518.173	4139.88167
518.381	4120.99033
518.588	4330.79773
518.796	4410.46825
519.003	4703.71693
519.21	4305.63212
519.418	4374.83005
519.625	4341.28248
519.832	4467.05712
520.039	4232.21476
520.247	4471.24825
520.454	4502.67893
520.661	4902.45632
520.868	4613.6941
521.076	4756.03664
521.283	4534.10464
521.49	4760.2216
521.697	4643.00841
521.904	4626.25791
522.112	4592.75262
522.319	4797.88222
522.526	4804.15827
522.733	4902.45632
522.94	4753.94412
523.147	4856.45075
523.354	4630.44567
523.561	4969.35371
523.768	4818.8016
523.975	5075.92266
524.183	4848.08491
524.39	5067.56649
524.597	5094.7227
524.804	5080.10061
525.011	5052.94229
525.218	5366.06843
525.425	5115.60943
525.632	5263.83831
525.838	5034.13808
526.045	5107.25502
526.252	5163.6401
526.459	5226.27028
526.666	5232.53214
526.873	5370.23989
527.08	5253.4035
527.287	5503.67709
527.494	5188.69469
527.701	5278.44605
527.907	5309.7445
528.114	5416.11979
528.321	5380.66814
528.528	5641.18321
528.735	5480.74943
528.941	5668.25564
529.148	5395.2667
529.355	5436.97053
529.562	5320.17615
529.768	5695.32409
529.975	5464.07297
530.182	5587.02639
530.388	5701.57009
530.595	5963.7102
530.802	5826.44543
531.008	5899.25015
531.215	5820.20368
531.422	5897.17042
531.628	5753.61181
531.835	5972.02597
532.042	5911.72806
532.248	6086.32965
532.455	5905.48921
532.661	6075.94135
532.868	6136.18531
533.074	6256.61398
533.281	6073.86362
533.487	6285.67116
533.694	5986.57767
533.9	6221.3241
534.107	6432.96206
534.313	6246.23531
534.52	6281.52042
534.726	6414.29789
534.933	6318.87375
535.139	6194.33315
535.345	6451.62435
535.552	6318.87375
535.758	6445.4038
535.965	6169.4149
536.171	6327.17346
536.377	6621.572
536.584	6488.94328
536.79	6758.24649
536.996	6737.54466
537.203	6563.5586
537.409	6430.88836
537.615	6592.56756
537.821	6588.4237
538.028	6948.59638
538.234	6453.69782
538.44	6532.47253
538.646	6631.92964
538.853	6704.41696
539.059	6499.30832
539.265	7120.16098
539.471	6791.36466
539.677	6981.68112
539.883	6853.44549
540.09	6718.91105
540.296	6934.11998
540.502	7124.29317
540.708	6923.77903
540.914	7182.13439
541.12	7014.76009
541.326	7355.55405
541.532	6886.54689
541.738	7322.53369
541.944	7386.50556
542.15	7279.18596
542.356	7072.63446
542.562	7343.17207
542.768	7138.75511
542.974	7198.65725
543.18	7392.69527
543.386	7510.26272
543.592	7623.63869
543.798	7438.08052
544.004	7355.55405
544.21	7493.76626
544.415	7326.66154
544.621	7734.89069
544.827	7440.14323
545.033	7883.13149
545.239	7759.605
545.445	7621.57789
545.651	7605.09068
545.856	7819.31883
546.062	7658.66912
546.268	7722.53239
546.474	7609.21261
546.679	7699.87356
546.885	7520.5723
547.091	7858.43218
547.297	7514.38661
547.502	7967.49841
547.708	7761.66439
547.914	7874.89871
548.119	7813.14235
548.325	7971.61299
548.531	7837.84714
548.736	7708.11343
548.942	7825.49512
549.147	7971.61299
549.353	7951.03928
549.559	8218.33954
549.764	8119.68365
549.97	8037.43514
550.175	8084.73197
550.381	8329.27291
550.586	8156.68499
550.792	8271.75905
550.997	8288.19315
551.203	8333.38046
551.408	8206.01006
551.614	8154.62953
551.819	8090.90034
552.025	8247.10555
552.23	8173.12795
552.435	8382.66495
552.641	8464.78103
552.846	8600.20586
553.052	8550.97
553.257	8639.17659
553.462	8575.58928
553.668	8587.89791
553.873	8339.54163
554.078	8924.07641
554.283	8643.27838
554.489	8682.24169
554.694	8567.38316
554.899	8831.88105
555.105	8729.39886
555.31	8930.22148
555.515	8846.22494
555.72	8694.5445
555.925	8518.14006
556.131	8825.7334
556.336	8790.89364
556.541	8950.7039
556.746	8846.22494
556.951	9139.05987
557.156	8688.39318
557.361	8981.4242
557.567	8891.29999
557.772	9108.35968
557.977	8696.59491
558.182	8965.04053
558.387	9206.58677
558.592	9155.43173
558.797	9085.84374
559.002	9157.47814
559.207	9190.21831
559.412	9149.29241
559.617	9212.72466
559.822	9212.72466
560.027	9042.85295
560.232	9286.36756
560.437	8954.80017
560.642	9323.18089
560.847	9063.32571
561.051	9220.90828
561.256	9267.95887
561.461	9603.19825
561.666	9251.59446
561.871	9417.23513
562.076	9537.81966
562.281	9541.90629
562.485	9284.32221
562.69	9664.4761
562.895	9349.76496
563.1	9652.22165
563.305	9343.63042
563.509	9564.38166
563.714	9216.81651
563.919	9378.39084
564.123	9445.85347
564.328	9388.61359
564.533	9693.06767
564.737	9531.68958
564.942	9570.51097
565.147	9750.24177
565.351	9586.85511
565.556	9652.22165
565.761	9672.64543
565.965	9729.82382
566.17	9656.30653
566.374	9703.27821
566.579	9784.9488
566.784	9903.32842
566.988	9921.69322
567.193	10190.90986
567.397	9660.39135
567.602	10005.34012
567.806	9737.99118
568.011	9907.40959
568.215	10158.29061
568.42	10207.21816
568.624	10025.73812
568.828	9913.53123
569.033	9989.02068
569.237	10339.69094
569.442	10168.4845
569.646	10109.35506
569.85	10168.4845
570.055	10313.20092
570.259	10125.6678
570.463	10268.36652
570.668	9958.41925
570.872	10256.13783
571.076	10103.23756
571.281	10300.97401
571.485	9982.90065
571.689	10394.70151
571.893	10076.72689
572.098	10288.7466
572.302	10233.71729
572.506	10468.03412
572.71	10504.69417
572.914	10337.65332
573.119	10223.52559
573.323	10254.09967
573.527	10203.14117
573.731	10543.38641
573.935	10441.55484
574.139	10700.14573
574.343	10331.5404
574.547	10724.56922
574.751	10614.64972
574.955	10846.66099
575.159	10590.21831
575.364	10647.22218
575.568	10545.42272
575.772	10647.22218
575.976	10730.67483
576.18	10649.25785
576.383	10980.91373
576.587	11096.82006
576.791	10797.82938
576.995	11129.34881
577.199	10692.00418
577.403	10757.1312
577.607	11149.67789
577.811	11094.78692
578.015	10801.89894
578.219	11161.87483
578.422	11029.72075
578.626	11184.23489
578.83	11167.97316
579.034	11212.69132
579.238	11031.75424
579.442	11403.70387
579.645	11200.49596
579.849	11111.05173
580.053	11379.32423
580.257	11269.59806
580.46	10901.58857
580.664	11273.66251
580.868	11216.75635
581.071	11342.75209
581.275	11497.14618
581.479	11639.3026
581.682	11198.46336
581.886	11468.70938
582.09	11491.05274
582.293	11594.62976
582.497	11373.2291
582.7	11598.69111
582.904	11409.79856
583.107	11444.33348
583.311	11237.08091
583.515	11478.8656
583.718	11155.77641
583.922	11643.36355
584.125	11570.26088
584.329	11726.6051
584.532	11541.82883
584.735	11543.85975
584.939	11330.56066
585.142	11639.3026
585.346	11415.89316
585.549	12043.19772
585.753	11738.78554
585.956	12059.42791
586.159	11635.24162
586.363	11974.21378
586.566	11848.3955
586.769	11968.12652
586.973	11598.69111
587.176	12053.34165
587.379	11947.83513
587.582	12045.22652
587.786	11840.27709
587.989	12162.88385
588.192	12049.2841
588.395	12215.61859
588.599	11955.95179
588.802	12004.649
589.005	11708.33385
589.208	12359.6002
589.411	12136.5146
589.615	12256.18041
589.818	12170.99721
590.021	12039.14009
590.224	12144.62835
590.427	12239.95603
590.63	12501.52003
590.833	12201.42126
591.036	12355.54486
591.239	12373.79366
591.442	12185.19531
591.645	12519.76453
591.848	12513.68309
592.051	12754.87108
592.254	12507.60159
592.457	12556.25198
592.66	12473.13865
592.863	12850.10737
593.066	12483.275
593.269	12868.34271
593.472	12600.845
593.675	13131.69546
593.878	12353.51718
594.081	13026.36451
594.284	12604.89876
594.486	13042.57012
594.689	12807.5565
594.892	12779.1879
595.095	12765.00319
595.298	12882.52545
595.5	13028.39023
595.703	13232.96329
595.906	12868.34271
596.109	13050.67281
596.311	12775.13515
596.514	13184.35614
596.717	12929.12406
596.92	13072.9548
597.122	12884.55154
597.325	12977.74575
597.528	12748.79174
597.73	13093.21065
597.933	12981.79743
598.136	13273.46731
598.338	13109.41499
598.541	13399.01905
598.743	13143.8482
598.946	13064.85233
599.148	13293.71867
599.351	13265.36665
599.554	13077.00601
599.756	13514.43219
599.959	13512.40751
600.161	13299.794
600.363	13103.3384
600.566	13372.69499
600.768	13603.51485
600.971	13484.06151
601.173	13342.32023
601.376	13712.83452
601.578	13348.39525
601.78	13617.68647
601.983	13459.76435
602.185	13324.09493
602.388	13463.81392
602.59	13455.71477
602.792	13471.913
602.995	13518.48156
603.197	13346.37025
603.399	13563.02358
603.601	13577.19569
603.804	13581.24483
604.006	13279.54277
604.208	13392.94433
604.41	13548.85131
604.613	13437.49148
604.815	13338.27019
605.017	13530.62955
605.219	13905.13426
605.421	13658.17589
605.623	13759.39375
605.826	13925.37485
606.028	13945.61518
606.23	13708.78581
606.432	13666.27361
606.634	13951.68722
606.836	13560.99898
607.038	14038.71741
607.24	13702.71273
607.442	13868.70051
607.644	13654.127
607.846	13749.27232
608.048	13860.604
608.25	13965.85524
608.452	13986.09506
608.654	14352.39714
608.856	13749.27232
609.058	13919.3027
609.26	14071.0996
609.462	14006.33462
609.664	14421.19839
609.866	14218.83615
610.067	13836.3142
610.269	13992.16695
610.471	13969.90323
610.673	14188.48023
610.875	14067.05186
611.077	13803.92716
611.278	13860.604
611.48	14139.90982
611.682	13722.95623
611.884	14131.81463
612.085	14077.17119
612.287	13977.99916
612.489	14330.13751
612.69	14273.47569
612.892	13992.16695
613.094	14291.68857
613.295	14180.38525
613.497	14237.04948
613.699	14419.17485
613.9	14581.05368
614.102	14251.2153
614.304	14210.74128
614.505	14123.71941
614.707	14528.44398
614.908	14392.86868
615.11	14083.24277
615.311	14000.26278
615.513	14093.36201
615.714	13975.97518
615.916	14350.37355
616.117	14172.29023
616.319	14524.39705
616.52	14226.93098
616.722	14544.63167
616.923	14186.45649
617.124	14453.57483
617.326	13911.20646
617.527	14271.45203
617.729	14188.48023
617.93	14200.62265
618.131	14121.69559
618.333	14411.08067
618.534	14439.41018
618.735	14366.56225
618.937	14346.32635
619.138	14354.42073
619.339	14457.62186
619.54	14544.63167
619.742	14475.83342
619.943	14301.80677
620.144	14105.50503
620.345	14589.14741
620.546	14235.02579
620.748	14504.1623
620.949	14407.03357
621.15	14844.09187
621.351	14415.12776
621.552	14378.70372
621.753	14366.56225
621.954	14508.20926
622.155	14344.30275
622.356	14534.51437
622.558	14492.02138
622.759	14702.4578
622.96	14435.36313
623.161	14459.64537
623.362	14496.06836
623.563	14712.57465
623.764	14285.61763
623.965	14848.13851
624.166	14734.83164
624.366	14767.20527
624.567	14574.98337
624.768	14558.79583
624.969	14336.20834
625.17	14467.73941
625.371	14548.67858
625.572	14680.20065
625.773	14477.85692
625.973	14655.91999
626.174	14627.59237
626.375	14757.08854
626.576	14589.14741
626.777	14943.23383
626.977	14850.16183
627.178	14811.71869
627.379	14437.38666
627.58	14755.06519
627.78	14572.95993
627.981	15074.74719
628.182	14927.04747
628.382	14744.94843
628.583	14858.25509
628.784	14892.65136
628.984	14882.53482
629.185	14771.25196
629.386	14544.63167
629.586	15036.30494
629.787	14536.53784
629.987	14884.55813
630.188	14653.8966
630.388	15032.25839
630.589	14672.10711
630.79	15007.97903
630.99	14605.33481
631.191	14621.52214
631.391	14886.58144
631.591	14925.02418
631.792	14779.34533
631.992	15179.95731
632.193	15129.37554
632.393	15097.0032
632.594	14908.83778
632.794	15179.95731
632.994	15040.3515
633.195	15111.1661
633.395	14714.59802
633.595	14884.55813
633.796	14914.90768
633.996	15119.25919
634.196	15001.90918
634.397	15283.14423
634.597	15196.14348
634.797	15064.63082
634.997	15036.30494
635.198	15246.72528
635.398	15084.86356
635.598	15317.53997
635.798	15068.67737
635.998	14993.81605
636.199	15058.56099
636.399	15305.40029
636.599	15196.14348
636.799	15208.2831
636.999	14844.09187
637.199	14894.67466
637.399	14823.85865
637.599	15279.09768
637.799	14773.2753
637.999	15453.10063
638.199	15540.10341
638.399	15358.00566
638.599	15240.65546
638.799	15655.43462
638.999	15321.58654
639.199	15372.16868
639.399	15418.70446
639.599	15451.07732
639.799	15121.28246
639.999	15416.68116
640.199	15362.05224
640.399	15353.95909
640.599	14965.49004
640.799	15578.54687
640.998	15392.4016
641.198	15422.75106
641.398	15005.95574
641.598	15586.64027
641.798	15602.82709
641.997	15546.17341
642.197	15489.52026
642.397	15681.73861
642.597	15612.94388
642.796	15839.56596
642.996	15230.53909
643.196	15507.73015
643.395	15598.78038
643.595	15871.94163
643.795	15451.07732
643.994	15633.17752
644.194	15483.45031
644.394	15948.8351
644.593	15552.24342
644.793	15780.88582
644.992	15616.9906
645.192	15548.19675
645.392	15681.73861
645.591	16153.21961
645.791	15894.20008
645.99	15693.87896
646.19	15507.73015
646.389	15612.94388
646.589	15673.64506
646.788	15673.64506
646.987	15527.96342
647.187	15871.94163
647.386	15958.9528
647.586	15989.3061
647.785	16064.17895
647.984	16130.95916
648.184	15962.99989
648.383	15971.09408
648.582	16027.75407
648.782	16234.1684
648.981	15714.11295
649.18	16017.63614
649.38	16149.17224
649.579	16215.95468
649.778	15950.85863
649.977	16120.84084
650.177	15922.52923
650.376	15912.41165
650.575	15562.36012
650.774	16248.33472
650.973	15843.61291
651.173	15948.8351
651.372	15853.73028
651.571	16102.62795
651.77	16005.49466
651.969	16098.58066
652.168	15807.1906
652.367	15950.85863
652.566	15637.22426
652.765	15882.05909
652.964	16258.45357
653.163	15710.06614
653.362	16078.34431
653.561	16161.31437
653.76	16161.31437
653.959	15946.81156
654.158	16108.6989
654.357	16054.06088
654.556	16027.75407
654.755	16244.28719
654.954	15944.78803
655.153	16037.87205
655.352	16250.35849
655.551	16201.78856
655.749	16361.66847
655.948	16145.12488
656.147	16003.47109
656.346	16228.09714
656.545	16236.19215
656.743	16062.15533
656.942	16165.36176
657.141	16521.56034
657.34	16126.91182
657.538	16367.74008
657.737	16199.76483
657.936	16505.36817
658.135	16217.97842
658.333	16147.14856
658.532	16387.97893
658.731	16019.65972
658.929	16226.0734
659.128	16181.55138
659.326	16282.739
659.525	16402.14624
659.724	16215.95468
659.922	16628.83693
660.121	16555.96914
660.319	16313.09615
660.518	16240.23967
660.716	16149.17224
660.915	16052.03727
661.113	16505.36817
661.312	16426.43328
661.51	16570.13766
661.709	16228.09714
661.907	16671.34448
662.105	16313.09615
662.304	16135.0065
662.502	16135.0065
662.701	16497.27214
662.899	16268.57247
663.097	16270.59625
663.296	16404.17015
663.494	16786.72734
663.692	16167.38546
663.891	16248.33472
664.089	16331.31064
664.287	16831.26317
664.485	16181.55138
664.684	16772.55709
664.882	16564.06542
665.08	16448.69665
665.278	16493.22414
665.476	16596.45089
665.675	16288.8104
665.873	16305.00087
666.071	16359.6446
666.269	16353.573
666.467	16315.11998
666.665	16307.02469
666.863	16220.00216
667.061	16594.42678
667.259	16503.34416
667.457	16887.9469
667.655	16222.02591
667.853	16458.81645
668.051	16072.27343
668.249	16507.39219
668.447	16047.99006
668.645	16319.16763
668.843	16475.00823
669.041	16592.40268
669.239	16037.87205
669.437	16750.28981
669.635	16485.12816
669.833	16296.90562
670.031	16385.95504
670.229	16620.74037
670.426	16574.18582
670.624	16808.99511
670.822	16428.45721
671.02	16649.0785
671.218	16468.93629
671.415	16584.30627
671.613	16335.35833
671.811	16234.1684
672.009	16357.62073
672.206	16602.52323
672.404	16197.74111
672.602	16325.23913
672.799	16515.48826
672.997	16873.77578
673.195	16475.00823
673.392	16574.18582
673.59	16183.57509
673.788	16428.45721
673.985	16402.14624
674.183	16636.93353
674.38	16199.76483
674.578	16841.38512
674.775	16529.65647
674.973	16305.00087
675.17	16740.16841
675.368	16466.91232
675.565	16404.17015
675.763	16292.858
675.96	16343.45372
676.158	16691.58653
676.355	16201.78856
676.553	16754.33838
676.75	16691.58653
676.947	16475.00823
677.145	16260.47735
677.342	16618.71623
677.539	16054.06088
677.737	16361.66847
677.934	16181.55138
678.131	16228.09714
678.329	16207.85975
678.526	16503.34416
678.723	16394.05062
678.92	16390.00282
679.118	16270.59625
679.315	16220.00216
679.512	16270.59625
679.709	16365.71621
679.906	16353.573
680.104	16185.5988
680.301	16100.60431
680.498	16120.84084
680.695	16033.82485
680.892	16398.09843
681.089	16266.54868
681.286	16462.86438
681.483	15882.05909
681.68	16361.66847
681.877	16497.27214
682.075	16406.19406
682.272	15975.14119
682.469	16450.72061
682.665	15952.88217
682.862	15997.40037
683.059	15934.67037
683.256	15882.05909
683.453	15930.62332
683.65	16029.77767
683.847	16082.39157
684.044	15892.17658
684.241	16054.06088
684.438	16242.26343
684.635	15965.02343
684.831	16145.12488
685.028	16137.03017
685.225	16195.71739
685.422	15867.89465
685.619	15942.76449
685.815	15667.5749
686.012	16398.09843
686.209	15774.81551
686.405	16432.50508
686.602	16102.62795
686.799	15985.25898
686.996	16155.2433
687.192	15973.11764
687.389	15720.18316
687.586	15801.12025
687.782	15926.57627
687.979	15782.90926
688.175	15979.1883
688.372	16098.58066
688.568	15975.14119
688.765	15752.5578
688.962	16141.07752
689.158	16072.27343
689.355	15950.85863
689.551	15977.16474
689.748	15760.6515
689.944	15902.2941
690.14	15778.86238
690.337	15780.88582
690.533	15835.51903
690.73	15774.81551
690.926	15732.32362
691.123	15815.28441
691.319	15471.31042
691.515	15685.78538
691.712	15501.66018
691.908	15608.89716
692.104	15592.71032
692.301	15880.03559
692.497	15659.48138
692.693	15857.77724
692.889	15562.36012
693.086	16003.47109
693.282	15795.04991
693.478	15956.92926
693.674	15665.55152
693.87	16323.21529
694.067	15861.8242
694.263	15819.33132
694.459	15410.61127
694.655	15637.22426
694.851	15602.82709
695.047	15440.96079
695.243	15859.80072
695.439	15942.76449
695.635	15505.70683
695.831	15665.55152
696.027	15596.75703
696.224	15378.23855
696.42	15564.38346
696.615	15750.53438
696.811	15499.63686
697.007	15675.66844
697.203	15388.35502
697.399	15333.72623
697.595	15293.26062
697.791	15264.93475
697.987	15056.53771
698.183	15426.79767
698.379	15260.8882
698.575	15884.08258
698.77	15175.91077
698.966	15382.28514
699.162	15374.19197
699.358	15546.17341
699.554	15295.2839
699.749	15447.03071
699.945	15167.81769
700.141	15461.19386
700.337	15424.77436
700.532	15588.66362
700.728	15230.53909
700.924	15358.00566
701.119	15479.40368
701.315	15376.21526
701.511	15277.0744
701.706	15467.2638
701.902	15022.14199
702.097	15228.51582
702.293	15076.77046
702.489	15337.7728
702.684	15374.19197
702.88	15254.81837
703.075	15048.44461
703.271	15380.26185
703.466	15141.51517
703.662	15467.2638
703.857	15244.702
704.053	15649.3645
704.248	14874.44159
704.443	15277.0744
704.639	15054.51444
704.834	15552.24342
705.03	15194.1202
705.225	15301.35373
705.42	14937.16395
705.616	15153.65479
705.811	14973.58319
706.006	15005.95574
706.202	14840.04523
706.397	15305.40029
706.592	14947.28042
706.787	15351.9358
706.983	15349.91251
707.178	15527.96342
707.373	15177.93404
707.568	15232.56237
707.763	14997.86261
707.959	15341.81937
708.154	15418.70446
708.349	15556.2901
708.544	15398.47149
708.739	15459.17055
708.934	15271.00457
709.129	15388.35502
709.324	14931.09407
709.519	15262.91147
709.714	15064.63082
709.909	15440.96079
710.104	14906.81448
710.299	15210.30637
710.494	15372.16868
710.689	15408.58797
710.884	15266.95802
711.079	14993.81605
711.274	14738.87836
711.469	15358.00566
711.664	15016.07215
711.859	15115.21264
712.054	14989.76948
712.249	15147.58498
712.443	14558.79583
712.638	14941.21054
712.833	14619.49873
713.028	14787.43869
713.223	14696.38768
713.417	14872.41828
713.612	14655.91999
713.807	15131.39881
714.002	15133.42209
714.196	15268.9813
714.391	14655.91999
714.586	15014.04887
714.78	14953.35029
714.975	14823.85865
715.17	14840.04523
715.364	14999.8859
715.559	15157.70133
715.754	14840.04523
715.948	14898.72127
716.143	15097.0032
716.337	14694.36431
716.532	15139.4919
716.726	14791.48536
716.921	14524.39705
717.115	14651.8732
717.31	14574.98337
717.504	14722.69148
717.699	14694.36431
717.893	14653.8966
718.088	14672.10711
718.282	14767.20527
718.476	14485.95091
718.671	14583.07711
718.865	14641.75621
719.059	14396.9158
719.254	14540.58476
719.448	14348.34995
719.642	14615.4519
719.837	14160.14764
720.031	14413.10422
720.225	14095.38585
720.419	14263.35736
720.614	14338.23194
720.808	14487.9744
721.002	14079.19505
721.196	14540.58476
721.39	14398.93936
721.585	14560.81928
721.779	14564.86617
721.973	14435.36313
722.167	14022.5261
722.361	14127.76702
722.555	14095.38585
722.749	13955.73524
722.943	14093.36201
723.137	14067.05186
723.331	14028.59786
723.525	14435.36313
723.719	14166.21894
723.913	14346.32635
724.107	14160.14764
724.301	14156.10009
724.495	13874.77286
724.689	14060.98023
724.883	13795.83029
725.077	14004.31068
725.271	14133.83843
725.465	14121.69559
725.659	14010.3825
725.853	14113.60033
726.046	13775.58789
726.24	13836.3142
726.434	13757.36947
726.628	14156.10009
726.822	14135.86223
727.015	14382.75086
727.209	13569.09736
727.403	14105.50503
727.596	13901.08611
727.79	14451.55132
727.984	14002.28673
728.177	14198.59892
728.371	13911.20646
728.565	14113.60033
728.758	14095.38585
728.952	14168.2427
729.146	13951.68722
729.339	14117.64797
729.533	14145.98118
729.726	14206.69383
729.92	13763.4423
730.113	14075.14733
730.307	13587.31851
730.5	14067.05186
730.694	13929.42294
730.887	14046.81302
731.081	14071.0996
731.274	14154.07631
731.468	14267.4047
731.661	14075.14733
731.854	13967.87924
732.048	14143.9574
732.241	13775.58789
732.435	14194.55145
732.628	13803.92716
732.821	14065.02799
733.014	13919.3027
733.208	13939.54311
733.401	14014.43038
733.594	13747.24802
733.788	13872.74875
733.981	13848.45915
734.174	14008.35856
734.367	14135.86223
734.56	13739.15081
734.754	14038.71741
734.947	14016.45431
735.14	14196.57519
735.333	14028.59786
735.526	14069.07573
735.719	13951.68722
735.912	13996.21487
736.105	13888.94159
736.298	14285.61763
736.491	14056.93247
736.684	13969.90323
736.877	13741.17512
737.07	14145.98118
737.263	13524.55557
737.456	13787.73336
737.649	13617.68647
737.842	13901.08611
738.035	13787.73336
738.228	13680.4445
738.421	13783.68488
738.614	13700.68836
738.807	13751.29661
739	13842.38669
739.192	13581.24483
739.385	13702.71273
739.578	14135.86223
739.771	13856.55573
739.964	13814.04819
740.156	14107.52886
740.349	13528.6049
740.542	13536.7035
740.735	13720.93189
740.927	13700.68836
741.12	13708.78581
741.313	13832.26586
741.505	13652.10256
741.698	13641.98028
741.891	13741.17512
742.083	13490.13571
742.276	13585.29395
742.468	13463.81392
742.661	13528.6049
742.854	13461.78914
743.046	13196.50817
743.239	13328.14502
743.431	13684.4933
743.624	13342.32023
743.816	13443.56595
744.009	13407.11863
744.201	13380.79478
744.393	13627.80895
744.586	13340.29521
744.778	13415.21814
744.971	13409.14351
745.163	13633.88239
745.355	13421.29274
745.548	13775.58789
745.74	13394.96924
745.932	13573.14653
746.125	13662.22475
746.317	13486.08625
746.509	13518.48156
746.702	13556.94977
746.894	13415.21814
747.086	13151.94994
747.278	13484.06151
747.471	13698.66399
747.663	13376.74489
747.855	13682.4689
748.047	13318.01975
748.239	13423.31759
748.431	13573.14653
748.623	13587.31851
748.815	13419.26788
749.008	13556.94977
749.2	13386.86957
749.392	13496.20988
749.584	13277.51762
749.776	13601.49032
749.968	13342.32023
750.16	13490.13571
750.352	13275.49247
750.544	13569.09736
750.736	13119.54254
750.928	13091.18509
751.12	13139.7973
751.311	13366.62011
751.503	13415.21814
751.695	13119.54254
751.887	13052.69847
752.079	13081.0572
752.271	12898.73398
752.463	12807.5565
752.654	12848.08119
752.846	12823.76664
753.038	12898.73398
753.23	13153.97536
753.421	12961.53885
753.613	13040.54444
753.805	12795.39867
753.997	12819.71414
754.188	13026.36451
754.38	12825.79288
754.572	13020.28732
754.763	12884.55154
754.955	12839.97643
755.146	13117.51704
755.338	12923.04614
755.53	12669.75565
755.721	12923.04614
755.913	12706.23495
756.104	12858.21202
756.296	12902.78606
756.487	12633.27441
756.679	12941.27976
756.87	12775.13515
757.062	12783.24063
757.253	12669.75565
757.445	12963.56473
757.636	12519.76453
757.827	12400.15206
758.019	12546.11679
758.21	12379.87647
758.401	12418.39952
758.593	12434.61902
758.784	12361.62786
758.975	12420.42698
759.167	12168.96888
759.358	12694.07539
759.549	12290.65571
759.74	12645.43504
759.932	12546.11679
760.123	12570.441
760.314	12442.72862
760.505	12339.32324
760.696	12284.57198
760.888	12402.17958
761.079	12175.05385
761.27	12402.17958
761.461	12337.29551
761.652	12345.4064
761.843	12183.16703
762.034	12341.35097
762.225	12179.11046
762.416	12418.39952
762.607	12026.96703
762.798	12477.19321
762.989	12323.10118
763.18	12542.06266
763.371	12059.42791
763.562	12014.79368
763.753	11830.1289
763.944	11929.57219
764.135	11872.7499
764.326	11826.06956
764.517	11925.51367
764.708	12166.94055
764.899	11614.93614
765.089	11957.98093
765.28	11957.98093
765.471	12260.23644
765.662	11777.35487
765.853	11688.03161
766.043	11509.33281
766.234	11606.8137
766.425	11424.01916
766.615	11852.45465
766.806	11980.30097
766.997	11781.41461
767.187	11795.62346
767.378	11955.95179
767.569	11580.41474
767.759	11655.54618
767.95	11560.10679
768.141	11509.33281
768.331	11614.93614
768.522	11643.36355
768.712	11539.7979
768.903	11931.60144
769.093	11558.07594
769.284	11560.10679
769.474	11657.57659
769.665	11537.76696
769.855	11293.98419
770.046	11377.29253
770.236	11285.85564
770.426	11300.0805
770.617	11342.75209
770.807	11163.90762
770.998	11247.2428
771.188	11218.78886
771.378	11399.6407
771.569	11269.59806
771.759	11139.51349
771.949	11257.40444
772.139	11377.29253
772.33	11247.2428
772.52	11432.145
772.71	11411.8301
772.9	11111.05173
773.09	11167.97316
773.281	11100.8863
773.471	11147.64503
773.661	11086.65426
773.851	10960.57558
774.041	10598.36231
774.231	10867.00552
774.421	10991.08239
774.611	10761.20123
774.802	10828.34993
774.992	10769.34115
775.182	10689.96876
775.372	10769.34115
775.562	10779.51578
775.752	11070.38841
775.942	10734.74517
776.131	10984.98123
776.321	10960.57558
776.511	10689.96876
776.701	10873.10865
776.891	10850.72999
777.081	10740.85059
777.271	10871.07429
777.461	10753.06112
777.651	10722.534
777.84	10687.93333
778.03	10525.05908
778.22	10557.6403
778.41	10805.96845
778.599	10659.43604
778.789	10639.07936
778.979	10724.56922
779.169	10600.39828
779.358	10423.22175
779.548	10516.91327
779.738	10445.62872
779.927	10423.22175
780.117	10472.10767
780.307	10445.62872
780.496	10468.03412
780.686	10545.42272
780.875	10296.89826
781.065	10323.38966
781.254	10321.35194
781.444	10468.03412
781.633	10070.60871
781.823	10419.14758
782.012	10268.36652
782.202	10064.49039
782.391	10119.55063
782.581	10176.63937
782.77	10017.57909
782.96	10286.70866
783.149	9921.69322
783.338	10527.0955
783.528	10525.05908
783.717	10351.91634
783.906	10258.17598
784.096	10192.94844
784.285	10070.60871
784.474	10160.32941
784.663	10076.72689
784.853	9940.05682
785.042	9831.89844
785.231	10017.57909
785.42	10003.30024
785.61	9933.93575
785.799	9852.30886
785.988	9770.6582
786.177	9447.89752
786.366	9791.07311
786.555	9609.32666
786.744	9545.99286
786.933	9535.77631
787.122	9627.71107
787.312	9545.99286
787.501	9654.2641
787.69	9562.33852
787.879	9664.4761
788.068	9456.07354
788.257	9656.30653
788.445	9439.72124
788.634	9537.81966
788.823	9472.42482
789.012	9464.24931
789.201	9439.72124
789.39	9433.58886
789.579	9646.09422
789.768	9874.75861
789.957	9315.00061
790.145	9807.40396
790.334	9603.19825
790.523	9797.19729
790.712	9441.76533
790.9	9588.89806
791.089	9513.29851
791.278	9519.42901
791.467	9423.3679
791.655	9639.96664
791.844	9386.56907
792.033	9439.72124
792.221	9261.82234
792.41	9218.8624
792.599	9257.73124
792.787	9345.67528
792.976	9165.66359
793.164	9118.5935
793.353	9163.61725
793.541	9218.8624
793.73	9010.09291
793.918	9147.24594
794.107	8889.25132
794.295	8967.08855
794.484	9137.01331
794.672	9186.12603
794.861	9196.35661
795.049	9220.90828
795.238	9112.45326
795.426	9161.5709
795.614	8944.55936
795.803	9206.58677
795.991	9106.31286
796.179	9077.65561
796.368	8846.22494
796.556	8971.18454
796.744	8811.38825
796.932	8866.71468
797.121	8788.84408
797.309	8944.55936
797.497	8764.24792
797.685	8883.10517
797.874	8659.6848
798.062	8866.71468
798.25	8758.09847
798.438	8883.10517
798.626	8663.78622
798.814	8655.58331
799.002	8735.54908
799.19	8630.97279
799.378	8538.65934
799.566	8710.94722
799.755	8614.56428
799.943	8676.09003
800.131	8645.32925
800.318	8667.88757
800.506	8509.93181
800.694	8516.08802
800.882	8540.71116
801.07	8674.03944
801.258	8612.51314
801.446	8993.71121
801.634	8616.61541
801.822	9005.99759
802.01	8704.79634
802.197	8922.02802
802.385	8429.88546
802.573	8772.44693
802.761	8485.30526
802.949	8772.44693
803.136	8680.19116
803.324	8481.20057
803.512	8382.66495
803.699	8374.45164
803.887	8401.14375
804.075	8534.55563
804.262	8501.72327
804.45	8712.99747
804.638	8319.00371
804.825	8472.99095
805.013	8485.30526
805.201	8587.89791
805.388	8458.62339
805.576	8583.79511
805.763	8737.59912
805.951	8704.79634
806.138	8524.29604
806.326	8653.53254
806.513	8390.87794
806.701	8224.50401
806.888	8468.88603
807.075	8690.44364
807.263	8653.53254
807.45	8821.63488
807.638	8534.55563
807.825	8745.79908
808.012	8573.53778
808.2	8768.34746
808.387	8708.89694
808.574	8780.64565
808.761	8639.17659
808.949	8774.49664
809.136	8671.98884
809.323	8842.12678
809.51	8794.99271
809.698	8717.09793
809.885	8633.02377
810.072	8768.34746
810.259	8762.19812
810.446	8893.34865
810.633	8587.89791
810.82	8743.74912
811.008	8579.69224
811.195	8676.09003
811.382	8702.74601
811.569	8688.39318
811.756	8390.87794
811.943	8811.38825
812.13	8743.74912
812.317	8946.60755
812.504	8657.63407
812.691	8538.65934
812.878	8858.519
813.064	9032.61592
813.251	8698.64529
813.438	8674.03944
813.625	8563.27998
813.812	8645.32925
813.999	8557.12508
814.186	8653.53254
814.372	8571.48626
814.559	8671.98884
814.746	8522.24407
814.933	8813.43761
815.12	8472.99095
815.306	8669.93821
815.493	8739.64914
815.68	8962.9925
815.866	8532.50375
816.053	8866.71468
816.24	8499.67108
816.426	8735.54908
816.613	8514.03597
816.799	8413.46209
816.986	8526.348
817.173	8704.79634
817.359	8397.03749
817.546	8489.40987
817.732	8362.1311
817.919	8606.35958
818.105	8360.07761
818.292	8751.94886
818.478	8526.348
818.665	8846.22494
818.851	8739.64914
819.037	8680.19116
819.224	8610.46197
819.41	8489.40987
819.597	8415.51508
819.783	8544.81475
819.969	8341.59532
820.156	8271.75905
820.342	8312.84195
820.528	8548.91827
820.714	8353.91702
820.901	8366.23803
821.087	8117.62783
821.273	8390.87794
821.459	8121.73945
821.646	8450.41294
821.832	8230.6683
822.018	8382.66495
822.204	8129.96245
822.39	8468.88603
822.576	8253.26919
822.762	8466.83354
822.948	8249.16012
823.134	8199.84505
823.32	8312.84195
823.507	8160.79585
823.693	8267.65033
823.879	8218.33954
824.065	8095.01248
824.25	8341.59532
824.436	8158.74043
824.622	8358.0241
824.808	8394.98432
824.994	8201.90007
825.18	8275.8677
825.366	8460.67596
825.552	8199.84505
825.738	8602.25712
825.923	8119.68365
826.109	8138.18513
826.295	7848.13991
826.481	8362.1311
826.667	8049.77447
826.852	8259.43266
827.038	7804.90675
827.224	8127.90673
827.409	8127.90673
827.595	8345.70263
827.781	7796.67082
827.966	8197.79001
828.152	7809.02459
828.338	8105.29249
828.523	7642.18498
828.709	7831.67122
828.894	7578.29607
829.08	7786.37544
829.266	7561.80528
829.451	8051.83096
829.637	7695.75349
829.822	7644.24557
830.008	7625.69948
830.193	7485.51751
830.378	7572.11218
830.564	7547.37471
830.749	7594.78549
830.935	7594.78549
831.12	7429.82943
831.305	7720.47261
831.491	7184.19982
831.676	7658.66912
831.861	7485.51751
832.047	7654.54822
832.232	7419.5151
832.417	7572.11218
832.602	7318.40575
832.788	7497.8905
832.973	7330.78931
833.158	7378.2523
833.343	7178.00345
833.528	7163.54447
833.714	7380.31565
833.899	7347.29949
834.084	7469.01899
834.269	7392.69527
834.454	6956.8681
834.639	7301.89312
834.824	7211.04847
835.009	7378.2523
835.194	7376.18893
835.379	7485.51751
835.564	7138.75511
835.749	7576.23479
835.934	7308.08552
836.119	7318.40575
836.304	7000.28875
836.489	7250.28208
836.674	6981.68112
836.859	6992.01892
837.044	7095.36601
837.228	7076.76767
837.413	6923.77903
837.598	7134.62324
837.783	6998.22133
837.968	7246.1526
838.152	6940.32429
838.337	7151.15019
838.522	7000.28875
838.707	7132.55727
838.891	6756.17641
839.076	6987.88387
839.261	6714.77
839.445	6954.80021
839.63	6546.98001
839.815	6600.85501
839.999	6799.64329
840.184	6905.16388
840.368	6824.47698
840.553	6824.47698
840.737	6675.42541
840.922	6809.99106
841.106	6590.49564
841.291	6565.63081
841.475	6627.78665
841.66	6725.12246
841.844	6389.40939
842.029	6700.27559
842.213	6627.78665
842.397	6691.99256
842.582	6453.69782
842.766	6551.12479
842.951	6368.66642
843.135	6391.48356
843.319	6503.45417
843.504	6316.79876
843.688	6221.3241
843.872	6412.22398
844.056	6389.40939
844.241	6662.99908
844.425	6229.62821
844.609	6432.96206
844.793	6260.76529
844.977	6631.92964
845.161	6248.31109
845.346	6455.77127
845.53	6352.07035
845.714	6472.35802
845.898	6078.01906
846.082	6360.36857
846.266	6217.1719
846.45	6327.17346
846.634	5994.89241
846.818	6215.09577
847.002	6105.02711
847.186	6235.85605
847.37	6019.83436
847.554	6314.72375
847.738	6194.33315
847.922	6470.28476
848.106	6260.76529
848.29	6441.25665
848.473	5980.34137
848.657	6086.32965
848.841	6005.2853
849.025	6146.5702
849.209	5855.57079
849.392	6051.00703
849.576	5870.13173
849.76	5988.65639
849.944	5944.99832
850.127	6003.20677
850.311	5863.89147
850.495	6098.79484
850.678	6040.61673
850.862	6210.94343
851.046	5799.39632
851.229	5928.36395
851.413	5718.22504
851.596	5865.97158
851.78	5603.69172
851.964	5972.02597
852.147	5655.76117
852.331	5797.31545
852.514	5401.52287
852.698	5757.77451
852.881	5616.18974
853.065	5649.51362
853.248	5703.65204
853.431	5838.9283
853.615	5441.14039
853.798	5778.58659
853.982	5545.35645
854.165	5653.67868
854.348	5474.49593
854.532	5849.33003
854.715	5576.60979
854.898	5645.34846
855.081	5568.27608
855.265	5720.3068
855.448	5409.86411
855.631	5459.90362
855.814	5405.69354
855.997	5616.18974
856.181	5295.13921
856.364	5389.01031
856.547	5203.30831
856.73	5480.74943
856.913	5165.72811
857.096	5447.39501
857.279	5205.39588
857.462	5161.55206
857.645	5000.70376
857.828	5153.19969
858.011	5161.55206
858.194	5205.39588
858.377	5121.875
858.56	5178.25568
858.743	5144.84695
858.926	5338.95163
859.109	4994.43416
859.292	5157.37593
859.475	4956.81224
859.658	5161.55206
859.841	4820.89341
860.023	5038.31696
860.206	4749.75902
860.389	5036.22753
860.572	4705.80998
860.755	4973.53402
860.937	4730.92494
861.12	4762.31405
861.303	4672.31833
861.486	4804.15827
861.668	4462.8659
861.851	4856.45075
862.034	4500.58371
862.216	4810.43412
862.399	4492.20259
862.581	4433.5249
862.764	4485.91652
862.947	4871.09009
863.129	4613.6941
863.312	4768.59126
863.494	4776.96056
863.677	4735.11045
863.859	4653.47675
864.042	4609.50598
864.224	4492.20259
864.406	4833.44381
864.589	4450.29171
864.771	4839.71871
864.954	4651.38312
865.136	4797.88222
865.318	4494.2979
865.501	4898.27445
865.683	4668.13147
865.865	4636.72714
866.048	4253.19382
866.23	4251.09601
866.412	4167.16616
866.594	4427.23699
866.777	4341.28248
866.959	4504.77413
867.141	4374.83005
867.323	4387.40896
867.505	4288.85332
867.687	4299.34023
867.869	4303.53484
868.052	4353.86347
868.234	4228.01869
868.416	4311.92381
868.598	4177.65924
868.78	4213.33178
868.962	3997.1054
869.144	4169.26482
869.326	4223.82253
869.508	4349.66989
869.69	4045.40809
869.872	4223.82253
870.054	4041.20829
870.236	4318.21531
870.417	4139.88167
870.599	4257.38937
870.781	4062.20647
870.963	4062.20647
871.145	3971.8997
871.327	4318.21531
871.508	3940.38844
871.69	4158.77131
871.872	3877.3523
872.054	4110.49441
872.235	3694.44664
872.417	3816.40026
872.599	3763.84207
872.78	4131.48573
872.962	3929.88368
873.144	4060.10674
873.325	3879.45379
873.507	3957.19501
873.689	3871.04769
873.87	4131.48573
874.052	3889.96097
874.233	4058.007
874.415	4083.20258
874.596	4265.78023
874.778	3887.85958
874.959	4139.88167
875.141	4047.50796
875.322	4114.69284
875.503	3782.76443
875.685	4079.00352
875.866	3984.50292
876.048	3974.00028
876.229	3795.37846
876.41	4055.90723
876.592	3734.40416
876.773	3997.1054
876.954	3948.79189
877.136	4110.49441
877.317	3791.17386
877.498	4127.28763
877.679	3887.85958
877.86	3934.08564
878.042	3965.59781
878.223	4238.5087
878.404	3847.92926
878.585	4018.10791
878.766	3698.65302
878.947	4064.30617
879.128	3829.01239
879.309	4106.2959
879.49	3974.00028
879.672	4123.08945
879.853	3971.8997
880.034	4034.90843
880.215	4047.50796
880.396	4165.06748
880.576	3768.04718
880.757	4049.60781
880.938	3597.67886
881.119	3929.88368
881.3	3822.70641
881.481	4072.70478
881.662	3770.1497
881.843	4011.80737
882.023	3780.66203
882.204	4133.58475
882.385	3694.44664
882.566	3946.69106
882.747	3713.37475
882.927	4047.50796
883.108	3694.44664
883.289	3978.2014
883.469	3728.09554
883.65	4043.3082
883.831	4039.10836
884.011	4160.87005
884.192	3986.60338
884.373	4228.01869
884.553	3601.88698
884.734	3887.85958
884.914	3728.09554
885.095	3999.20575
885.275	3862.64127
885.456	4074.80438
885.636	4018.10791
885.817	4175.56067
885.997	3904.67018
886.178	3936.1866
886.358	3906.77142
886.538	4133.58475
886.719	3879.45379
886.899	4236.41074
887.08	4013.90757
887.26	4009.70715
887.44	3898.36635
887.621	4133.58475
887.801	3850.03103
887.981	4091.60044
888.161	3923.58057
888.342	3913.075
888.522	3868.94611
888.702	4165.06748
888.882	4013.90757
889.062	4253.19382
889.242	3770.1497
889.423	3967.69846
889.603	3923.58057
889.783	4135.68374
889.963	3820.60438
890.143	4137.78272
890.323	3696.54984
890.503	4225.92062
890.683	3940.38844
890.863	3906.77142
891.043	3761.73949
891.223	4072.70478
891.403	3957.19501
891.583	4179.7578
891.763	3997.1054
891.943	4144.07952
892.122	3791.17386
892.302	3877.3523
892.482	3795.37846
892.662	4009.70715
892.842	3852.13279
893.022	3980.30193
893.201	3686.03365
893.381	3883.65672
893.561	3829.01239
893.741	3879.45379
893.92	3467.19029
894.1	3900.46765
894.28	3629.23797
894.459	3845.82746
894.639	3829.01239
894.819	4028.60839
894.998	3662.89634
895.178	3921.4795
895.357	3603.99102
895.537	3814.29817
895.716	3610.30301
895.896	3904.67018
896.075	3441.92635
896.255	3616.61483
896.434	3431.39895
896.614	3700.75619
896.793	3404.02562
896.973	3540.86188
897.152	3435.60996
897.331	3496.6616
897.511	3408.23709
897.69	3572.42854
897.87	3410.34281
898.049	3637.65302
898.228	3395.60245
898.407	3515.60557
898.587	3214.43741
898.766	3357.69472
898.945	3201.79332
899.124	3357.69472
899.304	3351.37622
899.483	3545.07101
899.662	3265.00777
899.841	3218.65197
900.02	3231.29527
900.199	3425.08229
900.378	3404.02562
900.557	3401.91985
900.737	3119.5924
900.916	3294.50267
901.095	2969.8828
901.274	3256.58005
901.453	3028.9325
901.632	3155.42661
901.811	3058.45285
901.989	3182.82608
902.168	2870.73745
902.347	3001.51805
902.526	2657.57606
902.705	2919.25942
902.884	2828.5383
903.063	3031.0412
903.242	2868.62763
903.42	2904.49267
903.599	2598.45831
903.778	2944.57217
903.957	2568.89585
904.135	2805.32638
904.314	2628.0184
904.493	2830.64839
904.672	2609.01576
904.85	2632.24107
905.029	2364.00896
905.207	2535.10732
905.386	2554.11374
905.565	2644.90879
905.743	2503.42789
905.922	2463.29696
906.1	2268.92511
906.279	2416.82462
906.457	2351.33225
906.636	2598.45831
906.814	2368.23445
906.993	2490.7554
907.171	2226.65954
907.35	2397.81173
907.528	2032.19531
907.707	2357.67065
907.885	2192.84455
908.063	2142.11804
908.242	1985.68382
908.42	2087.15917
908.598	1937.05491
908.777	2207.63888
908.955	1956.08399
909.133	2175.93624
909.311	1905.33873
909.49	2023.73892
909.668	1888.42293
909.846	2186.504
910.024	1913.7965
910.202	2049.10778
910.38	1947.62668
910.559	2053.33582
910.737	1956.08399
910.915	1998.36909
911.093	1839.78817
911.271	2099.84245
911.449	1932.82616
911.627	2076.58957
911.805	2008.93996
911.983	2101.9563
912.161	2184.39047
912.339	2372.4599
912.517	2175.93624
912.695	2235.11294
912.872	2057.56384
913.05	2252.01931
913.228	1981.45535
913.406	2070.24773
913.584	2142.11804
913.762	2237.22627
913.939	2006.8258
914.117	2364.00896
914.295	2053.33582
914.473	2106.18398
914.65	2159.0274
914.828	2336.54231
915.006	2243.5662
915.184	2245.67949
915.361	2006.8258
915.539	2159.0274
915.716	2000.48327
915.894	2123.09441
916.072	1951.85535
916.249	2175.93624
916.427	1937.05491
916.604	2300.62188
916.782	1924.36859
916.959	2057.56384
917.137	1956.08399
917.314	1998.36909
917.492	1824.98578
917.669	1865.16316
917.847	1721.36328
918.024	1922.25418
918.201	1772.11834
918.379	1896.88087
918.556	1681.18081
918.733	1812.29784
918.911	1638.88236
919.088	1748.85587
919.265	1401.99965
919.442	1757.315
919.62	1628.3076
919.797	1888.42293
919.974	1704.44448
920.151	1922.25418
920.328	1795.38034
920.506	2000.48327
920.683	1765.77408
920.86	1765.77408
921.037	1662.14664
921.214	1765.77408
921.391	1643.11225
921.568	1763.65931
921.745	1594.46798
921.922	1710.78906
922.099	1440.07053
922.276	1630.42255
922.453	1533.13258
922.63	1579.663
922.807	1423.15012
922.984	1507.75213
923.161	1287.78895
923.338	1431.61033
923.514	1446.41569
923.691	1695.98501
923.868	1406.22974
924.045	1465.45116
924.222	1289.90392
924.399	1368.15904
924.575	1230.68574
924.752	1469.68126
924.929	1342.77877
925.105	1366.04401
925.282	1243.37517
925.459	1378.73421
925.635	1179.92914
925.812	1448.53074
925.989	1177.81432
926.165	1473.91137
926.342	1245.49009
926.518	1321.6287
926.695	1146.09257
926.871	1347.0088
927.048	1194.73294
927.224	1222.22617
927.401	960.01411
927.577	1093.22514
927.754	983.27141
927.93	1224.34106
928.107	1160.89594
928.283	1198.96263
928.459	1084.76663
928.636	1179.92914
928.812	968.47122
928.988	1141.86307
929.165	1010.75834
929.341	1010.75834
929.517	1048.81888
929.693	1105.91306
929.87	805.69371
930.046	1034.01733
930.222	940.98604
930.398	943.10024
930.574	812.03474
930.751	837.39972
930.927	805.69371
931.103	943.10024
931.279	877.56352
931.455	1000.18632
931.631	797.23912
931.807	940.98604
931.983	805.69371
932.159	951.55712
932.335	875.44956
932.511	915.6162
932.687	750.74171
932.863	793.01189
933.039	704.24928
933.215	733.83477
933.391	645.0849
933.566	761.30888
933.742	535.23389
933.918	704.24928
934.094	562.6933
934.27	687.34425
934.445	613.39353
934.621	602.83037
934.797	509.88883
934.973	552.13172
935.148	459.205
935.324	520.44902
935.5	533.12172
935.675	526.78531
935.851	378.97385
936.027	425.42065
936.202	349.42099
936.378	425.42065
936.553	345.19943
936.729	364.197
936.904	353.64262
937.08	370.52983
937.255	265.00332
937.431	277.66411
937.606	281.88452
937.782	283.99475
937.957	277.66411
938.133	239.6838
938.308	210.14789
938.483	229.13482
938.659	239.6838
938.834	252.34322
939.009	265.00332
939.185	222.80567
939.36	214.36707
939.535	222.80567
939.71	239.6838
939.886	106.80373
940.061	182.72519
940.236	79.39455
940.411	132.10782
940.586	134.21663
940.761	176.39736
940.937	172.17891
941.112	174.28813
941.287	163.74226
941.462	108.91229
941.637	104.6952
941.812	235.46415
941.987	142.6521
942.162	100.4782
942.337	146.86997
942.512	138.43433
942.687	163.74226
942.862	47.77329
943.037	113.12946
943.212	163.74226
943.386	157.41499
943.561	108.91229
943.736	85.71941
943.911	98.36974
944.086	132.10782
944.26	73.06989
944.435	96.26129
944.61	96.26129
944.785	138.43433
944.959	96.26129
945.134	148.97893
945.309	106.80373
945.483	172.17891
945.658	121.56407
945.833	47.77329
946.007	121.56407
946.182	43.55752
946.357	47.77329
946.531	92.04447
946.706	79.39455
946.88	87.82774
947.055	66.74543
947.229	92.04447
947.404	138.43433
947.578	146.86997
947.752	14.04971
947.927	73.06989
948.101	96.26129
948.276	62.52924
948.45	121.56407
948.624	195.3814
948.799	98.36974
948.973	104.6952
949.147	104.6952
949.321	58.31314
949.496	155.30595
949.67	87.82774
949.844	132.10782
950.018	216.47669
950.193	73.06989
950.367	121.56407
950.541	96.26129
950.715	108.91229
950.889	157.41499
951.063	195.3814
951.237	132.10782
951.411	136.32547
951.585	129.99903
951.759	115.23808
951.933	113.12946
952.107	108.91229
952.281	79.39455
952.455	195.3814
952.629	92.04447
952.803	182.72519
952.977	64.63732
953.151	106.80373
953.325	148.97893
953.499	201.70978
953.672	96.26129
953.846	79.39455
954.02	83.6111
954.194	41.44967
954.368	148.97893
954.541	98.36974
954.715	189.0532
954.889	176.39736
955.062	35.12624
955.236	62.52924
955.41	108.91229
955.583	155.30595
955.757	98.36974
955.93	125.7815
956.104	113.12946
956.278	89.9361
956.451	165.85139
956.625	45.6654
956.798	129.99903
956.972	96.26129
957.145	117.34672
957.319	117.34672
957.492	123.67278
957.665	138.43433
957.839	54.09713
958.012	125.7815
958.185	157.41499
958.359	174.28813
958.532	157.41499
958.705	113.12946
958.879	134.21663
959.052	45.6654
959.225	100.4782
959.398	125.7815
959.572	100.4782
959.745	134.21663
959.918	89.9361
960.091	41.44967
960.264	70.96171
960.438	165.85139
960.611	155.30595
960.784	87.82774
960.957	106.80373
961.13	140.5432
961.303	85.71941
961.476	54.09713
961.649	113.12946
961.822	165.85139
961.995	113.12946
962.168	75.17808
962.341	102.58669
962.514	104.6952
962.686	123.67278
962.859	165.85139
963.032	142.6521
963.205	138.43433
963.378	132.10782
963.551	89.9361
963.723	79.39455
963.896	189.0532
964.069	138.43433
964.242	11.94218
964.414	96.26129
964.587	138.43433
964.76	170.06972
964.932	136.32547
965.105	98.36974
965.278	98.36974
965.45	134.21663
965.623	77.2863
965.795	60.42118
965.968	37.23403
966.14	113.12946
966.313	142.6521
966.485	132.10782
966.658	155.30595
966.83	167.96055
967.003	54.09713
967.175	155.30595
967.348	170.06972
967.52	33.01848
967.692	51.98916
967.865	104.6952
968.037	165.85139
968.209	104.6952
968.382	134.21663
968.554	94.15287
968.726	146.86997
968.898	104.6952
969.071	62.52924
969.243	113.12946
969.415	100.4782
969.587	113.12946
969.759	35.12624
969.932	98.36974
970.104	157.41499
970.276	129.99903
970.448	108.91229
970.62	64.63732
970.792	104.6952
970.964	62.52924
971.136	85.71941
971.308	132.10782
971.48	66.74543
971.652	68.85356
971.824	70.96171
971.996	140.5432
972.168	87.82774
972.339	49.88122
972.511	98.36974
972.683	140.5432
972.855	56.20513
973.027	115.23808
973.199	98.36974
973.37	81.50281
973.542	45.6654
973.714	111.02086
973.886	113.12946
974.057	70.96171
974.229	45.6654
974.401	43.55752
974.572	87.82774
974.744	24.58768
974.915	73.06989
975.087	94.15287
975.259	79.39455
975.43	79.39455
975.602	70.96171
975.773	58.31314
975.945	98.36974
976.116	41.44967
976.288	70.96171
976.459	92.04447
976.63	49.88122
976.802	7.72721
976.973	58.31314
977.145	75.17808
977.316	39.34183
977.487	73.06989
977.659	-11.23899
977.83	11.94218
978.001	14.04971
978.172	41.44967
978.344	49.88122
978.515	148.97893
978.686	62.52924
978.857	138.43433
979.028	64.63732
979.2	64.63732
979.371	60.42118
979.542	45.6654
979.713	47.77329
979.884	37.23403
980.055	3.51233
980.226	26.69535
980.397	11.94218
980.568	73.06989
980.739	92.04447
980.91	104.6952
981.081	41.44967
981.252	79.39455
981.423	132.10782
981.594	11.94218
981.765	121.56407
981.936	37.23403
982.106	5.61975
982.277	16.15725
982.448	20.37242
982.619	100.4782
982.79	41.44967
982.96	14.04971
983.131	56.20513
983.302	45.6654
983.472	41.44967
983.643	113.12946
983.814	94.15287
983.984	70.96171
984.155	3.51233
984.326	70.96171
984.496	30.91075
984.667	45.6654
984.837	47.77329
985.008	115.23808
985.178	108.91229
985.349	30.91075
985.519	28.80304
985.69	33.01848
985.86	83.6111
986.031	73.06989
986.201	51.98916
986.371	85.71941
986.542	-38.63112
986.712	45.6654
986.882	113.12946
987.053	64.63732
987.223	70.96171
987.393	66.74543
987.563	20.37242
987.734	20.37242
987.904	81.50281
988.074	70.96171
988.244	28.80304
988.414	54.09713
988.585	51.98916
988.755	11.94218
988.925	28.80304
989.095	75.17808
989.265	49.88122
989.435	20.37242
989.605	37.23403
989.775	16.15725
989.945	24.58768
990.115	33.01848
990.285	30.91075
990.455	28.80304
990.625	35.12624
990.795	75.17808
990.965	45.6654
991.134	39.34183
991.304	20.37242
991.474	14.04971
991.644	41.44967
991.814	117.34672
991.984	54.09713
992.153	30.91075
992.323	37.23403
992.493	113.12946
992.662	64.63732
992.832	22.48004
993.002	33.01848
993.171	79.39455
993.341	60.42118
993.511	79.39455
993.68	20.37242
993.85	45.6654
994.019	35.12624
994.189	11.94218
994.358	-9.13173
994.528	9.83468
994.697	-0.70246
994.867	56.20513
995.036	47.77329
995.206	121.56407
995.375	22.48004
995.544	73.06989
995.714	81.50281
995.883	47.77329
996.052	56.20513
996.222	33.01848
996.391	39.34183
996.56	54.09713
996.73	-4.91714
996.899	35.12624
997.068	54.09713
997.237	11.94218
997.406	26.69535
997.576	-84.97739
997.745	66.74543
997.914	43.55752
998.083	30.91075
998.252	-4.91714
998.421	16.15725
998.59	3.51233
998.759	11.94218
998.928	83.6111
999.097	-36.52418
999.266	54.09713
999.435	68.85356
999.604	96.26129
999.773	49.88122
999.942	7.72721
1000.111	-13.34623
1000.28	-36.52418
1000.448	7.72721
1000.617	35.12624
1000.786	-4.91714
1000.955	20.37242
1001.124	3.51233
1001.292	14.04971
1001.461	58.31314
1001.63	62.52924
1001.798	-21.77492
1001.967	3.51233
1002.136	-25.98912
1002.304	87.82774
1002.473	16.15725
1002.642	96.26129
1002.81	125.7815
1002.979	-68.12563
1003.147	5.61975
1003.316	75.17808
1003.484	20.37242
1003.653	54.09713
1003.821	-30.20322
1003.99	73.06989
1004.158	37.23403
1004.327	45.6654
1004.495	47.77329
1004.663	24.58768
1004.832	-4.91714
1005	-38.63112
1005.168	20.37242
1005.337	-9.13173
1005.505	33.01848
1005.673	70.96171
1005.842	-19.66778
1006.01	28.80304
1006.178	56.20513
1006.346	35.12624
1006.514	22.48004
1006.683	-30.20322
1006.851	-57.59244
1007.019	39.34183
1007.187	-15.45344
1007.355	14.04971
1007.523	43.55752
1007.691	-25.98912
1007.859	18.26482
1008.027	64.63732
1008.195	85.71941
1008.363	92.04447
1008.531	56.20513
1008.699	66.74543
1008.867	14.04971
1009.035	26.69535
1009.203	60.42118
1009.37	30.91075
1009.538	5.61975
1009.706	123.67278
1009.874	-30.20322
1010.042	5.61975
1010.209	37.23403
1010.377	92.04447
1010.545	24.58768
1010.713	33.01848
1010.88	20.37242
1011.048	73.06989
1011.216	7.72721
1011.383	-2.80981
1011.551	-40.73804
1011.718	37.23403
1011.886	-44.95179
1012.054	28.80304
1012.221	24.58768
1012.389	75.17808
1012.556	-13.34623
1012.724	45.6654
1012.891	62.52924
1013.058	5.61975
1013.226	68.85356
1013.393	37.23403
1013.561	30.91075
1013.728	7.72721
1013.895	3.51233
1014.063	39.34183
1014.23	33.01848
1014.397	11.94218
1014.565	-57.59244
1014.732	62.52924
1014.899	5.61975
1015.066	66.74543
1015.233	14.04971
1015.401	-9.13173
1015.568	-4.91714
1015.735	39.34183
1015.902	47.77329
1016.069	24.58768
1016.236	79.39455
1016.403	16.15725
1016.57	70.96171
1016.737	79.39455
1016.904	45.6654
1017.071	-11.23899
1017.238	-17.56062
1017.405	5.61975
1017.572	-38.63112
1017.739	54.09713
1017.906	26.69535
1018.073	-4.91714
1018.24	45.6654
1018.407	28.80304
1018.573	-28.09618
1018.74	81.50281
1018.907	56.20513
1019.074	-2.80981
1019.241	-72.33872
1019.407	-4.91714
1019.574	43.55752
1019.741	47.77329
1019.907	-21.77492
1020.074	73.06989
1020.241	-4.91714
1020.407	47.77329
1020.574	-47.05863
1020.74	22.48004
1020.907	24.58768
1021.073	30.91075
1021.24	58.31314
1021.406	5.61975
1021.573	-13.34623
1021.739	54.09713
1021.906	54.09713
1022.072	3.51233
1022.239	20.37242
1022.405	-2.80981
1022.571	70.96171
1022.738	51.98916
1022.904	-19.66778
1023.07	-38.63112
1023.237	-9.13173
1023.403	96.26129
1023.569	11.94218
1023.735	-63.91243
1023.902	-2.80981
1024.068	-42.84492
1024.234	-7.02445
1024.4	16.15725
1024.566	11.94218
1024.732	-9.13173
1024.898	-34.41722
1025.065	28.80304
1025.231	33.01848
1025.397	-21.77492
1025.563	11.94218
1025.729	47.77329
1025.895	28.80304
1026.061	-4.91714
1026.227	3.51233
1026.392	37.23403
1026.558	60.42118
1026.724	-19.66778
1026.89	3.51233
1027.056	28.80304
1027.222	56.20513
1027.388	75.17808
1027.553	11.94218
1027.719	30.91075
1027.885	-13.34623
1028.051	96.26129
1028.216	20.37242
1028.382	-2.80981
1028.548	45.6654
1028.713	20.37242
1028.879	-17.56062
1029.045	-47.05863
1029.21	20.37242
1029.376	33.01848
1029.541	16.15725
1029.707	-0.70246
1029.873	60.42118
1030.038	9.83468
1030.204	-49.16544
1030.369	-13.34623
1030.534	37.23403
1030.7	11.94218
1030.865	-23.88203
1031.031	39.34183
1031.196	-32.31023
1031.361	-28.09618
1031.527	113.12946
1031.692	22.48004
1031.857	20.37242
1032.023	-4.91714
1032.188	-47.05863
1032.353	85.71941
1032.518	49.88122
1032.684	-23.88203
1032.849	11.94218
1033.014	-38.63112
1033.179	-19.66778
1033.344	60.42118
1033.509	-40.73804
1033.674	66.74543
1033.839	-4.91714
1034.004	11.94218
1034.17	14.04971
1034.335	3.51233
1034.5	87.82774
1034.664	-30.20322
1034.829	39.34183
1034.994	11.94218
1035.159	3.51233
1035.324	24.58768
1035.489	56.20513
1035.654	7.72721
1035.819	-13.34623
1035.984	-47.05863
1036.148	45.6654
1036.313	-23.88203
1036.478	-34.41722
1036.643	-9.13173
1036.807	-40.73804
1036.972	3.51233
1037.137	20.37242
1037.301	22.48004
1037.466	3.51233
1037.631	1.40492
1037.795	-19.66778
1037.96	3.51233
1038.124	56.20513
1038.289	20.37242
1038.454	-30.20322
1038.618	87.82774
1038.783	96.26129
1038.947	-19.66778
1039.111	62.52924
1039.276	16.15725
1039.44	14.04971
1039.605	3.51233
1039.769	-68.12563
1039.933	-0.70246
1040.098	43.55752
1040.262	7.72721
1040.426	24.58768
1040.591	41.44967
1040.755	-0.70246
1040.919	20.37242
1041.083	20.37242
1041.248	87.82774
1041.412	70.96171
1041.576	49.88122
1041.74	14.04971
1041.904	-53.37899
1042.068	-4.91714
1042.232	3.51233
1042.397	-30.20322
1042.561	24.58768
1042.725	7.72721
1042.889	-28.09618
1043.053	-36.52418
1043.217	81.50281
1043.381	11.94218
1043.544	-19.66778
1043.708	49.88122
1043.872	-84.97739
1044.036	-15.45344
1044.2	79.39455
1044.364	20.37242
1044.528	24.58768
1044.691	-17.56062
1044.855	3.51233
1045.019	5.61975
1045.183	58.31314
1045.346	39.34183
1045.51	60.42118
1045.674	-21.77492
1045.837	47.77329
1046.001	-53.37899
1046.165	7.72721
1046.328	-47.05863
1046.492	3.51233
1046.655	30.91075
1046.819	47.77329
1046.983	-36.52418
1047.146	-51.27223
1047.31	5.61975
1047.473	73.06989
1047.636	-51.27223
1047.8	-47.05863
1047.963	-19.66778
1048.127	30.91075
1048.29	-13.34623
