Data from mixed_try1_USB4F045381__33__00137.txt Node

Date: Thu Apr 03 20:02:26 EDT 2025
User: mmckonesweet
Spectrometer: USB4F04538
Trigger mode: 4
Integration Time (sec): 2.700000E-3
Scans to average: 1
Electric dark correction enabled: true
Nonlinearity correction enabled: true
Boxcar width: 0
XAxis mode: Wavelengths
Number of Pixels in Spectrum: 3648
>>>>>Begin Spectral Data<<<<<
345.52	6.32224
345.736	6.32224
345.952	6.32224
346.168	-61.10358
346.384	65.34002
346.6	-25.28676
346.816	61.12386
347.032	-52.67674
347.248	-10.53658
347.464	21.07496
347.68	-18.9654
347.896	8.4297
348.112	48.47593
348.328	-35.82187
348.544	40.04444
348.76	-35.82187
348.975	0
349.191	-61.10358
349.407	-40.03573
349.623	-50.56997
349.839	40.04444
350.055	-27.39383
350.27	21.07496
350.486	-40.03573
350.702	-8.42931
350.918	-16.85823
351.133	23.18258
351.349	-44.2495
351.565	31.61332
351.781	-33.71489
351.996	23.18258
352.212	8.4297
352.428	-27.39383
352.644	12.64469
352.859	10.53718
353.075	52.69182
353.291	-44.2495
353.506	-14.75104
353.722	67.44814
353.938	12.64469
354.153	-37.92881
354.369	-10.53658
354.584	31.61332
354.8	-48.46317
355.016	-35.82187
355.231	8.4297
355.447	99.07256
355.662	-4.2147
355.878	35.82884
356.093	-6.32202
356.309	-37.92881
356.524	82.20557
356.74	-52.67674
356.955	42.15228
357.171	4.2148
357.386	-42.14263
357.602	-18.9654
357.817	-18.9654
358.033	14.75222
358.248	29.5056
358.464	-8.42931
358.679	50.58386
358.895	33.72107
359.11	56.90779
359.325	56.90779
359.541	23.18258
359.756	-18.9654
359.972	46.36803
360.187	37.93663
360.402	96.96411
360.618	23.18258
360.833	31.61332
361.048	-67.42343
361.264	-8.42931
361.479	8.4297
361.694	48.47593
361.909	25.29023
362.125	31.61332
362.34	-37.92881
362.555	0
362.77	-2.10736
362.986	25.29023
363.201	37.93663
363.416	31.61332
363.631	77.98905
363.847	33.72107
364.062	-63.21022
364.277	40.04444
364.492	29.5056
364.707	-10.53658
364.922	-8.42931
365.138	-16.85823
365.353	8.4297
365.568	-29.50088
365.783	-25.28676
365.998	-42.14263
366.213	6.32224
366.428	-18.9654
366.643	48.47593
366.858	-61.10358
367.073	52.69182
367.288	80.0973
367.503	-2.10736
367.718	52.69182
367.933	16.85977
368.148	-27.39383
368.363	56.90779
368.578	23.18258
368.793	-2.10736
369.008	-35.82187
369.223	-25.28676
369.438	8.4297
369.653	-33.71489
369.868	33.72107
370.083	-44.2495
370.298	-6.32202
370.513	42.15228
370.728	27.39791
370.943	23.18258
371.157	-2.10736
371.372	29.5056
371.587	69.55627
371.802	-25.28676
372.017	18.96735
372.232	48.47593
372.446	44.26014
372.661	69.55627
372.876	48.47593
373.091	10.53718
373.306	-50.56997
373.52	61.12386
373.735	-52.67674
373.95	-14.75104
374.165	-10.53658
374.379	61.12386
374.594	-18.9654
374.809	25.29023
375.023	-14.75104
375.238	35.82884
375.453	-50.56997
375.667	-16.85823
375.882	44.26014
376.097	27.39791
376.311	-23.17966
376.526	67.44814
376.741	-2.10736
376.955	-21.07254
377.17	40.04444
377.384	-44.2495
377.599	50.58386
377.813	65.34002
378.028	25.29023
378.242	-69.53
378.457	-23.17966
378.672	42.15228
378.886	-48.46317
379.101	40.04444
379.315	23.18258
379.53	25.29023
379.744	-23.17966
379.958	6.32224
380.173	-44.2495
380.387	99.07256
380.602	18.96735
380.816	-50.56997
381.031	42.15228
381.245	37.93663
381.459	23.18258
381.674	27.39791
381.888	-35.82187
382.103	25.29023
382.317	25.29023
382.531	-40.03573
382.746	-16.85823
382.96	-65.31684
383.174	14.75222
383.388	-48.46317
383.603	52.69182
383.817	18.96735
384.031	4.2148
384.246	69.55627
384.46	-69.53
384.674	-6.32202
384.888	-31.6079
385.103	37.93663
385.317	56.90779
385.531	14.75222
385.745	14.75222
385.959	-33.71489
386.174	-44.2495
386.388	40.04444
386.602	0
386.816	6.32224
387.03	-44.2495
387.244	40.04444
387.458	25.29023
387.672	12.64469
387.887	35.82884
388.101	-31.6079
388.315	-25.28676
388.529	21.07496
388.743	103.28953
388.957	-27.39383
389.171	-37.92881
389.385	23.18258
389.599	84.31387
389.813	44.26014
390.027	8.4297
390.241	-27.39383
390.455	73.77262
390.669	56.90779
390.883	-6.32202
391.097	67.44814
391.311	40.04444
391.525	-40.03573
391.738	-6.32202
391.952	80.0973
392.166	31.61332
392.38	-8.42931
392.594	16.85977
392.808	67.44814
393.022	65.34002
393.236	-40.03573
393.449	6.32224
393.663	-84.27527
393.877	31.61332
394.091	6.32224
394.305	-14.75104
394.518	-2.10736
394.732	75.88082
394.946	6.32224
395.16	-35.82187
395.373	0
395.587	10.53718
395.801	-61.10358
396.015	-58.9969
396.228	31.61332
396.442	-18.9654
396.656	-6.32202
396.869	42.15228
397.083	-2.10736
397.297	-31.6079
397.51	35.82884
397.724	56.90779
397.938	14.75222
398.151	50.58386
398.365	31.61332
398.578	23.18258
398.792	14.75222
399.005	56.90779
399.219	6.32224
399.433	6.32224
399.646	-10.53658
399.86	82.20557
400.073	27.39791
400.287	14.75222
400.5	-35.82187
400.714	-27.39383
400.927	33.72107
401.141	-27.39383
401.354	31.61332
401.567	31.61332
401.781	27.39791
401.994	6.32224
402.208	-18.9654
402.421	-16.85823
402.635	8.4297
402.848	10.53718
403.061	-25.28676
403.275	-6.32202
403.488	-18.9654
403.701	48.47593
403.915	33.72107
404.128	14.75222
404.341	10.53718
404.555	0
404.768	-8.42931
404.981	-29.50088
405.195	-86.38163
405.408	25.29023
405.621	10.53718
405.834	-27.39383
406.048	-23.17966
406.261	33.72107
406.474	18.96735
406.687	8.4297
406.9	67.44814
407.114	-67.42343
407.327	8.4297
407.54	-8.42931
407.753	48.47593
407.966	29.5056
408.179	73.77262
408.392	59.01582
408.605	14.75222
408.819	-29.50088
409.032	-16.85823
409.245	10.53718
409.458	27.39791
409.671	0
409.884	6.32224
410.097	-23.17966
410.31	82.20557
410.523	65.34002
410.736	42.15228
410.949	46.36803
411.162	48.47593
411.375	73.77262
411.588	-14.75104
411.801	56.90779
412.014	-23.17966
412.227	-56.89021
412.44	16.85977
412.653	-18.9654
412.865	0
413.078	6.32224
413.291	-40.03573
413.504	59.01582
413.717	27.39791
413.93	-21.07254
414.143	-23.17966
414.356	14.75222
414.568	52.69182
414.781	23.18258
414.994	56.90779
415.207	-8.42931
415.42	-33.71489
415.632	16.85977
415.845	-35.82187
416.058	23.18258
416.271	6.32224
416.483	-10.53658
416.696	4.2148
416.909	31.61332
417.121	18.96735
417.334	46.36803
417.547	2.10739
417.759	31.61332
417.972	92.74727
418.185	-2.10736
418.397	2.10739
418.61	0
418.823	14.75222
419.035	52.69182
419.248	73.77262
419.46	44.26014
419.673	33.72107
419.885	35.82884
420.098	0
420.311	-42.14263
420.523	-27.39383
420.736	35.82884
420.948	33.72107
421.161	-25.28676
421.373	27.39791
421.586	-42.14263
421.798	-61.10358
422.01	-86.38163
422.223	35.82884
422.435	18.96735
422.648	27.39791
422.86	33.72107
423.073	-58.9969
423.285	77.98905
423.497	25.29023
423.71	-6.32202
423.922	65.34002
424.134	14.75222
424.347	-10.53658
424.559	-2.10736
424.771	86.42218
424.984	40.04444
425.196	-8.42931
425.408	33.72107
425.621	40.04444
425.833	46.36803
426.045	-61.10358
426.257	-14.75104
426.47	18.96735
426.682	-42.14263
426.894	46.36803
427.106	-31.6079
427.318	-84.27527
427.531	-103.2316
427.743	37.93663
427.955	-25.28676
428.167	2.10739
428.379	-25.28676
428.591	59.01582
428.804	12.64469
429.016	-33.71489
429.228	-10.53658
429.44	23.18258
429.652	23.18258
429.864	14.75222
430.076	101.18103
430.288	48.47593
430.5	8.4297
430.712	35.82884
430.924	54.79979
431.136	-12.64382
431.348	-44.2495
431.56	-31.6079
431.772	52.69182
431.984	23.18258
432.196	-25.28676
432.408	61.12386
432.62	33.72107
432.832	-2.10736
433.044	40.04444
433.256	-52.67674
433.468	48.47593
433.679	-10.53658
433.891	31.61332
434.103	2.10739
434.315	-14.75104
434.527	-10.53658
434.739	-6.32202
434.95	31.61332
435.162	73.77262
435.374	33.72107
435.586	73.77262
435.798	-8.42931
436.009	23.18258
436.221	42.15228
436.433	25.29023
436.645	18.96735
436.856	18.96735
437.068	-14.75104
437.28	-2.10736
437.491	77.98905
437.703	48.47593
437.915	-2.10736
438.126	10.53718
438.338	-31.6079
438.55	-18.9654
438.761	35.82884
438.973	14.75222
439.184	16.85977
439.396	-18.9654
439.608	61.12386
439.819	16.85977
440.031	18.96735
440.242	48.47593
440.454	27.39791
440.665	48.47593
440.877	-8.42931
441.088	40.04444
441.3	77.98905
441.511	56.90779
441.723	2.10739
441.934	-21.07254
442.146	86.42218
442.357	8.4297
442.569	23.18258
442.78	65.34002
442.991	40.04444
443.203	2.10739
443.414	-33.71489
443.626	8.4297
443.837	25.29023
444.048	37.93663
444.26	50.58386
444.471	90.63889
444.682	6.32224
444.894	59.01582
445.105	-18.9654
445.316	-10.53658
445.528	77.98905
445.739	23.18258
445.95	0
446.161	65.34002
446.373	94.85568
446.584	-35.82187
446.795	46.36803
447.006	27.39791
447.217	-23.17966
447.429	0
447.64	65.34002
447.851	61.12386
448.062	67.44814
448.273	50.58386
448.484	-21.07254
448.695	46.36803
448.907	31.61332
449.118	-8.42931
449.329	40.04444
449.54	44.26014
449.751	33.72107
449.962	-6.32202
450.173	12.64469
450.384	-14.75104
450.595	-14.75104
450.806	23.18258
451.017	16.85977
451.228	75.88082
451.439	14.75222
451.65	-18.9654
451.861	27.39791
452.072	50.58386
452.283	14.75222
452.494	29.5056
452.705	109.61514
452.915	-14.75104
453.126	40.04444
453.337	-2.10736
453.548	67.44814
453.759	61.12386
453.97	65.34002
454.181	-31.6079
454.391	94.85568
454.602	-33.71489
454.813	44.26014
455.024	8.4297
455.235	-42.14263
455.445	37.93663
455.656	23.18258
455.867	-27.39383
456.078	56.90779
456.288	-6.32202
456.499	27.39791
456.71	65.34002
456.921	132.81075
457.131	27.39791
457.342	54.79979
457.553	54.79979
457.763	90.63889
457.974	33.72107
458.184	-40.03573
458.395	-12.64382
458.606	6.32224
458.816	-69.53
459.027	50.58386
459.237	-31.6079
459.448	-8.42931
459.659	6.32224
459.869	48.47593
460.08	27.39791
460.29	101.18103
460.501	-16.85823
460.711	40.04444
460.922	31.61332
461.132	61.12386
461.343	-12.64382
461.553	61.12386
461.764	84.31387
461.974	-23.17966
462.184	25.29023
462.395	33.72107
462.605	48.47593
462.816	63.23193
463.026	48.47593
463.236	23.18258
463.447	40.04444
463.657	75.88082
463.867	48.47593
464.078	48.47593
464.288	14.75222
464.498	84.31387
464.709	86.42218
464.919	18.96735
465.129	63.23193
465.339	2.10739
465.55	44.26014
465.76	99.07256
465.97	59.01582
466.18	48.47593
466.391	52.69182
466.601	65.34002
466.811	37.93663
467.021	56.90779
467.231	90.63889
467.441	86.42218
467.651	56.90779
467.862	27.39791
468.072	67.44814
468.282	103.28953
468.492	124.37568
468.702	67.44814
468.912	31.61332
469.122	103.28953
469.332	2.10739
469.542	12.64469
469.752	31.61332
469.962	56.90779
470.172	2.10739
470.382	77.98905
470.592	33.72107
470.802	59.01582
471.012	84.31387
471.222	143.35507
471.432	48.47593
471.642	33.72107
471.852	107.50658
472.062	109.61514
472.272	73.77262
472.482	141.24617
472.691	137.02842
472.901	111.72373
473.111	132.81075
473.321	94.85568
473.531	107.50658
473.741	67.44814
473.95	86.42218
474.16	65.34002
474.37	23.18258
474.58	160.22709
474.79	166.55444
474.999	141.24617
475.209	120.15828
475.419	115.94096
475.628	134.91958
475.838	65.34002
476.048	151.79091
476.258	187.64696
476.467	162.33619
476.677	122.26697
476.886	143.35507
477.096	234.05762
477.306	246.71673
477.515	191.86571
477.725	215.07028
477.935	225.6186
478.144	217.1799
478.354	208.74152
478.563	200.30345
478.773	172.88198
478.982	238.27725
479.192	234.05762
479.401	200.30345
479.611	236.16742
479.82	240.38709
480.03	261.48656
480.239	339.57079
480.449	299.47036
480.658	335.34939
480.868	394.45523
481.077	301.58075
481.287	284.69817
481.496	288.91871
481.705	409.23374
481.915	445.1277
482.124	310.02248
482.333	337.46008
482.543	288.91871
482.752	386.01073
482.961	352.2354
483.171	440.90465
483.38	405.01123
483.589	468.35561
483.799	478.91436
484.008	466.24391
484.217	386.01073
484.426	504.25687
484.636	512.70485
484.845	514.81688
485.054	481.02615
485.263	540.16233
485.472	491.58535
485.682	521.15305
485.891	563.39742
486.1	478.91436
486.309	645.78918
486.518	633.11228
486.727	628.88674
486.936	698.61419
487.146	607.75981
487.355	681.7094
487.564	666.91831
487.773	692.27481
487.982	816.96672
488.191	768.3538
488.4	721.85944
488.609	755.67302
488.818	664.80534
489.027	909.9786
489.236	812.73931
489.445	857.12892
489.654	825.42165
489.863	1007.23431
490.072	867.69844
490.281	850.78731
490.49	844.44577
490.698	971.29028
490.907	867.69844
491.116	996.66234
491.325	945.91919
491.534	952.26187
491.743	835.99052
491.952	1005.11991
492.16	1068.55471
492.369	1180.63408
492.578	1129.87959
492.787	1157.37131
492.996	1047.4092
493.204	1062.211
493.413	1163.71566
493.622	1172.17484
493.831	1083.35688
494.039	1284.26401
494.248	1193.32305
494.457	1392.12945
494.665	1265.22943
494.874	1383.66929
495.083	1269.45932
495.291	1413.2799
495.5	1315.9887
495.709	1485.19163
495.917	1349.82882
496.126	1413.2799
496.335	1506.3421
496.543	1404.81971
496.752	1538.06766
496.96	1567.67796
497.169	1502.11201
497.377	1508.45714
497.586	1574.02299
497.794	1743.21641
498.003	1478.84648
498.211	1713.60886
498.42	1527.49249
498.628	1609.97787
498.837	1595.17298
499.045	1882.78425
499.254	1629.01258
499.462	1692.46021
499.671	1755.90515
499.879	1730.52754
500.087	1887.01326
500.296	1764.36423
500.504	1848.95144
500.713	1920.84457
500.921	1823.57602
501.129	1933.53095
501.338	1918.73016
501.546	2087.86381
501.754	2001.188
501.962	2117.45765
502.171	2106.88859
502.379	2062.4965
502.587	1992.73122
502.795	2144.93631
503.004	2102.66091
503.212	2221.02386
503.42	2068.83842
503.628	2280.19531
503.837	2113.23005
504.045	2189.32203
504.253	2280.19531
504.461	2199.88952
504.669	2077.29422
504.877	2254.83699
505.085	2237.93071
505.294	2512.57999
505.502	2474.56218
505.71	2457.66422
505.918	2191.43555
506.126	2409.07873
506.334	2428.09112
506.542	2512.57999
506.75	2263.28991
506.958	2601.27366
507.166	2417.52879
507.374	2540.035
507.582	2377.38954
507.79	2643.50129
507.998	2417.52879
508.206	2584.38124
508.414	2626.61083
508.622	2677.2798
508.83	2578.04638
509.037	2685.72392
509.245	2474.56218
509.453	2873.55053
509.661	2569.59974
509.869	2755.37997
510.077	2491.45944
510.285	2860.89149
510.492	2696.27878
510.7	2854.56178
510.908	2694.16783
511.116	2770.15364
511.324	2592.82755
511.531	3021.20048
511.739	2820.80118
511.947	2867.22107
512.155	2719.49833
512.362	2922.07205
512.57	3016.98293
512.778	2972.69496
512.985	2791.25774
513.193	2960.04003
513.401	2814.47067
513.608	3065.48106
513.816	2903.08628
514.024	3259.38932
514.231	3014.87413
514.439	3014.87413
514.646	3073.91468
514.854	3234.10481
515.061	3082.34805
515.269	3204.60317
515.477	3128.72705
515.684	3333.12188
515.892	3181.42104
516.099	3354.18446
516.307	3082.34805
516.514	3526.83092
516.722	3002.22101
516.929	3461.5763
517.136	3272.03067
517.344	3495.25829
517.551	3406.83328
517.759	3465.78681
517.966	3480.52299
518.173	3417.36172
518.381	3427.88971
518.588	3592.06791
518.796	3345.75964
519.003	3545.77252
519.21	3368.92723
519.418	3571.02567
519.625	3528.93562
519.832	3726.6936
520.039	3613.10829
520.247	3745.61905
520.454	3606.79637
520.661	3823.40709
520.868	3646.76898
521.076	3943.18963
521.283	3747.72178
521.49	3741.41353
521.697	3539.45882
521.904	3966.29803
522.112	3764.54293
522.319	4071.30504
522.526	3747.72178
522.733	4010.40723
522.94	3968.39867
523.147	3869.64664
523.354	3991.50439
523.561	4050.30775
523.768	3941.08874
523.975	3781.36283
524.183	3943.18963
524.39	4178.35876
524.597	4228.71804
524.804	4314.72005
525.011	3985.20307
525.218	4151.07574
525.425	4153.17456
525.632	4243.40385
525.838	4096.49904
526.045	4453.08604
526.252	4056.60716
526.459	4327.30269
526.666	4094.39965
526.873	4467.75565
527.08	4341.98144
527.287	4404.87836
527.494	4369.23917
527.701	4522.23329
527.907	4478.23327
528.114	4461.46881
528.321	4444.70293
528.528	4702.32154
528.735	4394.3969
528.941	4792.30333
529.148	4427.93565
529.355	4606.01582
529.562	4580.8848
529.768	4629.04976
529.975	4413.26314
530.182	4788.11906
530.388	4731.62253
530.595	4798.57957
530.802	4459.37315
531.008	4857.14788
531.215	4832.04936
531.422	4825.77422
531.628	4748.36396
531.835	4901.06238
532.042	4869.69591
532.248	5026.47657
532.455	4612.29807
532.661	4903.15329
532.868	4907.33505
533.074	5084.97477
533.281	5064.08464
533.487	5151.8076
533.694	4988.86102
533.9	5308.35357
534.107	4821.59068
534.313	5155.98386
534.52	5172.68797
534.726	5274.96812
534.933	5070.35192
535.139	5143.45479
535.345	5168.51209
535.552	5479.35978
535.758	5243.66383
535.965	5377.19212
536.171	5218.6166
536.377	5320.87157
536.584	5281.22835
536.79	5352.16288
536.996	5498.11913
537.203	5543.96729
537.409	5237.40234
537.615	5539.79975
537.821	5443.92025
538.028	5700.1821
538.234	5239.48952
538.44	5687.6898
538.646	5423.07029
538.853	5633.54668
539.059	5439.75045
539.265	5341.73303
539.471	5648.12524
539.677	5668.94976
539.883	5783.44241
540.09	5666.86741
540.296	5625.21555
540.502	5841.70215
540.708	5643.96005
540.914	5949.84973
541.12	5829.21948
541.326	6057.93357
541.532	5654.37284
541.738	6089.09977
541.944	5889.54452
542.15	6084.94458
542.356	6045.46561
542.562	6143.10864
542.768	6001.82107
542.974	6012.21357
543.18	5972.71894
543.386	6165.95376
543.592	6049.62169
543.798	6080.7893
544.004	6109.87429
544.21	6354.83647
544.415	6066.24507
544.621	6273.91048
544.827	5854.18397
545.033	6298.81457
545.239	6363.13456
545.445	6354.83647
545.651	6257.30588
545.856	6479.26873
546.062	6356.91103
546.268	6406.69343
546.474	6205.40684
546.679	6099.48732
546.885	6284.28759
547.091	6275.98595
547.297	6346.538
547.502	6388.0266
547.708	6396.3232
547.914	6388.0266
548.119	6638.83441
548.325	6587.04239
548.531	6460.60923
548.736	6657.47601
548.942	6421.21077
549.147	6632.62013
549.353	6435.72697
549.559	6663.68946
549.764	6518.65483
549.97	6709.24845
550.175	6499.9993
550.381	6980.3027
550.586	6580.82638
550.792	6835.51313
550.997	6680.25765
551.203	6727.88302
551.408	6707.17783
551.614	6729.95341
551.819	6694.75361
552.025	6856.20416
552.23	6632.62013
552.435	7102.25382
552.641	6909.9902
552.846	7098.12116
553.052	6814.81982
553.257	7242.7113
553.462	7025.78514
553.668	7124.98186
553.873	6893.44228
554.078	7368.62306
554.283	7104.32012
554.489	7319.09375
554.694	7108.45265
554.899	6990.64058
555.105	7290.19582
555.31	7298.45281
555.515	7083.65615
555.72	7211.73685
555.925	7418.13981
556.131	7457.33169
556.336	7158.036
556.541	7440.8308
556.746	7314.96574
556.951	7414.01389
557.156	7378.94009
557.361	7261.29359
557.567	7376.87673
557.772	7706.74014
557.977	7269.55181
558.182	7519.19772
558.387	7546.00032
558.592	7574.8606
558.797	7727.33849
559.002	7762.35085
559.207	7529.50684
559.412	7502.70201
559.617	7603.71669
559.822	7642.87185
560.027	7537.75375
560.232	7624.32562
560.437	7513.01199
560.642	7576.92189
560.847	7671.71811
561.051	8081.30503
561.256	7543.93871
561.461	7867.35171
561.666	7597.53359
561.871	7904.39796
562.076	7809.71089
562.281	7982.5848
562.485	7638.75061
562.69	7770.58817
562.895	7747.93473
563.1	7780.88436
563.305	7605.77768
563.509	8132.70338
563.714	7661.41635
563.919	7986.69907
564.123	7982.5848
564.328	8015.49674
564.533	7999.04142
564.737	8159.42557
564.942	7879.70121
565.147	8288.87788
565.351	8138.87034
565.556	8013.43989
565.761	7974.35599
565.965	8023.72391
566.17	8130.64769
566.374	8105.9778
566.579	8112.14555
566.784	8157.37014
566.988	7992.87034
567.193	8214.91475
567.397	8050.45997
567.602	8262.17192
567.806	8040.17728
568.011	8214.91475
568.215	8260.11747
568.42	8253.95403
568.624	8239.57197
568.828	8062.79854
569.033	8196.41997
569.237	8467.51771
569.442	8368.97593
569.646	8426.46402
569.85	8190.25468
570.055	8633.70742
570.259	8381.29608
570.463	8566.01544
570.668	8393.61554
570.872	8444.93913
571.076	8405.9343
571.281	8506.51162
571.485	8621.40131
571.689	8578.32459
571.893	8514.71999
572.098	8598.83834
572.302	8596.78705
572.506	8475.72752
572.71	8623.45237
572.914	8775.17987
573.119	8662.41909
573.323	8656.2669
573.527	8639.86023
573.731	8705.47978
573.935	8746.4824
574.139	8820.26869
574.343	8713.68089
574.547	8902.22597
574.751	8799.77486
574.955	8873.54419
575.159	8646.01287
575.364	8844.8589
575.568	8557.80896
575.772	8885.83681
575.976	8641.91113
576.18	8935.00087
576.383	8920.66241
576.587	9188.85423
576.791	8943.19388
576.995	9008.72781
577.199	8846.90796
577.403	8828.46571
577.607	9143.83511
577.811	9139.74205
578.015	9131.55574
578.219	8953.43475
578.422	8965.72321
578.626	9450.62289
578.83	9076.29089
579.034	9084.47907
579.238	9039.44066
579.442	9342.26717
579.645	9018.96587
579.849	9466.97451
580.053	9160.20665
580.257	9415.87227
580.46	9166.3457
580.664	9507.84905
580.868	9074.2438
581.071	9491.5
581.275	9332.04255
581.479	9491.5
581.682	9430.18192
581.886	9464.93061
582.09	9270.68617
582.293	9528.28393
582.497	9115.18228
582.7	9616.13585
582.904	9364.75987
583.107	9663.11453
583.311	9413.82797
583.515	9652.90247
583.718	9426.09353
583.922	9722.33686
584.125	9481.28133
584.329	9556.89008
584.532	9475.14993
584.735	9932.57549
584.939	9332.04255
585.142	9703.9589
585.346	9616.13585
585.549	9610.00759
585.753	9750.92234
585.956	9869.31641
586.159	9681.49525
586.363	9806.0431
586.566	9883.60195
586.769	9812.16695
586.973	9757.04741
587.176	9765.21396
587.379	9775.42181
587.582	10122.26939
587.786	9881.56121
587.989	10173.24154
588.192	9950.9384
588.395	10087.60335
588.599	9850.94821
588.802	10122.26939
589.005	9850.94821
589.208	10116.15215
589.411	10079.44604
589.615	10112.07392
589.818	9957.05911
590.021	10234.39672
590.224	10075.36731
590.427	10156.93139
590.63	9997.86049
590.833	10295.53966
591.036	9965.21985
591.239	10120.23032
591.442	9985.62068
591.645	10091.68192
591.848	10220.12828
592.051	10454.45528
592.254	10226.24341
592.457	10307.7668
592.66	10364.82042
592.863	10641.79365
593.066	10356.67053
593.269	10344.44532
593.472	10413.71528
593.675	10521.66501
593.878	10639.75793
594.081	10570.53614
594.284	10372.97009
594.486	11008.02953
594.689	10615.32835
594.892	10601.07694
595.095	10497.22672
595.298	10537.9562
595.5	10368.89528
595.703	10548.13778
595.906	10558.31904
596.109	10621.43591
596.311	10654.00771
596.514	10546.10148
596.717	10692.68265
596.92	10759.84456
597.122	10666.22132
597.325	10940.9143
597.528	10666.22132
597.73	10908.36917
597.933	10472.78659
598.136	10816.82025
598.338	10605.14883
598.541	10875.82112
598.743	10761.87956
598.946	10792.40323
599.148	10940.9143
599.351	10790.3684
599.554	11081.23239
599.756	10725.24763
599.959	10837.16648
600.161	10991.76029
600.363	10918.53984
600.566	11199.1409
600.768	11075.13269
600.971	11201.17349
601.173	11097.49777
601.376	11300.75786
601.578	11162.55243
601.78	11180.84709
601.983	11081.23239
602.185	11158.48683
602.388	11237.75838
602.59	11138.15821
602.792	11180.84709
602.995	10975.49034
603.197	11329.20603
603.399	11276.37213
603.601	11083.2656
603.804	11056.83301
604.006	11136.12529
604.208	11211.3363
604.41	10983.6254
604.613	11422.66484
604.815	11071.06617
605.017	11239.79077
605.219	11272.3077
605.421	11162.55243
605.623	11270.27547
605.826	11615.61301
606.028	11337.33372
606.23	11483.60508
606.432	11235.72597
606.634	11639.97943
606.836	11134.09236
607.038	11518.13406
607.24	11310.91815
607.442	11438.91642
607.644	11300.75786
607.846	11593.27597
608.048	11518.13406
608.25	11353.58862
608.452	11463.29263
608.654	11692.76888
608.856	11203.20607
609.058	11633.88795
609.26	11700.8898
609.462	11408.44419
609.664	11536.413
609.866	11471.41773
610.067	11406.41263
610.269	11753.67232
610.471	11422.66484
610.673	11966.77379
610.875	11747.58233
611.077	11771.94182
611.278	11447.04198
611.48	11457.19871
611.682	11442.97922
611.884	11518.13406
612.085	11528.28912
612.287	11704.9502
612.489	11414.53881
612.69	11743.52229
612.892	11528.28912
613.094	11972.86106
613.295	11625.76584
613.497	11420.63335
613.699	11709.01057
613.9	11985.0354
614.102	11660.28378
614.304	11938.36554
614.505	11719.16134
614.707	11832.83511
614.908	11631.85743
615.11	12043.87399
615.311	11507.97876
615.513	11577.03015
615.714	11788.18078
615.916	11743.52229
616.117	11483.60508
616.319	11737.43217
616.52	11660.28378
616.722	11749.61234
616.923	11782.09123
617.124	12023.58557
617.326	11489.69863
617.527	11930.24861
617.729	11706.98039
617.93	11962.71557
618.131	11674.49629
618.333	11666.37491
618.534	11609.5212
618.735	12029.67218
618.937	11753.67232
619.138	11765.85206
619.339	11743.52229
619.54	11845.01285
619.742	11739.46222
619.943	11903.86767
620.144	11682.61753
620.345	11897.77956
620.546	11806.44896
620.748	12196.01267
620.949	11924.16082
621.15	12179.78655
621.351	11806.44896
621.552	11964.74468
621.753	11723.22159
621.954	11993.15146
622.155	11849.07202
622.356	12049.96036
622.558	12234.5478
622.759	11991.12246
622.96	11861.24936
623.161	11999.23843
623.362	11966.77379
623.563	12299.4432
623.764	11871.39691
623.965	12204.12554
624.166	12133.13384
624.366	12086.47713
624.567	12009.38321
624.768	12137.19075
624.969	11930.24861
625.17	12149.36132
625.371	12082.41984
625.572	12072.27646
625.773	11922.13154
625.973	12246.71625
626.174	11808.47871
626.375	11983.00636
626.576	12112.84881
626.777	11881.54425
626.977	11853.13117
627.178	12183.84313
627.379	11717.13121
627.58	12102.70601
627.78	12098.64884
627.981	12218.3228
628.182	12238.60398
628.382	12323.7771
628.583	12098.64884
628.784	12234.5478
628.984	12043.87399
629.185	12266.99641
629.386	12035.75871
629.586	12372.44192
629.787	12151.38972
629.987	12384.6075
630.188	11950.5407
630.388	12262.94044
630.589	12189.92793
630.79	12453.54124
630.99	12230.49159
631.191	12222.37909
631.391	12433.26741
631.591	12242.66013
631.792	12171.67332
631.992	12370.41429
632.193	12350.1377
632.393	12518.4131
632.594	12331.88818
632.794	12208.18194
632.994	12226.43536
633.195	12208.18194
633.395	12153.41811
633.595	12291.33167
633.796	12220.35095
633.996	12364.33139
634.196	12242.66013
634.397	12327.83266
634.597	12301.47106
634.797	12471.78713
634.997	12380.55233
635.198	12619.76235
635.398	12348.11001
635.598	12623.816
635.798	12469.75983
635.998	12496.11415
636.199	12358.24842
636.399	12589.35921
636.599	12342.02687
636.799	12358.24842
636.999	12331.88818
637.199	12536.65713
637.399	12236.57589
637.599	12579.22452
637.799	12269.02439
637.999	12603.54751
638.199	12412.99292
638.399	12591.38613
638.599	12502.19576
638.799	12619.76235
638.999	12741.36137
639.199	12481.9235
639.399	12682.59117
639.599	12508.27731
639.799	12112.84881
639.999	12569.08968
640.199	12477.86897
640.399	12646.11062
640.599	12374.46953
640.799	13126.29418
640.998	12680.56453
641.198	12747.44077
641.398	12781.88972
641.598	12674.48455
641.798	12617.73552
641.997	12601.52063
642.197	12688.67108
642.397	12629.89642
642.597	12822.41581
642.796	13065.52754
642.996	12617.73552
643.196	12996.65339
643.395	12792.02145
643.595	12866.99196
643.795	12741.36137
643.994	12887.25298
644.194	12941.95508
644.394	13069.57878
644.593	12842.67802
644.793	13097.93695
644.992	12806.20564
645.192	12948.03285
645.392	12502.19576
645.591	12883.20082
645.791	12763.65225
645.99	12883.20082
646.19	12907.51346
646.389	13241.73931
646.589	12877.12254
646.788	12970.31763
646.987	12974.36934
647.187	13010.83383
647.386	13085.78356
647.586	13233.63837
647.785	12765.67866
647.984	13185.03126
648.184	13247.81497
648.383	13126.29418
648.582	13012.85959
648.782	13203.25923
648.981	12869.01809
649.18	12935.87725
649.38	12806.20564
649.579	13519.15645
649.778	13104.01358
649.977	13253.89059
650.177	13209.33514
650.376	13099.9625
650.575	12925.74745
650.774	13345.02024
650.973	12919.6695
651.173	13027.03975
651.372	13065.52754
651.571	13146.54879
651.77	12887.25298
651.969	13158.70133
652.168	13000.70497
652.367	13104.01358
652.566	13310.59449
652.765	13249.84018
652.964	13349.07025
653.163	13211.36043
653.362	13207.30984
653.561	13409.81847
653.76	13008.80807
653.959	13146.54879
654.158	13304.51923
654.357	13217.43629
654.556	12980.44687
654.755	13393.6193
654.954	13245.78975
655.153	13399.69402
655.352	13349.07025
655.551	13099.9625
655.749	13288.31835
655.948	13496.88479
656.147	13519.15645
656.346	13531.30444
656.545	13231.61313
656.743	13227.56263
656.942	13124.2687
657.141	13421.96769
657.34	13199.2086
657.538	13294.39371
657.737	13361.22019
657.936	13735.77695
658.135	13379.44482
658.333	13460.43928
658.532	13411.84335
658.731	13480.68693
658.929	13000.70497
659.128	13296.41882
659.326	13553.57542
659.525	13575.84597
659.724	13403.74381
659.922	13519.15645
660.121	13142.4979
660.319	13116.1667
660.518	13191.10729
660.716	13199.2086
660.915	13138.447
661.113	13822.81969
661.312	13438.16642
661.51	13551.5508
661.709	13577.87054
661.907	13515.10709
662.105	13486.76116
662.304	13549.52618
662.502	13492.83535
662.701	13492.83535
662.899	13460.43928
663.097	13745.89849
663.296	13349.07025
663.494	13604.18969
663.692	13476.63743
663.891	13652.77737
664.089	13316.66971
664.287	13575.84597
664.485	13409.81847
664.684	13719.58233
664.882	13251.86538
665.08	13681.1193
665.278	13511.05771
665.476	13721.60667
665.675	13466.51362
665.873	13498.9095
666.071	13561.67385
666.269	13537.37839
666.467	13492.83535
666.665	13875.44757
666.863	13385.51962
667.061	13756.01995
667.259	13640.63063
667.457	13786.38387
667.655	13567.74764
667.853	13660.87513
668.051	13470.56316
668.249	13729.704
668.447	13369.32006
668.645	13417.91797
668.843	13573.82139
669.041	13419.94283
669.239	13446.2657
669.437	13525.23046
669.635	13462.46406
669.833	13715.53365
670.031	13403.74381
670.229	13498.9095
670.426	13409.81847
670.624	13677.07049
670.822	13496.88479
671.02	13701.36315
671.218	13770.18986
671.415	13727.67967
671.613	13478.66219
671.811	13488.78589
672.009	13373.36998
672.206	13644.67956
672.404	13460.43928
672.602	13379.44482
672.799	13444.24089
672.997	13454.36491
673.195	13148.57422
673.392	13717.55799
673.59	13426.0174
673.788	13322.74489
673.985	13581.91968
674.183	13280.21781
674.38	13310.59449
674.578	13397.66912
674.775	13385.51962
674.973	13239.71408
675.17	13156.67591
675.368	13367.2951
675.565	13434.11676
675.763	13543.4523
675.96	13494.86007
676.158	13721.60667
676.355	13286.29322
676.553	13600.14063
676.75	13304.51923
676.947	13460.43928
677.145	13225.53737
677.342	13426.0174
677.539	13126.29418
677.737	13249.84018
677.934	13045.27103
678.131	13334.89515
678.329	13450.31531
678.526	13266.0417
678.723	13573.82139
678.92	13430.06709
679.118	13349.07025
679.315	13330.84508
679.512	13355.14524
679.709	13353.12025
679.906	13197.18328
680.104	13351.09525
680.301	13428.04224
680.498	13185.03126
680.695	12899.40933
680.892	13517.13177
681.089	13251.86538
681.286	13389.56947
681.483	13069.57878
681.68	13166.80293
681.877	12958.16237
682.075	13367.2951
682.272	13126.29418
682.469	13300.46903
682.665	13059.45064
682.862	13247.81497
683.059	13361.22019
683.256	13101.98804
683.453	13012.85959
683.65	13075.65561
683.847	13136.42154
684.044	12893.33118
684.241	12810.25822
684.438	13146.54879
684.635	12885.2269
684.831	13245.78975
685.028	12899.40933
685.225	13207.30984
685.422	12737.30841
685.619	13231.61313
685.815	12913.5915
686.012	13174.90445
686.209	12907.51346
686.405	13300.46903
686.602	12931.82535
686.799	13029.06547
686.996	13134.39608
687.192	13057.42499
687.389	12737.30841
687.586	12708.93704
687.782	13037.16829
687.979	13057.42499
688.175	12777.83699
688.372	12946.00693
688.568	12854.83509
688.765	12903.46141
688.962	12808.23193
689.158	13018.93683
689.355	12891.30512
689.551	12729.20242
689.748	12826.4683
689.944	12950.05877
690.14	12915.61751
690.337	12948.03285
690.533	12869.01809
690.73	13071.6044
690.926	13150.59965
691.123	13043.24535
691.319	13160.72673
691.515	13174.90445
691.712	12893.33118
691.908	12943.98101
692.104	12494.08693
692.301	12952.08468
692.497	12962.21415
692.693	12952.08468
692.889	12708.93704
693.086	12915.61751
693.282	12950.05877
693.478	12717.04327
693.674	12542.73835
693.87	12844.70422
694.067	12907.51346
694.263	12737.30841
694.459	12731.22893
694.655	12698.80414
694.851	12749.46723
695.047	12836.59942
695.243	12757.57299
695.439	12652.19085
695.635	12773.78423
695.831	12824.44206
696.027	12678.53788
696.224	12650.16411
696.42	12688.67108
696.615	12828.49453
696.811	12706.91047
697.007	12802.15304
697.203	12794.04778
697.399	12708.93704
697.595	12603.54751
697.791	12860.91355
697.987	12494.08693
698.183	12923.72147
698.379	12599.49374
698.575	12802.15304
698.77	12508.27731
698.966	12747.44077
699.162	12479.89624
699.358	12796.07411
699.554	12368.38667
699.749	12609.62812
699.945	12386.63507
700.141	12804.17935
700.337	12449.48653
700.532	12494.08693
700.728	12346.0823
700.924	12455.56859
701.119	12510.30448
701.315	12627.86962
701.511	12453.54124
701.706	12802.15304
701.902	12431.23999
702.097	12390.6902
702.293	12579.22452
702.489	12500.16856
702.684	12453.54124
702.88	12684.61782
703.075	12348.11001
703.271	12524.4945
703.466	12498.14136
703.662	12362.30374
703.857	12485.978
704.053	12475.8417
704.248	12139.2192
704.443	12479.89624
704.639	12477.86897
704.834	12417.04787
705.03	12352.16539
705.225	12356.22075
705.42	12193.98443
705.616	12558.95468
705.811	12189.92793
706.006	12415.0204
706.202	12039.81637
706.397	12421.1028
706.592	12516.38596
706.787	12623.816
706.983	12291.33167
707.178	12518.4131
707.373	12404.88293
707.568	12238.60398
707.763	12147.33291
707.959	12569.08968
708.154	12295.38745
708.349	12467.73253
708.544	12362.30374
708.739	12404.88293
708.934	12291.33167
709.129	12404.88293
709.324	12218.3228
709.519	12648.13737
709.714	12295.38745
709.909	12516.38596
710.104	12202.09734
710.299	12315.66591
710.494	12384.6075
710.689	12471.78713
710.884	12244.68819
711.079	12331.88818
711.274	12453.54124
711.469	12629.89642
711.664	12226.43536
711.859	12325.80488
712.054	12271.05236
712.249	12264.96843
712.443	11895.75018
712.638	12323.7771
712.833	11983.00636
713.028	12131.10537
713.223	11737.43217
713.417	11901.83831
713.612	11940.39476
713.807	12196.01267
714.002	12001.2674
714.196	12072.27646
714.391	11938.36554
714.586	12175.72995
714.78	12165.58832
714.975	12281.1921
715.17	12141.24764
715.364	12153.41811
715.559	12096.62024
715.754	11995.18046
715.948	12155.4465
716.143	12092.56302
716.337	11773.97172
716.532	12242.66013
716.726	11960.68644
716.921	12031.70103
717.115	11853.13117
717.31	12185.8714
717.504	11771.94182
717.699	12258.88443
717.893	11867.33791
718.088	12005.32532
718.282	11792.24044
718.476	11830.80545
718.671	11398.2863
718.865	12019.52779
719.059	11540.47488
719.254	11690.73863
719.448	11761.79218
719.642	11780.06137
719.837	11426.72779
720.031	11721.19147
720.225	11449.07334
720.419	11788.18078
720.614	11512.04091
720.808	11753.67232
721.002	11449.07334
721.196	11512.04091
721.39	11589.21457
721.585	11731.34198
721.779	11276.37213
721.973	11621.70474
722.167	11343.42938
722.361	11625.76584
722.555	11333.2699
722.749	11499.85435
722.943	11231.66113
723.137	11566.87621
723.331	11568.90701
723.525	11692.76888
723.719	11558.75289
723.913	11678.55693
724.107	11398.2863
724.301	11595.30665
724.495	11493.76095
724.689	11514.07197
724.883	11150.35551
725.077	11554.69118
725.271	11361.71582
725.465	11361.71582
725.659	11075.13269
725.853	11436.88501
726.046	11188.97777
726.24	11426.72779
726.434	11195.07568
726.628	11574.99938
726.822	11262.14644
727.015	11463.29263
727.209	11288.56518
727.403	11382.03315
727.596	11101.56401
727.79	11609.5212
727.984	11457.19871
728.177	11625.76584
728.371	11453.13605
728.565	11686.6781
728.758	11239.79077
728.952	11702.92
729.146	11312.95018
729.339	11757.73227
729.533	11467.3552
729.726	11396.25469
729.92	11341.39751
730.113	11487.66746
730.307	10985.65914
730.5	11487.66746
730.694	11172.71623
730.887	11337.33372
731.081	11361.71582
731.274	11619.67417
731.468	11197.10829
731.661	11325.14213
731.854	11377.96976
732.048	11402.34948
732.241	11123.92755
732.435	11280.43652
732.628	11254.01725
732.821	11296.69367
733.014	11317.0142
733.208	11205.23864
733.401	11325.14213
733.594	11434.85358
733.788	11479.54267
733.981	11479.54267
734.174	11449.07334
734.367	11154.42119
734.56	11357.65224
734.754	11442.97922
734.947	11264.17872
735.14	11319.0462
735.333	11516.10302
735.526	11384.06483
735.719	11101.56401
735.912	11365.77937
736.105	11321.07819
736.298	10991.76029
736.491	11040.56589
736.684	11195.07568
736.877	11254.01725
737.07	11335.30182
737.263	11369.84287
737.456	11278.40433
737.649	11024.29806
737.842	11229.62869
738.035	10910.40333
738.228	11221.49884
738.421	11294.66157
738.614	11178.81439
738.807	11237.75838
739	11050.73292
739.192	10995.82767
739.385	11121.89455
739.578	11219.46635
739.771	11142.22402
739.964	11105.6302
740.156	11172.71623
740.349	11073.09944
740.542	11373.90634
740.735	11111.72941
740.927	11294.66157
741.12	11119.86154
741.313	11064.96631
741.505	11014.13031
741.698	11083.2656
741.891	10975.49034
742.083	11093.43149
742.276	10906.33501
742.468	10833.09733
742.661	10812.75086
742.854	10831.06274
743.046	10706.93021
743.239	11050.73292
743.431	10959.21967
743.624	10955.15189
743.816	10790.3684
744.009	11058.86635
744.201	10625.50756
744.393	11032.43206
744.586	10713.03612
744.778	10812.75086
744.971	10912.43747
745.163	11193.04305
745.355	10920.57394
745.548	10971.42274
745.74	10731.35322
745.932	11097.49777
746.125	10920.57394
746.317	10938.88032
746.509	10792.40323
746.702	10991.76029
746.894	10719.14193
747.086	10810.71615
747.278	10794.43804
747.471	10890.06126
747.663	10863.61485
747.855	10790.3684
748.047	11010.06314
748.239	10790.3684
748.431	10597.00499
748.623	10721.17718
748.815	10556.28281
749.008	10613.29247
749.2	10633.6507
749.392	10619.40007
749.584	10450.38151
749.776	10814.78556
749.968	10485.00688
750.16	10684.54092
750.352	10523.70146
750.544	10780.19408
750.736	10902.26664
750.928	10938.88032
751.12	10568.49999
751.311	10826.99351
751.503	10515.55561
751.695	10660.11457
751.887	10517.59209
752.079	10680.46998
752.271	10643.82936
752.463	10647.90074
752.654	10507.40956
752.846	10721.17718
753.038	10601.07694
753.23	10629.57916
753.421	10609.22067
753.613	10847.33916
753.805	10686.57637
753.997	10454.45528
754.188	10342.40773
754.38	10566.46383
754.572	10425.93783
754.763	10482.9702
754.955	10379.0822
755.146	10456.49214
755.338	10417.78952
755.53	10126.34748
755.721	10454.45528
755.913	10214.01303
756.104	10405.56666
756.296	10460.56583
756.487	10519.62856
756.679	10462.60265
756.87	10260.89349
757.062	10197.70509
757.253	10285.35002
757.445	10191.58939
757.636	10148.77599
757.827	10091.68192
758.019	10140.62036
758.21	9997.86049
758.401	9883.60195
758.593	10107.99563
758.784	9714.16903
758.975	10028.45774
759.167	10073.32792
759.358	10120.23032
759.549	9846.86623
759.74	9767.25556
759.932	10044.77497
760.123	9969.30013
760.314	9830.53769
760.505	9848.90722
760.696	9863.19381
760.888	9842.78418
761.079	9906.04921
761.27	9928.49469
761.461	9752.96405
761.652	9948.89814
761.843	9640.64749
762.034	9899.92741
762.225	9679.45301
762.416	9940.73693
762.607	9844.82521
762.798	9720.29492
762.989	9773.38027
763.18	9759.08907
763.371	9728.46257
763.562	9934.61588
763.753	9797.87775
763.944	9742.75536
764.135	9920.3329
764.326	9944.81756
764.517	9777.46334
764.708	9695.79051
764.899	9395.42853
765.089	9642.69002
765.28	9172.48459
765.471	9736.62997
765.662	9325.90759
765.853	9522.15363
766.043	9379.07237
766.234	9393.38407
766.425	9325.90759
766.615	9360.67043
766.806	9452.6669
766.997	9479.23754
767.187	9319.77247
767.378	9691.70623
767.569	9454.71089
767.759	9526.24051
767.95	9417.91655
768.141	9716.21101
768.331	9197.03863
768.522	9354.53616
768.712	9287.04933
768.903	9430.18192
769.093	9078.33796
769.284	9145.88161
769.474	9419.96082
769.665	9115.18228
769.855	9182.71574
770.046	9207.26877
770.236	9049.6774
770.426	9143.83511
770.617	9029.20348
770.807	9219.54436
770.998	9121.32245
771.188	9262.50418
771.378	8873.54419
771.569	9246.13941
771.759	9035.34584
771.949	8889.93421
772.139	9197.03863
772.33	9021.01342
772.52	8959.57906
772.71	8951.38661
772.9	9004.63247
773.09	8799.77486
773.281	9027.15599
773.471	9332.04255
773.661	8820.26869
773.851	8672.67237
774.041	8672.67237
774.231	8857.15302
774.421	8750.58225
774.611	8834.61329
774.802	8615.248
774.992	8867.39764
775.182	8598.83834
775.372	8912.46862
775.562	8838.71159
775.752	8777.22955
775.942	8697.27837
776.131	8873.54419
776.321	8362.8156
776.511	8627.55445
776.701	8432.62256
776.891	8403.88122
777.081	8551.65391
777.271	8748.53233
777.461	8754.68204
777.651	8633.70742
777.84	8397.72187
778.03	8373.08273
778.22	8410.0404
778.41	8537.29145
778.599	8403.88122
778.789	8469.57019
778.979	8389.50913
779.169	8200.53006
779.358	8393.61554
779.548	8368.97593
779.738	8336.11878
779.927	8506.51162
780.117	8338.1725
780.307	8354.60154
780.496	8295.04032
780.686	8492.14624
780.875	8284.76949
781.065	8368.97593
781.254	8214.91475
781.444	8295.04032
781.633	8368.97593
781.823	8309.41867
782.012	8159.42557
782.202	8048.40347
782.391	8015.49674
782.581	8112.14555
782.77	8031.95075
782.96	8128.59197
783.149	7898.22405
783.338	8241.62661
783.528	8103.92185
783.717	8303.25664
783.906	8103.92185
784.096	8177.92358
784.285	8073.08012
784.474	8077.19262
784.663	7953.78256
784.853	7980.52763
785.042	8023.72391
785.231	7992.87034
785.42	7894.108
785.61	7984.64194
785.799	7924.97631
785.988	8089.52961
786.177	7690.25995
786.366	7739.69649
786.555	7850.88457
786.744	7822.06387
786.933	7677.89891
787.122	7780.88436
787.312	7700.56023
787.501	7698.50021
787.69	7729.39821
787.879	8048.40347
788.068	7644.93243
788.257	7628.44716
788.445	7533.63034
788.634	7644.93243
788.823	7438.76809
789.012	7801.47515
789.201	7842.6505
789.39	7665.53712
789.579	7581.0444
789.768	7626.3864
789.957	7539.81542
790.145	7655.23504
790.334	7383.06674
790.523	7424.32852
790.712	7457.33169
790.9	7550.12347
791.089	7298.45281
791.278	7504.76405
791.467	7356.24192
791.655	7422.26564
791.844	7568.67661
792.033	7352.11469
792.221	7124.98186
792.41	7381.00343
792.599	7168.36425
792.787	7191.08445
792.976	7137.37783
793.164	7124.98186
793.353	7331.47726
793.541	7259.22898
793.73	7160.10169
793.918	7329.4134
794.107	6864.47993
794.295	7414.01389
794.484	7085.72265
794.672	7317.02975
794.861	7337.66872
795.049	7420.20273
795.238	7065.05667
795.426	7381.00343
795.614	7158.036
795.803	7308.77356
795.991	7174.56093
796.179	7304.64532
796.368	6951.35366
796.556	7093.98842
796.744	6804.47232
796.932	7127.04791
797.121	6734.09413
797.309	7017.51641
797.497	6845.85893
797.685	7000.97789
797.874	6914.12695
798.062	7025.78514
798.25	6398.39729
798.438	7079.52309
798.626	6916.1953
798.814	7093.98842
799.002	6856.20416
799.19	6827.23608
799.378	6789.98485
799.566	6891.37369
799.755	7075.38994
799.943	6843.78981
800.131	6930.67306
800.318	7017.51641
800.506	6591.18629
800.694	6893.44228
800.882	6595.33009
801.07	6835.51313
801.258	6642.97715
801.446	7137.37783
801.634	6589.11435
801.822	6649.19108
802.01	6574.61016
802.197	6818.95867
802.385	6638.83441
802.573	6779.63597
802.761	6943.08169
802.949	6866.54882
803.136	6669.9027
803.324	6912.05859
803.512	6783.77559
803.699	6895.51085
803.887	6849.99709
804.075	6868.61768
804.262	6458.53583
804.45	6595.33009
804.638	6713.38963
804.825	6874.82414
805.013	6589.11435
805.201	7003.04528
805.388	6810.68089
805.576	6818.95867
805.763	6835.51313
805.951	6918.26362
806.138	6816.88926
806.326	7091.92201
806.513	6727.88302
806.701	6777.56613
806.888	6698.89511
807.075	6928.60488
807.263	6878.96166
807.45	7067.12337
807.638	6821.02806
807.825	7083.65615
808.012	6605.68918
808.2	6895.51085
808.387	6690.61202
808.574	6796.1939
808.761	6837.58234
808.949	6698.89511
809.136	6787.91512
809.323	6976.1674
809.51	6613.97604
809.698	6947.21772
809.885	6400.47136
810.072	6885.16778
810.259	6870.68653
810.446	7054.72284
810.633	6721.6717
810.82	6876.89291
811.008	6901.71642
811.195	6909.9902
811.382	6640.90579
811.569	7003.04528
811.756	6696.82437
811.943	7044.38845
812.13	6841.72068
812.317	6845.85893
812.504	6674.04475
812.691	7203.47616
812.878	6903.7849
813.064	6984.43792
813.251	7058.85644
813.438	7168.36425
813.625	6881.03039
813.812	7000.97789
813.999	6876.89291
814.186	6994.77557
814.372	6829.30538
814.559	7046.45537
814.746	6603.61741
814.933	6719.60122
815.12	6620.19094
815.306	6694.75361
815.493	6814.81982
815.68	6843.78981
815.866	6686.47034
816.053	6837.58234
816.24	6464.75594
816.426	6903.7849
816.613	6531.09081
816.799	6752.72622
816.986	6717.53071
817.173	6881.03039
817.359	6582.89841
817.546	6868.61768
817.732	6661.61833
817.919	6814.81982
818.105	6462.6826
818.292	6663.68946
818.478	6495.85337
818.665	6736.16445
818.851	6622.26253
819.037	6651.26235
819.224	6698.89511
819.41	6758.93651
819.597	6620.19094
819.783	6711.31905
819.969	6489.6343
820.156	6781.70579
820.342	6711.31905
820.528	6862.41102
820.714	6669.9027
820.901	6707.17783
821.087	6222.01612
821.273	6582.89841
821.459	6630.54865
821.646	6744.44552
821.832	6624.3341
822.018	6868.61768
822.204	6564.24934
822.39	6568.39374
822.576	6414.98919
822.762	6526.94557
822.948	6622.26253
823.134	6539.38099
823.32	6296.73936
823.507	6570.4659
823.693	6429.50588
823.879	6723.74216
824.065	6412.91528
824.25	6495.85337
824.436	6348.61265
824.622	6587.04239
824.808	6396.3232
824.994	6381.80391
825.18	6182.56662
825.366	6529.0182
825.552	6149.33941
825.738	6356.91103
825.923	6329.93995
826.109	6477.19554
826.295	6329.93995
826.481	6560.10485
826.667	6271.83498
826.852	6499.9993
827.038	6257.30588
827.224	6392.17495
827.409	6290.51358
827.595	6286.36294
827.781	6296.73936
827.966	6475.12233
828.152	6211.63549
828.338	6313.3404
828.523	6066.24507
828.709	6251.07876
828.894	6091.17732
829.08	6300.88976
829.266	6188.79605
829.451	6296.73936
829.637	6008.05664
829.822	6207.48308
830.008	6055.85563
830.193	6209.5593
830.378	5845.86285
830.564	5989.34929
830.749	5681.44333
830.935	5993.50664
831.12	5852.10373
831.305	6255.2302
831.491	5943.61218
831.676	6122.33788
831.861	6151.41629
832.047	5914.50081
832.232	5637.7121
832.417	5958.16614
832.602	5858.34439
832.788	5937.37442
832.973	5858.34439
833.158	5987.27058
833.343	5558.55295
833.528	6001.82107
833.714	5668.94976
833.899	5920.73935
834.084	5976.87667
834.269	5856.26419
834.454	5593.97046
834.639	5910.34167
834.824	5725.16416
835.009	5864.58484
835.194	5627.29837
835.379	5897.86366
835.564	5639.79477
835.749	5874.98512
835.934	5656.45533
836.119	5677.2789
836.304	5318.7853
836.489	5777.19919
836.674	5548.13474
836.859	5514.79251
837.044	5525.2126
837.228	5652.29033
837.413	5489.78187
837.598	5752.22422
837.783	5420.98517
837.968	5773.03693
838.152	5339.64699
838.337	5400.13263
838.522	5406.38864
838.707	5441.83536
838.891	5360.50633
839.076	5571.05403
839.261	5339.64699
839.445	5423.07029
839.63	5114.21706
839.815	5308.35357
839.999	5133.01327
840.184	5414.72965
840.368	5281.22835
840.553	5347.99101
840.737	5268.70768
840.922	5333.38873
841.106	4984.68105
841.291	5239.48952
841.475	5084.97477
841.66	5302.09426
841.844	5064.08464
842.029	5089.15252
842.213	5153.89574
842.397	5072.44097
842.582	5068.26285
842.766	5080.79693
842.951	4951.23799
843.135	5147.63124
843.319	4972.14059
843.504	5047.37087
843.688	4957.50901
843.872	5097.50774
844.056	4888.51641
844.241	5187.30285
844.425	4880.15197
844.609	5139.27825
844.793	4905.24418
844.977	5005.57996
845.161	4842.50748
845.346	4938.69533
845.53	4930.33309
845.714	5082.88586
845.898	4637.42507
846.082	4704.41461
846.266	4681.38956
846.45	4959.59931
846.634	4557.84521
846.818	4884.33424
847.002	4564.129
847.186	4712.78669
847.37	4606.01582
847.554	4756.73414
847.738	4608.10993
847.922	4871.78717
848.106	4620.6741
848.29	4792.30333
848.473	4716.97259
848.657	4750.45654
848.841	4423.74362
849.025	4670.92272
849.209	4461.46881
849.392	4737.90074
849.576	4457.27747
849.76	4675.10952
849.944	4538.99264
850.127	4687.66939
850.311	4306.3312
850.495	4620.6741
850.678	4251.79528
850.862	4771.38107
851.046	4511.75798
851.229	4545.27703
851.413	4461.46881
851.596	4572.50708
851.78	4375.5289
851.964	4608.10993
852.147	4421.64756
852.331	4272.77235
852.514	4335.69068
852.698	4415.35928
852.881	4371.33577
853.065	4419.55149
853.248	4201.44161
853.431	4369.23917
853.615	4369.23917
853.798	4576.69598
853.982	4287.45502
854.165	4365.04592
854.348	4337.78762
854.532	4536.8978
854.715	4071.30504
854.898	4587.16785
855.081	4153.17456
855.265	4381.81843
855.448	4077.60382
855.631	4335.69068
855.814	4025.10829
855.997	4109.09492
856.181	3867.54505
856.364	3953.69375
856.547	3999.90585
856.73	4048.20791
856.913	3791.87463
857.096	4167.86571
857.279	3983.1026
857.462	4027.20835
857.645	3915.87654
857.828	4201.44161
858.011	3924.28093
858.194	4165.76704
858.377	3775.05551
858.56	3880.15429
858.743	3882.25576
858.926	4079.70337
859.109	3819.20302
859.292	3949.49216
859.475	3613.10829
859.658	3976.80104
859.841	3493.1533
860.023	3686.73474
860.206	3322.58994
860.389	3665.70099
860.572	3419.46735
860.755	3669.90789
860.937	3621.52391
861.12	3663.59751
861.303	3655.18339
861.486	3821.30506
861.668	3579.44279
861.851	3655.18339
862.034	3537.35422
862.216	3880.15429
862.399	3411.04471
862.581	3518.41195
862.764	3392.09272
862.947	3608.90036
863.129	3389.98685
863.312	3604.69236
863.494	3210.92522
863.677	3400.516
863.859	3368.92723
864.042	3453.15509
864.224	3331.01553
864.406	3400.516
864.589	3377.35129
864.771	3566.81699
864.954	3185.63612
865.136	3312.05757
865.318	2919.96258
865.501	3345.75964
865.683	3265.71007
865.865	3358.39677
866.048	3242.53324
866.23	3402.62178
866.412	3137.15877
866.594	3280.45789
866.777	3231.99765
866.959	3352.07828
867.141	3200.38839
867.323	3265.71007
867.505	3061.26415
867.687	3215.13984
867.869	3187.74364
868.052	3309.95105
868.234	2968.47671
868.416	3141.37453
868.598	3052.83016
868.78	3202.49579
868.962	2979.02222
869.144	3269.92382
869.326	3109.75475
869.508	3227.7833
869.69	2991.67633
869.872	3314.16408
870.054	3132.94294
870.236	3227.7833
870.417	2981.13127
870.599	3183.52859
870.781	2765.93266
870.963	2943.16596
871.145	2875.66032
871.327	2947.38457
871.508	2898.86706
871.69	3071.8063
871.872	2704.72244
872.054	3088.67291
872.235	2854.56178
872.417	2941.05664
872.599	2683.61291
872.78	3040.1787
872.962	2668.83548
873.144	2820.80118
873.325	2835.57188
873.507	2863.00136
873.689	2765.93266
873.87	3065.48106
874.052	2839.79196
874.233	3126.61908
874.415	2865.11122
874.596	2915.74359
874.778	2863.00136
874.959	2892.53812
875.141	2900.97668
875.322	2858.7816
875.503	2749.0482
875.685	2713.16588
875.866	2668.83548
876.048	2960.04003
876.229	2658.27978
876.41	2890.42844
876.592	2711.05504
876.773	2818.69103
876.954	2679.39085
877.136	2841.90197
877.317	2787.03703
877.498	2892.53812
877.679	2436.54079
877.86	2926.29095
878.042	2829.24167
878.223	3023.30923
878.404	2873.55053
878.585	3040.1787
878.766	2947.38457
878.947	3078.13139
879.128	2787.03703
879.309	3073.91468
879.49	2907.30544
879.672	3177.2059
879.853	2932.61919
880.034	3111.86285
880.215	2888.31875
880.396	3132.94294
880.576	2936.83794
880.757	3166.66775
880.938	2727.94142
881.119	2909.415
881.3	2867.22107
881.481	2966.36756
881.662	2829.24167
881.843	3025.41797
882.023	2780.70586
882.204	3107.64664
882.385	3065.48106
882.566	3061.26415
882.747	2630.83352
882.927	2930.50979
883.108	2833.46182
883.289	3120.29508
883.469	2778.59545
883.65	3082.34805
883.831	2812.36047
884.011	3038.07007
884.192	2917.85309
884.373	3103.43037
884.553	2945.27527
884.734	3221.46165
884.914	2981.13127
885.095	3227.7833
885.275	2837.68193
885.456	3082.34805
885.636	2778.59545
885.817	3301.52477
885.997	2837.68193
886.178	3082.34805
886.358	2869.3309
886.538	2957.93082
886.719	2736.38429
886.899	2993.7853
887.08	2888.31875
887.26	3048.61307
887.44	2740.60564
887.621	3099.21403
887.801	2782.81627
887.981	2875.66032
888.161	2905.19587
888.342	3000.11211
888.522	2909.415
888.702	3061.26415
888.882	3029.6354
889.062	3120.29508
889.242	2780.70586
889.423	3082.34805
889.603	2960.04003
889.783	3210.92522
889.963	2917.85309
890.143	3175.0983
890.323	2732.16288
890.503	3145.59023
890.683	2820.80118
890.863	3103.43037
891.043	2833.46182
891.223	2888.31875
891.403	2875.66032
891.583	2926.29095
891.763	2746.93758
891.943	2960.04003
892.122	2732.16288
892.302	2890.42844
892.482	2831.35175
892.662	2924.18151
892.842	2639.27875
893.022	2829.24167
893.201	2837.68193
893.381	2951.60312
893.561	2698.38971
893.741	2943.16596
893.92	2787.03703
894.1	2936.83794
894.28	2573.82309
894.459	2753.26939
894.639	2711.05504
894.819	2738.49497
894.998	2504.1319
895.178	2757.49054
895.357	2664.61324
895.537	2926.29095
895.716	2588.60442
895.896	2846.12196
896.075	2677.2798
896.255	2719.49833
896.434	2588.60442
896.614	2727.94142
896.793	2398.51592
896.973	2677.2798
897.152	2254.83699
897.331	2466.11329
897.511	2432.31598
897.69	2711.05504
897.87	2400.62851
898.049	2516.80396
898.228	2288.64779
898.407	2626.61083
898.587	2457.66422
898.766	2599.16215
898.945	2316.11731
899.124	2544.25868
899.304	2265.40312
899.483	2347.81088
899.662	2385.84021
899.841	2411.19126
900.02	2172.41361
900.199	2288.64779
900.378	2267.51632
900.557	2324.56914
900.737	2172.41361
900.916	2434.42839
901.095	2337.2466
901.274	2305.5523
901.453	2077.29422
901.632	2252.72373
901.811	1925.07339
901.989	1935.64533
902.168	1941.98842
902.347	2271.74269
902.526	1958.90308
902.705	2073.06634
902.884	1937.7597
903.063	2330.90792
903.242	2011.75884
903.42	2225.25063
903.599	1745.33121
903.778	2138.5952
903.957	1937.7597
904.135	2037.12816
904.314	1832.03457
904.493	1941.98842
904.672	1777.05275
904.85	1806.6587
905.029	1603.63293
905.207	1933.53095
905.386	1878.55522
905.565	1908.158
905.743	1698.80484
905.922	1722.06823
906.1	1546.52777
906.279	1722.06823
906.457	1548.64279
906.636	1688.23045
906.814	1580.368
906.993	1546.52777
907.171	1419.62504
907.35	1629.01258
907.528	1476.73143
907.707	1552.87284
907.885	1341.36876
908.063	1455.58092
908.242	1383.66929
908.42	1487.30668
908.598	1222.93113
908.777	1497.88192
908.955	1392.12945
909.133	1495.76687
909.311	1248.30998
909.49	1451.35081
909.668	1256.76969
909.846	1411.16485
910.024	1239.85032
910.202	1375.20915
910.38	1332.90871
910.559	1415.39495
910.737	1284.26401
910.915	1430.20029
911.093	1324.4487
911.271	1493.65183
911.449	1421.74009
911.627	1546.52777
911.805	1273.68922
911.983	1506.3421
912.161	1377.32418
912.339	1601.51794
912.517	1375.20915
912.695	1459.81102
912.872	1318.1037
913.05	1552.87284
913.228	1318.1037
913.406	1383.66929
913.584	1362.51897
913.762	1468.27123
913.939	1409.0498
914.117	1597.28797
914.295	1411.16485
914.473	1519.03235
914.65	1275.80418
914.828	1544.41274
915.006	1440.77555
915.184	1603.63293
915.361	1383.66929
915.539	1641.70229
915.716	1318.1037
915.894	1351.94384
916.072	1250.4249
916.249	1472.50133
916.427	1311.75872
916.604	1387.89937
916.782	1307.52874
916.959	1512.68723
917.137	1341.36876
917.314	1445.00565
917.492	1301.18379
917.669	1307.52874
917.847	1142.56799
918.024	1265.22943
918.201	1100.27396
918.379	1445.00565
918.556	1292.72388
918.733	1341.36876
918.911	1096.04466
919.088	1286.37898
919.265	1165.83045
919.442	1328.6787
919.62	1138.33851
919.797	1206.01215
919.974	1267.34438
920.151	1299.06881
920.328	1104.50328
920.506	1225.04602
920.683	1275.80418
920.86	1176.40445
921.037	1015.692
921.214	1184.86372
921.391	1112.96198
921.568	1142.56799
921.745	935.34821
921.922	1159.48609
922.099	1019.92089
922.276	1108.73262
922.453	926.89155
922.63	1129.87959
922.807	1019.92089
922.984	981.86185
923.161	852.90117
923.338	1083.35688
923.514	850.78731
923.691	924.77741
923.868	920.54914
924.045	933.23403
924.222	768.3538
924.399	823.3079
924.575	833.87673
924.752	935.34821
924.929	827.5354
925.105	935.34821
925.282	800.0573
925.459	914.20679
925.635	819.08044
925.812	977.6332
925.989	751.44618
926.165	1003.00551
926.342	871.92631
926.518	922.66327
926.695	787.37564
926.871	764.12683
927.048	766.24031
927.224	730.31258
927.401	728.19928
927.577	734.53922
927.754	658.46652
927.93	859.24281
928.107	650.01491
928.283	770.4673
928.459	715.51969
928.636	734.53922
928.812	643.67633
928.988	732.42589
929.165	533.82578
929.341	704.95367
929.517	643.67633
929.693	698.61419
929.87	685.93553
930.046	759.89991
930.222	531.71362
930.398	696.50105
930.574	584.52165
930.751	567.62216
930.927	630.9995
931.103	652.12779
931.279	514.81688
931.455	681.7094
931.631	561.28507
931.807	571.84695
931.983	436.68165
932.159	529.60148
932.335	411.34503
932.511	468.35561
932.687	419.79031
932.863	605.64718
933.039	495.80913
933.215	474.69081
933.391	436.68165
933.566	481.02615
933.742	405.01123
933.918	457.79724
934.094	411.34503
934.27	428.23586
934.445	225.6186
934.621	379.67753
934.797	310.02248
934.973	329.01742
935.148	267.81677
935.324	396.5664
935.5	295.24965
935.675	284.69817
935.851	200.30345
936.027	280.47771
936.202	240.38709
936.378	269.92688
936.553	267.81677
936.729	200.30345
936.904	229.83807
937.08	193.97512
937.255	124.37568
937.431	240.38709
937.606	244.60683
937.782	141.24617
937.957	185.53762
938.133	166.55444
938.308	193.97512
938.483	107.50658
938.659	88.53052
938.834	191.86571
939.009	42.15228
939.185	82.20557
939.36	149.68192
939.535	23.18258
939.71	141.24617
939.886	137.02842
940.061	126.48442
940.236	73.77262
940.411	86.42218
940.586	86.42218
940.761	48.47593
940.937	191.86571
941.112	99.07256
941.287	151.79091
941.462	158.11802
941.637	65.34002
941.812	168.6636
941.987	42.15228
942.162	48.47593
942.337	56.90779
942.512	126.48442
942.687	141.24617
942.862	92.74727
943.037	52.69182
943.212	27.39791
943.386	103.28953
943.561	90.63889
943.736	86.42218
943.911	101.18103
944.086	50.58386
944.26	115.94096
944.435	82.20557
944.61	37.93663
944.785	61.12386
944.959	107.50658
945.134	103.28953
945.309	69.55627
945.483	61.12386
945.658	48.47593
945.833	82.20557
946.007	77.98905
946.182	88.53052
946.357	143.35507
946.531	105.39804
946.706	149.68192
946.88	80.0973
947.055	82.20557
947.229	50.58386
947.404	82.20557
947.578	27.39791
947.752	8.4297
947.927	126.48442
948.101	73.77262
948.276	132.81075
948.45	82.20557
948.624	107.50658
948.799	101.18103
948.973	75.88082
949.147	115.94096
949.321	107.50658
949.496	27.39791
949.67	73.77262
949.844	162.33619
950.018	67.44814
950.193	25.29023
950.367	132.81075
950.541	145.464
950.715	107.50658
950.889	99.07256
951.063	67.44814
951.237	33.72107
951.411	86.42218
951.585	101.18103
951.759	137.02842
951.933	75.88082
952.107	191.86571
952.281	115.94096
952.455	149.68192
952.629	111.72373
952.803	109.61514
952.977	69.55627
953.151	84.31387
953.325	80.0973
953.499	77.98905
953.672	84.31387
953.846	107.50658
954.02	113.83233
954.194	103.28953
954.368	50.58386
954.541	86.42218
954.715	107.50658
954.889	67.44814
955.062	118.04961
955.236	105.39804
955.41	96.96411
955.583	75.88082
955.757	65.34002
955.93	73.77262
956.104	88.53052
956.278	158.11802
956.451	99.07256
956.625	-2.10736
956.798	56.90779
956.972	82.20557
957.145	101.18103
957.319	25.29023
957.492	126.48442
957.665	145.464
957.839	37.93663
958.012	99.07256
958.185	107.50658
958.359	42.15228
958.532	50.58386
958.705	82.20557
958.879	75.88082
959.052	61.12386
959.225	118.04961
959.398	132.81075
959.572	101.18103
959.745	40.04444
959.918	99.07256
960.091	126.48442
960.264	101.18103
960.438	23.18258
960.611	50.58386
960.784	35.82884
960.957	50.58386
961.13	90.63889
961.303	90.63889
961.476	69.55627
961.649	94.85568
961.822	16.85977
961.995	124.37568
962.168	122.26697
962.341	82.20557
962.514	101.18103
962.686	122.26697
962.859	56.90779
963.032	90.63889
963.205	84.31387
963.378	25.29023
963.551	59.01582
963.723	59.01582
963.896	92.74727
964.069	42.15228
964.242	33.72107
964.414	48.47593
964.587	48.47593
964.76	16.85977
964.932	107.50658
965.105	166.55444
965.278	92.74727
965.45	153.89993
965.623	92.74727
965.795	23.18258
965.968	61.12386
966.14	115.94096
966.313	111.72373
966.485	67.44814
966.658	56.90779
966.83	73.77262
967.003	84.31387
967.175	52.69182
967.348	107.50658
967.52	23.18258
967.692	130.70195
967.865	65.34002
968.037	61.12386
968.209	88.53052
968.382	99.07256
968.554	48.47593
968.726	65.34002
968.898	158.11802
969.071	86.42218
969.243	124.37568
969.415	42.15228
969.587	25.29023
969.759	18.96735
969.932	-2.10736
970.104	101.18103
970.276	40.04444
970.448	37.93663
970.62	99.07256
970.792	35.82884
970.964	69.55627
971.136	82.20557
971.308	-6.32202
971.48	69.55627
971.652	23.18258
971.824	84.31387
971.996	107.50658
972.168	52.69182
972.339	126.48442
972.511	109.61514
972.683	46.36803
972.855	107.50658
973.027	107.50658
973.199	61.12386
973.37	67.44814
973.542	23.18258
973.714	92.74727
973.886	23.18258
974.057	-27.39383
974.229	40.04444
974.401	115.94096
974.572	12.64469
974.744	-4.2147
974.915	56.90779
975.087	56.90779
975.259	2.10739
975.43	86.42218
975.602	126.48442
975.773	59.01582
975.945	40.04444
976.116	107.50658
976.288	65.34002
976.459	82.20557
976.63	2.10739
976.802	96.96411
976.973	40.04444
977.145	61.12386
977.316	-16.85823
977.487	115.94096
977.659	122.26697
977.83	-10.53658
978.001	137.02842
978.172	126.48442
978.344	35.82884
978.515	86.42218
978.686	42.15228
978.857	27.39791
979.028	29.5056
979.2	86.42218
979.371	65.34002
979.542	-4.2147
979.713	73.77262
979.884	54.79979
980.055	44.26014
980.226	52.69182
980.397	124.37568
980.568	50.58386
980.739	65.34002
980.91	14.75222
981.081	63.23193
981.252	132.81075
981.423	33.72107
981.594	44.26014
981.765	71.66443
981.936	82.20557
982.106	-2.10736
982.277	8.4297
982.448	18.96735
982.619	48.47593
982.79	69.55627
982.96	42.15228
983.131	50.58386
983.302	77.98905
983.472	67.44814
983.643	73.77262
983.814	69.55627
983.984	31.61332
984.155	18.96735
984.326	2.10739
984.496	-14.75104
984.667	8.4297
984.837	10.53718
985.008	59.01582
985.178	77.98905
985.349	-8.42931
985.519	-35.82187
985.69	0
985.86	84.31387
986.031	42.15228
986.201	48.47593
986.371	23.18258
986.542	59.01582
986.712	48.47593
986.882	56.90779
987.053	44.26014
987.223	35.82884
987.393	-6.32202
987.563	-8.42931
987.734	82.20557
987.904	99.07256
988.074	73.77262
988.244	33.72107
988.414	-16.85823
988.585	111.72373
988.755	48.47593
988.925	16.85977
989.095	56.90779
989.265	27.39791
989.435	23.18258
989.605	-40.03573
989.775	141.24617
989.945	-25.28676
990.115	59.01582
990.285	69.55627
990.455	4.2148
990.625	-10.53658
990.795	18.96735
990.965	63.23193
991.134	31.61332
991.304	4.2148
991.474	-10.53658
991.644	35.82884
991.814	42.15228
991.984	48.47593
992.153	6.32224
992.323	-58.9969
992.493	-2.10736
992.662	25.29023
992.832	48.47593
993.002	101.18103
993.171	31.61332
993.341	25.29023
993.511	-14.75104
993.68	65.34002
993.85	44.26014
994.019	44.26014
994.189	23.18258
994.358	33.72107
994.528	6.32224
994.697	14.75222
994.867	52.69182
995.036	6.32224
995.206	18.96735
995.375	40.04444
995.544	44.26014
995.714	-35.82187
995.883	31.61332
996.052	65.34002
996.222	-33.71489
996.391	-6.32202
996.56	29.5056
996.73	75.88082
996.899	-25.28676
997.068	56.90779
997.237	-12.64382
997.406	16.85977
997.576	23.18258
997.745	-10.53658
997.914	52.69182
998.083	48.47593
998.252	50.58386
998.421	-31.6079
998.59	73.77262
998.759	-14.75104
998.928	-2.10736
999.097	40.04444
999.266	-27.39383
999.435	4.2148
999.604	-6.32202
999.773	2.10739
999.942	-27.39383
1000.111	16.85977
1000.28	25.29023
1000.448	33.72107
1000.617	48.47593
1000.786	48.47593
1000.955	29.5056
1001.124	10.53718
1001.292	107.50658
1001.461	56.90779
1001.63	14.75222
1001.798	-25.28676
1001.967	31.61332
1002.136	59.01582
1002.304	-27.39383
1002.473	12.64469
1002.642	84.31387
1002.81	14.75222
1002.979	31.61332
1003.147	33.72107
1003.316	90.63889
1003.484	0
1003.653	-46.35635
1003.821	73.77262
1003.99	25.29023
1004.158	-21.07254
1004.327	67.44814
1004.495	42.15228
1004.663	59.01582
1004.832	31.61332
1005	-6.32202
1005.168	27.39791
1005.337	-35.82187
1005.505	2.10739
1005.673	21.07496
1005.842	-23.17966
1006.01	61.12386
1006.178	56.90779
1006.346	6.32224
1006.514	-65.31684
1006.683	61.12386
1006.851	-69.53
1007.019	-35.82187
1007.187	61.12386
1007.355	-4.2147
1007.523	6.32224
1007.691	18.96735
1007.859	6.32224
1008.027	-18.9654
1008.195	40.04444
1008.363	12.64469
1008.531	31.61332
1008.699	48.47593
1008.867	67.44814
1009.035	2.10739
1009.203	27.39791
1009.37	6.32224
1009.538	-2.10736
1009.706	23.18258
1009.874	10.53718
1010.042	33.72107
1010.209	59.01582
1010.377	8.4297
1010.545	46.36803
1010.713	52.69182
1010.88	-35.82187
1011.048	37.93663
1011.216	8.4297
1011.383	23.18258
1011.551	65.34002
1011.718	86.42218
1011.886	54.79979
1012.054	23.18258
1012.221	-2.10736
1012.389	84.31387
1012.556	48.47593
1012.724	52.69182
1012.891	-18.9654
1013.058	59.01582
1013.226	-6.32202
1013.393	14.75222
1013.561	23.18258
1013.728	92.74727
1013.895	-10.53658
1014.063	31.61332
1014.23	-92.70056
1014.397	35.82884
1014.565	40.04444
1014.732	-73.74306
1014.899	14.75222
1015.066	-2.10736
1015.233	25.29023
1015.401	-18.9654
1015.568	16.85977
1015.735	27.39791
1015.902	-16.85823
1016.069	56.90779
1016.236	-6.32202
1016.403	14.75222
1016.57	48.47593
1016.737	35.82884
1016.904	-44.2495
1017.071	103.28953
1017.238	-73.74306
1017.405	77.98905
1017.572	48.47593
1017.739	65.34002
1017.906	-50.56997
1018.073	23.18258
1018.24	-23.17966
1018.407	54.79979
1018.573	31.61332
1018.74	-8.42931
1018.907	-6.32202
1019.074	56.90779
1019.241	-14.75104
1019.407	14.75222
1019.574	-35.82187
1019.741	2.10739
1019.907	-94.80682
1020.074	56.90779
1020.241	40.04444
1020.407	23.18258
1020.574	31.61332
1020.74	46.36803
1020.907	-42.14263
1021.073	50.58386
1021.24	-84.27527
1021.406	33.72107
1021.573	2.10739
1021.739	-44.2495
1021.906	61.12386
1022.072	52.69182
1022.239	42.15228
1022.405	14.75222
1022.571	4.2148
1022.738	-2.10736
1022.904	6.32224
1023.07	27.39791
1023.237	-25.28676
1023.403	2.10739
1023.569	-14.75104
1023.735	37.93663
1023.902	-25.28676
1024.068	0
1024.234	-23.17966
1024.4	14.75222
1024.566	46.36803
1024.732	65.34002
1024.898	-8.42931
1025.065	94.85568
1025.231	-14.75104
1025.397	44.26014
1025.563	-10.53658
1025.729	-10.53658
1025.895	33.72107
1026.061	8.4297
1026.227	82.20557
1026.392	33.72107
1026.558	0
1026.724	2.10739
1026.89	6.32224
1027.056	59.01582
1027.222	44.26014
1027.388	-31.6079
1027.553	-8.42931
1027.719	75.88082
1027.885	-48.46317
1028.051	-14.75104
1028.216	-16.85823
1028.382	84.31387
1028.548	-33.71489
1028.713	27.39791
1028.879	-8.42931
1029.045	14.75222
1029.21	14.75222
1029.376	-12.64382
1029.541	6.32224
1029.707	29.5056
1029.873	46.36803
1030.038	-31.6079
1030.204	-52.67674
1030.369	14.75222
1030.534	2.10739
1030.7	27.39791
1030.865	73.77262
1031.031	10.53718
1031.196	115.94096
1031.361	75.88082
1031.527	37.93663
1031.692	0
1031.857	-8.42931
1032.023	56.90779
1032.188	69.55627
1032.353	-61.10358
1032.518	35.82884
1032.684	40.04444
1032.849	6.32224
1033.014	-23.17966
1033.179	2.10739
1033.344	-2.10736
1033.509	-6.32202
1033.674	14.75222
1033.839	-16.85823
1034.004	4.2148
1034.17	-12.64382
1034.335	-6.32202
1034.5	-35.82187
1034.664	48.47593
1034.829	44.26014
1034.994	-86.38163
1035.159	-44.2495
1035.324	69.55627
1035.489	-44.2495
1035.654	59.01582
1035.819	25.29023
1035.984	-27.39383
1036.148	14.75222
1036.313	-37.92881
1036.478	35.82884
1036.643	25.29023
1036.807	-10.53658
1036.972	-69.53
1037.137	52.69182
1037.301	44.26014
1037.466	-6.32202
1037.631	59.01582
1037.795	-115.86797
1037.96	-37.92881
1038.124	107.50658
1038.289	8.4297
1038.454	-16.85823
1038.618	-27.39383
1038.783	-10.53658
1038.947	73.77262
1039.111	25.29023
1039.276	-8.42931
1039.44	-61.10358
1039.605	-48.46317
1039.769	23.18258
1039.933	-44.2495
1040.098	-6.32202
1040.262	40.04444
1040.426	23.18258
1040.591	-18.9654
1040.755	50.58386
1040.919	90.63889
1041.083	-18.9654
1041.248	44.26014
1041.412	35.82884
1041.576	8.4297
1041.74	8.4297
1041.904	42.15228
1042.068	42.15228
1042.232	-31.6079
1042.397	-6.32202
1042.561	31.61332
1042.725	107.50658
1042.889	40.04444
1043.053	-18.9654
1043.217	61.12386
1043.381	-61.10358
1043.544	48.47593
1043.708	-10.53658
1043.872	-40.03573
1044.036	-61.10358
1044.2	-40.03573
1044.364	73.77262
1044.528	-12.64382
1044.691	33.72107
1044.855	-25.28676
1045.019	31.61332
1045.183	48.47593
1045.346	-65.31684
1045.51	-12.64382
1045.674	23.18258
1045.837	-2.10736
1046.001	-10.53658
1046.165	31.61332
1046.328	14.75222
1046.492	8.4297
1046.655	-25.28676
1046.819	8.4297
1046.983	14.75222
1047.146	-35.82187
1047.31	35.82884
1047.473	-18.9654
1047.636	25.29023
1047.8	2.10739
1047.963	67.44814
1048.127	84.31387
1048.29	-2.10736
