Data from mixed_try1_USB4F045381__39__00143.txt Node

Date: Thu Apr 03 20:05:39 EDT 2025
User: mmckonesweet
Spectrometer: USB4F04538
Trigger mode: 4
Integration Time (sec): 2.700000E-3
Scans to average: 1
Electric dark correction enabled: true
Nonlinearity correction enabled: true
Boxcar width: 0
XAxis mode: Wavelengths
Number of Pixels in Spectrum: 3648
>>>>>Begin Spectral Data<<<<<
345.52	20.54805
345.736	20.54805
345.952	20.54805
346.168	-25.81353
346.384	35.30189
346.6	18.44046
346.816	-59.52357
347.032	-0.52684
347.248	-4.74153
347.464	-13.17063
347.68	-4.74153
347.896	-86.90822
348.112	3.68794
348.328	1.58054
348.544	58.48881
348.76	43.73317
348.975	43.73317
349.191	10.01031
349.407	-19.49219
349.623	33.19413
349.839	47.94895
350.055	10.01031
350.27	69.02924
350.486	43.73317
350.702	79.57023
350.918	-40.56246
351.133	71.13739
351.349	35.30189
351.565	-6.84884
351.781	31.08639
351.996	90.11179
352.212	35.30189
352.428	35.30189
352.644	35.30189
352.859	71.13739
353.075	35.30189
353.291	47.94895
353.506	3.68794
353.722	22.65567
353.938	-27.92059
354.153	28.97868
354.369	41.62532
354.584	22.65567
354.8	28.97868
355.016	-40.56246
355.231	-8.95613
355.447	41.62532
355.662	-11.06339
355.878	37.40968
356.093	16.33288
356.309	77.46199
356.524	81.6785
356.74	92.22017
356.955	71.13739
357.171	-23.70644
357.386	33.19413
357.602	52.16483
357.817	5.79537
358.033	1.58054
358.248	119.63111
358.464	77.46199
358.679	12.11781
358.895	24.76332
359.11	-2.6342
359.325	20.54805
359.541	-11.06339
359.756	47.94895
359.972	134.39237
360.187	14.22533
360.402	35.30189
360.618	35.30189
360.833	45.84105
361.048	52.16483
361.264	47.94895
361.479	47.94895
361.694	-15.27784
361.909	62.70491
362.125	1.58054
362.34	22.65567
362.555	3.68794
362.77	62.70491
362.986	20.54805
363.201	18.44046
363.416	-23.70644
363.631	43.73317
363.847	75.35377
364.062	-32.13465
364.277	-6.84884
364.492	54.2728
364.707	47.94895
364.922	121.73979
365.138	64.813
365.353	47.94895
365.568	-6.84884
365.783	71.13739
365.998	22.65567
366.213	104.87091
366.428	-30.02763
366.643	62.70491
366.858	52.16483
367.073	104.87091
367.288	22.65567
367.503	123.8485
367.718	-21.59933
367.933	54.2728
368.148	-0.52684
368.363	-65.84349
368.578	-0.52684
368.793	88.00344
369.008	81.6785
369.223	52.16483
369.438	33.19413
369.653	94.32857
369.868	5.79537
370.083	18.44046
370.298	75.35377
370.513	28.97868
370.728	-23.70644
370.943	106.97945
371.157	85.8951
371.372	28.97868
371.587	-2.6342
371.802	71.13739
372.017	128.06598
372.232	7.90283
372.446	20.54805
372.661	20.54805
372.876	85.8951
373.091	-38.45555
373.306	77.46199
373.52	31.08639
373.735	149.15468
373.95	54.2728
374.165	45.84105
374.379	64.813
374.594	73.24557
374.809	56.38079
375.023	45.84105
375.238	64.813
375.453	-46.88306
375.667	47.94895
375.882	26.87099
376.097	10.01031
376.311	14.22533
376.526	28.97868
376.741	43.73317
376.955	-2.6342
377.17	-13.17063
377.384	69.02924
377.599	77.46199
377.813	-23.70644
378.028	35.30189
378.242	56.38079
378.457	3.68794
378.672	-6.84884
378.886	-15.27784
379.101	37.40968
379.315	-55.31017
379.53	18.44046
379.744	47.94895
379.958	-27.92059
380.173	24.76332
380.387	18.44046
380.602	58.48881
380.816	26.87099
381.031	-57.41689
381.245	69.02924
381.459	60.59685
381.674	88.00344
381.888	-11.06339
382.103	138.61006
382.317	31.08639
382.531	-4.74153
382.746	43.73317
382.96	18.44046
383.174	-48.98987
383.388	60.59685
383.603	60.59685
383.817	73.24557
384.031	26.87099
384.246	62.70491
384.46	60.59685
384.674	26.87099
384.888	54.2728
385.103	-46.88306
385.317	-19.49219
385.531	-15.27784
385.745	102.7624
385.959	62.70491
386.174	52.16483
386.388	45.84105
386.602	-32.13465
386.816	77.46199
387.03	69.02924
387.244	115.4138
387.458	37.40968
387.672	-0.52684
387.887	60.59685
388.101	24.76332
388.315	14.22533
388.529	52.16483
388.743	37.40968
388.957	28.97868
389.171	52.16483
389.385	45.84105
389.599	98.54544
389.813	45.84105
390.027	-15.27784
390.241	52.16483
390.455	26.87099
390.669	52.16483
390.883	10.01031
391.097	52.16483
391.311	69.02924
391.525	56.38079
391.738	20.54805
391.952	106.97945
392.166	43.73317
392.38	10.01031
392.594	52.16483
392.808	60.59685
393.022	66.92111
393.236	-11.06339
393.449	71.13739
393.663	60.59685
393.877	-23.70644
394.091	60.59685
394.305	69.02924
394.518	47.94895
394.732	56.38079
394.946	31.08639
395.16	50.05688
395.373	52.16483
395.587	60.59685
395.801	69.02924
396.015	56.38079
396.228	52.16483
396.442	62.70491
396.656	18.44046
396.869	-6.84884
397.083	35.30189
397.297	52.16483
397.51	77.46199
397.724	47.94895
397.938	-15.27784
398.151	41.62532
398.365	98.54544
398.578	52.16483
398.792	50.05688
399.005	35.30189
399.219	39.51749
399.433	37.40968
399.646	52.16483
399.86	35.30189
400.073	20.54805
400.287	52.16483
400.5	75.35377
400.714	-4.74153
400.927	79.57023
401.141	35.30189
401.354	1.58054
401.567	60.59685
401.781	75.35377
401.994	98.54544
402.208	28.97868
402.421	94.32857
402.635	14.22533
402.848	-21.59933
403.061	16.33288
403.275	81.6785
403.488	52.16483
403.701	47.94895
403.915	98.54544
404.128	43.73317
404.341	39.51749
404.555	45.84105
404.768	43.73317
404.981	10.01031
405.195	88.00344
405.408	18.44046
405.621	62.70491
405.834	77.46199
406.048	113.30518
406.261	71.13739
406.474	18.44046
406.687	-11.06339
406.9	20.54805
407.114	12.11781
407.327	77.46199
407.54	52.16483
407.753	66.92111
407.966	94.32857
408.179	43.73317
408.392	69.02924
408.605	10.01031
408.819	1.58054
409.032	102.7624
409.245	-15.27784
409.458	26.87099
409.671	-38.45555
409.884	39.51749
410.097	138.61006
410.31	102.7624
410.523	-19.49219
410.736	69.02924
410.949	-15.27784
411.162	62.70491
411.375	47.94895
411.588	85.8951
411.801	-32.13465
412.014	75.35377
412.227	-4.74153
412.44	26.87099
412.653	81.6785
412.865	-0.52684
413.078	62.70491
413.291	136.50121
413.504	18.44046
413.717	94.32857
413.93	69.02924
414.143	102.7624
414.356	-2.6342
414.568	-6.84884
414.781	26.87099
414.994	24.76332
415.207	52.16483
415.42	14.22533
415.632	3.68794
415.845	128.06598
416.058	81.6785
416.271	94.32857
416.483	-30.02763
416.696	41.62532
416.909	35.30189
417.121	41.62532
417.334	20.54805
417.547	26.87099
417.759	102.7624
417.972	37.40968
418.185	60.59685
418.397	85.8951
418.61	81.6785
418.823	102.7624
419.035	-8.95613
419.248	77.46199
419.46	26.87099
419.673	52.16483
419.885	85.8951
420.098	37.40968
420.311	33.19413
420.523	77.46199
420.736	18.44046
420.948	31.08639
421.161	81.6785
421.373	62.70491
421.586	-4.74153
421.798	10.01031
422.01	45.84105
422.223	109.088
422.435	45.84105
422.648	-27.92059
422.86	94.32857
423.073	128.06598
423.285	79.57023
423.497	35.30189
423.71	142.82785
423.922	14.22533
424.134	18.44046
424.347	-2.6342
424.559	60.59685
424.771	20.54805
424.984	-42.66935
425.196	98.54544
425.408	98.54544
425.621	64.813
425.833	-2.6342
426.045	12.11781
426.257	12.11781
426.47	56.38079
426.682	52.16483
426.894	41.62532
427.106	45.84105
427.318	94.32857
427.531	3.68794
427.743	-13.17063
427.955	54.2728
428.167	60.59685
428.379	125.95723
428.591	94.32857
428.804	52.16483
429.016	62.70491
429.228	3.68794
429.44	73.24557
429.652	94.32857
429.864	79.57023
430.076	20.54805
430.288	98.54544
430.5	62.70491
430.712	1.58054
430.924	-23.70644
431.136	140.71894
431.348	56.38079
431.56	-6.84884
431.772	96.437
431.984	123.8485
432.196	45.84105
432.408	66.92111
432.62	43.73317
432.832	96.437
433.044	69.02924
433.256	54.2728
433.468	62.70491
433.679	109.088
433.891	18.44046
434.103	47.94895
434.315	106.97945
434.527	26.87099
434.739	85.8951
434.95	85.8951
435.162	113.30518
435.374	106.97945
435.586	39.51749
435.798	81.6785
436.009	56.38079
436.221	104.87091
436.433	155.4817
436.645	136.50121
436.856	94.32857
437.068	138.61006
437.28	85.8951
437.491	-13.17063
437.703	98.54544
437.915	85.8951
438.126	45.84105
438.338	98.54544
438.55	121.73979
438.761	-13.17063
438.973	92.22017
439.184	24.76332
439.396	60.59685
439.608	47.94895
439.819	73.24557
440.031	64.813
440.242	73.24557
440.454	96.437
440.665	106.97945
440.877	130.17476
441.088	79.57023
441.3	98.54544
441.511	33.19413
441.723	100.65391
441.934	106.97945
442.146	62.70491
442.357	96.437
442.569	153.37267
442.78	128.06598
442.991	106.97945
443.203	142.82785
443.414	155.4817
443.626	69.02924
443.837	60.59685
444.048	142.82785
444.26	161.80891
444.471	69.02924
444.682	132.28355
444.894	96.437
445.105	92.22017
445.316	225.09118
445.528	69.02924
445.739	123.8485
445.95	94.32857
446.161	90.11179
446.373	161.80891
446.584	117.52244
446.795	81.6785
447.006	104.87091
447.217	106.97945
447.429	113.30518
447.64	187.11962
447.851	130.17476
448.062	142.82785
448.273	144.93677
448.484	111.19658
448.695	149.15468
448.907	144.93677
449.118	142.82785
449.329	163.91802
449.54	191.33836
449.751	172.35468
449.962	85.8951
450.173	102.7624
450.384	69.02924
450.595	225.09118
450.806	199.77609
451.017	149.15468
451.228	115.4138
451.439	172.35468
451.65	140.71894
451.861	79.57023
452.072	123.8485
452.283	138.61006
452.494	130.17476
452.705	187.11962
452.915	172.35468
453.126	172.35468
453.337	71.13739
453.548	128.06598
453.759	149.15468
453.97	125.95723
454.181	140.71894
454.391	185.01029
454.602	132.28355
454.813	128.06598
455.024	155.4817
455.235	189.22898
455.445	119.63111
455.656	189.22898
455.867	203.99507
456.078	189.22898
456.288	241.96948
456.499	206.10459
456.71	136.50121
456.921	130.17476
457.131	269.39935
457.342	222.98148
457.553	220.8718
457.763	195.55718
457.974	267.28925
458.184	187.11962
458.395	260.95905
458.606	284.17061
458.816	256.73901
459.027	203.99507
459.237	191.33836
459.448	315.82634
459.659	241.96948
459.869	267.28925
460.08	250.4091
460.29	408.70593
460.501	284.17061
460.711	339.04311
460.922	250.4091
461.132	256.73901
461.343	358.04023
461.553	305.27397
461.764	250.4091
461.974	334.82172
462.184	330.6004
462.395	374.92772
462.605	381.26081
462.816	383.37188
463.026	368.59479
463.236	341.15383
463.447	421.37383
463.657	336.93241
463.867	493.16926
464.078	440.37677
464.288	431.93086
464.498	415.03981
464.709	478.38641
464.919	377.03874
465.129	446.71136
465.339	448.82293
465.55	448.82293
465.76	421.37383
465.97	531.18558
466.18	514.28887
466.391	613.56959
466.601	598.78124
466.811	512.17684
467.021	569.20645
467.231	545.97095
467.441	537.52208
467.651	634.69687
467.862	643.14812
468.072	695.97277
468.282	636.80966
468.492	647.37382
468.702	611.45693
468.912	841.80349
469.122	712.87816
469.332	761.485
469.542	734.01088
469.752	917.90649
469.962	778.393
470.172	852.3727
470.382	888.30962
470.592	960.1903
470.802	1042.65153
471.012	884.08162
471.222	1057.45324
471.432	958.07604
471.642	1040.53703
471.852	1169.53134
472.062	1095.516
472.272	1368.33529
472.482	1294.31011
472.691	1294.31011
472.901	1188.56467
473.111	1338.72499
473.321	1292.19514
473.531	1550.22906
473.741	1296.42509
473.95	1548.11404
474.16	1381.0255
474.37	1626.36888
474.58	1586.18425
474.79	1806.13003
474.999	1658.09304
475.209	1668.66763
475.419	1643.2885
475.628	2036.59964
475.838	1911.85827
476.048	1878.02659
476.258	1867.45392
476.467	1996.43107
476.677	2114.81541
476.886	2199.36115
477.096	2343.05699
477.306	2283.89329
477.515	2326.15385
477.725	2362.07226
477.935	2334.6055
478.144	2353.62113
478.354	2406.43805
478.563	2602.85728
478.773	2571.1835
478.982	2744.29929
479.192	2746.40992
479.401	2763.29452
479.611	2723.19221
479.82	2946.85725
480.03	2820.27364
480.239	2961.62193
480.449	2756.9629
480.658	3142.95543
480.868	3279.9312
481.077	3362.08248
481.287	3178.78658
481.496	3256.75563
481.705	3418.94094
481.915	3742.99061
482.124	3566.2909
482.333	3677.79563
482.543	3646.24307
482.752	3570.49959
482.961	3707.24081
483.171	3927.95775
483.38	3684.10563
483.589	3957.37007
483.799	3946.86613
484.008	4144.25442
484.217	3848.10441
484.426	4274.34554
484.636	4041.38328
484.845	4247.07515
485.054	4200.91703
485.263	4523.80454
485.472	4377.1013
485.682	4641.08916
485.891	4615.96263
486.1	4492.3772
486.309	4760.39598
486.518	4699.70517
486.727	4821.06773
486.936	5007.14729
487.146	4777.13492
487.355	5076.09675
487.564	5007.14729
487.773	5284.88005
487.982	5151.28556
488.191	5261.9253
488.4	5193.0441
488.609	5376.67071
488.818	5170.07805
489.027	5464.24669
489.236	5543.44635
489.445	5595.53284
489.654	5312.00474
489.863	5859.90452
490.072	5664.26445
490.281	5826.61881
490.49	5726.72543
490.698	6123.89576
490.907	5843.26242
491.116	6128.05007
491.325	6011.69396
491.534	6250.55983
491.743	6034.55545
491.952	6188.27694
492.16	6165.43459
492.369	6233.95312
492.578	6192.42979
492.787	6528.50005
492.996	6540.93536
493.204	6455.94406
493.413	6563.73128
493.622	6748.06837
493.831	6553.36985
494.039	6760.48905
494.248	6754.27881
494.457	6785.32793
494.665	6874.30694
494.874	7079.00645
495.083	6938.42855
495.291	7107.93609
495.5	6907.40468
495.709	7231.87081
495.917	7004.59581
496.126	7396.99357
496.335	7089.33897
496.543	7382.55092
496.752	7394.9304
496.96	7491.87595
497.169	7442.37782
497.377	7500.12443
497.586	7502.1865
497.794	7842.13586
498.003	7293.8083
498.211	7592.89615
498.42	7576.40657
498.628	7809.19617
498.837	7990.299
499.045	7809.19617
499.254	7821.54917
499.462	8019.09616
499.671	8041.71971
499.879	8150.68984
500.087	8068.45347
500.296	8152.74534
500.504	7883.303
500.713	8290.41851
500.921	8362.30223
501.129	8313.01311
501.338	8165.07791
501.546	8423.89791
501.754	8397.20858
501.962	8483.42395
502.171	8553.19269
502.379	8840.24843
502.587	8432.10936
502.795	8782.86609
503.004	8598.32552
503.212	8881.22716
503.42	8934.4888
503.628	8965.2112
503.837	8616.78634
504.045	8610.6329
504.253	8971.35521
504.461	9223.12463
504.669	9094.20217
504.877	9128.99746
505.085	9206.75727
505.294	9306.9905
505.502	9126.95081
505.71	9372.42738
505.918	9147.41648
506.126	9474.63897
506.334	9388.78397
506.542	9439.89158
506.75	9411.27257
506.958	9674.85791
507.166	9407.18388
507.374	9429.67087
507.582	9764.70356
507.79	9787.16037
507.998	9566.59504
508.206	9864.72447
508.414	9562.50878
508.622	9972.87033
508.83	9652.39186
509.037	9927.98458
509.245	9570.68123
509.453	9832.06853
509.661	9664.6463
509.869	10117.68147
510.077	9938.18651
510.285	10305.21952
510.492	10011.62965
510.7	10182.92526
510.908	9976.9505
511.116	10411.16886
511.324	10240.002
511.531	10207.38804
511.739	10280.76457
511.947	10378.57286
512.155	10498.75416
512.362	10146.22738
512.57	10213.50342
512.778	10370.42334
512.985	10515.04649
513.193	10600.56795
513.401	10602.6039
513.608	10392.83402
513.816	10641.28472
514.024	10857.00294
514.231	10624.9986
514.439	10523.19235
514.646	10576.1355
514.854	10865.14065
515.061	10494.68096
515.269	10830.55409
515.477	10736.94992
515.684	10875.31254
515.892	10769.51073
516.099	11072.59112
516.307	10977.01568
516.514	11393.71516
516.722	11052.25796
516.929	11160.01143
517.136	11040.05753
517.344	11107.15501
517.551	10972.94809
517.759	11168.14255
517.966	11033.95717
518.173	11070.55785
518.381	11212.86069
518.588	11511.53314
518.796	11580.58397
519.003	11791.73298
519.21	11401.84159
519.418	11609.01354
519.625	11696.3218
519.832	11950.03341
520.039	11844.50545
520.247	11964.2374
520.454	11635.41082
520.661	11943.94586
520.868	11755.1948
521.076	12150.88262
521.283	11840.44623
521.49	12116.39874
521.697	11992.64421
521.904	12161.02452
522.112	11899.3016
522.319	12258.37743
522.526	12012.93383
522.733	12232.01267
522.94	11872.91902
523.147	12136.68364
523.354	12278.65718
523.561	12406.40357
523.768	12408.43107
523.975	12830.0142
524.183	12621.28247
524.39	12451.00705
524.597	12621.28247
524.804	12487.49844
525.011	12888.77253
525.218	12710.45697
525.425	12955.63
525.632	12846.22386
525.838	12769.22486
526.045	12809.75165
526.252	12888.77253
526.459	13058.94423
526.666	12977.91457
526.873	13295.91255
527.08	13113.63482
527.287	13271.61092
527.494	13010.32739
527.701	13306.03805
527.907	13099.45611
528.114	13506.50215
528.321	13188.57562
528.528	13445.7595
528.735	13231.10682
528.941	13419.43661
529.148	13417.41175
529.355	13407.28737
529.562	13174.39811
529.768	13553.06927
529.975	13439.68504
530.182	13401.2127
530.388	13356.66398
530.595	13694.78393
530.802	13459.93309
531.008	13842.55537
531.215	13858.74855
531.422	14055.07724
531.628	13866.84507
531.835	13864.82094
532.042	13907.327
532.248	14170.43511
532.455	13996.38353
532.661	14417.31993
532.868	13998.40749
533.074	14461.83751
533.281	14107.69751
533.487	14585.26917
533.694	14109.72134
533.9	14500.28396
534.107	14221.0285
534.313	14635.85461
534.52	14567.05823
534.726	14811.8873
534.933	14395.06087
535.139	14556.941
535.345	14684.41603
535.552	14688.46279
535.758	14743.09368
535.965	14757.25715
536.171	14919.12289
536.377	15085.03216
536.584	14939.35585
536.79	14866.51695
536.996	14832.12056
537.203	15123.47434
537.409	14840.21384
537.615	15437.08279
537.821	14941.37915
538.028	15358.17427
538.234	15141.68377
538.44	15250.94043
538.646	15254.98698
538.853	15366.26742
539.059	15289.38267
539.265	15378.40716
539.471	15250.94043
539.677	15242.84734
539.883	15469.45572
540.09	15390.54692
540.296	15681.90722
540.502	15619.18258
540.708	15696.07097
540.914	16094.70202
541.12	15949.00373
541.326	16040.06428
541.532	15783.07788
541.738	15772.9607
541.944	16001.61614
542.15	16068.39482
542.356	16193.86231
542.562	16094.70202
542.768	15902.46272
542.974	16347.67008
543.18	16363.86099
543.386	16624.95732
543.592	16179.69631
543.798	16139.22249
544.004	16216.12333
544.21	16543.99346
544.415	16412.43446
544.621	16882.04225
544.827	16212.07586
545.033	16813.21252
545.239	16641.15052
545.445	17039.95707
545.651	16629.00561
545.856	16977.19412
546.062	17173.59023
546.268	16780.82305
546.474	16724.14299
546.679	16489.34481
546.885	16750.4585
547.091	16651.27135
547.297	16521.72901
547.502	16902.28685
547.708	16756.53137
547.914	16762.60426
548.119	16875.96892
548.325	16997.43995
548.531	16993.39077
548.736	17323.4362
548.942	16938.72778
549.147	17129.04448
549.353	17151.31718
549.559	17428.74319
549.764	17232.31174
549.97	17250.53615
550.175	17193.83875
550.381	17586.7195
550.586	17588.74496
550.792	17890.57619
550.997	17442.91977
551.203	17673.81739
551.408	17570.51591
551.614	17580.64313
551.819	17584.69404
552.025	17789.28219
552.23	17925.01813
552.435	17977.69598
552.641	17973.64376
552.846	17943.2525
553.052	17983.77435
553.257	18239.09502
553.462	18303.94762
553.668	18068.87486
553.873	18451.90702
554.078	18328.26834
554.283	17906.78404
554.489	18336.37536
554.694	18328.26834
554.899	18382.99192
555.105	18263.4143
555.31	18561.3695
555.515	18247.20139
555.72	18218.82936
555.925	18328.26834
556.131	18607.99583
556.336	18287.73412
556.541	18899.96441
556.746	18640.43275
556.951	18794.52184
557.156	18253.2812
557.361	18790.46657
557.567	19037.86721
557.772	18729.63945
557.977	18717.47445
558.182	18863.46384
558.387	18877.65835
558.592	19116.96697
558.797	18638.40541
559.002	18912.13155
559.207	18930.38254
559.412	18539.07068
559.617	18772.21806
559.822	19202.15827
560.027	18802.63242
560.232	18989.1935
560.437	18879.68615
560.642	19183.90238
560.847	19484.15265
561.051	19311.70056
561.256	19167.67521
561.461	19214.32904
561.666	19106.82563
561.871	19281.27094
562.076	19364.44744
562.281	19413.13934
562.485	18983.10945
562.69	19123.05183
562.895	19019.6143
563.1	19745.93151
563.305	18968.91348
563.509	19327.93007
563.714	19423.28379
563.919	19291.41405
564.123	19717.51803
564.328	19636.3412
564.533	19542.99611
564.737	19256.92792
564.942	19366.47622
565.147	19806.82029
565.351	19538.93782
565.556	19378.649
565.761	19739.84284
565.965	19524.73397
566.17	19220.41448
566.374	19611.98945
566.579	19741.87239
566.784	19885.98136
566.988	20225.02544
567.193	20168.17154
567.397	20145.83698
567.602	20255.48424
567.806	19628.22388
568.011	20320.46618
568.215	20060.56426
568.42	20466.69125
568.624	19871.77249
568.828	20275.79064
569.033	20007.7801
569.237	20220.96434
569.442	20633.25179
569.646	20243.30061
569.85	20570.28048
570.055	20617.00075
570.259	20097.10881
570.463	20836.41231
570.668	20596.68732
570.872	20539.81193
571.076	20539.81193
571.281	20476.84658
571.485	20744.98494
571.689	20718.57415
571.893	20576.3743
572.098	20525.5936
572.302	20602.7813
572.506	20708.41634
572.71	20560.12419
572.914	21116.84162
573.119	20852.66694
573.323	20990.84196
573.527	20684.03803
573.731	20901.43242
573.935	20925.81605
574.139	21328.23099
574.343	20976.61719
574.547	21360.75631
574.751	21228.62862
574.955	21165.61989
575.159	21427.84302
575.364	21301.80493
575.568	21078.22715
575.772	20972.553
575.976	21049.77533
576.18	21171.71734
576.383	21297.73944
576.587	21257.08545
576.791	21198.14004
576.995	21440.04107
577.199	21226.59602
577.403	21409.54621
577.607	21844.69023
577.811	21889.43478
578.015	21462.40453
578.219	21425.81002
578.422	21450.20622
578.626	21755.20673
578.83	21450.20622
579.034	21627.09574
579.238	21651.49664
579.442	21755.20673
579.645	21785.71163
579.849	21812.14991
580.053	22050.12364
580.257	21985.03162
580.46	22070.46569
580.664	21822.31866
580.868	22461.10507
581.071	21995.202
581.275	22265.7684
581.479	22137.59712
581.682	21985.03162
581.886	22096.91092
582.09	22054.19202
582.293	22373.60637
582.497	22243.38823
582.7	22080.63686
582.904	22469.24482
583.107	22314.59941
583.311	22218.974
583.515	22395.98912
583.718	22642.2281
583.922	22772.49113
584.125	22894.62558
584.329	22609.66458
584.532	22656.47492
584.735	22874.26898
584.939	22721.60543
585.142	22627.98145
585.346	22611.69977
585.549	22949.59008
585.753	22908.8754
585.956	23108.39017
586.159	22817.27232
586.363	22880.37592
586.566	22919.05394
586.769	22656.47492
586.973	22689.03973
587.176	22961.80475
587.379	22882.41158
587.582	23061.5624
587.786	22978.09117
587.989	23096.17406
588.192	23065.63431
588.395	23428.08644
588.599	23090.06605
588.802	23446.41535
589.005	23116.5343
589.208	23513.62352
589.411	23933.23975
589.615	23778.41525
589.818	23670.45556
590.021	23002.52119
590.224	23161.328
590.427	23220.37665
590.63	23242.77512
590.833	23462.70793
591.036	23652.12361
591.239	23674.52936
591.442	23191.87006
591.645	23438.26913
591.848	23407.72127
592.051	23635.82875
592.254	23621.57091
592.457	23430.12297
592.66	23656.19736
592.863	23713.23104
593.066	23538.06368
593.269	24118.64339
593.472	23876.1972
593.675	24255.16402
593.878	23825.26826
594.081	23978.06047
594.284	24061.59364
594.486	24139.01883
594.689	24387.62092
594.892	24165.5073
595.095	24405.96199
595.298	24497.67045
595.5	24175.6953
595.703	24736.13641
595.906	24324.44777
596.109	24412.07572
596.311	24381.50728
596.514	23776.3782
596.717	24069.74348
596.92	24316.29658
597.122	24646.45291
597.325	24679.06455
597.528	24672.94982
597.73	24467.10038
597.933	24448.75862
598.136	24864.55502
598.338	24338.71246
598.541	24889.01678
598.743	25276.37172
598.946	24823.78618
599.148	24942.01841
599.351	24632.18552
599.554	25041.91034
599.756	25017.4465
599.959	25264.13824
600.161	25041.91034
600.363	24774.86483
600.566	24946.09552
600.768	25072.4906
600.971	25211.12738
601.173	25433.37484
601.376	25182.58368
601.578	25333.46232
601.78	25092.87771
601.983	25088.80027
602.185	25341.61825
602.388	25098.99389
602.59	25050.06503
602.792	25272.29388
602.995	24872.70891
603.197	25080.64542
603.399	25415.02319
603.601	25111.22631
603.804	24880.86282
604.006	25531.25315
604.208	25135.69139
604.41	25019.48514
604.613	25364.04725
604.815	25115.3038
605.017	25423.17946
605.219	25514.93977
605.421	25276.37172
605.623	25353.85222
605.826	25578.15482
606.028	25178.50604
606.23	25376.28136
606.432	25461.9222
606.634	26085.98139
606.836	25557.76266
607.038	25600.58643
607.24	25671.96131
607.442	25508.82229
607.644	25410.94507
607.846	25663.80406
608.048	25818.79711
608.25	26098.21957
608.452	26028.8707
608.654	25998.27626
608.856	25698.47259
609.058	25837.15227
609.26	25782.08723
609.462	25735.18106
609.664	25928.93036
609.866	25996.23664
610.067	26055.3862
610.269	25824.91548
610.471	25616.90047
610.673	26098.21957
610.875	25928.93036
611.077	26006.43473
611.278	25751.49614
611.48	25724.9842
611.682	25879.98158
611.884	26422.55383
612.085	25888.13963
612.287	25812.67875
612.489	25747.41736
612.69	25828.9944
612.892	25569.99793
613.094	25965.64263
613.295	25884.0606
613.497	26100.25928
613.699	26143.09346
613.9	26187.96818
614.102	26165.53071
614.304	26267.52085
614.505	25796.36322
614.707	25822.87602
614.908	25671.96131
615.11	25839.19174
615.311	26165.53071
615.513	25826.95494
615.714	25741.2992
615.916	26100.25928
616.117	26094.14017
616.319	26495.99378
616.52	26224.68447
616.722	26247.12248
616.923	25973.80099
617.124	26316.4776
617.326	25928.93036
617.527	26495.99378
617.729	26420.51387
617.93	26034.98963
618.131	26444.9936
618.333	26345.03615
618.534	26375.63496
618.735	26430.71373
618.937	26028.8707
619.138	26473.55358
619.339	26432.7537
619.54	26406.23413
619.742	26455.19356
619.943	26526.59437
620.144	26218.56505
620.345	26324.63716
620.546	26334.83663
620.748	26634.71925
620.949	26408.27409
621.15	26555.15524
621.351	26277.72009
621.552	26328.71694
621.753	26206.32626
621.954	26338.91644
622.155	26139.01398
622.356	26451.11357
622.558	26498.03381
622.759	26261.40132
622.96	26418.4739
623.161	26493.95376
623.362	26375.63496
623.563	26585.7565
623.764	26438.87364
623.965	26230.80391
624.166	26840.78032
624.366	26504.15391
624.567	26085.98139
624.768	26116.57697
624.969	26016.63287
625.17	26371.5551
625.371	26469.47356
625.572	26546.99496
625.773	26157.37169
625.973	26444.9936
626.174	26646.96007
626.375	26567.3957
626.576	26569.43578
626.777	26895.8685
626.977	26340.95634
627.178	26506.19394
627.379	26241.003
627.58	26247.12248
627.78	26712.24539
627.981	26638.79952
628.182	26483.75365
628.382	26593.9169
628.583	26536.79464
628.784	26591.8768
628.984	26620.43836
629.185	26771.41154
629.386	26683.68288
629.586	26869.34443
629.787	26606.15754
629.987	26946.87699
630.188	27161.12219
630.388	26897.90882
630.589	26653.08051
630.79	26859.14293
630.99	26881.58628
631.191	26961.15953
631.391	27093.78636
631.591	26495.99378
631.792	26822.41784
631.992	27130.51481
632.193	27028.49242
632.393	26771.41154
632.594	26695.92392
632.794	26730.60717
632.994	26855.06234
633.195	27087.66499
633.395	27061.13921
633.595	27055.01791
633.796	27142.75773
633.996	27573.33016
634.196	27238.66224
634.397	27110.11006
634.597	27189.68935
634.797	27693.73717
634.997	27040.73492
635.198	27334.56966
635.398	27044.81577
635.598	27428.43925
635.798	27401.91062
635.998	27226.41894
636.199	27487.61929
636.399	27503.945
636.599	27203.97303
636.799	26989.72481
636.999	27320.28539
637.199	26995.84598
637.399	26742.84842
637.599	26889.74754
637.799	26738.76799
637.999	27528.43372
638.199	27442.72399
638.399	27385.58541
638.599	27146.83871
638.799	27612.10484
638.999	27550.88187
639.199	27832.51651
639.399	27412.11391
639.599	27354.97586
639.799	27565.16713
639.999	27999.87521
640.199	27412.11391
640.399	27471.29366
640.599	26832.6192
640.799	27989.67019
640.998	27754.96268
641.198	27844.762
641.398	27926.39971
641.598	27642.71674
641.798	27599.86016
641.997	27724.34979
642.197	27473.33436
642.397	27834.55742
642.597	27618.2272
642.796	27940.6865
642.996	27552.92261
643.196	27628.43115
643.395	27681.4922
643.595	27497.82285
643.795	27681.4922
643.994	28197.85812
644.194	27746.79921
644.394	27901.9082
644.593	27491.70071
644.793	27928.44067
644.992	27971.30123
645.192	27581.49321
645.392	28012.12127
645.591	28193.77589
645.791	27775.37141
645.99	27489.66
646.19	27734.55406
646.389	28169.28262
646.589	27930.48164
646.788	27893.74441
646.987	27985.58819
647.187	27926.39971
647.386	27818.23015
647.586	27981.5062
647.785	28108.05014
647.984	28279.50359
648.184	27934.56358
648.383	28024.36737
648.582	28042.7366
648.782	28203.98147
648.981	28159.07714
649.18	28167.24152
649.38	28401.97504
649.579	28222.35158
649.778	28087.63954
649.977	28840.86247
650.177	28485.66608
650.376	28508.12008
650.575	27924.35874
650.774	27850.88477
650.973	27938.64552
651.173	28073.35218
651.372	28101.92695
651.571	28242.76291
651.77	27750.88094
651.969	28122.33763
652.168	28436.67598
652.367	28038.65454
652.566	27948.8504
652.765	28110.09121
652.964	28240.72177
653.163	28491.78989
653.362	28479.54229
653.561	28026.40839
653.76	28199.89924
653.959	28124.37871
654.158	28377.48044
654.357	28426.46979
654.556	28183.57035
654.755	28493.83116
654.954	28299.91522
655.153	28330.53288
655.352	28412.18117
655.551	28634.68139
655.749	28961.30979
655.948	28767.37096
656.147	28224.39271
656.346	28583.64812
656.545	28485.66608
656.743	28277.46243
656.942	28487.70735
657.141	28744.91549
657.34	28693.8808
657.538	28095.80377
657.737	28334.61526
657.936	28902.10642
658.135	28463.21221
658.333	28530.57421
658.532	28559.15238
658.731	28683.67395
658.929	28212.14595
659.128	28157.03605
659.326	28348.9036
659.525	28697.96356
659.724	28734.7085
659.922	28726.54293
660.121	28932.72875
660.319	28971.51736
660.518	28681.63258
660.716	28663.26031
660.915	28812.28228
661.113	29124.63397
661.312	28444.84096
661.51	28908.23087
661.709	28538.73938
661.907	28430.55227
662.105	28048.85969
662.304	28818.40659
662.502	28916.39681
662.701	29075.63602
662.899	28438.71723
663.097	28734.7085
663.296	28806.15798
663.494	28918.4383
663.692	29047.05416
663.891	28985.808
664.089	28383.60407
664.287	28201.94035
664.485	28430.55227
664.684	28991.93257
664.882	28683.67395
665.08	28469.33598
665.278	28326.45052
665.476	28477.50102
665.675	27946.80942
665.873	28206.02259
666.071	28234.59836
666.269	28636.72273
666.467	27971.30123
666.665	28401.97504
666.863	27914.15394
667.061	28522.40906
667.259	28387.6865
667.457	28855.15264
667.655	28079.47533
667.853	28408.09871
668.051	27720.26809
668.249	28030.49044
668.447	28169.28262
668.645	28273.38011
668.843	28371.35681
669.041	28589.77207
669.239	28524.45035
669.437	28516.28521
669.635	28836.77957
669.833	28575.48285
670.031	28489.74862
670.229	28928.64576
670.426	28593.85472
670.624	28246.84519
670.822	28314.20343
671.02	28683.67395
671.218	28534.65679
671.415	28700.00493
671.613	28665.30167
671.811	28277.46243
672.009	28624.47468
672.206	28559.15238
672.404	28434.63474
672.602	28442.79971
672.799	28822.48946
672.997	28959.26828
673.195	28808.19941
673.392	28822.48946
673.59	28267.25665
673.788	28508.12008
673.985	27981.5062
674.183	27918.23586
674.38	28453.00595
674.578	28197.85812
674.775	28310.12108
674.973	28208.06371
675.17	28281.54474
675.368	28146.8306
675.565	28640.80542
675.763	28236.6395
675.96	28352.98599
676.158	28746.95689
676.355	28381.56286
676.553	28855.15264
676.75	28224.39271
676.947	28528.53292
677.145	27724.34979
677.342	28199.89924
677.539	28065.188
677.737	27861.0894
677.934	27920.27682
678.131	28079.47533
678.329	28122.33763
678.526	28438.71723
678.723	28618.35067
678.92	28432.5935
679.118	28234.59836
679.315	27834.55742
679.512	28128.46086
679.709	28234.59836
679.906	27850.88477
680.104	28193.77589
680.301	27730.47235
680.498	27669.24727
680.695	27461.09018
680.892	27720.26809
681.089	27914.15394
681.286	27944.76845
681.483	27265.18953
681.68	27983.54719
681.877	27891.70346
682.075	27559.04486
682.272	27461.09018
682.469	27389.6667
682.665	27457.00879
682.862	27483.53787
683.059	27371.30092
683.256	27508.02644
683.453	27191.72987
683.65	27314.16358
683.847	27367.21964
684.044	27434.56128
684.241	27408.03259
684.438	27997.8342
684.635	27748.84008
684.831	28222.35158
685.028	27499.86357
685.225	27320.28539
685.422	27387.62605
685.619	27442.72399
685.815	27314.16358
686.012	27085.62454
686.209	27065.22008
686.405	27324.3666
686.602	26810.17624
686.799	26899.94914
686.996	27244.7839
687.192	27424.35791
687.389	26887.70722
687.586	26981.56327
687.782	26993.80559
687.979	27177.44625
688.175	26700.00428
688.372	27006.04795
688.568	26863.22353
688.765	26834.65948
688.962	26802.01521
689.158	26716.32578
689.355	27042.77535
689.551	26891.78785
689.748	27044.81577
689.944	27008.08835
690.14	27257.02726
690.337	26901.98947
690.533	27487.61929
690.73	27130.51481
690.926	27085.62454
691.123	26318.51749
691.319	26624.5186
691.515	26826.49838
691.712	26867.30413
691.908	26763.25062
692.104	26302.19845
692.301	26675.52221
692.497	26514.35409
692.693	26506.19394
692.889	27099.90773
693.086	26987.68443
693.282	26365.43532
693.478	27042.77535
693.674	26273.64039
693.87	26581.67631
694.067	26353.1958
694.263	26600.03721
694.459	26910.15079
694.655	26704.08464
694.851	26708.16502
695.047	26212.44565
695.243	26273.64039
695.439	26561.27546
695.635	26265.481
695.831	26438.87364
696.027	26785.69321
696.224	26642.87979
696.42	26104.33869
696.615	26579.63622
696.811	26528.63442
697.007	26165.53071
697.203	26092.10047
697.399	26285.87952
697.595	26212.44565
697.791	25918.73261
697.987	26094.14017
698.183	26593.9169
698.379	26418.4739
698.575	26608.19765
698.77	26387.87458
698.966	26251.20214
699.162	26857.10264
699.358	26857.10264
699.554	26393.99442
699.749	26722.44636
699.945	25851.42862
700.141	26000.31587
700.337	26028.8707
700.532	26249.16231
700.728	26116.57697
700.924	26218.56505
701.119	26110.45782
701.315	25588.35097
701.511	25833.07333
701.706	26216.52525
701.902	25902.4163
702.097	25796.36322
702.293	26134.93451
702.489	25951.36557
702.684	25457.84398
702.88	25896.29772
703.075	25737.22044
703.271	26030.91034
703.466	25574.07637
703.662	26020.71214
703.857	25535.33151
704.053	25837.15227
704.248	25961.56346
704.443	26108.41811
704.639	26128.81531
704.834	25988.0782
705.03	25773.92956
705.225	25751.49614
705.42	25249.86594
705.616	25470.07866
705.811	25315.11159
706.006	25421.14039
706.202	25521.05727
706.397	25270.25497
706.592	25463.96131
706.787	25514.93977
706.983	25345.69623
707.178	26004.39511
707.373	25447.64847
707.568	25478.23515
707.763	25433.37484
707.959	25802.48153
708.154	25398.71075
708.349	25410.94507
708.544	25692.35458
708.739	25574.07637
708.934	25525.13561
709.129	25788.2055
709.324	25427.25761
709.519	25494.54823
709.714	25474.1569
709.909	26012.55361
710.104	25290.64421
710.299	25164.23438
710.494	25276.37172
710.689	25386.4765
710.884	25437.45301
711.079	25537.37069
711.274	25323.26745
711.469	25810.6393
711.664	25412.98413
711.859	25694.39391
712.054	25835.1128
712.249	25466.00042
712.443	25094.91644
712.638	25445.60937
712.833	25241.71039
713.028	25500.66567
713.223	24850.28582
713.417	24833.9783
713.612	25168.31199
713.807	25227.43825
714.002	24927.74859
714.196	25249.86594
714.391	24611.80375
714.586	25370.16429
714.78	24950.17265
714.975	24962.40407
715.17	24548.62184
715.364	24758.55802
715.559	25066.3745
715.754	24334.63682
715.948	24281.6545
716.143	24674.98806
716.337	23859.89974
716.532	24780.97993
716.726	24526.20303
716.921	24491.55639
717.115	24293.88103
717.31	24807.47891
717.504	24931.82567
717.699	24895.13227
717.893	24593.46037
718.088	24640.3383
718.282	25033.75569
718.476	24591.42223
718.671	24791.1718
718.865	24534.35529
719.059	23947.50074
719.254	24328.52338
719.448	23823.23114
719.642	24022.88256
719.837	24200.14677
720.031	24344.82593
720.225	23957.68724
720.419	24116.60586
720.614	23637.8656
720.808	24057.51875
721.002	23568.61451
721.196	23923.05341
721.39	23694.89853
721.585	23705.08323
721.779	23780.4523
721.973	23935.27702
722.167	23489.18379
722.361	23721.3789
722.555	24039.18184
722.749	23456.59819
722.943	23385.31996
723.137	23788.60055
723.331	23525.84354
723.525	23544.17379
723.719	23501.4036
723.913	24014.73299
724.107	23749.89678
724.301	23973.9858
724.495	23599.16603
724.689	23910.8299
724.883	23969.91114
725.077	23855.8254
725.271	23890.45762
725.465	23705.08323
725.659	23660.27111
725.853	23973.9858
726.046	23737.67476
726.24	23529.91691
726.434	23371.06478
726.628	23872.12281
726.822	23578.79828
727.015	23888.42041
727.209	23538.06368
727.403	23829.34251
727.596	24026.95736
727.79	24010.65822
727.984	24081.9683
728.177	23918.9789
728.371	23898.6065
728.565	23507.51354
728.758	23601.20282
728.952	24065.66855
729.146	23525.84354
729.339	23859.89974
729.533	24051.40642
729.726	24153.28179
729.92	24149.20665
730.113	23941.38887
730.307	23690.82467
730.5	23660.27111
730.694	23499.36696
730.887	23487.14717
731.081	23448.45191
731.274	23110.4262
731.468	23179.65315
731.661	23472.89089
731.854	23016.77226
732.048	23234.63018
732.241	22959.76897
732.435	23597.12924
732.628	23073.77817
732.821	23067.67027
733.014	23000.48534
733.208	23206.12328
733.401	22965.87634
733.594	23230.55773
733.788	23279.42802
733.981	23609.35002
734.174	23819.15691
734.367	23548.24722
734.56	23562.50429
734.754	23519.73352
734.947	23195.94239
735.14	23063.59835
735.333	23389.3929
735.526	23212.23184
735.719	22837.62796
735.912	22917.01823
736.105	23024.9158
736.298	22874.26898
736.491	22575.06683
736.684	22536.39998
736.877	22770.45566
737.07	22955.6974
737.263	22841.69913
737.456	22835.59239
737.649	22713.46392
737.842	23350.7005
738.035	23578.79828
738.228	22817.27232
738.421	23434.19605
738.614	23088.03005
738.807	23171.50861
739	22939.41129
739.192	22798.95254
739.385	23079.8861
739.578	23002.52119
739.771	22939.41129
739.964	22880.37592
740.156	23200.01474
740.349	23202.05091
740.542	23230.55773
740.735	22723.64082
740.927	22831.52124
741.12	22902.76831
741.313	23037.13121
741.505	22839.66355
741.698	22839.66355
741.891	22528.25975
742.083	22764.34927
742.276	22644.26335
742.468	22833.55681
742.661	22353.2588
742.854	22198.62923
743.046	22072.49992
743.239	22011.47479
743.431	22306.46077
743.624	22306.46077
743.816	22306.46077
744.009	22514.0145
744.201	22145.73454
744.393	22332.91159
744.586	22058.26042
744.778	22343.08515
744.971	22536.39998
745.163	22811.1657
745.355	22613.73497
745.548	22235.25009
745.74	22318.66876
745.932	22748.06572
746.125	22609.66458
746.317	22705.32247
746.509	22328.84219
746.702	22646.2986
746.894	22343.08515
747.086	21970.79326
747.278	22239.31915
747.471	22044.0211
747.663	22164.04395
747.855	22172.18157
748.047	22009.44068
748.239	22119.28814
748.431	22267.80298
748.623	22180.31924
748.815	22064.36304
749.008	22277.97596
749.2	22475.34968
749.392	22046.05528
749.584	21328.23099
749.776	21614.8955
749.968	21458.33841
750.16	21686.06554
750.352	21913.84169
750.544	22007.40657
750.736	21915.87562
750.928	22172.18157
751.12	22125.3911
751.311	22035.88443
751.503	21799.94755
751.695	21521.36507
751.887	21427.84302
752.079	21787.74532
752.271	21397.34852
752.463	21499.00033
752.654	21429.87602
752.846	21527.46462
753.038	21681.99855
753.23	21645.39636
753.421	21663.6973
753.613	21265.21612
753.805	21415.64511
753.997	21391.24973
754.188	21751.13948
754.38	21639.29612
754.572	21602.69541
754.763	21584.39553
754.955	21025.38869
755.146	21503.06661
755.338	21537.63063
755.53	21570.16251
755.721	21397.34852
755.913	21291.64124
756.104	21084.32408
756.296	21387.18389
756.487	20994.90622
756.679	21576.26235
756.87	21374.98646
757.062	20868.92183
757.253	21295.70671
757.445	21216.43308
757.636	21210.33536
757.827	21108.71214
758.019	21029.45309
758.21	21037.58194
758.401	20960.36054
758.593	20938.00809
758.784	20417.94715
758.975	20316.40468
759.167	20379.35978
759.358	20556.06171
759.549	20302.18958
759.74	20541.84314
759.932	20190.50661
760.123	19954.99879
760.314	20222.99489
760.505	20097.10881
760.696	20153.95858
760.888	20452.47397
761.079	20529.65596
761.27	20493.09532
761.461	20267.66803
761.652	20383.42153
761.843	20241.27002
762.034	20424.04003
762.225	20375.29803
762.416	20379.35978
762.607	20245.3312
762.798	20487.00201
762.989	20292.03605
763.18	20306.25101
763.371	20088.98768
763.562	19918.45955
763.753	19918.45955
763.944	20107.26031
764.135	20164.11068
764.326	20422.00906
764.517	19861.62343
764.708	20265.63739
764.899	19601.84307
765.089	19587.63831
765.28	19821.02822
765.471	19597.78455
765.662	19305.61457
765.853	19376.62019
766.043	19187.95922
766.234	19447.63088
766.425	19206.21518
766.615	19390.82192
766.806	19421.25489
766.997	19311.70056
767.187	19252.8708
767.378	19800.73124
767.569	19506.47217
767.759	19766.22735
767.95	19516.61757
768.141	19563.28777
768.331	19275.18513
768.522	19342.13111
768.712	19571.40455
768.903	19396.90844
769.093	19141.30661
769.284	19366.47622
769.474	18889.82523
769.665	18751.94231
769.855	19060.17678
770.046	19216.35752
770.236	19206.21518
770.426	19137.24996
770.617	19429.37051
770.807	19135.22164
770.998	18810.74307
771.188	18709.36453
771.378	18719.50194
771.569	18285.70744
771.759	18431.63742
771.949	18500.55563
772.139	18814.79842
772.33	18514.74522
772.52	18883.74177
772.71	18749.91476
772.9	18683.00773
773.09	18603.94129
773.281	18934.43836
773.471	18555.28796
773.661	18614.07768
773.851	18411.36819
774.041	18332.32184
774.231	18344.48245
774.421	18133.7176
774.611	17827.7729
774.802	18158.03459
774.992	18151.95529
775.182	18052.66476
775.372	17568.49047
775.562	17904.75805
775.752	17424.69277
775.942	17463.17229
776.131	17888.55023
776.321	17657.61267
776.511	17633.30599
776.701	17817.64364
776.891	17730.53558
777.081	17793.33378
777.271	17811.56613
777.461	18230.98871
777.651	17831.82462
777.84	17659.63825
778.03	17764.9729
778.22	17764.9729
778.41	17835.87636
778.599	17598.87233
778.789	17521.90637
778.979	17489.50103
779.169	17104.74738
779.358	17274.83574
779.548	17606.97428
779.738	17149.29238
779.927	17615.07629
780.117	17394.315
780.307	17236.36158
780.496	17021.7353
780.686	17201.93824
780.875	17013.63681
781.065	17149.29238
781.254	16839.52943
781.444	17372.0384
781.633	17017.68605
781.823	17266.73583
782.012	16942.77682
782.202	16851.67584
782.391	16653.29552
782.581	16655.31969
782.77	16637.10221
782.96	16750.4585
783.149	16580.42676
783.338	16762.60426
783.528	16884.0667
783.717	17185.7393
783.906	17011.61219
784.096	16833.45626
784.285	16975.16956
784.474	16556.13781
784.663	16847.62702
784.853	16784.8717
785.042	17104.74738
785.231	16805.11509
785.42	16590.54725
785.61	16920.50721
785.799	16707.94903
785.988	16594.59546
786.177	16189.81487
786.366	16315.28863
786.555	16135.17514
786.744	16242.43207
786.933	15694.04757
787.122	16562.21002
787.312	16208.02839
787.501	15965.19206
787.69	16005.66329
787.879	16234.33704
788.068	15991.4983
788.257	16080.53657
788.445	15716.30497
788.634	15912.58027
788.823	16033.99349
789.012	16197.90975
789.201	16031.96989
789.39	15829.61725
789.579	15805.33577
789.768	15536.22535
789.957	15692.02418
790.145	16074.46569
790.334	15698.09436
790.523	15835.68765
790.712	15594.90229
790.9	15793.19508
791.089	15471.47903
791.278	15700.11776
791.467	15534.20202
791.655	15876.15723
791.844	15627.27604
792.033	15578.71548
792.221	15208.45171
792.41	15886.2747
792.599	15289.38267
792.787	15406.73328
792.976	15356.15098
793.164	15370.314
793.353	15671.79029
793.541	15534.20202
793.73	15141.68377
793.918	15394.5935
794.107	15580.73883
794.295	15244.87061
794.484	15285.33612
794.672	15246.89388
794.861	15252.96371
795.049	15159.89321
795.238	15076.93907
795.426	15058.7296
795.614	14977.79837
795.803	14813.91063
795.991	15010.17091
796.179	14973.7518
796.368	14919.12289
796.556	15149.77686
796.744	14532.65953
796.932	14931.26267
797.121	14429.46116
797.309	14846.2838
797.497	14658.112
797.685	14854.37707
797.874	14494.2135
798.062	14518.49526
798.25	14038.88607
798.438	14643.94822
798.626	14476.00205
798.814	14931.26267
799.002	14765.35054
799.19	14870.56358
799.378	14498.26047
799.566	14662.15878
799.755	14670.25234
799.943	14670.25234
800.131	15103.24162
800.318	14987.9148
800.506	14591.33946
800.694	14354.58936
800.882	14237.21812
801.07	14765.35054
801.258	14522.5422
801.446	14625.73758
801.634	14239.24182
801.822	14482.07254
802.01	14376.84877
802.197	14237.21812
802.385	14142.10226
802.573	14467.90804
802.761	14303.99905
802.949	14423.39055
803.136	14247.33657
803.324	14583.24573
803.512	14368.75447
803.699	14627.76099
803.887	14538.72992
804.075	14813.91063
804.262	14484.09604
804.45	14650.01842
804.638	14696.5563
804.825	14925.19278
805.013	14676.3225
805.201	14639.90142
805.388	14526.58914
805.576	14567.05823
805.763	14637.87802
805.951	14459.814
806.138	14457.79049
806.326	14297.92813
806.513	14439.57881
806.701	14425.41409
806.888	14635.85461
807.075	14587.2926
807.263	14231.14703
807.45	14601.45658
807.638	14247.33657
807.825	14427.43763
808.012	14615.62052
808.2	14384.94306
808.387	14297.92813
808.574	14591.33946
808.761	14492.19001
808.949	14544.80029
809.136	14455.76697
809.323	14227.09962
809.51	14441.60234
809.698	14469.93154
809.885	14706.67316
810.072	14631.8078
810.259	14842.23716
810.446	14694.53292
810.633	14609.55027
810.82	14840.21384
811.008	14522.5422
811.195	14554.91755
811.382	14380.89592
811.569	14429.46116
811.756	14397.08443
811.943	14698.57967
812.13	14540.75338
812.317	14364.7073
812.504	14826.05059
812.691	15010.17091
812.878	14775.46726
813.064	14888.77335
813.251	14571.10511
813.438	14894.84327
813.625	14775.46726
813.812	14807.84064
813.999	14737.02362
814.186	14852.35375
814.372	14666.20557
814.559	14639.90142
814.746	14340.42418
814.933	14546.82375
815.12	14597.40974
815.306	14838.19052
815.493	14271.62067
815.68	14652.04182
815.866	14249.36026
816.053	14451.71994
816.24	14399.10799
816.426	14391.01375
816.613	14336.37697
816.799	14805.81731
816.986	14658.112
817.173	14817.95728
817.359	14637.87802
817.546	14338.40058
817.732	14142.10226
817.919	14346.49499
818.105	13963.99992
818.292	14134.00708
818.478	13741.34381
818.665	14247.33657
818.851	14241.26551
819.037	14182.57764
819.224	14008.52723
819.41	13895.18254
819.597	13870.89331
819.783	14200.7913
819.969	14134.00708
820.156	14129.95948
820.342	14229.12333
820.528	14204.83875
820.714	13998.40749
820.901	14136.03088
821.087	14022.69476
821.273	14352.56577
821.459	14016.62297
821.646	14291.85721
821.832	14093.53066
822.018	14125.91187
822.204	13544.97077
822.39	13804.09585
822.576	13644.17345
822.762	13933.63968
822.948	13749.44101
823.134	13937.68775
823.32	13818.26527
823.507	13988.28769
823.693	14022.69476
823.879	13672.51557
824.065	13439.68504
824.25	13627.97765
824.436	13510.55154
824.622	13502.45274
824.808	13860.77268
824.994	13652.27126
825.18	13498.40332
825.366	13623.92867
825.552	13461.95787
825.738	13810.16847
825.923	13664.41789
826.109	13706.93015
826.295	13747.41671
826.481	13573.31525
826.667	13733.24656
826.852	13601.65903
827.038	13561.1677
827.224	13727.17359
827.409	13524.72429
827.595	13623.92867
827.781	13542.94614
827.966	13413.36201
828.152	13137.94064
828.338	13164.27118
828.523	13129.83877
828.709	13589.51178
828.894	13399.1878
829.08	13482.20549
829.266	13316.16344
829.451	13275.66123
829.637	12771.25125
829.822	12795.56753
830.008	12625.33611
830.193	12720.58971
830.378	12487.49844
830.564	13069.07238
830.749	12676.00455
830.935	12706.40383
831.12	12365.85212
831.305	13022.48187
831.491	12803.67277
831.676	12643.57718
831.861	12544.25865
832.047	12888.77253
832.232	12738.82828
832.417	12463.17108
832.602	12532.09617
832.788	12562.50195
832.973	12574.66386
833.158	12763.14564
833.343	12489.52567
833.528	12461.14376
833.714	12757.06638
833.899	12994.12114
834.084	12572.63689
834.269	12923.21497
834.454	12440.87018
834.639	12546.28571
834.824	12167.10958
835.009	12375.99024
835.194	12442.89756
835.379	12542.23158
835.564	12152.91102
835.749	12426.67828
835.934	12763.14564
836.119	12396.26596
836.304	12453.03441
836.489	12274.60129
836.674	11901.33097
836.859	12104.22744
837.044	11982.4991
837.228	12359.76917
837.413	12108.28457
837.598	12550.3398
837.783	12158.99616
837.968	12260.40544
838.152	11810.00102
838.337	11929.7413
838.522	11854.65334
838.707	11976.41194
838.891	11706.47284
839.076	11765.34458
839.261	11525.75037
839.445	11952.06257
839.63	11669.92803
839.815	11937.85824
839.999	11747.07483
840.184	11799.8522
840.368	11487.15966
840.553	11803.91175
840.737	11550.1217
840.922	11881.03689
841.106	11556.21432
841.291	11665.86732
841.475	11353.08066
841.66	11444.50276
841.844	11426.21993
842.029	11422.15697
842.213	11550.1217
842.397	10946.50771
842.582	11164.07701
842.766	11058.35802
842.951	10812.24219
843.135	11019.72261
843.319	10828.51948
843.504	10844.79602
843.688	10474.31415
843.872	10995.31925
844.056	11320.57019
844.241	11200.66534
844.425	10924.13358
844.609	11247.41217
844.793	11428.25139
844.977	11631.3498
845.161	11127.48526
845.346	11218.95823
845.53	11044.12438
845.714	11162.04423
845.898	10763.40581
846.082	11088.85687
846.266	10901.75809
846.45	11141.7158
846.634	10763.40581
846.818	10970.91428
847.002	10612.7835
847.186	10718.63312
847.37	10268.53636
847.554	10657.57006
847.738	10669.78354
847.922	10543.5561
848.106	10661.64127
848.29	10684.03206
848.473	10290.95436
848.657	10299.10596
848.841	10288.91643
849.025	10504.86388
849.209	10156.42169
849.392	10274.65053
849.576	10386.72218
849.76	10343.93592
849.944	10119.72056
850.127	10409.13171
850.311	10425.42856
850.495	10553.73751
850.678	10482.46102
850.862	10881.41553
851.046	10478.38761
851.229	10203.31105
851.413	10029.98752
851.596	10083.01489
851.78	10136.03273
851.964	10386.72218
852.147	9740.20313
852.331	9879.01025
852.514	9723.8683
852.698	9723.8683
852.881	9464.41964
853.065	9729.99398
853.248	9666.68865
853.431	9783.07745
853.615	9544.11986
853.798	9895.33597
853.982	9529.81648
854.165	9830.02741
854.348	9740.20313
854.532	9866.76534
854.715	9495.07645
854.898	9740.20313
855.081	9437.84747
855.265	9797.36741
855.448	9509.38172
855.631	9689.15352
855.814	9791.24323
855.997	9889.21393
856.181	9732.03584
856.364	9723.8683
856.547	9417.40548
856.73	9640.13685
856.913	9284.49266
857.096	9339.71105
857.279	9212.89516
857.462	9472.59514
857.645	9268.12933
857.828	9668.73099
858.011	9384.69492
858.194	9313.12593
858.377	9047.11825
858.56	9325.39633
858.743	9266.08384
858.926	9339.71105
859.109	9102.38974
859.292	9145.36999
859.475	8885.32463
859.658	9128.99746
859.841	8875.0808
860.023	9026.64412
860.206	8659.8557
860.389	8889.42204
860.572	8561.39933
860.755	8844.34663
860.937	8754.16957
861.12	8881.22716
861.303	8909.908
861.486	9311.0808
861.668	8922.19872
861.851	8926.29548
862.034	8536.77848
862.216	8573.70874
862.399	8530.62285
862.581	8682.41257
862.764	8298.635
862.947	8723.41933
863.129	8428.00367
863.312	8460.847
863.494	8183.57542
863.677	8473.16199
863.859	8374.62276
864.042	8532.67474
864.224	8454.68925
864.406	8702.91687
864.589	8101.35188
864.771	8475.21442
864.954	8039.66313
865.136	8105.46382
865.318	8004.69808
865.501	8052.00233
865.683	8023.20972
865.865	7994.41312
866.048	7986.18479
866.23	7856.5453
866.412	7805.07833
866.594	8220.56562
866.777	8012.92568
866.959	8259.60386
867.141	8142.46765
867.323	8220.56562
867.505	7907.99932
867.687	7930.635
867.869	7671.20303
868.052	7821.54917
868.234	7539.30001
868.416	7805.07833
868.598	7607.32341
868.78	7856.5453
868.962	7644.41729
869.144	8010.86881
869.326	7850.36995
869.508	7864.77881
869.69	7844.19441
869.872	8010.86881
870.054	7720.64426
870.236	7784.4879
870.417	7685.62465
870.599	7679.44408
870.781	7807.13726
870.963	7753.59833
871.145	7549.60808
871.327	7813.31392
871.508	7450.62837
871.69	7829.7841
871.872	7355.72602
872.054	7730.94298
872.235	7469.19085
872.417	7669.14272
872.599	7293.8083
872.78	7627.93197
872.962	7574.34527
873.144	7623.81043
873.325	7448.56577
873.507	7533.11491
873.689	7458.87858
873.87	7343.34405
874.052	7248.38941
874.233	7322.70569
874.415	6981.85342
874.596	7335.08897
874.778	7099.67092
874.959	7333.02514
875.141	7335.08897
875.322	7842.13586
875.503	7553.73116
875.685	7541.36167
875.866	7526.92961
876.048	7475.37796
876.229	7287.61544
876.41	7353.66241
876.592	7097.60458
876.773	7248.38941
876.954	7260.77744
877.136	7370.17065
877.317	7343.34405
877.498	7599.07939
877.679	7531.05316
877.86	7279.35799
878.042	7260.77744
878.223	7401.11984
878.404	7248.38941
878.585	7557.85416
878.766	7157.51957
878.947	7361.91671
879.128	6934.29233
879.309	7209.15542
879.49	6959.1083
879.672	7244.25989
879.853	7132.72943
880.034	7396.99357
880.215	7477.44028
880.396	7625.87121
880.576	7167.84785
880.757	7256.64818
880.938	7091.4054
881.119	7450.62837
881.3	7202.95985
881.481	7574.34527
881.662	7304.12929
881.843	7384.61422
882.023	7576.40657
882.204	7640.29609
882.385	7508.37257
882.566	7308.25753
882.747	7318.57775
882.927	7625.87121
883.108	7271.10019
883.289	7561.97706
883.469	7318.57775
883.65	7221.54596
883.831	7388.74075
884.011	7504.24854
884.192	7568.16126
884.373	7683.56448
884.553	7473.31561
884.734	7634.11412
884.914	7634.11412
885.095	7609.38436
885.275	7403.18295
885.456	7640.29609
885.636	7524.8678
885.817	7788.60615
885.997	7384.61422
886.178	7697.9852
886.358	7454.75352
886.538	7755.65778
886.719	7617.62795
886.899	7401.11984
887.08	7623.81043
887.26	7487.75158
887.44	7318.57775
887.621	7706.22515
887.801	7322.70569
887.981	7611.44529
888.161	7353.66241
888.342	7541.36167
888.522	7570.22262
888.702	7549.60808
888.882	7526.92961
889.062	7549.60808
889.242	7285.55111
889.423	7357.7896
889.603	7194.69878
889.783	7335.08897
889.963	7056.27295
890.143	7401.11984
890.323	7316.51375
890.503	7460.94108
890.683	7471.25324
890.863	7409.37213
891.043	7186.43735
891.223	7442.37782
891.403	7368.1072
891.583	7656.78039
891.763	7345.40777
891.943	7460.94108
892.122	7347.47146
892.302	7481.56487
892.482	7097.60458
892.662	7262.84203
892.842	6959.1083
893.022	7056.27295
893.201	6988.05616
893.381	7169.91344
893.561	7231.87081
893.741	7250.45414
893.92	6996.32617
894.1	7277.29357
894.28	7171.97901
894.459	7200.89462
894.639	6950.83667
894.819	7169.91344
894.998	7016.99961
895.178	7194.69878
895.357	7070.74004
895.537	7025.26835
895.716	6882.58192
895.896	6967.37957
896.075	6665.24279
896.255	6855.68691
896.434	6690.09432
896.614	7079.00645
896.793	6638.31656
896.973	6909.4731
897.152	6516.06389
897.331	6683.88175
897.511	6801.88535
897.69	6888.78792
897.87	6810.16352
898.049	6917.74654
898.228	6946.70072
898.407	6969.44733
898.587	6420.69231
898.766	6847.41075
898.945	6683.88175
899.124	6737.71718
899.304	6499.48106
899.483	6723.22455
899.662	6231.87718
899.841	6408.24891
900.02	6441.42945
900.199	6428.98744
900.378	6294.14531
900.557	6283.76875
900.737	6009.6155
900.916	6128.05007
901.095	5864.06481
901.274	6308.67151
901.453	5978.43579
901.632	6030.39902
901.811	5643.4394
901.989	5957.64637
902.168	5859.90452
902.347	6225.6492
902.526	6003.37998
902.705	6030.39902
902.884	6040.7899
903.063	6292.07004
903.242	6069.88124
903.42	5963.88345
903.599	5651.7697
903.778	5787.08418
903.957	5545.5301
904.135	5485.092
904.314	5445.4839
904.493	5724.64374
904.672	5341.21152
904.85	5439.22921
905.029	5314.09109
905.207	5293.22653
905.386	5218.09475
905.565	5318.26372
905.743	4898.4487
905.922	5048.93785
906.1	4950.7154
906.279	5134.57953
906.457	5028.04372
906.636	5305.74555
906.814	4841.98459
906.993	4975.79831
907.171	4875.44682
907.35	5013.41646
907.528	4724.82091
907.707	4626.43241
907.885	4680.86623
908.063	4749.9334
908.242	4678.7729
908.42	4800.14859
908.598	4469.32733
908.777	4615.96263
908.955	4567.79445
909.133	4731.09934
909.311	4559.41618
909.49	4498.66306
909.668	4286.93066
909.846	4534.27922
910.024	4364.52175
910.202	4565.69992
910.38	4398.06547
910.559	4507.04391
910.737	4364.52175
910.915	4676.67955
911.093	4437.89139
911.271	4741.56293
911.449	4578.2668
911.627	4762.48842
911.805	4446.27479
911.983	4754.1185
912.161	4389.68007
912.339	4883.81146
912.517	4475.61392
912.695	4749.9334
912.872	4481.90031
913.05	4871.26436
913.228	4548.94283
913.406	4733.1921
913.584	4523.80454
913.762	4758.30351
913.939	4636.90163
914.117	4775.04263
914.295	4486.09113
914.473	4525.89952
914.65	4381.29431
914.828	4381.29431
915.006	4423.2196
915.184	4653.65121
915.361	4385.48723
915.539	4674.58618
915.716	4190.42512
915.894	4601.304
916.072	4410.64293
916.249	4582.45558
916.427	4314.19576
916.604	4682.95953
916.782	4322.58429
916.959	4565.69992
917.137	4291.12553
917.314	4490.28187
917.492	4259.66193
917.669	4502.85353
917.847	4322.58429
918.024	4037.1834
918.201	4154.74866
918.379	4213.50663
918.556	4003.58139
918.733	4100.17292
918.911	3608.37436
919.088	4037.1834
919.265	3747.1961
919.442	3921.65459
919.62	3700.93145
919.797	4003.58139
919.974	3877.52742
920.151	4014.08259
920.328	3841.79897
920.506	4062.38145
920.683	3990.97929
920.86	3888.03469
921.037	3570.49959
921.214	3806.06478
921.391	3709.3439
921.568	3885.93328
921.745	3831.28951
921.922	3677.79563
922.099	3549.45544
922.276	4030.88343
922.453	3656.76106
922.63	3854.40967
922.807	3524.20003
922.984	3810.2691
923.161	3562.08215
923.338	3917.45239
923.514	3717.75604
923.691	3625.20565
923.868	3532.61879
924.045	3705.13771
924.222	3290.46487
924.399	3446.31264
924.575	3073.38758
924.752	3389.46038
924.929	3395.77794
925.105	3338.91426
925.282	3201.96894
925.459	3568.39525
925.635	3433.67992
925.812	3461.04999
925.989	3199.86153
926.165	3490.52204
926.342	3465.2605
926.518	3284.14472
926.695	2921.54468
926.871	3161.92545
927.048	2965.84027
927.224	3174.5714
927.401	2978.49495
927.577	3026.99951
927.754	2980.60401
927.93	2917.32572
928.107	2790.73016
928.283	2963.73111
928.459	2773.84696
928.636	3071.2792
928.812	2775.95741
928.988	2904.66847
929.165	2689.41816
929.341	2885.68162
929.517	2556.40148
929.693	2716.85983
929.87	2480.37069
930.046	2600.74578
930.222	2680.97413
930.398	2875.13287
930.574	2410.66313
930.751	2562.7367
930.927	2452.91155
931.103	2590.1881
931.279	2283.89329
931.455	2545.84254
931.631	2254.30867
931.807	2476.14633
931.983	2148.63525
932.159	2247.96888
932.335	2057.74001
932.511	2313.47608
932.687	2055.626
932.863	2499.37978
933.039	2011.2303
933.215	2362.07226
933.391	2123.27055
933.566	2159.20354
933.742	2114.81541
933.918	2193.02068
934.094	1924.54479
934.27	2045.05587
934.445	1689.81661
934.621	1954.14587
934.797	1556.57412
934.973	1903.40048
935.148	1516.38855
935.324	1611.5641
935.5	1355.64513
935.675	1480.43277
935.851	1364.10524
936.027	1531.1938
936.202	1222.40241
936.378	1400.06086
936.553	1137.80982
936.729	1260.47082
936.904	1087.05747
937.08	1222.40241
937.255	930.59132
937.431	1084.94284
937.606	966.53312
937.782	994.01938
937.957	780.50655
938.133	871.39783
938.308	736.12421
938.483	795.30164
938.659	727.67095
938.834	753.03124
939.009	575.54369
939.185	693.85964
939.36	567.09406
939.535	651.59957
939.71	465.71598
939.886	554.42003
940.061	524.84921
940.236	531.18558
940.411	554.42003
940.586	560.75699
940.761	410.8172
940.937	493.16926
941.112	459.38097
941.287	345.37533
941.462	366.48384
941.637	482.61001
941.812	440.37677
941.987	383.37188
942.162	385.48296
942.337	410.8172
942.512	290.50142
942.687	246.18925
942.862	256.73901
943.037	229.31064
943.212	301.05315
943.386	368.59479
943.561	284.17061
943.736	307.38441
943.911	326.37915
944.086	391.8163
944.26	349.59689
944.435	358.04023
944.61	301.05315
944.785	334.82172
944.959	254.62902
945.134	248.29916
945.309	303.16355
945.483	415.03981
945.658	258.84902
945.833	301.05315
946.007	273.61962
946.182	288.39113
946.357	258.84902
946.531	313.71583
946.706	339.04311
946.88	269.39935
947.055	313.71583
947.229	307.38441
947.404	347.4861
947.578	290.50142
947.752	284.17061
947.927	332.71105
948.101	279.95016
948.276	345.37533
948.45	229.31064
948.624	246.18925
948.799	301.05315
948.973	326.37915
949.147	332.71105
949.321	358.04023
949.496	379.14977
949.67	296.83241
949.844	279.95016
950.018	368.59479
950.193	258.84902
950.367	322.15797
950.541	347.4861
950.715	393.92744
950.889	320.04741
951.063	425.5966
951.237	343.26457
951.411	381.26081
951.585	313.71583
951.759	408.70593
951.933	351.7077
952.107	404.48342
952.281	377.03874
952.455	393.92744
952.629	368.59479
952.803	400.26098
952.977	290.50142
953.151	271.50948
953.325	358.04023
953.499	351.7077
953.672	313.71583
953.846	406.59467
954.02	366.48384
954.194	353.81853
954.368	339.04311
954.541	427.708
954.715	372.81673
954.889	328.48976
955.062	313.71583
955.236	358.04023
955.41	273.61962
955.583	282.06037
955.757	383.37188
955.93	415.03981
956.104	366.48384
956.278	436.15378
956.451	383.37188
956.625	358.04023
956.798	393.92744
956.972	334.82172
957.145	290.50142
957.319	368.59479
957.492	358.04023
957.665	391.8163
957.839	328.48976
958.012	368.59479
958.185	326.37915
958.359	383.37188
958.532	408.70593
958.705	402.37219
958.879	322.15797
959.052	450.9345
959.225	307.38441
959.398	387.59405
959.572	303.16355
959.745	398.14978
959.918	381.26081
960.091	334.82172
960.264	326.37915
960.438	364.37291
960.611	341.15383
960.784	347.4861
960.957	290.50142
961.13	322.15797
961.303	263.0691
961.476	290.50142
961.649	271.50948
961.822	391.8163
961.995	250.4091
962.168	351.7077
962.341	336.93241
962.514	368.59479
962.686	275.72978
962.859	271.50948
963.032	250.4091
963.205	279.95016
963.378	229.31064
963.551	301.05315
963.723	322.15797
963.896	324.26855
964.069	292.61173
964.242	265.17916
964.414	296.83241
964.587	313.71583
964.76	269.39935
964.932	296.83241
965.105	288.39113
965.278	307.38441
965.45	244.07936
965.623	263.0691
965.795	246.18925
965.968	305.27397
966.14	241.96948
966.313	288.39113
966.485	284.17061
966.658	260.95905
966.83	263.0691
967.003	267.28925
967.175	263.0691
967.348	241.96948
967.52	282.06037
967.692	322.15797
967.865	256.73901
968.037	317.93686
968.209	168.13631
968.382	201.88557
968.554	180.79167
968.726	284.17061
968.898	301.05315
969.071	199.77609
969.243	320.04741
969.415	263.0691
969.587	208.21413
969.759	189.22898
969.932	132.28355
970.104	273.61962
970.276	187.11962
970.448	284.17061
970.62	275.72978
970.792	233.53017
970.964	244.07936
971.136	288.39113
971.308	246.18925
971.48	180.79167
971.652	290.50142
971.824	174.4639
971.996	237.74979
972.168	250.4091
972.339	277.83996
972.511	155.4817
972.683	195.55718
972.855	229.31064
973.027	241.96948
973.199	199.77609
973.37	212.43327
973.542	197.66663
973.714	178.68239
973.886	225.09118
974.057	147.04571
974.229	212.43327
974.401	140.71894
974.572	153.37267
974.744	178.68239
974.915	134.39237
975.087	172.35468
975.259	220.8718
975.43	189.22898
975.602	203.99507
975.773	212.43327
975.945	237.74979
976.116	220.8718
976.288	195.55718
976.459	125.95723
976.63	178.68239
976.802	214.54287
976.973	170.24549
977.145	220.8718
977.316	163.91802
977.487	102.7624
977.659	174.4639
977.83	193.44776
978.001	178.68239
978.172	220.8718
978.344	231.42039
978.515	161.80891
978.686	147.04571
978.857	161.80891
979.028	117.52244
979.2	140.71894
979.371	142.82785
979.542	187.11962
979.713	197.66663
979.884	106.97945
980.055	132.28355
980.226	113.30518
980.397	203.99507
980.568	56.38079
980.739	128.06598
980.91	79.57023
981.081	132.28355
981.252	119.63111
981.423	214.54287
981.594	60.59685
981.765	170.24549
981.936	151.26366
982.106	166.02716
982.277	128.06598
982.448	77.46199
982.619	157.59075
982.79	123.8485
982.96	222.98148
983.131	94.32857
983.302	98.54544
983.472	178.68239
983.643	77.46199
983.814	159.69982
983.984	123.8485
984.155	195.55718
984.326	189.22898
984.496	106.97945
984.667	125.95723
984.837	85.8951
985.008	62.70491
985.178	73.24557
985.349	96.437
985.519	119.63111
985.69	18.44046
985.86	35.30189
986.031	100.65391
986.201	54.2728
986.371	88.00344
986.542	18.44046
986.712	35.30189
986.882	115.4138
987.053	94.32857
987.223	144.93677
987.393	136.50121
987.563	128.06598
987.734	109.088
987.904	104.87091
988.074	144.93677
988.244	106.97945
988.414	62.70491
988.585	117.52244
988.755	106.97945
988.925	47.94895
989.095	191.33836
989.265	115.4138
989.435	90.11179
989.605	77.46199
989.775	144.93677
989.945	111.19658
990.115	142.82785
990.285	94.32857
990.455	104.87091
990.625	52.16483
990.795	104.87091
990.965	75.35377
991.134	69.02924
991.304	94.32857
991.474	102.7624
991.644	119.63111
991.814	81.6785
991.984	111.19658
992.153	104.87091
992.323	144.93677
992.493	104.87091
992.662	153.37267
992.832	54.2728
993.002	62.70491
993.171	81.6785
993.341	43.73317
993.511	71.13739
993.68	69.02924
993.85	35.30189
994.019	106.97945
994.189	128.06598
994.358	128.06598
994.528	77.46199
994.697	43.73317
994.867	56.38079
995.036	71.13739
995.206	155.4817
995.375	39.51749
995.544	73.24557
995.714	24.76332
995.883	128.06598
996.052	172.35468
996.222	161.80891
996.391	58.48881
996.56	102.7624
996.73	88.00344
996.899	39.51749
997.068	138.61006
997.237	119.63111
997.406	43.73317
997.576	106.97945
997.745	77.46199
997.914	71.13739
998.083	75.35377
998.252	106.97945
998.421	35.30189
998.59	54.2728
998.759	69.02924
998.928	96.437
999.097	121.73979
999.266	41.62532
999.435	102.7624
999.604	104.87091
999.773	104.87091
999.942	64.813
1000.111	69.02924
1000.28	79.57023
1000.448	73.24557
1000.617	81.6785
1000.786	35.30189
1000.955	111.19658
1001.124	64.813
1001.292	90.11179
1001.461	28.97868
1001.63	102.7624
1001.798	31.08639
1001.967	56.38079
1002.136	85.8951
1002.304	98.54544
1002.473	26.87099
1002.642	60.59685
1002.81	-0.52684
1002.979	3.68794
1003.147	-17.38502
1003.316	106.97945
1003.484	111.19658
1003.653	106.97945
1003.821	60.59685
1003.99	96.437
1004.158	77.46199
1004.327	96.437
1004.495	111.19658
1004.663	35.30189
1004.832	58.48881
1005	73.24557
1005.168	28.97868
1005.337	66.92111
1005.505	39.51749
1005.673	12.11781
1005.842	-13.17063
1006.01	45.84105
1006.178	39.51749
1006.346	12.11781
1006.514	47.94895
1006.683	85.8951
1006.851	71.13739
1007.019	35.30189
1007.187	45.84105
1007.355	64.813
1007.523	26.87099
1007.691	45.84105
1007.859	58.48881
1008.027	69.02924
1008.195	81.6785
1008.363	1.58054
1008.531	26.87099
1008.699	92.22017
1008.867	130.17476
1009.035	115.4138
1009.203	43.73317
1009.37	117.52244
1009.538	81.6785
1009.706	39.51749
1009.874	28.97868
1010.042	10.01031
1010.209	88.00344
1010.377	92.22017
1010.545	-21.59933
1010.713	28.97868
1010.88	-15.27784
1011.048	5.79537
1011.216	73.24557
1011.383	22.65567
1011.551	35.30189
1011.718	54.2728
1011.886	10.01031
1012.054	45.84105
1012.221	-15.27784
1012.389	20.54805
1012.556	35.30189
1012.724	77.46199
1012.891	136.50121
1013.058	147.04571
1013.226	10.01031
1013.393	81.6785
1013.561	28.97868
1013.728	43.73317
1013.895	88.00344
1014.063	56.38079
1014.23	20.54805
1014.397	37.40968
1014.565	52.16483
1014.732	52.16483
1014.899	18.44046
1015.066	43.73317
1015.233	69.02924
1015.401	41.62532
1015.568	14.22533
1015.735	52.16483
1015.902	85.8951
1016.069	92.22017
1016.236	22.65567
1016.403	18.44046
1016.57	-6.84884
1016.737	35.30189
1016.904	-15.27784
1017.071	113.30518
1017.238	69.02924
1017.405	35.30189
1017.572	12.11781
1017.739	-34.24164
1017.906	-15.27784
1018.073	10.01031
1018.24	43.73317
1018.407	10.01031
1018.573	50.05688
1018.74	26.87099
1018.907	-2.6342
1019.074	3.68794
1019.241	39.51749
1019.407	31.08639
1019.574	83.78679
1019.741	24.76332
1019.907	83.78679
1020.074	52.16483
1020.241	106.97945
1020.407	106.97945
1020.574	10.01031
1020.74	18.44046
1020.907	20.54805
1021.073	16.33288
1021.24	60.59685
1021.406	3.68794
1021.573	60.59685
1021.739	69.02924
1021.906	47.94895
1022.072	45.84105
1022.239	117.52244
1022.405	12.11781
1022.571	18.44046
1022.738	35.30189
1022.904	43.73317
1023.07	60.59685
1023.237	35.30189
1023.403	60.59685
1023.569	39.51749
1023.735	-46.88306
1023.902	-15.27784
1024.068	41.62532
1024.234	64.813
1024.4	130.17476
1024.566	-6.84884
1024.732	77.46199
1024.898	47.94895
1025.065	12.11781
1025.231	-6.84884
1025.397	33.19413
1025.563	7.90283
1025.729	47.94895
1025.895	31.08639
1026.061	79.57023
1026.227	-15.27784
1026.392	111.19658
1026.558	-13.17063
1026.724	37.40968
1026.89	47.94895
1027.056	71.13739
1027.222	113.30518
1027.388	10.01031
1027.553	3.68794
1027.719	43.73317
1027.885	83.78679
1028.051	54.2728
1028.216	24.76332
1028.382	14.22533
1028.548	31.08639
1028.713	64.813
1028.879	26.87099
1029.045	-2.6342
1029.21	62.70491
1029.376	28.97868
1029.541	60.59685
1029.707	79.57023
1029.873	-0.52684
1030.038	88.00344
1030.204	71.13739
1030.369	88.00344
1030.534	37.40968
1030.7	60.59685
1030.865	35.30189
1031.031	75.35377
1031.196	73.24557
1031.361	31.08639
1031.527	28.97868
1031.692	-38.45555
1031.857	31.08639
1032.023	26.87099
1032.188	28.97868
1032.353	-38.45555
1032.518	98.54544
1032.684	104.87091
1032.849	37.40968
1033.014	94.32857
1033.179	33.19413
1033.344	77.46199
1033.509	-6.84884
1033.674	75.35377
1033.839	33.19413
1034.004	60.59685
1034.17	16.33288
1034.335	52.16483
1034.5	18.44046
1034.664	47.94895
1034.829	1.58054
1034.994	62.70491
1035.159	-27.92059
1035.324	12.11781
1035.489	-15.27784
1035.654	-6.84884
1035.819	85.8951
1035.984	43.73317
1036.148	20.54805
1036.313	20.54805
1036.478	-13.17063
1036.643	69.02924
1036.807	24.76332
1036.972	56.38079
1037.137	22.65567
1037.301	26.87099
1037.466	-4.74153
1037.631	85.8951
1037.795	81.6785
1037.96	92.22017
1038.124	71.13739
1038.289	14.22533
1038.454	26.87099
1038.618	41.62532
1038.783	106.97945
1038.947	-6.84884
1039.111	-0.52684
1039.276	75.35377
1039.44	47.94895
1039.605	24.76332
1039.769	77.46199
1039.933	66.92111
1040.098	71.13739
1040.262	22.65567
1040.426	60.59685
1040.591	71.13739
1040.755	-105.86425
1040.919	37.40968
1041.083	45.84105
1041.248	62.70491
1041.412	3.68794
1041.576	96.437
1041.74	66.92111
1041.904	-4.74153
1042.068	45.84105
1042.232	60.59685
1042.397	35.30189
1042.561	22.65567
1042.725	3.68794
1042.889	35.30189
1043.053	28.97868
1043.217	58.48881
1043.381	85.8951
1043.544	50.05688
1043.708	39.51749
1043.872	26.87099
1044.036	1.58054
1044.2	88.00344
1044.364	14.22533
1044.528	88.00344
1044.691	31.08639
1044.855	16.33288
1045.019	69.02924
1045.183	22.65567
1045.346	41.62532
1045.51	31.08639
1045.674	47.94895
1045.837	24.76332
1046.001	54.2728
1046.165	77.46199
1046.328	37.40968
1046.492	58.48881
1046.655	39.51749
1046.819	71.13739
1046.983	-11.06339
1047.146	-15.27784
1047.31	26.87099
1047.473	66.92111
1047.636	-11.06339
1047.8	-23.70644
1047.963	43.73317
1048.127	60.59685
1048.29	39.51749
