Data from mixed_try1_USB4F045381__1__00105.txt Node

Date: Thu Apr 03 19:58:34 EDT 2025
User: mmckonesweet
Spectrometer: USB4F04538
Trigger mode: 4
Integration Time (sec): 2.700000E-3
Scans to average: 1
Electric dark correction enabled: true
Nonlinearity correction enabled: true
Boxcar width: 0
XAxis mode: Wavelengths
Number of Pixels in Spectrum: 3648
>>>>>Begin Spectral Data<<<<<
345.52	-57.59244
345.736	-57.59244
345.952	-57.59244
346.168	-68.12563
346.384	-0.70246
346.6	3.51233
346.816	18.26482
347.032	-4.91714
347.248	51.98916
347.464	30.91075
347.68	-0.70246
347.896	-13.34623
348.112	-13.34623
348.328	-13.34623
348.544	5.61975
348.76	-66.01904
348.975	1.40492
349.191	-9.13173
349.407	7.72721
349.623	-17.56062
349.839	85.71941
350.055	70.96171
350.27	-9.13173
350.486	-93.40265
350.702	-42.84492
350.918	-40.73804
351.133	-32.31023
351.349	54.09713
351.565	33.01848
351.781	45.6654
351.996	-2.80981
352.212	-7.02445
352.428	-0.70246
352.644	45.6654
352.859	66.74543
353.075	7.72721
353.291	39.34183
353.506	-2.80981
353.722	35.12624
353.938	-51.27223
354.153	-9.13173
354.369	20.37242
354.584	49.88122
354.8	-23.88203
355.016	-23.88203
355.231	24.58768
355.447	-19.66778
355.662	-13.34623
355.878	9.83468
356.093	-9.13173
356.309	43.55752
356.524	-34.41722
356.74	37.23403
356.955	-32.31023
357.171	7.72721
357.386	7.72721
357.602	26.69535
357.817	26.69535
358.033	58.31314
358.248	7.72721
358.464	-0.70246
358.679	45.6654
358.895	-47.05863
359.11	-9.13173
359.325	-0.70246
359.541	-17.56062
359.756	-32.31023
359.972	16.15725
360.187	41.44967
360.402	24.58768
360.618	-23.88203
360.833	11.94218
361.048	-0.70246
361.264	68.85356
361.479	33.01848
361.694	-25.98912
361.909	-25.98912
362.125	-51.27223
362.34	7.72721
362.555	35.12624
362.77	49.88122
362.986	37.23403
363.201	-30.20322
363.416	-30.20322
363.631	-0.70246
363.847	-47.05863
364.062	58.31314
364.277	-72.33872
364.492	-47.05863
364.707	16.15725
364.922	16.15725
365.138	60.42118
365.353	3.51233
365.568	-32.31023
365.783	16.15725
365.998	-25.98912
366.213	47.77329
366.428	9.83468
366.643	11.94218
366.858	-21.77492
367.073	11.94218
367.288	7.72721
367.503	-21.77492
367.718	35.12624
367.933	75.17808
368.148	-9.13173
368.363	-21.77492
368.578	1.40492
368.793	41.44967
369.008	-34.41722
369.223	-28.09618
369.438	11.94218
369.653	18.26482
369.868	3.51233
370.083	20.37242
370.298	37.23403
370.513	18.26482
370.728	-17.56062
370.943	24.58768
371.157	-9.13173
371.372	-34.41722
371.587	-30.20322
371.802	43.55752
372.017	7.72721
372.232	24.58768
372.446	75.17808
372.661	58.31314
372.876	35.12624
373.091	24.58768
373.306	-7.02445
373.52	9.83468
373.735	16.15725
373.95	1.40492
374.165	-21.77492
374.379	24.58768
374.594	54.09713
374.809	-9.13173
375.023	-135.52265
375.238	-25.98912
375.453	-15.45344
375.667	94.15287
375.882	-25.98912
376.097	26.69535
376.311	-9.13173
376.526	-25.98912
376.741	-7.02445
376.955	-9.13173
377.17	-15.45344
377.384	7.72721
377.599	-15.45344
377.813	22.48004
378.028	56.20513
378.242	66.74543
378.457	-51.27223
378.672	45.6654
378.886	-13.34623
379.101	37.23403
379.315	24.58768
379.53	-36.52418
379.744	37.23403
379.958	-40.73804
380.173	28.80304
380.387	43.55752
380.602	18.26482
380.816	-17.56062
381.031	-11.23899
381.245	14.04971
381.459	49.88122
381.674	-72.33872
381.888	24.58768
382.103	9.83468
382.317	33.01848
382.531	117.34672
382.746	-2.80981
382.96	-15.45344
383.174	24.58768
383.388	-63.91243
383.603	24.58768
383.817	16.15725
384.031	43.55752
384.246	43.55752
384.46	-32.31023
384.674	-9.13173
384.888	35.12624
385.103	-49.16544
385.317	28.80304
385.531	-9.13173
385.745	41.44967
385.959	60.42118
386.174	3.51233
386.388	-21.77492
386.602	-28.09618
386.816	9.83468
387.03	49.88122
387.244	-9.13173
387.458	41.44967
387.672	11.94218
387.887	43.55752
388.101	-30.20322
388.315	-9.13173
388.529	45.6654
388.743	16.15725
388.957	1.40492
389.171	37.23403
389.385	-0.70246
389.599	-51.27223
389.813	-0.70246
390.027	66.74543
390.241	68.85356
390.455	-74.44523
390.669	26.69535
390.883	-25.98912
391.097	16.15725
391.311	73.06989
391.525	9.83468
391.738	-32.31023
391.952	43.55752
392.166	92.04447
392.38	16.15725
392.594	49.88122
392.808	39.34183
393.022	-0.70246
393.236	66.74543
393.449	24.58768
393.663	-11.23899
393.877	37.23403
394.091	108.91229
394.305	-9.13173
394.518	24.58768
394.732	-55.48573
394.946	7.72721
395.16	45.6654
395.373	49.88122
395.587	49.88122
395.801	26.69535
396.015	60.42118
396.228	16.15725
396.442	-72.33872
396.656	33.01848
396.869	-21.77492
397.083	68.85356
397.297	-0.70246
397.51	-17.56062
397.724	47.77329
397.938	39.34183
398.151	68.85356
398.365	20.37242
398.578	20.37242
398.792	-49.16544
399.005	9.83468
399.219	-7.02445
399.433	33.01848
399.646	-9.13173
399.86	-17.56062
400.073	16.15725
400.287	87.82774
400.5	43.55752
400.714	45.6654
400.927	5.61975
401.141	7.72721
401.354	26.69535
401.567	16.15725
401.781	83.6111
401.994	30.91075
402.208	62.52924
402.421	9.83468
402.635	83.6111
402.848	45.6654
403.061	-21.77492
403.275	37.23403
403.488	49.88122
403.701	-7.02445
403.915	30.91075
404.128	43.55752
404.341	-4.91714
404.555	18.26482
404.768	-4.91714
404.981	33.01848
405.195	5.61975
405.408	45.6654
405.621	60.42118
405.834	41.44967
406.048	-40.73804
406.261	58.31314
406.474	54.09713
406.687	-42.84492
406.9	33.01848
407.114	79.39455
407.327	41.44967
407.54	16.15725
407.753	77.2863
407.966	41.44967
408.179	39.34183
408.392	79.39455
408.605	66.74543
408.819	-23.88203
409.032	75.17808
409.245	-13.34623
409.458	43.55752
409.671	26.69535
409.884	41.44967
410.097	18.26482
410.31	77.2863
410.523	7.72721
410.736	108.91229
410.949	33.01848
411.162	45.6654
411.375	64.63732
411.588	49.88122
411.801	-40.73804
412.014	35.12624
412.227	-13.34623
412.44	16.15725
412.653	-13.34623
412.865	58.31314
413.078	45.6654
413.291	35.12624
413.504	62.52924
413.717	24.58768
413.93	49.88122
414.143	75.17808
414.356	113.12946
414.568	1.40492
414.781	58.31314
414.994	33.01848
415.207	49.88122
415.42	92.04447
415.632	26.69535
415.845	24.58768
416.058	-4.91714
416.271	66.74543
416.483	3.51233
416.696	75.17808
416.909	3.51233
417.121	66.74543
417.334	37.23403
417.547	79.39455
417.759	54.09713
417.972	151.08791
418.185	51.98916
418.397	58.31314
418.61	45.6654
418.823	117.34672
419.035	100.4782
419.248	49.88122
419.46	35.12624
419.673	134.21663
419.885	94.15287
420.098	-17.56062
420.311	77.2863
420.523	-9.13173
420.736	92.04447
420.948	33.01848
421.161	24.58768
421.373	163.74226
421.586	20.37242
421.798	20.37242
422.01	85.71941
422.223	117.34672
422.435	41.44967
422.648	24.58768
422.86	106.80373
423.073	66.74543
423.285	108.91229
423.497	129.99903
423.71	117.34672
423.922	100.4782
424.134	45.6654
424.347	165.85139
424.559	96.26129
424.771	136.32547
424.984	83.6111
425.196	92.04447
425.408	155.30595
425.621	7.72721
425.833	83.6111
426.045	7.72721
426.257	113.12946
426.47	58.31314
426.682	100.4782
426.894	127.89025
427.106	66.74543
427.318	134.21663
427.531	134.21663
427.743	75.17808
427.955	119.45538
428.167	51.98916
428.379	77.2863
428.591	60.42118
428.804	134.21663
429.016	161.63315
429.228	159.52406
429.44	117.34672
429.652	117.34672
429.864	186.94385
430.076	161.63315
430.288	189.0532
430.5	167.96055
430.712	201.70978
430.924	146.86997
431.136	189.0532
431.348	121.56407
431.56	203.81928
431.772	119.45538
431.984	193.27198
432.196	108.91229
432.408	180.61589
432.62	210.14789
432.832	197.49084
433.044	212.25747
433.256	197.49084
433.468	205.9288
433.679	265.00332
433.891	186.94385
434.103	286.10501
434.315	286.10501
434.527	191.16258
434.739	231.24458
434.95	144.76102
435.162	286.10501
435.374	193.27198
435.586	302.98769
435.798	237.57397
436.009	353.64262
436.221	286.10501
436.433	243.90353
436.645	239.6838
436.856	273.44377
437.068	345.19943
437.28	260.78321
437.491	243.90353
437.703	353.64262
437.915	262.89326
438.126	362.08609
438.338	269.22351
438.55	309.31899
438.761	321.98209
438.973	366.30793
439.184	307.20854
439.396	391.64037
439.608	239.6838
439.819	421.19789
440.031	319.87153
440.242	461.31665
440.454	252.34322
440.665	374.75181
440.877	425.42065
441.088	336.75651
441.3	338.86722
441.511	302.98769
441.723	381.08489
441.934	370.52983
442.146	421.19789
442.357	374.75181
442.569	292.43587
442.78	433.86636
442.991	406.41873
443.203	442.31232
443.414	556.35631
443.626	421.19789
443.837	381.08489
444.048	446.5354
444.26	421.19789
444.471	473.9869
444.682	440.20081
444.894	501.44093
445.105	389.52924
445.316	533.12172
445.528	459.205
445.739	435.97783
445.95	514.11286
446.161	524.6732
446.373	522.5611
446.584	463.42832
446.795	484.54585
447.006	488.76953
447.217	488.76953
447.429	463.42832
447.64	524.6732
447.851	594.38007
448.062	623.95701
448.273	562.6933
448.484	632.40802
448.695	602.83037
448.907	514.11286
449.118	615.5062
449.329	581.70501
449.54	558.46863
449.751	600.71778
449.962	630.29525
450.173	645.0849
450.384	497.21707
450.595	664.10102
450.806	733.83477
451.017	693.68355
451.228	763.42234
451.439	782.44397
451.65	704.24928
451.861	695.79667
452.072	812.03474
452.283	742.28816
452.494	801.4664
452.705	746.51491
452.915	773.98982
453.126	930.41514
453.337	795.1255
453.548	962.12838
453.759	898.70358
453.97	960.01411
454.181	921.95856
454.391	809.92106
454.602	932.52931
454.813	1002.30071
455.024	1084.76663
455.235	962.12838
455.445	1040.36082
455.656	936.75766
455.867	905.04575
456.078	962.12838
456.288	979.04275
456.499	1063.6207
456.71	1194.73294
456.921	1038.24632
457.131	1186.2736
457.342	1169.3551
457.553	1234.91554
457.763	1175.69951
457.974	1429.49528
458.184	1173.58471
458.395	1550.05281
458.606	1380.84924
458.816	1503.52204
459.027	1313.16871
459.237	1340.66375
459.448	1495.06186
459.659	1412.57488
459.869	1347.0088
460.08	1435.84043
460.29	1660.03172
460.501	1554.28285
460.711	1588.123
460.922	1596.58297
461.132	1657.91679
461.343	1634.65246
461.553	1725.59295
461.764	1837.67356
461.974	1607.1579
462.184	1736.16705
462.395	1740.39667
462.605	1867.27771
462.816	1871.50679
463.026	1867.27771
463.236	1896.88087
463.447	1998.36909
463.657	1985.68382
463.867	2264.69872
464.078	2281.60407
464.288	2095.61472
464.498	2222.43279
464.709	2216.0926
464.919	2106.18398
465.129	2383.02334
465.339	2456.96013
465.55	2513.98799
465.76	2224.54617
465.97	2480.19468
466.18	2475.97032
466.391	2784.22319
466.601	2587.90056
466.811	2955.11853
467.021	2999.40913
467.231	2874.95705
467.441	2636.46369
467.651	3165.96519
467.862	2984.64633
468.072	3151.21106
468.282	3119.5924
468.492	3168.07286
468.702	3328.20703
468.912	3414.55418
469.122	3359.80086
469.332	3589.26238
469.542	3481.92639
469.752	3791.17386
469.962	3709.16864
470.172	3797.48072
470.382	3843.72565
470.592	4034.90843
470.802	3833.21628
471.012	4043.3082
471.222	4034.90843
471.432	4030.70842
471.642	4165.06748
471.852	4389.50537
472.062	4337.08864
472.272	4552.95768
472.482	4578.09226
472.691	4781.14507
472.901	4527.8199
473.111	4699.53074
473.321	4866.90753
473.531	4839.71871
473.741	4816.70976
473.95	5157.37593
474.16	4965.17331
474.37	5290.96606
474.58	5192.87013
474.79	5441.14039
474.999	5466.15761
475.209	5249.22942
475.419	5720.3068
475.628	6019.83436
475.838	5757.77451
476.048	5768.18085
476.258	5895.09066
476.467	6331.32318
476.677	6275.29413
476.886	6399.78001
477.096	6493.08936
477.306	6656.78561
477.515	6466.13816
477.725	6621.572
477.935	6522.10935
478.144	7064.36777
478.354	6828.61561
478.563	7093.29962
478.773	7062.30104
478.982	7347.29949
479.192	7522.63415
479.401	7328.72544
479.611	7324.59763
479.82	7456.64418
480.03	7703.99353
480.239	8010.6974
480.449	7819.31883
480.658	8000.41274
480.868	8027.1518
481.077	8121.73945
481.287	8023.03832
481.496	8193.67986
481.705	8600.20586
481.915	8747.84902
482.124	8489.40987
482.333	8887.20262
482.543	8743.74912
482.752	8895.39729
482.961	8805.24006
483.171	8987.56779
483.38	9100.1723
483.589	9241.36615
483.799	9173.84877
484.008	9660.39135
484.217	9419.2794
484.426	9676.73
484.636	9588.89806
484.845	9884.96244
485.054	9697.15193
485.263	10125.6678
485.472	9862.51351
485.682	10129.74585
485.891	10262.25224
486.1	10093.04143
486.309	10378.40308
486.518	10573.9297
486.727	10647.22218
486.936	10944.30426
487.146	10740.85059
487.355	10777.48088
487.564	10791.72495
487.773	11159.84203
487.982	11125.28287
488.191	11369.16562
488.4	11253.33981
488.609	11616.96673
488.818	11499.17731
489.027	11917.39653
489.236	11886.95608
489.445	11891.01491
489.654	11964.06831
489.863	12187.22358
490.072	12067.54282
490.281	12136.5146
490.49	12065.51411
490.698	12280.51613
490.907	12221.70305
491.116	12523.81879
491.325	12341.35097
491.534	12625.16721
491.743	12479.22048
491.952	12795.39867
492.16	12732.57993
492.369	13232.96329
492.578	12898.73398
492.787	13239.03901
492.996	13103.3384
493.204	13149.92451
493.413	13486.08625
493.622	13783.68488
493.831	13313.96961
494.039	13530.62955
494.248	13492.16044
494.457	13704.73709
494.665	13688.54208
494.874	14301.80677
495.083	13710.81017
495.291	14012.40644
495.5	14366.56225
495.709	14348.34995
495.917	14196.57519
496.126	14354.42073
496.335	14376.68014
496.543	14350.37355
496.752	14384.77443
496.96	14785.41535
497.169	14896.69797
497.377	14850.16183
497.586	14732.80829
497.794	15202.21329
498.003	14722.69148
498.211	15064.63082
498.42	14706.50454
498.628	15153.65479
498.837	15131.39881
499.045	15473.33374
499.254	15143.53844
499.462	15523.91676
499.671	15819.33132
499.879	15661.50476
500.087	15758.62807
500.296	15938.71743
500.504	15730.30021
500.713	16074.29705
500.921	15878.0121
501.129	15936.6939
501.338	15904.3176
501.546	16444.64875
501.754	16130.95916
501.962	16159.29068
502.171	16317.1438
502.379	16353.573
502.587	16327.26296
502.795	16472.98425
503.004	16163.33806
503.212	16774.58141
503.42	16608.59559
503.628	16535.72859
503.837	16849.48273
504.045	17001.32044
504.253	17157.22288
504.461	17167.34699
504.669	17317.1923
504.877	17187.59542
505.085	17248.34246
505.294	17392.12107
505.502	17404.27208
505.71	17327.31757
505.918	17458.95299
506.126	17730.36677
506.334	17084.33138
506.542	17750.6239
506.75	17537.94056
506.958	17961.31832
507.166	17681.75102
507.374	18058.57466
507.582	17941.05761
507.79	17979.55326
507.998	18044.39094
508.206	18186.2362
508.414	17995.76234
508.622	17894.4593
508.83	17947.13578
509.037	18465.92705
509.245	18024.12877
509.453	18672.70172
509.661	18346.34033
509.869	18399.03793
510.077	18427.41463
510.285	18287.56523
510.492	18457.81906
510.7	18601.74508
510.908	18690.94849
511.116	18767.99391
511.324	18682.83877
511.531	19072.17682
511.739	18723.38797
511.947	18800.4358
512.155	18668.64693
512.362	19003.22076
512.57	18792.32523
512.778	19161.42105
512.985	19277.04468
513.193	19074.20501
513.401	19512.39031
513.608	19599.6447
513.816	19417.02803
514.024	19678.78908
514.231	19319.64623
514.439	19388.62402
514.646	19587.46921
514.854	19538.76873
515.061	19486.01259
515.269	19942.64973
515.477	19987.31009
515.684	19887.84206
515.892	19922.35023
516.099	20056.33466
516.307	20226.88679
516.514	20066.48574
516.722	19987.31009
516.929	20107.09112
517.136	19867.5437
517.344	19865.51389
517.551	20168.00234
517.759	20206.5814
517.966	20293.89752
518.173	20129.42479
518.381	20326.38923
518.588	20700.12088
518.796	20324.35846
519.003	20683.86873
519.21	20511.20621
519.418	20417.7779
519.625	20647.30239
519.832	21378.88284
520.039	21242.68755
520.247	21409.3768
520.454	21234.55706
520.661	21397.17911
520.868	21092.284
521.076	21919.774
521.283	21476.46666
521.49	21242.68755
521.697	21488.66528
521.904	21193.90559
522.112	21279.27556
522.319	21915.70612
522.526	21439.87165
522.733	21923.84189
522.94	21732.66757
523.147	21685.89608
523.354	21543.56084
523.561	22208.63203
523.768	21824.18294
523.975	22210.66651
524.183	22013.33939
524.39	22243.21868
524.597	22371.40203
524.804	22298.15262
525.011	22194.39078
525.218	22143.53065
525.425	22344.95031
525.632	22127.2559
525.838	22485.35492
526.045	22699.0468
526.252	22656.30531
526.459	22654.27004
526.666	22676.65821
526.873	23010.49498
527.08	22703.1175
527.287	23144.86953
527.494	22361.22822
527.701	23523.63714
527.907	22908.70576
528.114	22920.92002
528.321	23055.28489
528.528	23181.51961
528.735	23653.99074
528.941	23462.53821
529.148	22984.02897
529.355	23387.18672
529.562	23242.60544
529.768	23664.17514
529.975	23603.06989
530.182	23541.96736
530.388	23717.13522
530.595	23981.96537
530.802	23556.22437
531.008	24041.04948
531.215	24195.9017
531.422	24004.3763
531.628	24140.88659
531.835	23855.65564
532.042	24006.41368
532.248	24532.14738
532.455	24415.98173
532.661	24615.71024
532.868	24687.0477
533.074	24848.0775
533.281	24644.24486
533.487	24456.74066
533.694	24636.09206
533.9	25072.3207
534.107	24701.31555
534.313	25005.04482
534.52	25221.15175
534.726	25082.51423
534.933	25561.67114
535.139	25445.43945
535.345	24929.61725
535.552	25314.94167
535.758	25437.28309
535.965	25467.86961
536.171	25423.00954
536.377	25783.9567
536.584	25626.92688
536.79	25449.51764
536.996	25963.43308
537.203	25423.00954
537.409	25553.51431
537.615	25769.68079
537.821	25614.69127
538.028	25788.03555
538.234	26102.12901
538.44	25824.74552
538.646	25514.76984
538.853	26236.75338
539.059	25994.02706
539.265	25971.59143
539.471	26353.02581
539.677	26420.34387
539.883	26230.63392
540.09	26122.52616
540.296	26748.79904
540.502	26393.82442
540.708	26395.86437
540.914	27156.87115
541.12	26930.38415
541.326	27295.62818
541.532	27295.62818
541.738	27262.97892
541.944	26871.21471
542.15	26997.71634
542.356	26922.22277
542.562	27134.42574
542.768	26965.07024
542.974	27371.13086
543.18	27526.22292
543.386	27187.47879
543.592	27758.87434
543.798	27395.6186
544.004	27995.62312
544.21	27987.45911
544.415	27458.87943
544.621	27938.47544
544.827	27599.69009
545.033	27748.67001
545.239	27781.32399
545.445	28244.63395
545.651	27893.57433
545.856	28165.03034
546.062	28169.11253
546.268	28160.94814
546.474	28483.45471
546.679	27707.85296
546.885	27646.62828
547.091	28152.78377
547.297	27756.83347
547.502	28013.9922
547.708	27760.91521
547.914	28397.72249
548.119	28638.59397
548.325	28442.62961
548.531	28054.81271
548.736	28505.9087
548.942	28128.29077
549.147	28601.84991
549.353	28273.21002
549.559	28848.85815
549.764	29006.05315
549.97	28971.34723
550.175	28850.89961
550.381	29416.42239
550.586	28752.91098
550.792	29099.96479
550.997	29430.71462
551.203	29106.08954
551.408	29151.00465
551.614	28899.89482
551.819	29645.10426
552.025	29683.89984
552.23	29496.05117
552.435	29440.92338
552.641	30147.43576
552.846	29881.96761
553.052	30002.44692
553.257	29953.43792
553.462	30361.8667
553.668	29583.84888
553.873	29555.26336
554.078	30345.52863
554.283	30553.84485
554.489	30086.17216
554.694	30002.44692
554.899	30169.89934
555.105	30596.73511
555.31	30286.30381
555.515	30433.34664
555.72	30719.28187
555.925	30169.89934
556.131	30222.99564
556.336	30374.12029
556.541	30948.04878
556.746	30762.17436
556.951	31039.969
557.156	30639.62594
557.361	30707.02698
557.567	30754.00432
557.772	31025.67011
557.977	31160.4911
558.182	30943.9635
558.387	31393.37934
558.592	31258.54684
558.797	30602.86234
559.002	31227.90404
559.207	31084.90884
559.412	31344.34854
559.617	30586.52309
559.822	31640.59073
560.027	31146.1916
560.232	30845.91856
560.437	30986.85919
560.642	30888.81283
560.847	31080.82337
561.051	31287.1471
561.256	31191.13314
561.461	31799.96354
561.666	31509.83123
561.871	31787.7037
562.076	31246.28968
562.281	31822.44007
562.485	31383.16451
562.69	31321.8764
562.895	31336.17683
563.1	31755.01113
563.305	31906.21823
563.509	31879.65408
563.714	31522.08964
563.919	31401.55123
564.123	31622.20225
564.328	31603.81391
564.533	32022.6956
564.737	31515.96043
564.942	31787.7037
565.147	32337.42143
565.351	31912.34846
565.556	31846.96018
565.761	32294.50135
565.965	32149.39754
566.17	32425.30838
566.374	32345.59679
566.579	32419.1766
566.784	32380.34246
566.988	32543.86012
567.193	32615.4037
567.397	32137.13572
567.602	32752.36668
567.806	32028.82617
568.011	32576.5654
568.215	32858.67392
568.42	32496.84731
568.624	32400.78138
568.828	32850.4962
569.033	32780.9872
569.237	32672.64065
569.442	32821.87449
569.646	32476.40733
569.85	32601.09475
570.055	32897.51865
570.259	33224.67018
570.463	33075.39868
570.668	33108.11446
570.872	32797.342
571.076	33574.39404
571.281	33531.44072
571.485	33226.71509
571.689	33443.49294
571.893	33359.64098
572.098	33290.10899
572.302	33290.10899
572.506	33238.98467
572.71	33110.15922
572.914	33169.45844
573.119	33435.31204
573.323	33539.6222
573.527	33486.44347
573.731	34089.94714
573.935	34245.47527
574.139	33787.13603
574.343	33445.53818
574.547	33893.52045
574.751	34227.05634
574.955	34439.91632
575.159	34177.94069
575.364	33956.94635
575.568	33560.07611
575.772	33766.67853
575.976	33515.07791
576.18	33801.45648
576.383	34286.40733
576.587	33954.9003
576.791	33762.58707
576.995	33999.91419
577.199	34106.31752
577.403	34169.75495
577.607	34693.7675
577.811	34098.1323
578.015	33750.31277
578.219	34104.27121
578.422	33662.35042
578.626	34706.05225
578.83	34433.77554
579.034	34441.96326
579.238	34792.04981
579.442	34828.90825
579.645	34810.47885
579.849	34695.81495
580.053	35105.39292
580.257	34607.77853
580.46	34937.44421
580.664	35539.75153
580.868	34648.72473
581.071	34900.58154
581.275	35019.36654
581.479	35363.52254
581.682	35002.98149
581.886	35478.27201
582.09	35560.24574
582.293	34859.62471
582.497	35037.80007
582.7	35445.48482
582.904	35529.50462
583.107	35634.02924
583.311	35129.9734
583.515	35158.65149
583.718	35158.65149
583.922	35359.42464
584.125	34978.40446
584.329	35435.2391
584.532	35418.8462
584.735	36007.15353
584.939	35843.12025
585.142	36029.71096
585.346	35621.73152
585.549	35515.15916
585.753	35896.4271
585.956	36626.72175
586.159	36296.35264
586.363	36325.07396
586.566	36226.60585
586.769	35824.66875
586.973	35937.43496
587.176	36316.86774
587.379	36413.29698
587.582	36189.6839
587.786	36177.37701
587.989	36349.69318
588.192	36337.38346
588.395	36300.45561
588.599	36442.02324
588.802	36934.67076
589.005	36784.78339
589.208	36977.7958
589.411	36844.32335
589.615	36517.94858
589.818	36515.89643
590.021	36458.4388
590.224	36421.50436
590.427	36731.40754
590.63	36528.20943
590.833	36513.84429
591.036	36934.67076
591.239	37022.97771
591.442	36581.56843
591.645	37396.88793
591.848	37304.41515
592.051	37573.656
592.254	37135.94737
592.457	37271.53955
592.66	37382.50229
592.863	37785.44169
593.066	37655.89301
593.269	37865.65429
593.472	38003.48418
593.675	38318.36998
593.878	37487.32039
594.081	37715.52264
594.284	37534.59774
594.486	37908.85077
594.689	38071.38409
594.892	37657.94909
595.095	37773.10237
595.298	37267.43023
595.5	37516.09743
595.703	38116.65573
595.906	37834.80185
596.109	38203.09469
596.311	38110.48208
596.514	37380.44722
596.717	37855.36994
596.92	38091.9616
597.122	38223.6776
597.325	37777.21544
597.528	37991.13971
597.73	38312.19384
597.933	37945.87917
598.136	38860.1218
598.338	38524.28636
598.541	38532.52485
598.743	38845.69442
598.946	38604.61771
599.148	38713.80791
599.351	38520.16717
599.554	38876.6108
599.756	38565.48023
599.959	38351.31073
600.161	38129.00324
600.363	38761.20029
600.566	39229.20786
600.768	38855.99964
600.971	38656.11935
601.173	38862.18289
601.376	39074.52566
601.578	38858.06072
601.78	39313.79058
601.983	38975.55735
602.185	39154.95362
602.388	39045.65764
602.59	39247.77339
602.792	39111.64444
602.995	38938.44986
603.197	38532.52485
603.399	38994.11224
603.601	38567.54002
603.804	39169.39096
604.006	39307.60104
604.208	39068.3395
604.41	39029.16246
604.613	39885.68185
604.815	39132.26733
605.017	39134.32967
605.219	38794.17176
605.421	38755.0184
605.623	39214.76855
605.826	39528.41652
606.028	38983.80387
606.23	39297.28534
606.432	39546.99502
606.634	39823.70612
606.836	39551.12368
607.038	39342.67627
607.24	39571.76762
607.442	39315.85378
607.644	39204.45505
607.846	39400.45346
608.048	39414.89898
608.25	40053.06374
608.452	40177.09551
608.654	40100.60467
608.856	39503.64647
609.058	39883.61584
609.26	39309.66421
609.462	39447.91914
609.664	39957.99883
609.866	39995.19546
610.067	39716.30375
610.269	40090.2692
610.471	39672.93764
610.673	40365.28493
610.875	40187.43324
611.077	39889.8139
611.278	39761.73979
611.48	39720.43409
611.682	39809.24647
611.884	40520.45473
612.085	39916.67326
612.287	39993.12889
612.489	39883.61584
612.69	40162.62313
612.892	40028.26202
613.094	39955.93245
613.295	39445.8553
613.497	39480.94185
613.699	39972.46377
613.9	40539.07932
614.102	40067.53212
614.304	39722.49927
614.505	39262.21379
614.707	39652.2887
614.908	39031.22433
615.11	40125.41089
615.311	39592.41257
615.513	39315.85378
615.714	39412.8353
615.916	39619.25254
616.117	39373.62737
616.319	39929.07048
616.52	39365.37353
616.722	39712.17344
616.923	39848.49528
617.124	40123.34365
617.326	39367.43697
617.527	40139.8819
617.729	39993.12889
617.93	39955.93245
618.131	40214.31262
618.333	39962.13161
618.534	40216.38034
618.735	40315.64375
618.937	39586.21898
619.138	39862.95632
619.339	39592.41257
619.54	40323.91684
619.742	39918.73943
619.943	40156.42085
620.144	40185.36567
620.345	40148.15129
620.546	39796.85289
620.748	40201.90652
620.949	39445.8553
621.15	39619.25254
621.351	39437.60006
621.552	40094.40336
621.753	39984.86272
621.954	40354.9425
622.155	39947.66704
622.356	40681.89815
622.558	40117.14198
622.759	40537.00988
622.96	40239.12598
623.161	40828.91315
623.362	40373.55908
623.563	40741.93957
623.764	40762.64573
623.965	40427.34535
624.166	40330.12178
624.366	39569.70318
624.567	39893.94599
624.768	40241.19383
624.969	39610.9939
625.17	40276.34897
625.371	39617.18786
625.572	39322.04344
625.773	39877.41787
625.973	40185.36567
626.174	40688.10889
626.375	40485.27742
626.576	40257.73704
626.777	40026.19528
626.977	39912.54093
627.178	40646.70591
627.379	40421.13886
627.58	40189.50082
627.78	40319.78028
627.981	40222.58357
628.182	40845.48185
628.382	40837.19741
628.583	40690.17916
628.784	40187.43324
628.984	39784.45969
629.185	39976.59671
629.386	39470.62198
629.586	40621.8663
629.787	40323.91684
629.987	40951.12467
630.188	40636.35587
630.388	40177.09551
630.589	39885.68185
630.79	40563.91352
630.99	40414.93247
631.191	40770.92852
631.391	40497.69257
631.591	40216.38034
631.792	40514.24673
631.992	41201.88898
632.193	41168.72017
632.393	40677.75772
632.594	40783.35304
632.794	40621.8663
632.994	40340.46355
633.195	40406.65744
633.395	40381.8334
633.595	40530.80161
633.796	40911.76402
633.996	40876.55014
634.196	41025.71427
634.397	41683.18232
634.597	40973.91433
634.797	41259.94173
634.997	40739.86902
635.198	41334.59472
635.398	40621.8663
635.598	41145.91836
635.798	41434.15625
635.998	41297.26629
636.199	41118.97262
636.399	41336.66864
636.599	40901.40665
636.799	41104.4642
636.999	40574.26158
637.199	40953.1964
637.399	41423.78396
637.599	41129.33613
637.799	40549.42671
637.999	40551.49622
638.199	40741.93957
638.399	41015.3537
638.599	40377.69622
638.799	40495.62335
638.999	41334.59472
639.199	41320.07765
639.399	40619.7964
639.599	40454.2413
639.799	40878.62145
639.999	41121.0453
640.199	40696.39003
640.399	40454.2413
640.599	39602.73543
640.799	41558.64733
640.998	41374.00118
641.198	41291.04526
641.398	40706.74171
641.598	41069.23187
641.798	40830.9842
641.997	41214.32807
642.197	40462.51735
642.397	40901.40665
642.597	40855.83766
642.796	40460.44832
642.996	40748.1513
643.196	41164.57428
643.395	41560.72255
643.595	41840.99027
643.795	41660.3476
643.994	41438.30525
644.194	41459.05097
644.394	41324.22532
644.593	40814.41615
644.793	41579.4001
644.992	41077.52153
645.192	40833.05526
645.392	40657.05623
645.591	40768.8578
645.791	41019.49789
645.99	40986.34565
646.19	41440.37976
646.389	41764.15379
646.589	41676.95452
646.788	41512.99552
646.987	41569.02357
647.187	41832.68281
647.386	42007.18151
647.586	42439.65716
647.785	42019.64908
647.984	41982.24772
648.184	42013.41524
648.383	41579.4001
648.582	41741.31379
648.782	42267.01664
648.981	41521.29541
649.18	41747.54273
649.38	41695.63825
649.579	41355.33442
649.778	41897.07087
649.977	42154.74357
650.177	41880.45345
650.376	41984.32546
650.575	41326.29918
650.774	41755.84816
650.973	41915.76643
651.173	41185.30419
651.372	41135.55438
651.571	41697.71428
651.77	41874.22213
651.969	42057.05452
652.168	41442.45429
652.367	41641.66576
652.566	41004.99342
652.765	40949.05295
652.964	40969.77065
653.163	41894.99365
653.362	41456.97634
653.561	41498.47118
653.76	41724.70381
653.959	41728.85623
654.158	41853.45184
654.357	41735.08495
654.556	41741.31379
654.755	41840.99027
654.954	41587.70156
655.153	41442.45429
655.352	42090.30723
655.551	41774.53611
655.749	42188.0058
655.948	41683.18232
656.147	41982.24772
656.346	41899.14811
656.545	41965.62619
656.743	41924.07589
656.942	41953.16057
657.141	41791.14846
657.34	41907.45717
657.538	42281.57327
657.737	42098.62092
657.936	43091.5044
658.135	42144.34979
658.333	42358.52591
658.532	42383.48729
658.731	42477.10896
658.929	42146.42852
659.128	41625.06051
659.326	41442.45429
659.525	42235.82595
659.724	41768.30668
659.922	41878.37633
660.121	41291.04526
660.319	41598.07864
660.518	41438.30525
660.716	42102.77783
660.915	42248.30188
661.113	42321.0873
661.312	41770.38315
661.51	41990.55878
661.709	41477.72316
661.907	41338.74257
662.105	40971.84249
662.304	41187.37725
662.502	41656.196
662.701	42144.34979
662.899	41608.45604
663.097	42244.14319
663.296	41633.36303
663.494	42281.57327
663.692	41556.57212
663.891	41830.60597
664.089	41434.15625
664.287	41718.47527
664.485	41179.0851
664.684	42504.16008
664.882	41631.28738
665.08	41708.09462
665.278	42065.3674
665.476	42387.6477
665.675	42227.50892
665.873	42306.52897
666.071	42111.09182
666.269	41411.33761
666.467	41940.69541
666.665	42358.52591
666.863	42019.64908
667.061	42404.28985
667.259	41967.70384
667.457	42192.1638
667.655	41365.70472
667.853	41079.59397
668.051	40845.48185
668.249	41004.99342
668.447	40994.63343
668.645	41038.14735
668.843	41170.79313
669.041	41585.62617
669.239	40946.98124
669.437	41724.70381
669.635	41978.09226
669.833	41007.06545
670.031	40588.74934
670.229	40694.31973
670.426	40953.1964
670.624	41253.72135
670.822	40613.58679
671.02	40975.98619
671.218	41382.29782
671.415	41882.53059
671.613	41023.64213
671.811	41500.54605
672.009	41797.3783
672.206	42073.68047
672.404	41967.70384
672.602	41691.48623
672.799	41533.74562
672.997	41689.41023
673.195	41500.54605
673.392	41797.3783
673.59	41183.23115
673.788	41315.93002
673.985	40667.40683
674.183	41116.89996
674.38	41618.83374
674.578	41533.74562
674.775	41587.70156
674.973	41177.01209
675.17	41469.42429
675.368	41218.47453
675.565	41147.9912
675.763	40884.83546
675.96	40652.91607
676.158	41160.42844
676.355	41013.28162
676.553	41739.2375
676.75	41270.30927
676.947	41490.17183
677.145	40522.52408
677.342	40704.67136
677.539	40901.40665
677.737	41187.37725
677.934	41100.31905
678.131	41127.26341
678.329	41396.81742
678.526	41440.37976
678.723	41232.98751
678.92	41342.89046
679.118	41083.73889
679.315	40648.77595
679.512	40534.94044
679.709	41141.77274
679.906	40893.12096
680.104	40955.26814
680.301	40835.12633
680.498	39984.86272
680.695	40048.93001
680.892	40404.58871
681.089	40725.37546
681.286	40721.23455
681.483	39745.21701
681.68	40828.91315
681.877	40679.82793
682.075	40435.62083
682.272	40129.54541
682.469	41013.28162
682.665	40491.48495
682.862	40626.00612
683.059	40365.28493
683.256	39726.62968
683.453	39774.13231
683.65	39526.35229
683.847	40077.867
684.044	39348.86631
684.241	39873.28595
684.438	39951.79972
684.635	39588.2835
684.831	39908.40865
685.028	39586.21898
685.225	39443.79148
685.422	39086.89824
685.619	39107.51998
685.815	38928.14276
686.012	39505.71058
686.209	38992.05055
686.405	39381.88137
686.602	39309.66421
686.799	38932.26557
686.996	39018.85329
687.192	39241.58479
687.389	39361.24666
687.586	39666.74285
687.782	39338.54962
687.979	39538.73781
688.175	38697.32474
688.372	39449.98298
688.568	39392.1991
688.765	39068.3395
688.962	39192.07917
689.158	38855.99964
689.355	39192.07917
689.551	39332.35973
689.748	39138.45439
689.944	39132.26733
690.14	38621.09763
690.337	38719.98925
690.533	39253.96208
690.73	38645.81857
690.926	39066.27746
691.123	38225.73594
691.319	38732.35217
691.515	38853.93858
691.712	38621.09763
691.908	38268.963
692.104	38497.51226
692.301	38419.25806
692.497	38077.55725
692.693	38631.39786
692.889	38709.68706
693.086	39229.20786
693.282	39307.60104
693.478	38936.38842
693.674	38382.1947
693.87	38266.90448
694.067	37900.6226
694.263	38664.36014
694.459	38569.59981
694.655	39146.70393
694.851	38491.33383
695.047	38310.13514
695.243	37643.55667
695.439	37962.33709
695.635	38118.71362
695.831	37610.66112
696.027	37830.68833
696.224	37625.05268
696.42	37861.54053
696.615	38396.60789
696.811	38264.84597
697.007	37857.4268
697.203	37859.48366
697.399	37505.81975
697.595	37232.5022
697.791	37481.15408
697.987	37433.88127
698.183	38073.4418
698.379	37598.3258
698.575	37637.3886
698.77	37335.23774
698.966	37304.41515
699.162	37337.29264
699.358	37789.55486
699.554	37826.57483
699.749	37937.65041
699.945	37939.70759
700.141	38141.35106
700.337	37832.74508
700.532	38075.49952
700.728	37487.32039
700.924	37534.59774
701.119	36864.85569
701.315	37088.7029
701.511	37062.00117
701.706	37766.93281
701.902	37082.54086
702.097	36868.96224
702.293	37357.84204
702.489	37403.05332
702.684	37758.70685
702.88	37756.65038
703.075	37668.22963
703.271	37390.72261
703.466	37499.65323
703.662	37222.22965
703.857	37495.54225
704.053	37203.73952
704.248	37729.91699
704.443	37884.16663
704.639	37797.7813
704.834	37343.45738
705.03	37174.97826
705.225	36618.51182
705.42	36382.5202
705.616	36435.86751
705.811	36595.93505
706.006	37002.44006
706.202	37211.95728
706.397	36809.41993
706.592	36875.12212
706.787	37066.10905
706.983	36643.14192
707.178	37187.30434
707.373	36801.20764
707.568	36725.24908
707.763	36491.27112
707.959	36409.19333
708.154	36782.73039
708.349	36589.77789
708.544	36318.91929
708.739	36222.50331
708.934	36294.30117
709.129	36509.74002
709.324	36085.08217
709.519	36975.74216
709.714	36602.09228
709.909	36846.37656
710.104	36483.06289
710.299	36238.9136
710.494	36567.20212
710.689	36343.53829
710.884	35994.84977
711.079	36439.97132
711.274	35863.62244
711.469	36811.47302
711.664	36234.81099
711.859	36093.28567
712.054	35839.01988
712.249	35535.65275
712.443	35443.43567
712.638	35537.70214
712.833	35379.91435
713.028	35304.1049
713.223	35285.66578
713.417	36009.20418
713.612	36657.50992
713.807	36269.68392
714.002	36232.75969
714.196	35921.03155
714.391	35822.61862
714.586	36323.02239
714.78	36195.83742
714.975	36809.41993
715.17	36267.63252
715.364	36076.87876
715.559	35818.51836
715.754	35502.86326
715.948	35521.30718
716.143	35435.2391
716.337	35406.55173
716.532	35814.41812
716.726	35771.36695
716.921	35687.3216
717.115	35412.69894
717.31	35541.80093
717.504	35689.37138
717.699	35509.01119
717.893	35099.2479
718.088	35164.79692
718.282	35322.54441
718.476	34861.67251
718.671	34828.90825
718.865	34945.63612
719.059	34642.58269
719.254	34835.05146
719.448	34106.31752
719.642	34577.06997
719.837	33893.52045
720.031	34392.83789
720.225	33537.57682
720.419	33975.36095
720.614	34315.06068
720.808	34216.82374
721.002	34513.60855
721.196	34671.24586
721.39	34429.6817
721.585	34486.99687
721.779	34448.10409
721.973	34663.0563
722.167	34085.85458
722.361	34509.5144
722.555	34603.684
722.749	34087.90086
722.943	33740.08428
723.137	33746.22136
723.331	33607.1213
723.525	33922.16399
723.719	33828.05203
723.913	34501.32615
724.107	33731.90155
724.301	34161.56928
724.495	33515.07791
724.689	33780.99874
724.883	33895.5664
725.077	34245.47527
725.271	34210.68422
725.465	33809.63966
725.659	33568.25776
725.853	33764.6328
726.046	33760.54135
726.24	33265.56909
726.434	33341.23513
726.628	34026.51411
726.822	33883.29078
727.015	33899.6583
727.209	33294.19901
727.403	33598.93941
727.596	33783.0445
727.79	34116.54912
727.984	33969.22272
728.177	34351.90181
728.371	34010.14486
728.565	34106.31752
728.758	34116.54912
728.952	34069.4845
729.146	33787.13603
729.339	34313.01399
729.533	33842.37295
729.726	33603.03035
729.92	33721.6732
730.113	33940.57806
730.307	34206.59122
730.5	33756.44991
730.694	33772.81575
730.887	33903.75021
731.081	33639.84939
731.274	33993.77583
731.468	33286.01898
731.661	32752.36668
731.854	33032.46028
732.048	33408.72445
732.241	33461.90015
732.435	33909.88811
732.628	33193.99674
732.821	33169.45844
733.014	33324.87456
733.208	32956.80977
733.401	33048.81763
733.594	32772.80986
733.788	32952.72066
733.981	33447.58341
734.174	33425.08598
734.367	33455.76439
734.56	33629.62177
734.754	33682.80624
734.947	33324.87456
735.14	33453.71914
735.333	33357.59588
735.526	33365.77632
735.719	33163.32393
735.912	33071.30926
736.105	32917.96362
736.298	33126.51739
736.491	33306.46916
736.684	33108.11446
736.877	33322.82951
737.07	33281.92898
737.263	33085.62229
737.456	32983.38927
737.649	33030.41562
737.842	32969.07718
738.035	32895.47417
738.228	32611.31542
738.421	33077.4434
738.614	33087.66702
738.807	33476.21703
739	33014.05847
739.192	33112.20398
739.385	33341.23513
739.578	33283.97398
739.771	33314.64931
739.964	32885.25179
740.156	33079.48812
740.349	32922.05264
740.542	33298.28905
740.735	32433.48412
740.927	32893.42969
741.12	32717.61385
741.313	32529.55174
741.505	32840.2741
741.698	32791.20893
741.891	32686.95018
742.083	32897.51865
742.276	32656.28704
742.468	32862.76279
742.661	32525.46366
742.854	32284.28243
743.046	31898.04461
743.239	32237.27606
743.431	32171.87773
743.624	32006.34752
743.816	31767.27079
744.009	31934.82613
744.201	32043.13088
744.393	32165.74674
744.586	32327.20228
744.778	32208.66402
744.971	31851.0469
745.163	32037.00028
745.355	32529.55174
745.548	32092.17636
745.74	32098.30712
745.932	32188.22711
746.125	31851.0469
746.317	31787.7037
746.509	31883.74085
746.702	32026.78264
746.894	31513.91736
747.086	31609.94334
747.278	31673.2817
747.471	31346.39147
747.663	31342.30561
747.855	32030.86969
748.047	31569.08076
748.239	31726.4055
748.431	31037.9263
748.623	31846.96018
748.815	31446.49708
749.008	31479.18548
749.2	31556.82212
749.392	31497.57289
749.584	31493.48678
749.776	31579.29634
749.968	31828.57008
750.16	31693.71379
750.352	31080.82337
750.544	31311.66185
750.736	31413.80911
750.928	31413.80911
751.12	30992.98719
751.311	31227.90404
751.503	31070.60973
751.695	30890.85543
751.887	30586.52309
752.079	30510.95515
752.271	30717.23938
752.463	30619.20166
752.654	30674.34751
752.846	31013.41397
753.038	30643.71081
753.23	30374.12029
753.421	30555.88723
753.613	30028.99374
753.805	30811.19508
753.997	30512.99751
754.188	30417.00823
754.38	30774.42947
754.572	30241.37531
754.763	30384.33166
754.955	29779.86953
755.146	29773.74374
755.338	29706.36062
755.53	29796.20504
755.721	30306.72605
755.913	30208.7004
756.104	30815.28017
756.296	30831.62061
756.487	30414.96594
756.679	29924.84963
756.87	29598.14171
757.062	29847.25395
757.253	29843.17001
757.445	30043.28826
757.636	29794.1631
757.827	29765.57602
758.019	29761.49217
758.21	29396.00501
758.401	29099.96479
758.593	29036.67627
758.784	28799.86357
758.975	28567.1475
759.167	28934.60012
759.358	29375.58774
759.549	29314.33655
759.74	28730.4556
759.932	29328.62841
760.123	28859.06543
760.314	28973.38875
760.505	28467.12462
760.696	28167.07143
760.888	28828.44367
761.079	28279.33349
761.27	28291.58046
761.461	28514.07382
761.652	28646.75936
761.843	28854.98252
762.034	28861.10689
762.225	28167.07143
762.416	28644.71801
762.607	28669.21427
762.798	28697.79344
762.989	28820.2779
763.18	28330.36279
763.371	27854.79654
763.562	28085.42839
763.753	27979.29512
763.944	28089.5105
764.135	28120.12647
764.326	28293.62162
764.517	28197.68803
764.708	28087.46945
764.899	28111.96219
765.089	27916.02481
765.28	27885.41055
765.471	27932.35253
765.662	27358.88706
765.853	27350.72456
766.043	27550.7118
766.234	27528.26366
766.425	27128.30429
766.615	27595.60854
766.806	27318.07474
766.997	27607.85321
767.187	27399.69991
767.378	27577.24162
767.569	27789.48753
767.759	27879.28772
767.95	27685.40378
768.141	27497.65279
768.331	27564.99706
768.522	27409.9032
768.712	27511.93783
768.903	27320.11534
769.093	27242.5733
769.284	26738.59798
769.474	26722.27635
769.665	26728.39695
769.855	27009.95872
770.046	26807.96596
770.236	26389.74453
770.426	26716.15576
770.617	26793.68418
770.807	27305.83114
770.998	27622.13871
771.188	27554.7933
771.378	27081.3736
771.569	26842.65058
771.759	26503.9839
771.949	26446.86359
772.139	27060.96917
772.33	26134.76453
772.52	26291.82912
772.71	26242.87284
772.9	26053.17657
773.09	25924.68129
773.281	26195.95732
773.471	26446.86359
773.661	26383.62471
773.851	26177.59932
774.041	25934.87906
774.231	25836.98231
774.421	25696.26331
774.611	25390.38466
774.802	25600.41649
774.992	26032.78002
775.182	25696.26331
775.372	25861.4561
775.562	25616.73053
775.752	25508.65236
775.942	25206.87977
776.131	25700.34199
776.321	25041.74045
776.511	25531.08321
776.701	25376.11144
776.891	25488.26088
777.081	25396.50178
777.271	25531.08321
777.461	25555.55352
777.651	25339.40935
777.84	25418.9314
778.03	25681.98798
778.22	25292.51324
778.41	25019.31526
778.599	25051.93381
778.789	25223.19062
778.979	24854.19285
779.169	24326.31576
779.358	24026.78758
779.548	24662.5888
779.738	24257.03192
779.927	24287.59794
780.117	24583.09984
780.307	24330.39137
780.496	24220.3535
780.686	24430.24724
780.875	24151.07442
781.065	24177.56311
781.254	24138.84903
781.444	24051.23663
781.633	24106.24847
781.823	24024.75018
782.012	23941.21909
782.202	24161.26232
782.391	24242.76799
782.581	23971.77869
782.77	23704.91348
782.96	24106.24847
783.149	23527.7105
783.338	23916.77187
783.528	23755.83808
783.717	23920.84638
783.906	24087.91097
784.096	23478.83099
784.285	23358.67647
784.474	23138.76128
784.663	22804.88948
784.853	22863.92117
785.042	23014.56673
785.231	23128.58094
785.42	23466.61139
785.61	23454.3919
785.799	23185.59191
785.988	23246.67793
786.177	22823.20935
786.366	22517.91497
786.555	22581.00265
786.744	22784.53439
786.933	22379.54115
787.122	22839.49392
787.312	22699.0468
787.501	22719.40043
787.69	22418.20274
787.879	22627.81184
788.068	22802.85395
788.257	22456.86564
788.445	22713.29431
788.634	22900.56298
788.823	22741.78983
789.012	22747.8961
789.201	22672.5876
789.39	22163.87442
789.579	22326.63794
789.768	22497.56483
789.957	22300.18726
790.145	22275.7718
790.334	21956.38559
790.523	22108.9471
790.712	22564.72163
790.9	22304.25656
791.089	21854.6898
791.278	21610.65934
791.467	21923.84189
791.655	22462.97043
791.844	22432.44681
792.033	21647.26033
792.221	21535.42799
792.41	21655.39405
792.599	20935.80674
792.787	21106.51041
792.976	21287.4064
793.164	21539.49441
793.353	21712.33188
793.541	21931.97773
793.73	21807.91296
793.918	21801.81179
794.107	21824.18294
794.295	21665.5613
794.484	21748.93639
794.672	21504.93033
794.861	21604.5593
795.049	21529.32838
795.238	21594.39264
795.426	22009.27117
795.614	21966.55569
795.803	21694.0301
795.991	21484.59905
796.179	21450.0368
796.368	21175.61295
796.556	21021.15496
796.744	20712.31016
796.932	21189.84053
797.121	20580.2676
797.309	21092.284
797.497	21200.0032
797.685	21303.66828
797.874	21191.87306
798.062	21273.17746
798.25	20787.48069
798.438	21191.87306
798.626	21187.80801
798.814	21029.28374
799.002	21193.90559
799.19	21130.89901
799.378	21236.58968
799.566	20874.84816
799.755	20787.48069
799.943	21033.34815
800.131	21232.52445
800.318	20990.67262
800.506	21183.74297
800.694	20527.45551
800.882	20649.33382
801.07	20811.86154
801.258	20645.27097
801.446	20511.20621
801.634	20299.98964
801.822	20689.96326
802.01	20381.22141
802.197	20677.77425
802.385	20113.18207
802.573	20521.36199
802.761	20310.14324
802.949	20476.67732
803.136	20247.19259
803.324	20407.62318
803.512	20860.62503
803.699	20730.59436
803.887	20525.42433
804.075	20927.67871
804.262	20639.17672
804.45	20239.07022
804.638	20133.48552
804.825	20714.34172
805.013	20027.91219
805.201	20523.39316
805.388	20299.98964
805.576	20478.7084
805.763	20505.11279
805.951	20645.27097
806.138	20517.29966
806.326	20763.10043
806.513	20590.42409
806.701	20533.54907
806.888	20170.03278
807.075	20618.86283
807.263	20013.70126
807.45	20289.83614
807.638	20139.57663
807.825	20015.73138
808.012	20015.73138
808.2	20235.00906
808.387	20340.60469
808.574	20478.7084
808.761	20297.95893
808.949	20622.92558
809.136	20340.60469
809.323	20752.94217
809.51	20675.74276
809.698	20397.46857
809.885	20452.30472
810.072	20555.89244
810.259	20419.80886
810.446	20452.30472
810.633	20218.76458
810.82	20336.5431
811.008	20598.54936
811.195	20299.98964
811.382	19749.82151
811.569	19857.39468
811.756	20080.69743
811.943	20109.12143
812.13	20348.7279
812.317	20261.4069
812.504	19993.4003
812.691	20277.65208
812.878	20216.73404
813.064	20419.80886
813.251	20369.03622
813.438	20525.42433
813.625	20687.93174
813.812	20509.17506
813.999	20754.97382
814.186	20866.72063
814.372	20525.42433
814.559	20962.22327
814.746	20468.55305
814.933	20450.2737
815.12	20340.60469
815.306	20163.94147
815.493	20478.7084
815.68	20367.00537
815.866	20533.54907
816.053	20974.41575
816.24	20098.96991
816.426	20354.82035
816.613	19721.40792
816.799	20084.75795
816.986	20275.62141
817.173	20151.75898
817.359	19871.60334
817.546	20269.52945
817.732	20050.24406
817.919	20283.74409
818.105	19932.49993
818.292	19520.50667
818.478	19757.93983
818.665	19967.00967
818.851	19711.26041
819.037	19437.31711
819.224	19603.70323
819.41	19518.47757
819.597	19603.70323
819.783	19995.43038
819.969	19790.41378
820.156	19479.92552
820.342	19835.06721
820.528	19654.43629
820.714	19670.67142
820.901	19504.27401
821.087	19382.53755
821.273	20025.88204
821.459	19863.48408
821.646	19565.14786
821.832	19512.39031
822.018	19863.48408
822.204	19301.3882
822.39	19396.73937
822.576	19299.35955
822.762	19098.54361
822.948	19068.12045
823.134	19151.27927
823.32	18703.11318
823.507	19108.68487
823.693	18930.21355
823.879	18978.88444
824.065	18948.46486
824.25	18800.4358
824.436	18421.33385
824.622	19277.04468
824.808	19354.13453
824.994	19051.89514
825.18	18877.48936
825.366	19025.52956
825.552	18577.41819
825.738	19270.95889
825.923	19108.68487
826.109	18849.10054
826.295	18688.92105
826.481	18832.87871
826.667	18772.04909
826.852	19141.13758
827.038	18993.08055
827.224	19258.78743
827.409	19189.8186
827.595	19191.84703
827.781	18699.05827
827.966	19191.84703
828.152	18607.82689
828.338	18547.01036
828.523	18066.67973
828.709	18378.76932
828.894	18172.05087
829.08	18178.13027
829.266	18279.45856
829.451	18695.00337
829.637	18317.96575
829.822	18141.65434
830.008	18121.39044
830.193	18127.46957
830.378	18046.41717
830.564	18342.28677
830.749	18184.20971
830.935	18540.9289
831.12	17783.03601
831.305	18009.94547
831.491	17714.16131
831.676	18105.17959
831.861	17953.21399
832.047	17783.03601
832.232	17552.11833
832.417	17509.58549
832.602	17503.50949
832.788	17554.14374
832.973	17766.82984
833.158	17720.23833
833.343	17460.97825
833.528	17937.00551
833.714	17598.70354
833.899	17934.97946
834.084	17732.39247
834.269	17985.63164
834.454	17584.52525
834.639	17643.26492
834.824	17529.83905
835.009	18117.33771
835.194	17890.40736
835.379	17934.97946
835.564	17531.86442
835.749	17860.01826
835.934	17600.72902
836.119	18058.57466
836.304	17718.21265
836.489	17544.01673
836.674	17381.99532
836.859	17191.64514
837.044	17394.14623
837.228	17315.16725
837.413	16924.3875
837.598	17292.89196
837.783	17290.86695
837.968	17454.90247
838.152	16924.3875
838.337	17240.2427
838.522	16956.77985
838.707	16900.09367
838.891	16507.39219
839.076	16428.45721
839.261	16784.70301
839.445	16754.33838
839.63	16450.72061
839.815	16545.84884
839.999	16333.33448
840.184	16667.2961
840.368	16335.35833
840.553	16353.573
840.737	15803.14369
840.922	16600.49912
841.106	16276.66762
841.291	16464.88835
841.475	16351.54914
841.66	16470.96027
841.844	16118.81718
842.029	16695.63497
842.213	16568.11358
842.397	16181.55138
842.582	16050.01366
842.766	16029.77767
842.951	16108.6989
843.135	15958.9528
843.319	15720.18316
843.504	15811.2375
843.688	15971.09408
843.872	16035.84845
844.056	16050.01366
844.241	16213.93095
844.425	16325.23913
844.609	15614.96724
844.793	15788.97958
844.977	15906.34111
845.161	15507.73015
845.346	15718.15976
845.53	15461.19386
845.714	15760.6515
845.898	15483.45031
846.082	15612.94388
846.266	15442.98409
846.45	15649.3645
846.634	15293.26062
846.818	15007.97903
847.002	15368.1221
847.186	15467.2638
847.37	15396.44819
847.554	15345.86594
847.738	15434.89088
847.922	15428.82097
848.106	15475.35705
848.29	15843.61291
848.473	15358.00566
848.657	15293.26062
848.841	14969.53661
849.025	14617.47531
849.209	14678.17727
849.392	14724.71484
849.576	14643.77961
849.76	14670.08373
849.944	14504.1623
850.127	14995.83933
850.311	14896.69797
850.495	14989.76948
850.678	14991.79276
850.862	15186.02712
851.046	14939.18725
851.229	14603.31139
851.413	14293.71221
851.596	14354.42073
851.78	14275.49935
851.964	14504.1623
852.147	14334.18473
852.331	14457.62186
852.514	14287.64128
852.698	14109.55268
852.881	14002.28673
853.065	14445.48076
853.248	14247.16793
853.431	14121.69559
853.615	14382.75086
853.798	14732.80829
853.982	14148.00497
854.165	14042.76522
854.348	14119.67178
854.532	14245.14425
854.715	13917.27864
854.898	13982.04712
855.081	13783.68488
855.265	14034.6696
855.448	13880.84519
855.631	14133.83843
855.814	13789.7576
855.997	13947.6392
856.181	13737.1265
856.364	13469.88823
856.547	13646.0292
856.73	13427.3673
856.913	12985.84908
857.096	13346.37025
857.279	13172.20395
857.462	13376.74489
857.645	13255.24072
857.828	13269.41699
858.011	13534.67886
858.194	13463.81392
858.377	13151.94994
858.56	13326.11998
858.743	12884.55154
858.926	12955.46118
859.109	12945.33162
859.292	13115.49154
859.475	12921.02016
859.658	12981.79743
859.841	12819.71414
860.023	12698.1286
860.206	12586.65664
860.389	13056.74978
860.572	12639.35475
860.755	12943.3057
860.937	12714.3412
861.12	12448.81074
861.303	12588.68357
861.486	12475.16594
861.668	12124.34375
861.851	12144.62835
862.034	12223.73119
862.216	12146.65677
862.399	12089.85819
862.581	12317.01779
862.764	12114.20117
862.947	12158.82713
863.129	12314.98998
863.312	12284.57198
863.494	12185.19531
863.677	12205.47768
863.859	11866.66141
864.042	12016.82259
864.224	11815.92107
864.406	11893.04432
864.589	11799.68305
864.771	11844.33631
864.954	11389.48259
865.136	11921.45512
865.318	11521.5191
865.501	11606.8137
865.683	11381.35592
865.865	11688.03161
866.048	11486.9904
866.23	11375.26082
866.412	11564.16845
866.594	11602.75242
866.777	11440.27069
866.959	11690.06187
867.141	11584.47622
867.323	11686.00134
867.505	11342.75209
867.687	11348.84767
867.869	11074.45494
868.052	11310.24081
868.234	11178.13682
868.416	11444.33348
868.598	11251.30749
868.78	11568.23008
868.962	11647.42446
869.144	11566.19927
869.326	11661.63737
869.508	11659.60698
869.69	11428.0821
869.872	11742.84562
870.054	11586.50695
870.236	11513.39495
870.417	11359.00677
870.599	11407.76701
870.781	10887.34889
870.963	11172.03865
871.145	11084.62107
871.327	11019.55315
871.508	10952.44001
871.69	11277.72693
871.872	10954.47392
872.054	11261.46902
872.235	10810.03791
872.417	11109.01866
872.599	11161.87483
872.78	11289.91994
872.962	10978.87997
873.144	10944.30426
873.325	10689.96876
873.507	10862.93671
873.689	10789.69012
873.87	10858.86785
874.052	10793.75977
874.233	11041.92151
874.415	10814.10733
874.596	11039.88808
874.778	10944.30426
874.959	11094.78692
875.141	10960.57558
875.322	11090.72061
875.503	10970.7448
875.685	10976.84619
875.866	10643.15079
876.048	10968.71098
876.229	10366.17871
876.41	10370.25355
876.592	10366.17871
876.773	10596.32633
876.954	10514.87678
877.136	10862.93671
877.317	10952.44001
877.498	11009.38527
877.679	10582.07411
877.86	11106.98559
878.042	11011.41887
878.223	11143.57928
878.404	10716.42825
878.585	10783.58555
878.766	10620.7573
878.947	10753.06112
879.128	10470.0709
879.309	10903.62276
879.49	10797.82938
879.672	11125.28287
879.853	10848.6955
880.034	10891.41743
880.215	11007.35166
880.396	11176.10411
880.576	11005.31804
880.757	11261.46902
880.938	10858.86785
881.119	11241.1457
881.3	10964.6433
881.481	11131.38177
881.662	11019.55315
881.843	11001.25077
882.023	11269.59806
882.204	11237.08091
882.385	11165.94039
882.566	11338.68832
882.747	11289.91994
882.927	11480.89681
883.108	11058.18857
883.289	10984.98123
883.469	10913.79356
883.65	11050.05513
883.831	10810.03791
884.011	10952.44001
884.192	10777.48088
884.373	11019.55315
884.553	10545.42272
884.734	11239.11331
884.914	10675.7205
885.095	10567.82127
885.275	10461.92371
885.456	10781.55067
885.636	10808.00319
885.817	11206.59368
885.997	11109.01866
886.178	11399.6407
886.358	10887.34889
886.538	11188.30022
886.719	10948.37215
886.899	11025.65374
887.08	11137.48057
887.26	11564.16845
887.44	11100.8863
887.621	11165.94039
887.801	10881.246
887.981	11237.08091
888.161	11082.58786
888.342	11078.52142
888.522	11092.75377
888.702	11308.20876
888.882	11391.51423
889.062	11119.18387
889.242	11291.95207
889.423	11387.45093
889.603	11196.43075
889.783	11233.01608
889.963	10980.91373
890.143	11277.72693
890.323	11100.8863
890.503	11131.38177
890.683	10734.74517
890.863	11249.27515
891.043	11320.40086
891.223	11499.17731
891.403	11208.62624
891.583	11405.73544
891.763	10748.99099
891.943	10836.48829
892.122	10820.21137
892.302	11041.92151
892.482	10818.1767
892.662	10722.534
892.842	10956.50782
893.022	10702.18109
893.201	10830.38454
893.381	11005.31804
893.561	10635.00788
893.741	10976.84619
893.92	10675.7205
894.1	11025.65374
894.28	10822.24603
894.459	10901.58857
894.639	10626.86476
894.819	10816.14202
894.998	10679.79149
895.178	11149.67789
895.357	10887.34889
895.537	10883.28031
895.716	10830.38454
895.896	10999.21711
896.075	10639.07936
896.255	10822.24603
896.434	10812.07263
896.614	10903.62276
896.793	10626.86476
896.973	10846.66099
897.152	10677.756
897.331	10980.91373
897.511	10799.86416
897.69	10966.67715
897.87	10500.62103
898.049	10808.00319
898.228	10602.43424
898.407	10488.40133
898.587	10433.40693
898.766	10632.97212
898.945	10588.18228
899.124	10539.31376
899.304	10622.79313
899.483	10616.68559
899.662	10630.93634
899.841	10728.63964
900.02	10305.0497
900.199	10612.61384
900.378	10178.67805
900.557	10245.94688
900.737	10125.6678
900.916	10129.74585
901.095	10217.41041
901.274	10390.62698
901.453	10235.75559
901.632	10035.93658
901.811	10023.69838
901.989	9774.7413
902.168	9672.64543
902.347	9717.57232
902.526	9423.3679
902.705	9413.14653
902.884	9907.40959
903.063	10015.5393
903.242	9603.19825
903.42	9903.32842
903.599	9492.86246
903.778	9770.6582
903.957	9480.60007
904.135	9592.9839
904.314	9280.23148
904.493	9482.64384
904.672	9137.01331
904.85	9578.68317
905.029	9611.36944
905.207	9752.28348
905.386	9844.14487
905.565	10017.57909
905.743	9644.05171
905.922	10015.5393
906.1	9648.13671
906.279	9758.40852
906.457	9359.98886
906.636	9844.14487
906.814	9231.13743
906.993	9182.03368
907.171	8965.04053
907.35	9419.2794
907.528	9077.65561
907.707	9362.03359
907.885	9028.52099
908.063	8665.8369
908.242	8819.58559
908.42	9042.85295
908.598	8860.56795
908.777	9003.94991
908.955	8764.24792
909.133	8950.7039
909.311	8805.24006
909.49	9224.99999
909.668	8960.94444
909.846	9038.75819
910.024	8688.39318
910.202	8577.64077
910.38	8450.41294
910.559	8477.0958
910.737	8333.38046
910.915	8522.24407
911.093	8536.6075
911.271	8575.58928
911.449	8388.82472
911.627	8464.78103
911.805	8173.12795
911.983	8261.48711
912.161	8232.72303
912.339	8637.12567
912.517	8238.88708
912.695	8444.25489
912.872	8164.90663
913.05	8370.34487
913.228	8249.16012
913.406	8343.64898
913.584	8236.83242
913.762	8020.98155
913.939	7745.18869
914.117	8016.86795
914.295	7739.00995
914.473	7819.31883
914.65	7718.4128
914.828	7897.53805
915.006	7553.55937
915.184	7745.18869
915.361	7382.37897
915.539	7586.54095
915.716	7464.89414
915.894	7703.99353
916.072	7431.89224
916.249	7324.59763
916.427	7421.57801
916.604	7522.63415
916.782	7555.62088
916.959	7806.96568
917.137	7440.14323
917.314	7532.9431
917.492	7144.95275
917.669	7524.69599
917.847	7004.42353
918.024	7116.02871
918.201	6971.34276
918.379	7341.10833
918.556	6898.95842
918.733	7105.69764
918.911	6679.56734
919.088	6989.9514
919.265	6482.72398
919.442	6689.92175
919.62	6416.37178
919.797	6981.68112
919.974	6540.76266
920.151	6783.08566
920.328	6327.17346
920.506	6679.56734
920.683	6480.65084
920.86	6542.83513
921.037	6094.63987
921.214	6310.57366
921.391	6169.4149
921.568	6385.26098
921.745	6032.30406
921.922	6258.68965
922.099	5940.83987
922.276	6260.76529
922.453	6148.64711
922.63	6451.62435
922.807	6258.68965
922.984	6275.29413
923.161	5917.96669
923.338	6190.18034
923.514	6088.40724
923.691	6123.72267
923.868	5888.85125
924.045	5874.29179
924.222	5653.67868
924.399	5924.20511
924.575	5436.97053
924.752	5807.71955
924.929	5430.71555
925.105	5716.14325
925.282	5293.05265
925.459	5474.49593
925.635	5643.26585
925.812	5795.23456
925.989	5484.9183
926.165	5349.38164
926.342	5318.08987
926.518	5693.24204
926.695	5165.72811
926.871	5682.83146
927.048	5186.60693
927.224	5061.29911
927.401	4774.86827
927.577	5326.43485
927.754	4802.06628
927.93	5073.83365
928.107	4883.6372
928.283	5017.42166
928.459	5034.13808
928.636	5140.67044
928.812	5029.95911
928.988	5021.6009
929.165	4722.55365
929.341	4776.96056
929.517	4707.90302
929.693	4864.81622
929.87	4496.39319
930.046	4477.53478
930.222	4433.5249
930.398	4596.9411
930.574	4127.28763
930.751	4504.77413
930.927	4280.46341
931.103	4546.67354
931.279	4144.07952
931.455	4488.0119
931.631	4081.10306
931.807	4186.05333
931.983	4013.90757
932.159	4261.58485
932.335	3976.10085
932.511	4051.70764
932.687	3616.61483
932.863	3641.86043
933.039	3564.01117
933.215	3900.46765
933.391	3521.91989
933.566	3725.99263
933.742	3465.08506
933.918	3765.94464
934.094	3490.34662
934.27	3728.09554
934.445	3488.24159
934.621	3425.08229
934.797	3115.37631
934.973	3332.41977
935.148	3206.00808
935.324	3279.75564
935.5	2902.38308
935.675	2817.98764
935.851	2609.01576
936.027	2944.57217
936.202	2571.00753
936.378	2756.78702
936.553	2378.79799
936.729	2545.66656
936.904	2209.75232
937.08	2437.94905
937.255	2137.89062
937.431	2216.0926
937.606	1810.18317
937.782	1951.85535
937.957	1765.77408
938.133	1909.56762
938.308	1575.43299
938.483	1672.72121
938.659	1401.99965
938.834	1681.18081
939.009	1431.61033
939.185	1560.62791
939.36	1217.99641
939.535	1194.73294
939.71	1112.25708
939.886	1220.11129
940.061	1201.07748
940.236	1190.50327
940.411	1025.55943
940.586	1249.71993
940.761	1065.73527
940.937	1122.83055
941.112	989.61445
941.287	1139.74833
941.462	860.65207
941.637	940.98604
941.812	873.33561
941.987	862.76597
942.162	797.23912
942.337	852.19655
942.512	761.30888
942.687	854.31041
942.862	700.02295
943.037	738.06144
943.212	742.28816
943.386	814.14844
943.561	725.38156
943.736	797.23912
943.911	592.26753
944.086	860.65207
944.26	642.97205
944.435	695.79667
944.61	526.78531
944.785	676.77897
944.959	514.11286
945.134	700.02295
945.309	539.45826
945.483	714.81528
945.658	615.5062
945.833	693.68355
946.007	575.36765
946.182	598.60519
946.357	577.48009
946.531	710.58885
946.706	564.80566
946.88	657.76221
947.055	554.24401
947.229	700.02295
947.404	651.4235
947.578	691.57044
947.752	700.02295
947.927	725.38156
948.101	564.80566
948.276	765.53582
948.45	683.11811
948.624	750.74171
948.799	659.87514
948.973	833.17213
949.147	615.5062
949.321	809.92106
949.496	812.03474
949.67	883.90545
949.844	598.60519
950.018	710.58885
950.193	520.44902
950.367	661.98807
950.541	653.53639
950.715	702.13611
950.889	666.21399
951.063	674.66595
951.237	678.89201
951.411	776.10334
951.585	773.98982
951.759	877.56352
951.933	691.57044
952.107	847.96884
952.281	761.30888
952.455	831.05835
952.629	695.79667
952.803	883.90545
952.977	632.40802
953.151	767.6493
953.325	672.55294
953.499	738.06144
953.672	623.95701
953.846	805.69371
954.02	742.28816
954.194	763.42234
954.368	744.40153
954.541	896.58954
954.715	556.35631
954.889	809.92106
955.062	725.38156
955.236	890.24746
955.41	788.78469
955.583	818.37586
955.757	837.39972
955.93	866.9938
956.104	727.49485
956.278	847.96884
956.451	674.66595
956.625	634.5208
956.798	607.0556
956.972	757.08198
957.145	602.83037
957.319	761.30888
957.492	721.15502
957.665	799.35276
957.839	788.78469
958.012	833.17213
958.185	765.53582
958.359	752.85512
958.532	697.90981
958.705	702.13611
958.879	691.57044
959.052	826.83082
959.225	670.43995
959.398	799.35276
959.572	640.85922
959.745	847.96884
959.918	769.7628
960.091	767.6493
960.264	683.11811
960.438	687.34425
960.611	623.95701
960.784	642.97205
960.957	619.73158
961.13	716.92852
961.303	640.85922
961.476	841.62734
961.649	700.02295
961.822	712.70206
961.995	750.74171
962.168	856.42429
962.341	619.73158
962.514	776.10334
962.686	577.48009
962.859	708.47565
963.032	615.5062
963.205	700.02295
963.378	564.80566
963.551	702.13611
963.723	617.61889
963.896	852.19655
964.069	598.60519
964.242	674.66595
964.414	535.23389
964.587	788.78469
964.76	492.99327
964.932	516.2249
965.105	457.09336
965.278	526.78531
965.45	539.45826
965.623	566.91803
965.795	566.91803
965.968	700.02295
966.14	569.03042
966.313	678.89201
966.485	564.80566
966.658	560.58096
966.83	524.6732
967.003	615.5062
967.175	556.35631
967.348	592.26753
967.52	556.35631
967.692	659.87514
967.865	425.42065
968.037	531.00957
968.209	514.11286
968.382	581.70501
968.554	429.64347
968.726	535.23389
968.898	461.31665
969.071	640.85922
969.243	423.30926
969.415	514.11286
969.587	492.99327
969.759	478.21043
969.932	397.97385
970.104	389.52924
970.276	378.97385
970.448	463.42832
970.62	423.30926
970.792	431.75491
970.964	488.76953
971.136	617.61889
971.308	541.57047
971.48	482.43403
971.652	387.41813
971.824	448.64696
971.996	454.98174
972.168	531.00957
972.339	429.64347
972.511	471.87515
972.683	446.5354
972.855	482.43403
973.027	362.08609
973.199	347.3102
973.37	340.97794
973.542	336.75651
973.714	349.42099
973.886	381.08489
974.057	357.86432
974.229	330.42451
974.401	328.31388
974.572	324.09267
974.744	397.97385
974.915	408.52999
975.087	355.75346
975.259	389.52924
975.43	326.20327
975.602	400.08505
975.773	294.5462
975.945	302.98769
976.116	277.66411
976.288	397.97385
976.459	395.86267
976.63	321.98209
976.802	343.08867
976.973	343.08867
977.145	343.08867
977.316	265.00332
977.487	286.10501
977.659	345.19943
977.83	235.46415
978.001	355.75346
978.172	227.02509
978.344	332.53516
978.515	404.30748
978.686	311.42946
978.857	305.0981
979.028	243.90353
979.2	201.70978
979.371	281.88452
979.542	302.98769
979.713	237.57397
979.884	184.83451
980.055	182.72519
980.226	127.89025
980.397	277.66411
980.568	260.78321
980.739	324.09267
980.91	237.57397
981.081	184.83451
981.252	235.46415
981.423	231.24458
981.594	224.91537
981.765	271.33363
981.936	170.06972
982.106	205.9288
982.277	195.3814
982.448	279.77431
982.619	201.70978
982.79	279.77431
982.96	174.28813
983.131	237.57397
983.302	186.94385
983.472	125.7815
983.643	214.36707
983.814	271.33363
983.984	208.03833
984.155	203.81928
984.326	186.94385
984.496	298.76691
984.667	193.27198
984.837	178.50662
985.008	205.9288
985.178	176.39736
985.349	191.16258
985.519	184.83451
985.69	113.12946
985.86	159.52406
986.031	125.7815
986.201	195.3814
986.371	94.15287
986.542	197.49084
986.712	125.7815
986.882	153.19692
987.053	146.86997
987.223	172.17891
987.393	117.34672
987.563	98.36974
987.734	108.91229
987.904	138.43433
988.074	75.17808
988.244	75.17808
988.414	94.15287
988.585	60.42118
988.755	39.34183
988.925	92.04447
989.095	113.12946
989.265	125.7815
989.435	125.7815
989.605	172.17891
989.775	104.6952
989.945	142.6521
990.115	100.4782
990.285	184.83451
990.455	132.10782
990.625	136.32547
990.795	117.34672
990.965	119.45538
991.134	142.6521
991.304	201.70978
991.474	170.06972
991.644	132.10782
991.814	167.96055
991.984	75.17808
992.153	77.2863
992.323	83.6111
992.493	151.08791
992.662	41.44967
992.832	100.4782
993.002	125.7815
993.171	161.63315
993.341	75.17808
993.511	108.91229
993.68	70.96171
993.85	134.21663
994.019	134.21663
994.189	127.89025
994.358	174.28813
994.528	41.44967
994.697	92.04447
994.867	47.77329
995.036	100.4782
995.206	142.6521
995.375	51.98916
995.544	51.98916
995.714	136.32547
995.883	125.7815
996.052	58.31314
996.222	138.43433
996.391	172.17891
996.56	117.34672
996.73	68.85356
996.899	108.91229
997.068	49.88122
997.237	37.23403
997.406	43.55752
997.576	73.06989
997.745	68.85356
997.914	121.56407
998.083	87.82774
998.252	121.56407
998.421	11.94218
998.59	51.98916
998.759	37.23403
998.928	54.09713
999.097	35.12624
999.266	7.72721
999.435	113.12946
999.604	58.31314
999.773	75.17808
999.942	16.15725
1000.111	113.12946
1000.28	45.6654
1000.448	113.12946
1000.617	60.42118
1000.786	68.85356
1000.955	102.58669
1001.124	-4.91714
1001.292	92.04447
1001.461	37.23403
1001.63	92.04447
1001.798	102.58669
1001.967	39.34183
1002.136	155.30595
1002.304	134.21663
1002.473	68.85356
1002.642	-25.98912
1002.81	75.17808
1002.979	70.96171
1003.147	62.52924
1003.316	100.4782
1003.484	-7.02445
1003.653	28.80304
1003.821	45.6654
1003.99	62.52924
1004.158	16.15725
1004.327	111.02086
1004.495	28.80304
1004.663	68.85356
1004.832	62.52924
1005	153.19692
1005.168	37.23403
1005.337	9.83468
1005.505	16.15725
1005.673	-0.70246
1005.842	35.12624
1006.01	26.69535
1006.178	-0.70246
1006.346	16.15725
1006.514	58.31314
1006.683	41.44967
1006.851	33.01848
1007.019	94.15287
1007.187	54.09713
1007.355	-23.88203
1007.523	94.15287
1007.691	75.17808
1007.859	68.85356
1008.027	-36.52418
1008.195	92.04447
1008.363	-0.70246
1008.531	-0.70246
1008.699	33.01848
1008.867	-7.02445
1009.035	-23.88203
1009.203	22.48004
1009.37	41.44967
1009.538	16.15725
1009.706	51.98916
1009.874	68.85356
1010.042	35.12624
1010.209	-38.63112
1010.377	68.85356
1010.545	49.88122
1010.713	75.17808
1010.88	39.34183
1011.048	75.17808
1011.216	49.88122
1011.383	100.4782
1011.551	39.34183
1011.718	11.94218
1011.886	24.58768
1012.054	81.50281
1012.221	16.15725
1012.389	54.09713
1012.556	60.42118
1012.724	75.17808
1012.891	33.01848
1013.058	125.7815
1013.226	64.63732
1013.393	9.83468
1013.561	24.58768
1013.728	68.85356
1013.895	-25.98912
1014.063	7.72721
1014.23	-13.34623
1014.397	41.44967
1014.565	24.58768
1014.732	35.12624
1014.899	33.01848
1015.066	-25.98912
1015.233	5.61975
1015.401	62.52924
1015.568	41.44967
1015.735	-7.02445
1015.902	18.26482
1016.069	66.74543
1016.236	56.20513
1016.403	33.01848
1016.57	18.26482
1016.737	51.98916
1016.904	-0.70246
1017.071	20.37242
1017.238	43.55752
1017.405	66.74543
1017.572	5.61975
1017.739	-4.91714
1017.906	7.72721
1018.073	68.85356
1018.24	20.37242
1018.407	9.83468
1018.573	49.88122
1018.74	-4.91714
1018.907	146.86997
1019.074	24.58768
1019.241	22.48004
1019.407	-7.02445
1019.574	30.91075
1019.741	39.34183
1019.907	49.88122
1020.074	24.58768
1020.241	41.44967
1020.407	75.17808
1020.574	-9.13173
1020.74	70.96171
1020.907	-40.73804
1021.073	35.12624
1021.24	3.51233
1021.406	18.26482
1021.573	75.17808
1021.739	30.91075
1021.906	58.31314
1022.072	60.42118
1022.239	49.88122
1022.405	28.80304
1022.571	92.04447
1022.738	35.12624
1022.904	56.20513
1023.07	11.94218
1023.237	-25.98912
1023.403	41.44967
1023.569	-15.45344
1023.735	35.12624
1023.902	16.15725
1024.068	24.58768
1024.234	11.94218
1024.4	33.01848
1024.566	24.58768
1024.732	49.88122
1024.898	-15.45344
1025.065	49.88122
1025.231	77.2863
1025.397	9.83468
1025.563	-103.93364
1025.729	66.74543
1025.895	47.77329
1026.061	62.52924
1026.227	58.31314
1026.392	-17.56062
1026.558	68.85356
1026.724	35.12624
1026.89	1.40492
1027.056	-7.02445
1027.222	39.34183
1027.388	16.15725
1027.553	24.58768
1027.719	24.58768
1027.885	20.37242
1028.051	58.31314
1028.216	-13.34623
1028.382	-9.13173
1028.548	66.74543
1028.713	54.09713
1028.879	28.80304
1029.045	24.58768
1029.21	92.04447
1029.376	24.58768
1029.541	79.39455
1029.707	-17.56062
1029.873	16.15725
1030.038	24.58768
1030.204	51.98916
1030.369	33.01848
1030.534	16.15725
1030.7	-38.63112
1030.865	66.74543
1031.031	-49.16544
1031.196	24.58768
1031.361	20.37242
1031.527	14.04971
1031.692	-9.13173
1031.857	24.58768
1032.023	3.51233
1032.188	7.72721
1032.353	37.23403
1032.518	7.72721
1032.684	79.39455
1032.849	-80.7646
1033.014	-25.98912
1033.179	28.80304
1033.344	-9.13173
1033.509	-21.77492
1033.674	5.61975
1033.839	24.58768
1034.004	-0.70246
1034.17	24.58768
1034.335	24.58768
1034.5	37.23403
1034.664	20.37242
1034.829	-30.20322
1034.994	-84.97739
1035.159	43.55752
1035.324	85.71941
1035.489	9.83468
1035.654	7.72721
1035.819	28.80304
1035.984	33.01848
1036.148	58.31314
1036.313	75.17808
1036.478	41.44967
1036.643	24.58768
1036.807	41.44967
1036.972	9.83468
1037.137	-9.13173
1037.301	49.88122
1037.466	35.12624
1037.631	77.2863
1037.795	7.72721
1037.96	-59.69913
1038.124	-17.56062
1038.289	16.15725
1038.454	37.23403
1038.618	16.15725
1038.783	-47.05863
1038.947	16.15725
1039.111	-42.84492
1039.276	-21.77492
1039.44	3.51233
1039.605	-76.55171
1039.769	3.51233
1039.933	-91.29638
1040.098	58.31314
1040.262	11.94218
1040.426	37.23403
1040.591	51.98916
1040.755	7.72721
1040.919	41.44967
1041.083	70.96171
1041.248	-19.66778
1041.412	-25.98912
1041.576	22.48004
1041.74	-13.34623
1041.904	92.04447
1042.068	-11.23899
1042.232	-13.34623
1042.397	-34.41722
1042.561	24.58768
1042.725	-17.56062
1042.889	121.56407
1043.053	11.94218
1043.217	24.58768
1043.381	-34.41722
1043.544	-51.27223
1043.708	26.69535
1043.872	89.9361
1044.036	54.09713
1044.2	14.04971
1044.364	-7.02445
1044.528	-2.80981
1044.691	66.74543
1044.855	26.69535
1045.019	-9.13173
1045.183	41.44967
1045.346	58.31314
1045.51	1.40492
1045.674	-4.91714
1045.837	79.39455
1046.001	-25.98912
1046.165	-2.80981
1046.328	20.37242
1046.492	-34.41722
1046.655	-17.56062
1046.819	16.15725
1046.983	11.94218
1047.146	20.37242
1047.31	-17.56062
1047.473	35.12624
1047.636	-17.56062
1047.8	39.34183
1047.963	18.26482
1048.127	9.83468
1048.29	60.42118
