Data from mixed_try1_USB4F045381__20__00124.txt Node

Date: Thu Apr 03 20:00:45 EDT 2025
User: mmckonesweet
Spectrometer: USB4F04538
Trigger mode: 4
Integration Time (sec): 2.700000E-3
Scans to average: 1
Electric dark correction enabled: true
Nonlinearity correction enabled: true
Boxcar width: 0
XAxis mode: Wavelengths
Number of Pixels in Spectrum: 3648
>>>>>Begin Spectral Data<<<<<
345.52	46.01671
345.736	46.01671
345.952	46.01671
346.168	-36.17303
346.384	14.40096
346.6	-53.02787
346.816	31.26204
347.032	-36.17303
347.248	5.97099
347.464	-31.95906
347.68	46.01671
347.896	50.23254
348.112	-29.85205
348.328	33.36978
348.544	-8.78052
348.76	-38.27997
348.975	31.26204
349.191	-23.53085
349.407	-17.20943
349.623	31.26204
349.839	46.01671
350.055	-12.99502
350.27	-29.85205
350.486	22.83131
350.702	-27.74501
350.918	-15.10224
351.133	24.93896
351.349	54.44846
351.565	73.42125
351.781	-12.99502
351.996	50.23254
352.212	33.36978
352.428	-63.56133
352.644	31.26204
352.859	3.86356
353.075	62.88058
353.291	-2.45859
353.506	-0.35123
353.722	3.86356
353.938	24.93896
354.153	71.31307
354.369	12.29343
354.584	37.58533
354.8	62.88058
355.016	3.86356
355.231	64.98867
355.447	31.26204
355.662	46.01671
355.878	54.44846
356.093	22.83131
356.309	8.07845
356.524	-4.56592
356.74	37.58533
356.955	16.50851
357.171	-0.35123
357.386	-36.17303
357.602	46.01671
357.817	12.29343
358.033	-46.70749
358.248	14.40096
358.464	37.58533
358.679	3.86356
358.895	-21.42373
359.11	-38.27997
359.325	20.72369
359.541	3.86356
359.756	-12.99502
359.972	-0.35123
360.187	83.96248
360.402	39.69314
360.618	-29.85205
360.833	18.61609
361.048	12.29343
361.264	-4.56592
361.479	20.72369
361.694	-4.56592
361.909	-38.27997
362.125	8.07845
362.34	46.01671
362.555	-42.49378
362.77	20.72369
362.986	-21.42373
363.201	-0.35123
363.416	-46.70749
363.631	-31.95906
363.847	-12.99502
364.062	-12.99502
364.277	41.80097
364.492	-0.35123
364.707	64.98867
364.922	22.83131
365.138	75.52945
365.353	-38.27997
365.568	24.93896
365.783	-2.45859
365.998	-27.74501
366.213	39.69314
366.428	8.07845
366.643	1.75615
366.858	-80.41353
367.073	18.61609
367.288	22.83131
367.503	33.36978
367.718	94.50427
367.933	29.15432
368.148	-36.17303
368.363	-21.42373
368.578	-12.99502
368.793	71.31307
369.008	-44.60065
369.223	-12.99502
369.438	-21.42373
369.653	24.93896
369.868	43.90883
370.083	-67.77453
370.298	16.50851
370.513	20.72369
370.728	3.86356
370.943	37.58533
371.157	-17.20943
371.372	96.6127
371.587	12.29343
371.802	96.6127
372.017	-84.62633
372.232	-34.06606
372.446	-88.83902
372.661	-27.74501
372.876	3.86356
373.091	-29.85205
373.306	-4.56592
373.52	-10.88778
373.735	-12.99502
373.95	12.29343
374.165	73.42125
374.379	22.83131
374.594	24.93896
374.809	54.44846
375.023	-25.63794
375.238	-80.41353
375.453	50.23254
375.667	43.90883
375.882	-12.99502
376.097	29.15432
376.311	50.23254
376.526	-19.31659
376.741	1.75615
376.955	64.98867
377.17	-71.98763
377.384	29.15432
377.599	-17.20943
377.813	29.15432
378.028	20.72369
378.242	12.29343
378.457	22.83131
378.672	33.36978
378.886	31.26204
379.101	29.15432
379.315	-27.74501
379.53	92.39587
379.744	62.88058
379.958	37.58533
380.173	69.20492
380.387	-6.67324
380.602	-40.38689
380.816	62.88058
381.031	60.77252
381.245	54.44846
381.459	-4.56592
381.674	29.15432
381.888	3.86356
382.103	3.86356
382.317	-2.45859
382.531	-25.63794
382.746	-21.42373
382.96	-27.74501
383.174	-4.56592
383.388	-46.70749
383.603	16.50851
383.817	43.90883
384.031	-8.78052
384.246	-0.35123
384.46	3.86356
384.674	3.86356
384.888	-63.56133
385.103	62.88058
385.317	-21.42373
385.531	12.29343
385.745	-38.27997
385.959	29.15432
386.174	5.97099
386.388	-42.49378
386.602	-36.17303
386.816	56.55646
387.03	29.15432
387.244	41.80097
387.458	20.72369
387.672	-50.9211
387.887	-6.67324
388.101	-67.77453
388.315	-6.67324
388.529	18.61609
388.743	1.75615
388.957	-97.26409
389.171	54.44846
389.385	43.90883
389.599	67.09678
389.813	-67.77453
390.027	-78.3071
390.241	37.58533
390.455	37.58533
390.669	14.40096
390.883	54.44846
391.097	48.12461
391.311	62.88058
391.525	37.58533
391.738	12.29343
391.952	58.66448
392.166	37.58533
392.38	39.69314
392.594	75.52945
392.808	27.04663
393.022	8.07845
393.236	-38.27997
393.449	58.66448
393.663	16.50851
393.877	20.72369
394.091	18.61609
394.305	37.58533
394.518	33.36978
394.732	-10.88778
394.946	14.40096
395.16	14.40096
395.373	16.50851
395.587	-61.45468
395.801	71.31307
396.015	46.01671
396.228	75.52945
396.442	-19.31659
396.656	5.97099
396.869	-120.43087
397.083	-23.53085
397.297	-34.06606
397.51	71.31307
397.724	67.09678
397.938	-25.63794
398.151	20.72369
398.365	-0.35123
398.578	-25.63794
398.792	64.98867
399.005	71.31307
399.219	-21.42373
399.433	41.80097
399.646	39.69314
399.86	-4.56592
400.073	41.80097
400.287	-23.53085
400.5	48.12461
400.714	12.29343
400.927	46.01671
401.141	39.69314
401.354	39.69314
401.567	31.26204
401.781	46.01671
401.994	14.40096
402.208	-15.10224
402.421	20.72369
402.635	37.58533
402.848	-21.42373
403.061	-17.20943
403.275	-71.98763
403.488	-38.27997
403.701	-12.99502
403.915	-29.85205
404.128	16.50851
404.341	46.01671
404.555	-42.49378
404.768	-2.45859
404.981	-17.20943
405.195	-65.66794
405.408	-12.99502
405.621	-10.88778
405.834	-4.56592
406.048	14.40096
406.261	3.86356
406.474	54.44846
406.687	20.72369
406.9	41.80097
407.114	20.72369
407.327	77.63768
407.54	-17.20943
407.753	56.55646
407.966	27.04663
408.179	111.37229
408.392	22.83131
408.605	-27.74501
408.819	-4.56592
409.032	8.07845
409.245	-4.56592
409.458	-48.81431
409.671	37.58533
409.884	-25.63794
410.097	-4.56592
410.31	31.26204
410.523	-46.70749
410.736	29.15432
410.949	-29.85205
411.162	39.69314
411.375	24.93896
411.588	-44.60065
411.801	24.93896
412.014	-46.70749
412.227	27.04663
412.44	-10.88778
412.653	29.15432
412.865	-21.42373
413.078	-21.42373
413.291	-21.42373
413.504	48.12461
413.717	-4.56592
413.93	-40.38689
414.143	71.31307
414.356	12.29343
414.568	-8.78052
414.781	73.42125
414.994	62.88058
415.207	41.80097
415.42	-4.56592
415.632	-80.41353
415.845	-36.17303
416.058	16.50851
416.271	10.18593
416.483	-118.32493
416.696	12.29343
416.909	43.90883
417.121	39.69314
417.334	16.50851
417.547	33.36978
417.759	-25.63794
417.972	-27.74501
418.185	20.72369
418.397	-12.99502
418.61	-6.67324
418.823	64.98867
419.035	1.75615
419.248	33.36978
419.46	33.36978
419.673	41.80097
419.885	8.07845
420.098	-6.67324
420.311	77.63768
420.523	-80.41353
420.736	-6.67324
420.948	62.88058
421.161	-8.78052
421.373	5.97099
421.586	39.69314
421.798	16.50851
422.01	12.29343
422.223	54.44846
422.435	-10.88778
422.648	20.72369
422.86	-2.45859
423.073	62.88058
423.285	39.69314
423.497	18.61609
423.71	62.88058
423.922	-103.58262
424.134	-44.60065
424.347	16.50851
424.559	54.44846
424.771	-48.81431
424.984	54.44846
425.196	46.01671
425.408	29.15432
425.621	-10.88778
425.833	14.40096
426.045	54.44846
426.257	46.01671
426.47	5.97099
426.682	-4.56592
426.894	-4.56592
427.106	-38.27997
427.318	27.04663
427.531	-55.13461
427.743	71.31307
427.955	-2.45859
428.167	41.80097
428.379	62.88058
428.591	35.47754
428.804	-8.78052
429.016	10.18593
429.228	-21.42373
429.44	14.40096
429.652	-0.35123
429.864	24.93896
430.076	43.90883
430.288	54.44846
430.5	62.88058
430.712	52.34049
430.924	-12.99502
431.136	37.58533
431.348	-4.56592
431.56	12.29343
431.772	5.97099
431.984	-21.42373
432.196	52.34049
432.408	-17.20943
432.62	20.72369
432.832	8.07845
433.044	67.09678
433.256	37.58533
433.468	46.01671
433.679	37.58533
433.891	64.98867
434.103	58.66448
434.315	35.47754
434.527	37.58533
434.739	24.93896
434.95	33.36978
435.162	41.80097
435.374	12.29343
435.586	81.85419
435.798	5.97099
436.009	8.07845
436.221	-21.42373
436.433	46.01671
436.645	37.58533
436.856	-21.42373
437.068	-44.60065
437.28	29.15432
437.491	-19.31659
437.703	8.07845
437.915	46.01671
438.126	-2.45859
438.338	12.29343
438.55	46.01671
438.761	46.01671
438.973	29.15432
439.184	83.96248
439.396	88.17913
439.608	-67.77453
439.819	46.01671
440.031	3.86356
440.242	46.01671
440.454	16.50851
440.665	24.93896
440.877	18.61609
441.088	-0.35123
441.3	20.72369
441.511	8.07845
441.723	12.29343
441.934	-29.85205
442.146	10.18593
442.357	37.58533
442.569	31.26204
442.78	46.01671
442.991	-19.31659
443.203	37.58533
443.414	46.01671
443.626	27.04663
443.837	56.55646
444.048	-17.20943
444.26	-4.56592
444.471	22.83131
444.682	48.12461
444.894	-23.53085
445.105	-8.78052
445.316	46.01671
445.528	46.01671
445.739	-2.45859
445.95	5.97099
446.161	73.42125
446.373	88.17913
446.584	14.40096
446.795	54.44846
447.006	-0.35123
447.217	46.01671
447.429	79.74592
447.64	5.97099
447.851	14.40096
448.062	22.83131
448.273	-10.88778
448.484	56.55646
448.695	3.86356
448.907	5.97099
449.118	54.44846
449.329	71.31307
449.54	20.72369
449.751	8.07845
449.962	58.66448
450.173	3.86356
450.384	24.93896
450.595	-29.85205
450.806	98.72115
451.017	-31.95906
451.228	41.80097
451.439	12.29343
451.65	-38.27997
451.861	8.07845
452.072	56.55646
452.283	33.36978
452.494	-50.9211
452.705	109.26371
452.915	43.90883
453.126	67.09678
453.337	56.55646
453.548	75.52945
453.759	-4.56592
453.97	73.42125
454.181	79.74592
454.391	90.28749
454.602	12.29343
454.813	37.58533
455.024	46.01671
455.235	-50.9211
455.445	14.40096
455.656	-0.35123
455.867	48.12461
456.078	-10.88778
456.288	39.69314
456.499	46.01671
456.71	88.17913
456.921	124.02423
457.131	20.72369
457.342	46.01671
457.553	77.63768
457.763	58.66448
457.974	8.07845
458.184	71.31307
458.395	96.6127
458.606	-2.45859
458.816	8.07845
459.027	-4.56592
459.237	37.58533
459.448	46.01671
459.659	69.20492
459.869	24.93896
460.08	31.26204
460.29	48.12461
460.501	-17.20943
460.711	46.01671
460.922	98.72115
461.132	14.40096
461.343	-17.20943
461.553	29.15432
461.764	16.50851
461.974	20.72369
462.184	37.58533
462.395	37.58533
462.605	43.90883
462.816	71.31307
463.026	54.44846
463.236	29.15432
463.447	96.6127
463.657	46.01671
463.867	119.80683
464.078	-8.78052
464.288	54.44846
464.498	105.04662
464.709	60.77252
464.919	41.80097
465.129	27.04663
465.339	62.88058
465.55	75.52945
465.76	83.96248
465.97	37.58533
466.18	83.96248
466.391	75.52945
466.601	126.13296
466.811	105.04662
467.021	29.15432
467.231	73.42125
467.441	92.39587
467.651	29.15432
467.862	29.15432
468.072	98.72115
468.282	-29.85205
468.492	75.52945
468.702	109.26371
468.912	50.23254
469.122	92.39587
469.332	62.88058
469.542	46.01671
469.752	105.04662
469.962	121.91552
470.172	69.20492
470.382	107.15516
470.592	18.61609
470.802	113.4809
471.012	54.44846
471.222	62.88058
471.432	105.04662
471.642	54.44846
471.852	210.49949
472.062	113.4809
472.272	159.87558
472.482	121.91552
472.691	140.89469
472.901	109.26371
473.111	155.65745
473.321	105.04662
473.531	130.35049
473.741	143.00359
473.95	183.07674
474.16	140.89469
474.37	138.7858
474.58	180.96744
474.79	145.11251
474.999	157.7665
475.209	210.49949
475.419	109.26371
475.628	191.51415
475.838	130.35049
476.048	105.04662
476.258	204.17086
476.467	208.38993
476.677	155.65745
476.886	229.48645
477.096	269.5752
477.306	231.59621
477.515	280.12601
477.725	197.84241
477.935	199.95188
478.144	265.355
478.354	166.20292
478.563	286.45672
478.773	244.25518
478.982	237.92561
479.192	290.67728
479.401	307.56028
479.611	343.44047
479.82	227.37671
480.03	273.79547
480.239	343.44047
480.449	307.56028
480.658	366.65975
480.868	377.21465
481.077	347.662
481.287	309.67074
481.496	375.10364
481.705	396.21454
481.915	387.76998
482.124	478.56239
482.333	493.34525
482.543	448.99889
482.752	444.77578
482.961	499.68099
483.171	463.78027
483.38	487.00965
483.589	552.48376
483.799	448.99889
484.008	620.0837
484.217	476.45062
484.426	615.85832
484.636	601.06987
484.845	590.50708
485.054	497.56906
485.263	603.18247
485.472	624.30913
485.682	691.92262
485.891	822.95561
486.1	689.80952
486.309	645.43704
486.518	740.52702
486.727	740.52702
486.936	789.13696
487.146	816.61443
487.355	888.48578
487.564	937.11002
487.773	943.45261
487.982	827.18311
488.191	890.59979
488.4	825.06936
488.609	918.08266
488.818	892.71381
489.027	911.74035
489.236	966.70931
489.445	1125.29771
489.654	1137.98605
489.863	1110.49485
490.072	1042.82774
490.281	1163.36319
490.49	1068.20228
490.698	1212.00427
490.907	1184.51125
491.116	1237.38293
491.325	1150.67455
491.534	1273.33673
491.743	1125.29771
491.952	1262.762
492.16	1237.38293
492.369	1296.60134
492.578	1256.4172
492.787	1611.74035
492.996	1372.74161
493.204	1315.63621
493.413	1364.28149
493.622	1548.29029
493.831	1516.5648
494.039	1702.6821
494.248	1508.10463
494.457	1711.14153
494.665	1495.41436
494.874	1770.35605
495.083	1459.45851
495.291	1774.58555
495.5	1689.99285
495.709	1744.97874
495.917	1660.3842
496.126	1863.40103
496.335	1696.33749
496.543	1958.55069
496.752	1795.73279
496.96	1960.665
497.169	1907.80559
497.377	1992.37885
497.586	1850.7136
497.794	1952.20774
498.003	1895.11881
498.211	2062.14417
498.42	1835.91138
498.628	2167.83416
498.837	2026.20538
499.045	2231.23848
499.254	2024.09127
499.462	2231.23848
499.671	2243.91842
499.879	2212.21799
500.087	2256.59802
500.296	2372.81202
500.504	2271.39049
500.713	2370.6993
500.921	2330.55577
501.129	2514.33998
501.338	2284.06939
501.546	2584.02931
501.754	2404.50155
501.962	2537.57117
502.171	2176.2885
502.379	2700.14882
502.587	2493.21952
502.795	2573.47114
503.004	2402.38898
503.212	2632.59296
503.42	2607.25621
503.628	2613.59056
503.837	2649.48313
504.045	2605.14473
504.253	2710.70323
504.461	2733.92181
504.669	2594.58717
504.877	3132.59162
505.085	2860.53984
505.294	2784.57493
505.502	2714.92491
505.71	2784.57493
505.918	2894.29617
506.126	2904.84427
506.334	2856.32004
506.542	2822.55963
506.75	2923.82993
506.958	3183.17733
507.166	3012.41384
507.374	3166.31647
507.582	2915.39201
507.79	3219.00318
507.998	3115.72765
508.206	3189.49989
508.414	2944.92372
508.622	3231.64646
508.83	3098.86266
509.037	3368.57623
509.245	3231.64646
509.453	3362.25799
509.661	3259.03816
509.869	3448.59347
510.077	3414.90512
510.285	3419.11641
510.492	3282.21353
510.7	3457.01485
510.908	3324.34529
511.116	3421.22203
511.324	3307.49341
511.531	3537.00345
511.739	3585.40473
511.947	3644.31471
512.155	3610.65367
512.362	3425.43322
512.57	3518.06116
512.778	3867.19478
512.985	3572.77926
513.193	3627.4848
513.401	3635.89991
513.608	3837.7704
513.816	3526.48014
514.024	3755.78207
514.231	3699.00355
514.439	3875.60103
514.646	3688.48747
514.854	3699.00355
515.061	3600.13361
515.269	3884.00696
515.477	3791.52425
515.684	3858.78822
515.892	3862.99154
516.099	3995.3551
516.307	4047.85794
516.514	4291.30031
516.722	4041.55827
516.929	4131.83557
517.136	4073.05472
517.344	4261.93446
517.551	4161.21984
517.759	4253.54345
517.966	4081.45298
518.173	4299.68978
518.381	4194.79681
518.588	4211.58327
518.796	4213.68148
519.003	4500.93291
519.21	4184.30459
519.418	4547.02266
519.625	4396.14385
519.832	4419.20214
520.039	4398.24017
520.247	4528.16906
520.454	4394.04751
520.661	4653.82568
520.868	4373.08292
521.076	4829.60906
521.283	4469.50196
521.49	4616.13713
521.697	4551.2121
521.904	4752.20034
522.112	4517.69406
522.319	4940.43741
522.526	4530.26399
522.733	4871.43863
522.94	4739.64465
523.147	4877.71228
523.354	4819.15024
523.561	4942.5279
523.768	4771.03235
523.975	5053.2905
524.183	4865.16477
524.39	5270.44672
524.597	4952.97996
524.804	5078.35981
525.011	5061.64731
525.218	5128.48843
525.425	5028.21785
525.632	5005.23167
525.838	4890.25895
526.045	5111.78037
526.252	5209.91887
526.459	5458.16637
526.666	5172.33999
526.873	5274.62033
527.08	5320.52386
527.287	5418.55249
527.494	5155.63584
527.701	5633.19955
527.907	5337.21324
528.114	5672.76733
528.321	5420.63765
528.528	5529.03316
528.735	5633.19955
528.941	5629.03403
529.148	5295.48697
529.355	5562.37281
529.562	5420.63765
529.768	5687.34278
529.975	5560.28926
530.182	5812.22781
530.388	5506.10864
530.595	5837.19462
530.802	5791.41954
531.008	5932.86924
531.215	5799.74313
531.422	5878.79841
531.628	6026.4157
531.835	5857.99769
532.042	5743.55156
532.248	6310.91951
532.455	5982.76662
532.661	6323.36947
532.868	5949.50321
533.074	6192.60282
533.281	6169.76101
533.487	6279.79091
533.694	6238.27793
533.9	6335.8186
534.107	6146.91636
534.313	6478.9232
534.52	6151.07014
534.726	6196.75557
534.933	6219.59403
535.139	6512.09106
535.345	6292.24298
535.552	6555.61487
535.758	6387.6809
535.965	6795.84896
536.171	6476.85001
536.377	6652.98838
536.584	6470.6303
536.79	6710.97395
536.996	6779.291
537.203	7035.77603
537.409	6514.16385
537.615	6748.24089
537.821	6630.20341
538.028	6839.30666
538.234	6793.77929
538.44	6857.92831
538.646	6609.48737
538.853	6694.40848
539.059	6725.46753
539.265	6884.823
539.471	6833.09903
539.677	6951.009
539.883	6866.20401
540.09	6891.02892
540.296	7002.70072
540.502	7263.01408
540.708	7041.97701
540.914	7199.00146
541.12	7089.51117
541.326	7456.98794
541.532	7110.17451
541.738	7265.07865
541.944	7155.62599
542.15	7337.32475
542.356	7044.04396
542.562	7347.64343
542.768	7390.97592
542.974	7302.23715
543.18	7201.06672
543.386	7605.43418
543.592	7446.67502
543.798	7584.82329
544.004	7362.08867
544.21	7603.37319
544.415	7397.1655
544.621	7716.69627
544.827	7601.31218
545.033	7829.95565
545.239	7619.86054
545.445	7967.8413
545.651	7621.92136
545.856	8015.15393
546.062	7609.5561
546.268	7743.47239
546.474	7595.129
546.679	7755.8294
546.885	7512.66833
547.091	7825.83824
547.297	7792.89591
547.502	7801.13199
547.708	7609.5561
547.914	7741.41281
548.119	7949.32471
548.325	7807.30883
548.531	7807.30883
548.736	8111.8029
548.942	8062.45581
549.147	7980.18476
549.353	8072.73741
549.559	8383.00716
549.764	7920.51784
549.97	8089.18692
550.175	8216.62715
550.381	8395.32652
550.586	8235.12018
550.792	8657.97586
550.997	8374.79387
551.203	8432.28043
551.408	8360.41986
551.614	8467.17562
551.819	8335.77649
552.025	8584.13701
552.23	8612.855
552.435	8567.72509
552.641	8672.33061
552.846	8641.56931
553.052	8596.44517
553.257	8830.17339
553.462	8789.18567
553.668	8795.33429
553.873	8869.10503
554.078	8719.48983
554.283	8670.27998
554.489	8920.32101
554.694	8795.33429
554.899	8678.48236
555.105	8908.03019
555.31	8936.70777
555.515	8936.70777
555.72	8994.05251
555.925	8828.12418
556.131	9016.57703
556.336	9118.93462
556.541	9118.93462
556.746	9120.98134
556.951	9129.16801
557.156	8776.88794
557.361	9180.32851
557.567	9137.35441
557.772	9227.38679
557.977	9051.38348
558.182	9247.84413
558.387	9337.83655
558.592	9460.50212
558.797	9098.46657
559.002	9378.73161
559.207	9227.38679
559.412	9456.41421
559.617	9208.97375
559.822	9405.30988
560.027	9268.29978
560.232	9370.55312
560.437	9139.40096
560.642	9591.28147
560.847	9284.66311
561.051	9534.07352
561.256	9262.16326
561.461	9693.40802
561.666	9529.98676
561.871	9548.37667
562.076	9636.22194
562.281	9799.57888
562.485	9621.92352
562.69	9599.45303
562.895	9527.94336
563.1	9999.56042
563.305	9525.89994
563.509	9813.86799
563.714	9652.56206
563.919	9791.41335
564.123	9589.23855
564.328	9991.40065
564.533	9883.26183
564.737	9832.23862
564.942	9793.45476
565.147	9977.12051
565.351	9934.27581
565.556	10064.8303
565.761	9889.38399
565.965	10144.35839
566.17	10015.87926
566.374	10201.44241
566.579	10038.31618
566.784	9905.70911
566.988	10085.22416
567.193	10087.26347
567.397	9799.57888
567.602	10089.30276
567.806	10254.43936
568.011	10274.82036
568.215	10250.363
568.42	10445.9682
568.624	10266.66812
568.828	10321.69156
569.033	10321.69156
569.237	10490.77742
569.442	10274.82036
569.646	10166.78554
569.85	10437.8204
570.055	10537.6168
570.259	10500.96046
570.463	10586.48557
570.668	10262.59192
570.872	10443.93127
571.076	10403.18994
571.281	10476.52061
571.485	10769.68031
571.689	10586.48557
571.893	10606.84544
572.098	10979.21893
572.302	10566.12446
572.506	10586.48557
572.71	10492.81405
572.914	10977.18516
573.119	10592.59366
573.323	10973.11758
573.527	10712.69691
573.731	11058.52746
573.935	10798.16851
574.139	10928.37121
574.343	10586.48557
574.547	10938.54132
574.751	11184.57367
574.955	10999.55606
575.159	10948.71114
575.364	11058.52746
575.568	10867.34459
575.772	10920.23492
575.976	11086.99312
576.18	11042.26041
576.383	11298.38709
576.587	11357.31361
576.791	11406.07404
576.995	11343.09074
577.199	11152.04955
577.403	11223.19258
577.607	11213.03007
577.811	11284.16218
578.015	11058.52746
578.219	11292.29076
578.422	11513.73346
578.626	11779.72306
578.83	11493.42242
579.034	11558.41442
579.238	11267.90452
579.442	11373.56772
579.645	11552.32182
579.849	11513.73346
580.053	11406.07404
580.257	11536.0745
580.46	11483.26655
580.664	11911.64681
580.868	11708.67221
581.071	11802.05113
581.275	11349.18631
581.479	11895.41195
581.682	11739.12388
581.886	11680.24885
582.09	12155.10844
582.293	11797.99156
582.497	11568.56855
582.7	12169.30694
582.904	11824.37816
583.107	12073.96704
583.311	11615.27458
583.515	12037.44941
583.718	11958.31912
583.922	12447.12127
584.125	12138.88113
584.329	11964.4065
584.532	12201.7593
584.735	12345.74435
584.939	11958.31912
585.142	12084.11038
585.346	12049.62223
585.549	12126.71033
585.753	12193.64639
585.956	12224.06921
586.159	12151.05165
586.363	12317.35575
586.566	12201.7593
586.769	12418.73743
586.973	12617.39771
587.176	12347.77206
587.379	12511.99379
587.582	12309.24448
587.786	12157.13682
587.989	12491.72184
588.192	12258.54643
588.395	12434.95692
588.599	12507.93945
588.802	12852.47123
589.005	12548.48168
589.208	12809.9205
589.411	12903.12374
589.615	12728.86467
589.818	12607.26345
590.021	12736.97067
590.224	12507.93945
590.427	12901.0977
590.63	12647.79958
590.833	12696.43977
591.036	12828.15683
591.239	13196.84573
591.442	12795.73639
591.645	12661.98666
591.848	12580.91365
592.051	12811.94678
592.254	12641.71932
592.457	13014.54772
592.66	12978.08339
592.863	13182.66835
593.066	13103.67599
593.269	13253.55305
593.472	13121.90562
593.675	13310.25697
593.878	12984.16089
594.081	13247.47743
594.284	13093.54825
594.486	13737.46388
594.689	13251.52785
594.892	13364.93264
595.095	13324.43244
595.298	13405.43122
595.5	13190.76974
595.703	13573.48396
595.906	13245.45222
596.109	13488.44844
596.311	13371.00753
596.514	13512.74495
596.717	13488.44844
596.92	13605.8768
597.122	13565.38561
597.325	13496.54733
597.528	13373.03248
597.73	13583.60682
597.933	13480.34948
598.136	13537.04095
598.338	13626.12187
598.541	13792.1192
598.743	13510.72026
598.946	13620.04839
599.148	13680.7819
599.351	13524.89302
599.554	13759.73113
599.756	13743.53681
599.959	13864.98962
600.161	13864.98962
600.363	13860.94136
600.566	14314.28583
600.768	14057.26978
600.971	14156.43738
601.173	13893.32712
601.376	14075.48464
601.578	14113.93763
601.78	14190.84126
601.983	14083.58008
602.185	14059.29366
602.388	14069.41304
602.59	14018.81556
602.792	13877.13433
602.995	14221.19714
603.197	13891.30303
603.399	14047.15033
603.601	14016.79163
603.804	14026.91126
604.006	14073.46078
604.208	14194.88874
604.41	14022.86342
604.613	14235.36307
604.815	14093.69932
605.017	14217.14972
605.219	13911.54381
605.421	14192.865
605.623	14314.28583
605.826	14935.47787
606.028	14314.28583
606.23	14656.25722
606.432	14423.55918
606.634	14678.5145
606.836	14362.85235
607.038	14601.6252
607.24	14492.35863
607.442	14538.89854
607.644	14330.47478
607.846	14419.5121
608.048	14316.30946
608.25	14306.19132
608.452	14593.5315
608.654	14524.73429
608.856	14565.20341
609.058	14654.23383
609.26	14512.59346
609.462	14759.44911
609.664	14583.41435
609.866	14561.15652
610.067	14298.09677
610.269	14795.86926
610.471	14269.76564
610.673	14868.70887
610.875	14718.98198
611.077	14623.88279
611.278	14583.41435
611.48	14579.36748
611.682	14589.48465
611.884	14698.74828
612.085	14439.74744
612.287	14791.82258
612.489	14441.77096
612.69	14771.58918
612.892	14435.70038
613.094	14929.40799
613.295	14557.10962
613.497	15016.40936
613.699	14994.15326
613.9	15348.22644
614.102	15109.48004
614.304	14979.99026
614.505	15164.10836
614.707	14945.59434
614.908	14593.5315
615.11	14943.57105
615.311	14975.94369
615.513	14852.52236
615.714	15036.64216
615.916	14886.91866
616.117	14688.6314
616.319	14842.40577
616.52	14880.84873
616.722	15342.15658
616.923	15125.66621
617.124	15016.40936
617.326	14931.43128
617.527	15202.5505
617.729	15008.31624
617.93	14971.89712
618.131	14984.03684
618.333	14988.08341
618.534	15081.15422
618.735	15303.71423
618.937	14901.08179
619.138	15006.29296
619.339	15099.36368
619.54	15105.4335
619.742	15141.85238
619.943	15115.54986
620.144	15093.29386
620.345	15327.9936
620.546	15443.32131
620.748	15708.37997
620.949	15240.99267
621.15	15404.87859
621.351	15439.2747
621.552	15510.09069
621.753	15257.17886
621.954	15417.01838
622.155	14702.79503
622.356	15406.90189
622.558	15062.94475
622.759	15263.24868
622.96	15158.03855
623.161	15406.90189
623.362	15127.68948
623.563	15572.81406
623.764	15408.92519
623.965	15295.62111
624.166	15742.77793
624.366	15346.20316
624.567	15285.50472
624.768	15435.22809
624.969	15285.50472
625.17	15431.18149
625.371	15425.11158
625.572	15554.60398
625.773	15544.4873
625.973	15912.7489
626.174	15595.0709
626.375	15562.69734
626.576	15406.90189
626.777	15433.20479
626.977	15283.48144
627.178	15467.60102
627.379	15313.83063
627.58	15647.67835
627.78	15576.86075
627.981	15704.33317
628.182	15520.20732
628.382	15665.88875
628.583	15558.65066
628.784	15497.95076
628.984	15370.48261
629.185	15746.82477
629.386	15083.1775
629.586	15821.69203
629.787	15732.66086
629.987	15817.64511
630.188	15876.32586
630.388	15829.78587
630.589	15819.66857
630.79	15667.91213
630.99	15937.03115
631.191	16013.92624
631.391	15819.66857
631.591	15894.53733
631.792	15722.54381
631.992	16139.39113
632.193	15987.6198
632.393	15781.22306
632.594	15973.45489
632.794	15714.45018
632.994	15667.91213
633.195	15441.29801
633.395	15700.28638
633.595	16015.94982
633.796	16022.02057
633.996	16003.80835
634.196	15926.91353
634.397	16507.72952
634.597	16082.72884
634.797	16285.1001
634.997	15742.77793
635.198	16072.6107
635.398	16123.20177
635.598	16325.57643
635.798	16056.42176
635.998	16317.48111
636.199	15949.17235
636.399	16339.74333
636.599	16157.60427
636.799	15953.21943
636.999	16058.44537
637.199	16232.48194
637.399	15993.6905
637.599	16034.16212
637.799	15667.91213
637.999	16331.64795
638.199	16475.34556
638.399	16070.58708
638.599	15993.6905
638.799	16200.10212
638.999	16204.14957
639.199	16434.86634
639.399	16192.00723
639.599	16169.74644
639.799	15999.7612
639.999	16313.43346
640.199	15928.93705
640.399	16307.36199
640.599	15736.70768
640.799	16337.71948
640.998	16100.94158
641.198	16246.64825
641.398	16167.72274
641.598	16422.72274
641.798	16495.58547
641.997	16493.56147
642.197	16153.55689
642.397	16712.16619
642.597	16477.36954
642.796	16331.64795
642.996	16256.76709
643.196	16560.35462
643.395	16270.93355
643.595	16424.74667
643.795	16216.29197
643.994	16523.92171
644.194	16841.72252
644.394	17115.03985
644.593	16791.11339
644.793	16534.04189
644.992	16669.65766
645.192	16704.06925
645.392	16434.86634
645.591	16766.82155
645.791	16744.55434
645.99	16710.14195
646.19	16708.11771
646.389	16716.21468
646.589	16610.95707
646.788	16908.52899
646.987	16807.30814
647.187	17214.2563
647.386	16700.02079
647.586	16906.50451
647.785	16851.84454
647.984	16795.16206
648.184	17163.63481
648.383	17151.48592
648.582	17019.8794
648.782	17345.88075
648.981	16872.08875
649.18	16868.03989
649.38	17131.23799
649.579	17060.37246
649.778	16930.79843
649.977	17187.9329
650.177	16995.58408
650.376	17106.94085
650.575	16746.57862
650.774	16813.38122
650.973	16843.74692
651.173	17050.24909
651.372	16647.39169
651.571	16951.04365
651.77	16936.87197
651.969	17072.5206
652.168	16780.99175
652.367	17100.86663
652.566	17157.56035
652.765	17374.23229
652.964	17220.331
653.163	17098.8419
653.362	16920.67592
653.561	17177.80864
653.76	17050.24909
653.959	17331.7052
654.158	17066.44652
654.357	17200.0821
654.556	16938.89649
654.755	17242.60513
654.954	17090.74299
655.153	17378.28256
655.352	17461.31579
655.551	17552.4559
655.749	17443.08854
655.948	17554.48131
656.147	17171.73413
656.346	17659.80705
656.545	17430.93718
656.743	17601.0666
656.942	17254.7548
657.141	17339.8055
657.34	17418.78593
657.538	17198.05723
657.737	17246.655
657.936	17740.83291
658.135	17422.83633
658.333	17329.68014
658.532	17056.32311
658.731	17443.08854
658.929	17398.53409
659.128	17222.35591
659.326	17347.90584
659.525	17588.91375
659.724	17722.60162
659.922	17520.04979
660.121	17236.53033
660.319	17366.13179
660.518	17131.23799
660.716	17351.95603
660.915	17487.6445
661.113	17696.26802
661.312	17631.44925
661.51	17700.31931
661.709	17613.21957
661.907	17726.653
662.105	17469.41688
662.304	17757.03872
662.502	17767.16747
662.701	17811.73495
662.899	17418.78593
663.097	17410.68515
663.296	17432.9624
663.494	17779.32207
663.692	17570.68469
663.891	17615.24508
664.089	17520.04979
664.287	17759.06447
664.485	17536.25274
664.684	17994.07388
664.882	17692.21675
665.08	17639.55141
665.278	17641.57696
665.476	17520.04979
665.675	17418.78593
665.873	17637.52586
666.071	17742.85862
666.269	17599.04112
666.467	17538.27812
666.665	17750.96152
666.863	17210.20651
667.061	17319.55485
667.259	17580.81192
667.457	17592.96469
667.655	17400.55926
667.853	17473.46744
668.051	17380.3077
668.249	17878.58929
668.447	17384.35799
668.645	17487.6445
668.843	17299.30451
669.041	17856.30409
669.239	17740.83291
669.437	17750.96152
669.635	17649.67919
669.833	17817.81247
670.031	17617.27059
670.229	17485.61919
670.426	17562.58297
670.624	17673.98619
670.822	17422.83633
671.02	17667.90939
671.218	17667.90939
671.415	17461.31579
671.613	17609.16857
671.811	17746.91006
672.009	17856.30409
672.206	17696.26802
672.404	17649.67919
672.602	17489.6698
672.799	17623.34714
672.997	17641.57696
673.195	17890.74503
673.392	17925.18696
673.59	18002.17849
673.788	17803.63165
673.985	17447.13902
674.183	17603.09209
674.38	17601.0666
674.578	17959.62991
674.775	17726.653
674.973	17684.11424
675.17	17704.37061
675.368	17576.76102
675.565	17212.2314
675.763	17463.34106
675.96	17574.73557
676.158	17669.93499
676.355	17260.82967
676.553	17813.76079
676.75	17386.38314
676.947	17817.81247
677.145	17513.97373
677.342	17206.15674
677.539	17295.25448
677.737	17578.78647
677.934	17540.30351
678.131	17811.73495
678.329	17888.71906
678.526	18265.60982
678.723	18050.80736
678.92	17884.66714
679.118	17643.60251
679.315	17578.78647
679.512	17345.88075
679.709	17838.07106
679.906	17366.13179
680.104	17748.93579
680.301	17566.63383
680.498	17374.23229
680.695	17248.67995
680.892	17366.13179
681.089	17325.63002
681.286	17467.3916
681.483	17307.40461
681.68	17200.0821
681.877	17230.45556
682.075	17483.59389
682.272	17317.52981
682.469	17801.60583
682.665	17360.05645
682.862	17266.90458
683.059	17248.67995
683.256	17139.33713
683.453	16959.14182
683.65	17228.43064
683.847	17252.72985
684.044	17349.93094
684.241	17216.2812
684.438	17505.87237
684.635	17414.73553
684.831	17665.8838
685.028	17710.44758
685.225	17667.90939
685.422	17380.3077
685.619	17463.34106
685.815	17503.84704
686.012	17554.48131
686.209	17046.19977
686.405	17139.33713
686.602	17125.16367
686.799	16979.38741
686.996	17185.90804
687.192	17333.73027
687.389	17086.69355
687.586	17163.63481
687.782	17042.15045
687.979	17110.99035
688.175	17187.9329
688.372	17461.31579
688.568	17232.48048
688.765	17518.02443
688.962	17422.83633
689.158	17451.18951
689.355	17094.79244
689.551	17414.73553
689.748	17027.97792
689.944	17171.73413
690.14	16807.30814
690.337	17224.38081
690.533	17198.05723
690.73	16906.50451
690.926	16900.43109
691.123	16795.16206
691.319	16704.06925
691.515	16951.04365
691.712	16795.16206
691.908	16704.06925
692.104	16527.96978
692.301	17088.71827
692.497	16685.85126
692.693	17206.15674
692.889	17145.41151
693.086	17021.90402
693.282	16815.40558
693.478	17021.90402
693.674	17058.34778
693.87	17198.05723
694.067	17196.03235
694.263	17258.80471
694.459	17256.77975
694.655	17092.76771
694.851	16906.50451
695.047	16930.79843
695.243	16819.45431
695.439	16969.26458
695.635	16825.52743
695.831	16957.11727
696.027	16831.60057
696.224	16843.74692
696.42	16766.82155
696.615	16728.36019
696.811	16884.23541
697.007	16890.30877
697.203	16918.65142
697.399	16643.34336
697.595	16704.06925
697.791	16449.03398
697.987	16485.46549
698.183	16734.43298
698.379	16621.07772
698.575	17125.16367
698.77	16902.45556
698.966	16872.08875
699.162	16716.21468
699.358	16515.8256
699.554	16801.23509
699.749	17072.5206
699.945	16849.82013
700.141	16795.16206
700.337	16752.65148
700.532	16969.26458
700.728	16540.11403
700.924	16957.11727
701.119	16540.11403
701.315	16469.27362
701.511	16519.87365
701.706	16604.8847
701.902	16667.63347
702.097	16655.48837
702.293	16687.87547
702.489	16677.75444
702.684	16447.01002
702.88	16621.07772
703.075	16313.43346
703.271	16637.27089
703.466	16418.67489
703.662	16588.69182
703.857	16562.37869
704.053	16748.6029
704.248	16586.66772
704.443	16928.77392
704.639	16600.83647
704.834	16641.3192
705.03	16904.48003
705.225	16965.21547
705.42	16653.4642
705.616	16946.99459
705.811	16224.38694
706.006	16536.06594
706.202	16586.66772
706.397	16762.77295
706.592	16463.20171
706.787	16789.08906
706.983	16305.33817
707.178	16677.75444
707.373	16487.48948
707.568	16299.26673
707.763	16064.51622
707.959	16491.53747
708.154	16447.01002
708.349	16426.7706
708.544	16511.77756
708.739	16710.14195
708.934	16610.95707
709.129	16803.25944
709.324	16538.08998
709.519	16764.79725
709.714	16519.87365
709.909	16693.94812
710.104	16024.04416
710.299	16337.71948
710.494	16400.45965
710.689	16649.41586
710.884	16726.33593
711.079	16776.94311
711.274	16376.17291
711.469	16714.19043
711.664	16315.45728
711.859	16928.77392
712.054	16311.40963
712.249	16368.07739
712.443	16449.03398
712.638	16196.05467
712.833	16171.77014
713.028	16151.53321
713.223	16149.50952
713.417	16121.17811
713.612	16113.08348
713.807	16187.9598
714.002	16317.48111
714.196	16161.65165
714.391	15965.36069
714.586	16556.30649
714.78	16183.91238
714.975	16187.9598
715.17	16135.34378
715.364	16700.02079
715.559	16325.57643
715.754	16343.79103
715.948	16038.20931
716.143	16005.83192
716.337	15738.7311
716.532	16279.02871
716.726	16281.0525
716.921	15973.45489
717.115	15815.62165
717.31	16040.23291
717.504	15692.19279
717.699	16104.98888
717.893	15748.84819
718.088	15973.45489
718.282	15892.51383
718.476	16117.13079
718.671	15837.87974
718.865	15791.34026
719.059	15386.66894
719.254	15813.5982
719.448	15546.51063
719.642	16009.87908
719.837	15797.41059
720.031	15876.32586
720.225	15714.45018
720.419	15783.2465
720.614	15633.51475
720.808	15801.45749
721.002	15425.11158
721.196	15609.23439
721.39	15657.79523
721.585	15843.95015
721.779	15552.58064
721.973	15750.87161
722.167	15698.26298
722.361	15479.7409
722.555	15334.06345
722.749	15382.62235
722.943	15425.11158
723.137	15287.528
723.331	15483.78753
723.525	15730.63744
723.719	15463.55439
723.913	15637.56149
724.107	15378.57577
724.301	15564.72068
724.495	15380.59906
724.689	15570.79071
724.883	15518.184
725.077	15657.79523
725.271	15611.25775
725.465	15615.30447
725.659	15206.59704
725.853	15414.99508
726.046	15170.17817
726.24	15265.27196
726.434	15018.43265
726.628	15309.78407
726.822	15287.528
727.015	15352.27301
727.209	15319.90047
727.403	15744.80135
727.596	15366.43603
727.79	15562.69734
727.984	15510.09069
728.177	15758.96531
728.371	15540.44063
728.565	15589.00084
728.758	15688.14601
728.952	15866.20842
729.146	15791.34026
729.339	15651.7251
729.533	15639.58486
729.726	15520.20732
729.92	15388.69223
730.113	15410.94848
730.307	15605.18767
730.5	15548.53397
730.694	15595.0709
730.887	15439.2747
731.081	15196.48069
731.274	15287.528
731.468	15198.50396
731.661	15398.8087
731.854	15014.38608
732.048	15382.62235
732.241	15536.39396
732.435	15273.36506
732.628	15378.57577
732.821	15135.78257
733.014	14933.45458
733.208	15151.96873
733.401	15467.60102
733.594	15170.17817
733.788	15629.46802
733.981	15862.16145
734.174	15724.56721
734.367	15315.85391
734.56	15188.3876
734.754	15342.15658
734.947	15376.55248
735.14	15382.62235
735.333	15293.59783
735.526	15261.22541
735.719	15075.0844
735.912	15279.43489
736.105	15366.43603
736.298	15111.50331
736.491	15062.94475
736.684	15267.29524
736.877	15212.66686
737.07	15471.64764
737.263	15253.13231
737.456	15240.99267
737.649	15524.25398
737.842	15560.674
738.035	15566.74403
738.228	15412.97178
738.421	15510.09069
738.614	15520.20732
738.807	15663.86537
739	15398.8087
739.192	15111.50331
739.385	15069.01458
739.578	14903.10509
739.771	15040.68871
739.964	14775.63587
740.156	14988.08341
740.349	14969.87383
740.542	15257.17886
740.735	14848.47573
740.927	14977.96698
741.12	14899.05849
741.313	15293.59783
741.505	15230.87631
741.698	15046.75855
741.891	15180.29452
742.083	14895.01188
742.276	15002.24639
742.468	14992.12998
742.661	14512.59346
742.854	14640.07004
743.046	14633.99983
743.239	14892.98857
743.431	14901.08179
743.624	14702.79503
743.816	14445.81801
744.009	14769.56584
744.201	14690.65478
744.393	14953.68751
744.586	14712.91188
744.778	14957.73409
744.971	14739.21559
745.163	14646.14024
745.355	14504.49954
745.548	14451.88857
745.74	14725.05207
745.932	14767.5425
746.125	14844.42909
746.317	14842.40577
746.509	14577.34405
746.702	14866.68556
746.894	14439.74744
747.086	14692.67816
747.278	14913.2216
747.471	14621.85938
747.663	14704.8184
747.855	14526.75776
748.047	14518.66388
748.239	14826.2192
748.431	14638.04664
748.623	14905.1284
748.815	14915.2449
749.008	15208.62031
749.2	15030.57232
749.392	14486.28816
749.584	14217.14972
749.776	14350.71081
749.968	14478.19417
750.16	14561.15652
750.352	14611.7423
750.544	14781.70589
750.736	14435.70038
750.928	14939.52446
751.12	14577.34405
751.311	14765.51915
751.503	14892.98857
751.695	14969.87383
751.887	14761.47246
752.079	14860.61562
752.271	14601.6252
752.463	14674.46773
752.654	14308.21495
752.846	14474.14717
753.038	14480.21767
753.23	14629.95301
753.421	14670.42096
753.613	14292.02584
753.805	14553.06273
753.997	14710.88851
754.188	14419.5121
754.38	14128.10432
754.572	14247.50521
754.763	14427.60626
754.955	14200.95994
755.146	14241.43415
755.338	14010.71983
755.53	13775.92526
755.721	14229.29197
755.913	14154.41361
756.104	14290.0022
756.296	14338.56921
756.487	14360.82876
756.679	14348.68722
756.87	14200.95994
757.062	14310.23858
757.253	14346.66362
757.445	14350.71081
757.636	14306.19132
757.827	14338.56921
758.019	14174.65128
758.21	13897.37529
758.401	13781.99801
758.593	13905.4716
758.784	13646.36661
758.975	13646.36661
759.167	13980.36047
759.358	13941.90447
759.549	13682.8063
759.74	13577.53311
759.932	13763.77968
760.123	13480.34948
760.314	13599.80321
760.505	13984.40842
760.696	13666.61101
760.888	13895.35121
761.079	13605.8768
761.27	13917.61599
761.461	13644.34215
761.652	13810.33716
761.843	13492.49789
762.034	13569.43479
762.225	13472.25046
762.416	13464.15138
762.607	13512.74495
762.798	13277.85514
762.989	13405.43122
763.18	13383.1572
763.371	13196.84573
763.562	13322.40738
763.753	13336.58267
763.944	13512.74495
764.135	13449.97785
764.326	13729.36661
764.517	13502.62147
764.708	13462.1266
764.899	13413.53075
765.089	13593.72959
765.28	13350.75775
765.471	13447.95304
765.662	13022.65068
765.853	12953.77293
766.043	12963.90238
766.234	13267.72935
766.425	13107.72705
766.615	13042.90774
766.806	13322.40738
766.997	13255.57825
767.187	12844.36652
767.378	13324.43244
767.569	12931.48769
767.759	13018.59921
767.95	13099.62491
768.141	12994.28996
768.331	12988.21253
768.522	12919.33183
768.712	13115.82912
768.903	13217.09874
769.093	13038.85636
769.284	13123.93111
769.474	12941.61742
769.665	12955.79883
769.855	12927.43576
770.046	12913.25384
770.236	12732.91768
770.426	12499.8307
770.617	12378.18681
770.807	12471.44924
770.998	12451.176
771.188	12430.90209
771.378	12935.5396
771.569	12846.3927
771.759	12767.36732
771.949	12720.75859
772.139	12759.26168
772.33	12153.08005
772.52	12424.81979
772.71	12653.87979
772.9	12266.65842
773.09	12374.13159
773.281	12532.26509
773.471	12341.68892
773.661	12244.35018
773.851	12122.65333
774.041	12094.25353
774.231	12382.24199
774.421	12112.51072
774.611	11911.64681
774.802	12207.84391
774.992	12434.95692
775.182	12207.84391
775.372	12252.46237
775.562	12051.65101
775.752	12347.77206
775.942	11883.23545
776.131	12140.90957
776.321	11862.94063
776.511	12065.85223
776.701	12128.73881
776.891	12142.938
777.081	11940.05655
777.271	11873.08815
777.461	12177.42021
777.651	12144.96642
777.84	12037.44941
778.03	11960.34825
778.22	11842.64498
778.41	12053.67978
778.599	11911.64681
778.789	11960.34825
778.979	11688.36999
779.169	11862.94063
779.358	11710.70238
779.548	12025.2763
779.738	11749.274
779.927	11964.4065
780.117	11875.11762
780.307	12124.68183
780.496	11726.94345
780.686	11828.43751
780.875	11775.66329
781.065	11800.02135
781.254	11672.12757
781.444	12061.79478
781.633	11795.96176
781.823	11509.67133
782.012	11609.18276
782.202	11586.8454
782.391	11385.75788
782.581	11810.17017
782.77	11578.72245
782.96	11763.4838
783.149	11235.38724
783.338	11477.17291
783.528	11775.66329
783.717	11728.97354
783.906	11464.98537
784.096	11432.48358
784.285	11391.85283
784.474	11328.86738
784.663	11143.91809
784.853	11162.21363
785.042	10869.37897
785.231	11054.46077
785.42	10724.90843
785.61	10973.11758
785.799	11162.21363
785.988	11428.42068
786.177	11274.00122
786.366	11290.25863
786.555	11105.29135
786.744	11282.13
786.933	10964.98228
787.122	10755.43533
787.312	10859.20692
787.501	10989.38763
787.69	10741.18978
787.879	11172.37744
788.068	10690.308
788.257	10787.99442
788.445	10606.84544
788.634	10785.95956
788.823	10478.55734
789.012	10678.09525
789.201	10712.69691
789.39	10496.88728
789.579	10775.78512
789.768	10916.16671
789.957	10674.02424
790.145	10663.84649
790.334	10517.25268
790.523	10722.8732
790.712	10743.22489
790.9	10775.78512
791.089	10623.13244
791.278	10714.73219
791.467	10598.70164
791.655	10822.58514
791.844	10808.34231
792.033	10411.33862
792.221	10227.94204
792.41	10299.27578
792.599	10126.00764
792.787	10448.00512
792.976	10435.78342
793.164	10464.3
793.353	10425.59832
793.541	10649.59713
793.73	10584.44952
793.918	10358.36844
794.107	10054.63285
794.295	10427.63536
794.484	10399.11552
794.672	10460.22636
794.861	10378.74264
795.049	10423.56126
795.238	9913.87132
795.426	10505.03359
795.614	10101.53823
795.803	10015.87926
795.991	9979.16057
796.179	10209.59638
796.368	9883.26183
796.556	10213.67329
796.744	10017.91905
796.932	10046.47462
797.121	9964.87982
797.309	10044.43503
797.497	9977.12051
797.685	10013.83946
797.874	9742.41507
798.062	9505.46488
798.25	9532.03015
798.438	10040.35581
798.626	9858.77185
798.814	9840.40296
799.002	9750.58205
799.19	9981.20062
799.378	10013.83946
799.566	9597.41017
799.755	9899.5873
799.943	9864.89454
800.131	10024.03834
800.318	9971.00023
800.506	10042.39543
800.694	9826.11521
800.882	10081.1455
801.07	9721.99654
801.258	9744.45684
801.446	9752.62376
801.634	9540.20353
801.822	9717.91265
802.01	9683.19711
802.197	9909.79025
802.385	9885.30257
802.573	9554.50635
802.761	9907.74969
802.949	9966.91997
803.136	9907.74969
803.324	9983.24066
803.512	9775.08156
803.699	10054.63285
803.887	9801.62023
804.075	9999.56042
804.262	9801.62023
804.45	9766.9153
804.638	9726.08036
804.825	9950.59836
805.013	9740.37328
805.201	9830.1975
805.388	9576.98064
805.576	10062.79084
805.763	9811.82674
805.951	9689.3237
806.138	9648.47712
806.326	9946.51781
806.513	9885.30257
806.701	9699.53439
806.888	9758.7488
807.075	10183.09515
807.263	9956.71907
807.45	10093.3813
807.638	10046.47462
807.825	10077.06679
808.012	9744.45684
808.2	9636.22194
808.387	9579.02367
808.574	9703.61855
808.761	9773.04001
808.949	9917.95234
809.136	9766.9153
809.323	9889.38399
809.51	9693.40802
809.698	9693.40802
809.885	9523.85651
810.072	9579.02367
810.259	9689.3237
810.446	9819.99167
810.633	9819.99167
810.82	9850.60805
811.008	10042.39543
811.195	9983.24066
811.382	9738.33148
811.569	10217.75014
811.756	9744.45684
811.943	10009.7598
812.13	9619.88083
812.317	9881.22108
812.504	9703.61855
812.691	9793.45476
812.878	9758.7488
813.064	10085.22416
813.251	9744.45684
813.438	9832.23862
813.625	9775.08156
813.812	9999.56042
813.999	9485.02822
814.186	9726.08036
814.372	9807.74418
814.559	9848.56706
814.746	9687.28152
814.933	9862.85366
815.12	9726.08036
815.306	9726.08036
815.493	9670.94351
815.68	9932.23543
815.866	9736.28967
816.053	9789.37193
816.24	9621.92352
816.426	9681.15488
816.613	9719.9546
816.799	9960.79947
816.986	9656.64694
817.173	9693.40802
817.359	9693.40802
817.546	9693.40802
817.732	9654.60451
817.919	9828.15637
818.105	9652.56206
818.292	9548.37667
818.478	9448.23819
818.665	9862.85366
818.851	9546.33341
819.037	9789.37193
819.224	9485.02822
819.41	9856.73092
819.597	9695.45016
819.783	9766.9153
819.969	9196.69762
820.156	9458.45817
820.342	9534.07352
820.528	9554.50635
820.714	9202.83576
820.901	9431.88539
821.087	9346.01609
821.273	9628.05151
821.459	9724.03846
821.646	9705.66061
821.832	9276.48158
822.018	9611.7099
822.204	9333.74668
822.39	9411.44293
822.576	9227.38679
822.762	9552.46314
822.948	9123.02803
823.134	9511.59556
823.32	9311.25123
823.507	9623.9662
823.693	9460.50212
823.879	9331.70173
824.065	9276.48158
824.25	9294.88964
824.436	9390.99884
824.622	9335.79163
824.808	9456.41421
824.994	9413.48725
825.18	9030.90971
825.366	9513.63909
825.552	9352.15057
825.738	9282.61775
825.923	9069.80839
826.109	9190.55933
826.295	9088.23189
826.481	9288.75377
826.667	9043.19418
826.852	9329.65675
827.038	9317.38655
827.224	9333.74668
827.409	9243.75279
827.595	9147.58702
827.781	8953.0934
827.966	9403.26549
828.152	9108.70081
828.338	9384.8653
828.523	9030.90971
828.709	9157.8192
828.894	8793.28477
829.08	9043.19418
829.266	9018.6246
829.451	9223.29512
829.637	8934.65949
829.822	8992.00472
830.008	8692.83582
830.193	8924.41781
830.378	8957.18962
830.564	9043.19418
830.749	8994.05251
830.935	8889.59276
831.12	8680.53291
831.305	8701.03738
831.491	8580.03414
831.676	8885.49536
831.861	8893.69009
832.047	8815.82851
832.232	8473.33302
832.417	8655.9251
832.602	8485.64731
832.788	8653.87433
832.973	8563.62192
833.158	8450.75504
833.343	8649.77273
833.528	8746.14074
833.714	8711.28893
833.899	8795.33429
834.084	8756.39026
834.269	8959.23771
834.454	8440.49156
834.639	8555.41535
834.824	8590.29118
835.009	8631.31462
835.194	8204.29757
835.379	8555.41535
835.564	8329.61521
835.749	8737.94079
835.934	8456.9129
836.119	8633.3656
836.304	8426.12188
836.489	8333.72275
836.674	8333.72275
836.859	8210.46245
837.044	8161.13842
837.228	8571.82818
837.413	8385.06044
837.598	8502.06529
837.783	8218.68201
837.968	8541.05313
838.152	8263.88394
838.337	8210.46245
838.522	8097.4112
838.707	8187.85703
838.891	8087.13081
839.076	8346.0449
839.261	7848.483
839.445	7918.46006
839.63	7667.25408
839.815	7860.83363
839.999	7650.77064
840.184	7747.59148
840.368	7675.49529
840.553	7924.63336
840.737	7797.01399
840.922	8062.45581
841.106	7683.73616
841.291	7943.15215
841.475	7702.27689
841.66	8068.62483
841.844	7642.52841
842.029	7875.24175
842.213	7737.2936
842.397	7757.88883
842.582	7619.86054
842.766	7873.18351
842.951	7535.34844
843.135	7749.65099
843.319	7504.42038
843.504	7508.5444
843.688	7551.84143
843.872	7675.49529
844.056	7446.67502
844.241	7706.39682
844.425	7817.60316
844.609	7473.48747
844.793	7518.85407
844.977	7642.52841
845.161	7322.87768
845.346	7298.10878
845.53	7203.13195
845.714	7529.16321
845.898	7048.17779
846.082	7099.84312
846.266	6975.82278
846.45	7258.88487
846.634	7341.45229
846.818	7008.90278
847.002	6986.1609
847.186	7380.65954
847.37	7176.2822
847.554	7304.3013
847.738	7031.64193
847.922	7112.24072
848.106	7172.15114
848.29	7079.17867
848.473	6857.92831
848.657	7114.3069
848.841	7023.37346
849.025	7211.39266
849.209	7188.67486
849.392	7151.49448
849.576	6973.75509
849.76	7017.17187
849.944	6924.12373
850.127	7077.1121
850.311	6799.98822
850.495	6783.43063
850.678	6804.12739
850.862	6948.94104
851.046	6841.37582
851.229	6799.98822
851.413	7008.90278
851.596	7112.24072
851.78	6841.37582
851.964	7072.97889
852.147	6684.05432
852.331	6638.48917
852.514	6710.97395
852.698	6586.69707
852.881	6387.6809
853.065	6793.77929
853.248	6503.79965
853.431	6597.05664
853.615	6752.3812
853.798	6826.8912
853.982	6696.47925
854.165	6563.90397
854.348	6586.69707
854.532	6700.62071
854.715	6518.30937
854.898	6795.84896
855.081	6497.58085
855.265	6669.55753
855.448	6437.45501
855.631	6364.86328
855.814	6300.54389
855.997	6344.11755
856.181	6337.89337
856.364	6418.79129
856.547	6470.6303
856.73	6410.4957
856.913	5966.13567
857.096	6337.89337
857.279	6076.28764
857.462	6188.44998
857.645	6040.96308
857.828	6211.28946
858.011	6121.99168
858.194	6211.28946
858.377	5972.37245
858.56	6138.60851
858.743	6024.3374
858.926	6040.96308
859.109	5957.81963
859.292	6036.8068
859.475	6011.86716
859.658	5862.15803
859.841	5899.59677
860.023	6003.55319
860.206	5591.54007
860.389	5776.85234
860.572	5564.45634
860.755	5932.86924
860.937	5547.78746
861.12	5681.0963
861.303	5855.91749
861.486	5999.39607
861.668	5874.63846
861.851	5870.47841
862.034	5633.19955
862.216	5766.4465
862.399	5497.77175
862.581	5514.44516
862.764	5587.3736
862.947	5691.50698
863.129	5545.70374
863.312	5624.86841
863.494	5341.38536
863.677	5712.32658
863.859	5358.07286
864.042	5654.02576
864.224	5539.45245
864.406	5524.86527
864.589	5199.48105
864.771	5303.83298
864.954	5255.83834
865.136	5504.02446
865.318	5024.03875
865.501	5042.84397
865.683	5097.15961
865.865	5514.44516
866.048	5051.20124
866.23	5161.90007
866.412	4852.61645
866.594	5249.57726
866.777	5005.23167
866.959	5145.19499
867.141	4873.52987
867.323	5199.48105
867.505	4854.70789
867.687	5005.23167
867.869	5220.3561
868.052	5239.14166
868.234	4888.1679
868.416	5149.3714
868.598	4988.51269
868.78	5170.25205
868.962	5019.85956
869.144	5153.54772
869.326	4942.5279
869.508	4978.06258
869.69	4844.25044
869.872	5111.78037
870.054	5038.66519
870.236	5278.79384
870.417	5070.00374
870.599	5080.44877
870.781	4919.53133
870.963	4911.16825
871.145	4946.70879
871.327	5237.05447
871.508	4904.8957
871.69	5141.01849
871.872	4890.25895
872.054	5074.18182
872.235	4873.52987
872.417	4879.80345
872.599	4875.62108
872.78	5015.68028
872.962	4710.34487
873.144	4919.53133
873.325	4808.69085
873.507	4894.441
873.689	4783.586
873.87	5003.14187
874.052	4706.15883
874.233	5101.33709
874.415	4879.80345
874.596	5128.48843
874.778	4804.50693
874.959	4863.07344
875.141	4952.97996
875.322	4961.3412
875.503	4731.27373
875.685	4955.07031
875.866	4685.22725
876.048	5019.85956
876.229	4731.27373
876.41	4768.93999
876.592	4645.45107
876.773	4551.2121
876.954	4597.29013
877.136	4946.70879
877.317	4639.16988
877.498	4678.94734
877.679	4622.41906
877.86	4653.82568
878.042	4452.73676
878.223	4674.76063
878.404	4634.98231
878.585	4923.71273
878.766	4754.29287
878.947	5038.66519
879.128	4593.10167
879.309	4626.6069
879.49	4724.99531
879.672	5017.76993
879.853	4840.0673
880.034	4672.66723
880.215	4771.03235
880.396	4827.51734
880.576	4660.1064
880.757	4752.20034
880.938	4630.79465
881.119	4988.51269
881.3	4572.158
881.481	4718.71669
881.662	4649.63842
881.843	4819.15024
882.023	4695.69332
882.204	4992.69257
882.385	4720.80958
882.566	4737.55195
882.747	4651.73206
882.927	4913.25905
883.108	4540.73833
883.289	4685.22725
883.469	4735.45924
883.65	4814.96655
883.831	4875.62108
884.011	5011.5009
884.192	4986.42271
884.373	5103.42579
884.553	4994.78248
884.734	5115.95753
884.914	4986.42271
885.095	5034.48632
885.275	4980.15265
885.456	5072.0928
885.636	4819.15024
885.817	5092.98204
885.997	5049.11195
886.178	5021.94917
886.358	4729.18095
886.538	5067.91467
886.719	5017.76993
886.899	4969.70207
887.08	5055.37973
887.26	5128.48843
887.44	5149.3714
887.621	5335.12715
887.801	4980.15265
887.981	5280.88057
888.161	4873.52987
888.342	4934.16583
888.522	4752.20034
888.702	4814.96655
888.882	4846.34198
889.062	4898.62295
889.242	4660.1064
889.423	4952.97996
889.603	4727.08814
889.783	5207.83135
889.963	4936.25638
890.143	4948.79921
890.323	4796.13883
890.503	5105.51447
890.683	4768.93999
890.863	4952.97996
891.043	4639.16988
891.223	5061.64731
891.403	4593.10167
891.583	5032.39686
891.763	4591.0074
891.943	4827.51734
892.122	4775.21699
892.302	4844.25044
892.482	4370.98634
892.662	4660.1064
892.842	4584.72447
893.022	4735.45924
893.201	4521.88413
893.381	4691.50696
893.561	4534.45379
893.741	4806.5989
893.92	4329.05021
894.1	4685.22725
894.28	4477.88403
894.459	4643.35737
894.639	4639.16988
894.819	4739.64465
894.998	4542.83313
895.178	4651.73206
895.357	4394.04751
895.537	4383.56549
895.716	4526.0741
895.896	4791.95465
896.075	4515.59899
896.255	4658.01285
896.434	4224.17222
896.614	4452.73676
896.793	4329.05021
896.973	4586.8188
897.152	4215.77967
897.331	4400.33646
897.511	4234.66242
897.69	4429.68231
897.87	4299.68978
898.049	4385.66193
898.228	3993.25472
898.407	4211.58327
898.587	4079.35345
898.766	4226.2703
898.945	3820.95472
899.124	4014.2576
899.304	3953.34362
899.483	4167.51593
899.662	3890.3112
899.841	3875.60103
900.02	3934.4358
900.199	4123.43931
900.378	3831.46467
900.557	3921.82968
900.737	3814.64852
900.916	3982.75251
901.095	3816.7506
901.274	3879.80404
901.453	3690.59073
901.632	3684.2809
901.811	3734.75463
901.989	3711.62222
902.168	3448.59347
902.347	3905.02039
902.526	3625.38097
902.705	3778.91001
902.884	3595.92545
903.063	3688.48747
903.242	3450.69884
903.42	3829.36272
903.599	3429.64434
903.778	3313.813
903.957	3362.25799
904.135	3351.72725
904.314	3366.47017
904.493	3547.5263
904.672	3417.01078
904.85	3469.64637
905.029	3164.20879
905.207	3423.32764
905.386	3063.02121
905.565	3322.23887
905.743	3096.75447
905.922	3320.13243
906.1	2864.75958
906.279	3187.39239
906.457	3058.80427
906.636	3261.1451
906.814	2976.56163
906.993	3259.03816
907.171	2826.77988
907.35	3022.95777
907.528	2902.73468
907.707	3067.23808
907.885	2923.82993
908.063	3216.89591
908.242	2691.70505
908.42	2906.95385
908.598	2695.92696
908.777	2847.88028
908.955	2641.03815
909.133	2776.13328
909.311	2396.05123
909.49	2632.59296
909.668	2311.53917
909.846	2725.47887
910.024	2290.40871
910.202	2763.4704
910.38	2328.44285
910.559	2712.81408
910.737	2622.03619
910.915	2636.81558
911.093	2417.1767
911.271	2600.92174
911.449	2628.37029
911.627	2575.5828
911.805	2345.34591
911.983	2651.59435
912.161	2725.47887
912.339	3033.50132
912.517	2894.29617
912.695	2898.51545
912.872	2649.48313
913.05	3109.4034
913.228	2717.03573
913.406	2940.70508
913.584	2755.02821
913.762	2919.611
913.939	2814.11897
914.117	2923.82993
914.295	2790.90602
914.473	3006.0873
914.65	2847.88028
914.828	2982.88881
915.006	2624.14757
915.184	2744.47517
915.361	2649.48313
915.539	2702.25972
915.716	2472.09794
915.894	2636.81558
916.072	2488.9953
916.249	2714.92491
916.427	2584.02931
916.604	2662.15024
916.782	2440.4135
916.959	2786.6853
917.137	2647.37191
917.314	2643.14941
917.492	2379.15011
917.669	2750.80704
917.847	2396.05123
918.024	2497.44371
918.201	2279.84312
918.379	2569.24779
918.556	2505.89194
918.733	2351.68439
918.911	2210.10456
919.088	2379.15011
919.265	2121.33293
919.442	2387.60075
919.62	2220.67163
919.797	2309.42617
919.974	2051.57414
920.151	2495.33162
920.328	2163.60693
920.506	2284.06939
920.683	2188.96978
920.86	2227.01177
921.037	2072.71401
921.214	2229.12513
921.391	2163.60693
921.568	2188.96978
921.745	2176.2885
921.922	2250.25826
922.099	1905.69114
922.276	2258.71126
922.453	2032.54766
922.63	2271.39049
922.807	2142.47033
922.984	1893.00432
923.161	1806.30626
923.338	1967.00788
923.514	1740.74914
923.691	1859.1719
923.868	1780.92976
924.045	1986.03619
924.222	1647.69462
924.399	1941.63603
924.575	1643.46474
924.752	1964.89359
924.929	1808.42094
925.105	1833.79675
925.282	1740.74914
925.459	1772.4708
925.635	1785.15922
925.812	2091.73927
925.989	1747.09354
926.165	1854.94276
926.342	1647.69462
926.518	1768.24129
926.695	1455.22841
926.871	1753.43791
927.048	1546.17526
927.224	1594.82048
927.401	1245.84257
927.577	1558.8654
927.754	1474.26387
927.93	1588.4755
928.107	1419.27253
928.283	1586.3605
928.459	1459.45851
928.636	1474.26387
928.812	1406.58225
928.988	1626.54513
929.165	1417.15749
929.341	1491.18427
929.517	1321.98119
929.693	1370.62658
929.87	1152.78931
930.046	1372.74161
930.222	1254.30227
930.398	1254.30227
930.574	1247.95749
930.751	1347.3613
930.927	1351.59134
931.103	1313.52121
931.279	1118.9536
931.455	1163.36319
931.631	1028.02631
931.807	1372.74161
931.983	1036.48424
932.159	1165.47798
932.335	1047.05678
932.511	1137.98605
932.687	949.79526
932.863	1038.59873
933.039	983.6238
933.215	1087.23368
933.391	1021.68293
933.566	1144.33028
933.742	970.93789
933.918	949.79526
934.094	867.34612
934.27	915.96855
934.445	687.69643
934.621	909.62625
934.797	675.01812
934.973	694.03574
935.148	653.88854
935.324	723.62049
935.5	632.76015
935.675	611.63298
935.851	495.45715
936.027	601.06987
936.202	506.01685
936.378	626.42187
936.553	579.94462
936.729	510.24083
936.904	417.32708
937.08	434.21827
937.255	385.65888
937.431	560.93302
937.606	360.32701
937.782	377.21465
937.957	391.99222
938.133	362.43791
938.308	299.11864
938.483	307.56028
938.659	326.55503
938.834	225.26699
939.009	297.00827
939.185	252.69488
939.36	254.80485
939.535	164.09378
939.71	240.03545
939.886	237.92561
940.061	271.68532
940.236	299.11864
940.411	214.71868
940.586	172.53045
940.761	246.36508
940.937	176.7489
941.112	121.91552
941.287	199.95188
941.462	174.63967
941.637	214.71868
941.812	143.00359
941.987	124.02423
942.162	115.58952
942.337	189.40476
942.512	195.73297
942.687	202.06136
942.862	242.1453
943.037	180.96744
943.212	172.53045
943.386	168.31207
943.561	151.43941
943.736	164.09378
943.911	79.74592
944.086	151.43941
944.26	98.72115
944.435	62.88058
944.61	189.40476
944.785	121.91552
944.959	113.4809
945.134	172.53045
945.309	117.69816
945.483	149.33043
945.658	117.69816
945.833	157.7665
946.007	96.6127
946.182	67.09678
946.357	176.7489
946.531	155.65745
946.706	185.18606
946.88	130.35049
947.055	143.00359
947.229	149.33043
947.404	56.55646
947.578	105.04662
947.752	159.87558
947.927	115.58952
948.101	185.18606
948.276	138.7858
948.45	183.07674
948.624	166.20292
948.799	147.22146
948.973	134.5681
949.147	216.8283
949.321	210.49949
949.496	214.71868
949.67	191.51415
949.844	102.93811
950.018	183.07674
950.193	111.37229
950.367	138.7858
950.541	143.00359
950.715	149.33043
950.889	132.45929
951.063	157.7665
951.237	147.22146
951.411	157.7665
951.585	164.09378
951.759	124.02423
951.933	180.96744
952.107	193.62355
952.281	157.7665
952.455	143.00359
952.629	138.7858
952.803	221.0476
952.977	193.62355
953.151	164.09378
953.325	121.91552
953.499	151.43941
953.672	159.87558
953.846	149.33043
954.02	225.26699
954.194	197.84241
954.368	109.26371
954.541	124.02423
954.715	134.5681
954.889	113.4809
955.062	178.85816
955.236	256.91485
955.41	149.33043
955.583	164.09378
955.757	185.18606
955.93	88.17913
956.104	164.09378
956.278	218.93794
956.451	126.13296
956.625	178.85816
956.798	180.96744
956.972	168.31207
957.145	145.11251
957.319	113.4809
957.492	138.7858
957.665	143.00359
957.839	140.89469
958.012	83.96248
958.185	157.7665
958.359	166.20292
958.532	174.63967
958.705	145.11251
958.879	193.62355
959.052	208.38993
959.225	130.35049
959.398	143.00359
959.572	67.09678
959.745	147.22146
959.918	151.43941
960.091	155.65745
960.264	180.96744
960.438	159.87558
960.611	225.26699
960.784	130.35049
960.957	113.4809
961.13	119.80683
961.303	172.53045
961.476	157.7665
961.649	121.91552
961.822	168.31207
961.995	96.6127
962.168	143.00359
962.341	212.60907
962.514	151.43941
962.686	164.09378
962.859	191.51415
963.032	187.2954
963.205	212.60907
963.378	178.85816
963.551	199.95188
963.723	79.74592
963.896	109.26371
964.069	113.4809
964.242	185.18606
964.414	174.63967
964.587	161.98467
964.76	126.13296
964.932	202.06136
965.105	115.58952
965.278	164.09378
965.45	88.17913
965.623	191.51415
965.795	159.87558
965.968	155.65745
966.14	54.44846
966.313	130.35049
966.485	183.07674
966.658	124.02423
966.83	98.72115
967.003	119.80683
967.175	115.58952
967.348	107.15516
967.52	130.35049
967.692	174.63967
967.865	96.6127
968.037	191.51415
968.209	172.53045
968.382	155.65745
968.554	149.33043
968.726	105.04662
968.898	183.07674
969.071	134.5681
969.243	115.58952
969.415	100.82962
969.587	153.54842
969.759	109.26371
969.932	100.82962
970.104	56.55646
970.276	117.69816
970.448	37.58533
970.62	12.29343
970.792	130.35049
970.964	155.65745
971.136	132.45929
971.308	96.6127
971.48	88.17913
971.652	138.7858
971.824	138.7858
971.996	86.0708
972.168	121.91552
972.339	130.35049
972.511	134.5681
972.683	62.88058
972.855	79.74592
973.027	132.45929
973.199	155.65745
973.37	88.17913
973.542	149.33043
973.714	105.04662
973.886	113.4809
974.057	130.35049
974.229	20.72369
974.401	117.69816
974.572	92.39587
974.744	124.02423
974.915	56.55646
975.087	147.22146
975.259	132.45929
975.43	12.29343
975.602	109.26371
975.773	12.29343
975.945	90.28749
976.116	88.17913
976.288	58.66448
976.459	-4.56592
976.63	37.58533
976.802	96.6127
976.973	71.31307
977.145	132.45929
977.316	115.58952
977.487	-10.88778
977.659	102.93811
977.83	109.26371
978.001	62.88058
978.172	98.72115
978.344	138.7858
978.515	71.31307
978.686	54.44846
978.857	48.12461
979.028	96.6127
979.2	46.01671
979.371	107.15516
979.542	105.04662
979.713	90.28749
979.884	62.88058
980.055	149.33043
980.226	90.28749
980.397	62.88058
980.568	29.15432
980.739	130.35049
980.91	121.91552
981.081	24.93896
981.252	41.80097
981.423	159.87558
981.594	37.58533
981.765	105.04662
981.936	-19.31659
982.106	86.0708
982.277	67.09678
982.448	79.74592
982.619	88.17913
982.79	48.12461
982.96	56.55646
983.131	138.7858
983.302	71.31307
983.472	54.44846
983.643	58.66448
983.814	81.85419
983.984	29.15432
984.155	37.58533
984.326	12.29343
984.496	96.6127
984.667	111.37229
984.837	43.90883
985.008	71.31307
985.178	20.72369
985.349	88.17913
985.519	-40.38689
985.69	-38.27997
985.86	90.28749
986.031	113.4809
986.201	79.74592
986.371	39.69314
986.542	54.44846
986.712	37.58533
986.882	71.31307
987.053	71.31307
987.223	1.75615
987.393	58.66448
987.563	90.28749
987.734	16.50851
987.904	12.29343
988.074	79.74592
988.244	56.55646
988.414	-38.27997
988.585	64.98867
988.755	31.26204
988.925	75.52945
989.095	5.97099
989.265	37.58533
989.435	67.09678
989.605	48.12461
989.775	81.85419
989.945	88.17913
990.115	62.88058
990.285	16.50851
990.455	29.15432
990.625	12.29343
990.795	-2.45859
990.965	20.72369
991.134	5.97099
991.304	12.29343
991.474	161.98467
991.644	64.98867
991.814	67.09678
991.984	64.98867
992.153	37.58533
992.323	24.93896
992.493	16.50851
992.662	27.04663
992.832	79.74592
993.002	-0.35123
993.171	-2.45859
993.341	41.80097
993.511	83.96248
993.68	29.15432
993.85	14.40096
994.019	20.72369
994.189	124.02423
994.358	58.66448
994.528	5.97099
994.697	24.93896
994.867	31.26204
995.036	3.86356
995.206	46.01671
995.375	27.04663
995.544	90.28749
995.714	58.66448
995.883	130.35049
996.052	46.01671
996.222	12.29343
996.391	52.34049
996.56	-19.31659
996.73	50.23254
996.899	-2.45859
997.068	-21.42373
997.237	96.6127
997.406	-17.20943
997.576	121.91552
997.745	-42.49378
997.914	24.93896
998.083	20.72369
998.252	39.69314
998.421	46.01671
998.59	113.4809
998.759	20.72369
998.928	79.74592
999.097	90.28749
999.266	79.74592
999.435	-21.42373
999.604	79.74592
999.773	8.07845
999.942	41.80097
1000.111	29.15432
1000.28	20.72369
1000.448	16.50851
1000.617	-6.67324
1000.786	46.01671
1000.955	37.58533
1001.124	-6.67324
1001.292	24.93896
1001.461	20.72369
1001.63	56.55646
1001.798	29.15432
1001.967	77.63768
1002.136	37.58533
1002.304	12.29343
1002.473	24.93896
1002.642	1.75615
1002.81	64.98867
1002.979	62.88058
1003.147	-29.85205
1003.316	115.58952
1003.484	96.6127
1003.653	46.01671
1003.821	14.40096
1003.99	48.12461
1004.158	8.07845
1004.327	105.04662
1004.495	124.02423
1004.663	10.18593
1004.832	96.6127
1005	27.04663
1005.168	48.12461
1005.337	56.55646
1005.505	75.52945
1005.673	62.88058
1005.842	22.83131
1006.01	50.23254
1006.178	-8.78052
1006.346	62.88058
1006.514	71.31307
1006.683	5.97099
1006.851	-8.78052
1007.019	-0.35123
1007.187	16.50851
1007.355	3.86356
1007.523	29.15432
1007.691	48.12461
1007.859	48.12461
1008.027	-40.38689
1008.195	-19.31659
1008.363	58.66448
1008.531	37.58533
1008.699	-8.78052
1008.867	-8.78052
1009.035	-2.45859
1009.203	20.72369
1009.37	81.85419
1009.538	54.44846
1009.706	52.34049
1009.874	43.90883
1010.042	12.29343
1010.209	-19.31659
1010.377	113.4809
1010.545	5.97099
1010.713	5.97099
1010.88	56.55646
1011.048	5.97099
1011.216	56.55646
1011.383	-23.53085
1011.551	-23.53085
1011.718	54.44846
1011.886	-19.31659
1012.054	12.29343
1012.221	20.72369
1012.389	5.97099
1012.556	37.58533
1012.724	46.01671
1012.891	27.04663
1013.058	50.23254
1013.226	43.90883
1013.393	-27.74501
1013.561	37.58533
1013.728	56.55646
1013.895	52.34049
1014.063	48.12461
1014.23	-50.9211
1014.397	46.01671
1014.565	8.07845
1014.732	41.80097
1014.899	31.26204
1015.066	29.15432
1015.233	-0.35123
1015.401	67.09678
1015.568	3.86356
1015.735	-8.78052
1015.902	27.04663
1016.069	29.15432
1016.236	18.61609
1016.403	16.50851
1016.57	43.90883
1016.737	12.29343
1016.904	-12.99502
1017.071	-10.88778
1017.238	-21.42373
1017.405	151.43941
1017.572	94.50427
1017.739	27.04663
1017.906	27.04663
1018.073	41.80097
1018.24	94.50427
1018.407	3.86356
1018.573	-21.42373
1018.74	48.12461
1018.907	3.86356
1019.074	62.88058
1019.241	-12.99502
1019.407	79.74592
1019.574	-27.74501
1019.741	41.80097
1019.907	3.86356
1020.074	22.83131
1020.241	29.15432
1020.407	29.15432
1020.574	-10.88778
1020.74	33.36978
1020.907	16.50851
1021.073	3.86356
1021.24	31.26204
1021.406	16.50851
1021.573	54.44846
1021.739	79.74592
1021.906	18.61609
1022.072	22.83131
1022.239	41.80097
1022.405	-19.31659
1022.571	-8.78052
1022.738	-71.98763
1022.904	12.29343
1023.07	41.80097
1023.237	5.97099
1023.403	-42.49378
1023.569	81.85419
1023.735	-0.35123
1023.902	-34.06606
1024.068	-23.53085
1024.234	100.82962
1024.4	37.58533
1024.566	24.93896
1024.732	16.50851
1024.898	54.44846
1025.065	75.52945
1025.231	12.29343
1025.397	33.36978
1025.563	-8.78052
1025.729	67.09678
1025.895	62.88058
1026.061	-27.74501
1026.227	98.72115
1026.392	92.39587
1026.558	48.12461
1026.724	27.04663
1026.89	-40.38689
1027.056	79.74592
1027.222	50.23254
1027.388	8.07845
1027.553	37.58533
1027.719	-8.78052
1027.885	54.44846
1028.051	111.37229
1028.216	-8.78052
1028.382	39.69314
1028.548	-4.56592
1028.713	29.15432
1028.879	46.01671
1029.045	20.72369
1029.21	39.69314
1029.376	31.26204
1029.541	35.47754
1029.707	27.04663
1029.873	-12.99502
1030.038	46.01671
1030.204	-21.42373
1030.369	8.07845
1030.534	-4.56592
1030.7	12.29343
1030.865	31.26204
1031.031	111.37229
1031.196	-8.78052
1031.361	-36.17303
1031.527	-4.56592
1031.692	-19.31659
1031.857	8.07845
1032.023	39.69314
1032.188	20.72369
1032.353	24.93896
1032.518	-0.35123
1032.684	62.88058
1032.849	-50.9211
1033.014	-4.56592
1033.179	-44.60065
1033.344	16.50851
1033.509	14.40096
1033.674	-38.27997
1033.839	-25.63794
1034.004	3.86356
1034.17	3.86356
1034.335	77.63768
1034.5	14.40096
1034.664	37.58533
1034.829	22.83131
1034.994	46.01671
1035.159	-2.45859
1035.324	-38.27997
1035.489	-4.56592
1035.654	-19.31659
1035.819	-25.63794
1035.984	-12.99502
1036.148	24.93896
1036.313	73.42125
1036.478	20.72369
1036.643	-25.63794
1036.807	88.17913
1036.972	24.93896
1037.137	22.83131
1037.301	31.26204
1037.466	-46.70749
1037.631	-38.27997
1037.795	-29.85205
1037.96	-2.45859
1038.124	-29.85205
1038.289	58.66448
1038.454	-34.06606
1038.618	-4.56592
1038.783	-10.88778
1038.947	39.69314
1039.111	58.66448
1039.276	-69.8811
1039.44	12.29343
1039.605	-4.56592
1039.769	14.40096
1039.933	5.97099
1040.098	-2.45859
1040.262	16.50851
1040.426	-25.63794
1040.591	3.86356
1040.755	-8.78052
1040.919	-8.78052
1041.083	-21.42373
1041.248	46.01671
1041.412	-12.99502
1041.576	56.55646
1041.74	-6.67324
1041.904	-12.99502
1042.068	1.75615
1042.232	-19.31659
1042.397	-12.99502
1042.561	-4.56592
1042.725	37.58533
1042.889	48.12461
1043.053	-42.49378
1043.217	33.36978
1043.381	-21.42373
1043.544	-21.42373
1043.708	52.34049
1043.872	33.36978
1044.036	-36.17303
1044.2	46.01671
1044.364	52.34049
1044.528	-15.10224
1044.691	-21.42373
1044.855	-23.53085
1045.019	-4.56592
1045.183	22.83131
1045.346	24.93896
1045.51	24.93896
1045.674	29.15432
1045.837	-36.17303
1046.001	31.26204
1046.165	-86.73269
1046.328	-40.38689
1046.492	-29.85205
1046.655	-19.31659
1046.819	96.6127
1046.983	-21.42373
1047.146	5.97099
1047.31	22.83131
1047.473	-44.60065
1047.636	-31.95906
1047.8	-95.15786
1047.963	-25.63794
1048.127	29.15432
1048.29	-12.99502
