Data from mixed_try1_USB4F045381__42__00146.txt Node

Date: Thu Apr 03 20:06:09 EDT 2025
User: mmckonesweet
Spectrometer: USB4F04538
Trigger mode: 4
Integration Time (sec): 2.700000E-3
Scans to average: 1
Electric dark correction enabled: true
Nonlinearity correction enabled: true
Boxcar width: 0
XAxis mode: Wavelengths
Number of Pixels in Spectrum: 3648
>>>>>Begin Spectral Data<<<<<
345.52	3.86356
345.736	3.86356
345.952	3.86356
346.168	-12.99502
346.384	-99.37029
346.6	50.23254
346.816	-38.27997
347.032	-4.56592
347.248	14.40096
347.464	-25.63794
347.68	-19.31659
347.896	12.29343
348.112	-23.53085
348.328	-2.45859
348.544	-4.56592
348.76	14.40096
348.975	27.04663
349.191	-36.17303
349.407	27.04663
349.623	-61.45468
349.839	54.44846
350.055	18.61609
350.27	3.86356
350.486	22.83131
350.702	-10.88778
350.918	5.97099
351.133	-31.95906
351.349	56.55646
351.565	10.18593
351.781	22.83131
351.996	90.28749
352.212	46.01671
352.428	-17.20943
352.644	3.86356
352.859	62.88058
353.075	29.15432
353.291	96.6127
353.506	10.18593
353.722	33.36978
353.938	-21.42373
354.153	12.29343
354.369	62.88058
354.584	77.63768
354.8	-38.27997
355.016	-19.31659
355.231	-15.10224
355.447	16.50851
355.662	1.75615
355.878	18.61609
356.093	-29.85205
356.309	-27.74501
356.524	-0.35123
356.74	39.69314
356.955	1.75615
357.171	12.29343
357.386	56.55646
357.602	29.15432
357.817	-38.27997
358.033	48.12461
358.248	22.83131
358.464	50.23254
358.679	-74.09415
358.895	3.86356
359.11	-44.60065
359.325	10.18593
359.541	27.04663
359.756	58.66448
359.972	-82.51994
360.187	18.61609
360.402	-48.81431
360.618	31.26204
360.833	-4.56592
361.048	-19.31659
361.264	-6.67324
361.479	-15.10224
361.694	29.15432
361.909	-12.99502
362.125	27.04663
362.34	22.83131
362.555	16.50851
362.77	52.34049
362.986	-6.67324
363.201	12.29343
363.416	52.34049
363.631	5.97099
363.847	5.97099
364.062	1.75615
364.277	60.77252
364.492	58.66448
364.707	86.0708
364.922	27.04663
365.138	10.18593
365.353	10.18593
365.568	-2.45859
365.783	18.61609
365.998	56.55646
366.213	52.34049
366.428	-23.53085
366.643	3.86356
366.858	69.20492
367.073	98.72115
367.288	20.72369
367.503	-21.42373
367.718	-31.95906
367.933	14.40096
368.148	-53.02787
368.363	18.61609
368.578	5.97099
368.793	-2.45859
369.008	-55.13461
369.223	29.15432
369.438	48.12461
369.653	77.63768
369.868	18.61609
370.083	1.75615
370.298	35.47754
370.513	41.80097
370.728	-44.60065
370.943	-21.42373
371.157	10.18593
371.372	5.97099
371.587	60.77252
371.802	-27.74501
372.017	-29.85205
372.232	27.04663
372.446	5.97099
372.661	-23.53085
372.876	12.29343
373.091	-12.99502
373.306	-2.45859
373.52	1.75615
373.735	27.04663
373.95	77.63768
374.165	8.07845
374.379	94.50427
374.594	-69.8811
374.809	94.50427
375.023	-21.42373
375.238	5.97099
375.453	29.15432
375.667	46.01671
375.882	1.75615
376.097	-19.31659
376.311	-23.53085
376.526	-23.53085
376.741	-15.10224
376.955	67.09678
377.17	64.98867
377.384	37.58533
377.599	-46.70749
377.813	37.58533
378.028	3.86356
378.242	-31.95906
378.457	1.75615
378.672	37.58533
378.886	12.29343
379.101	79.74592
379.315	29.15432
379.53	43.90883
379.744	1.75615
379.958	119.80683
380.173	52.34049
380.387	46.01671
380.602	27.04663
380.816	3.86356
381.031	-6.67324
381.245	-27.74501
381.459	8.07845
381.674	-4.56592
381.888	43.90883
382.103	-19.31659
382.317	-67.77453
382.531	-25.63794
382.746	37.58533
382.96	8.07845
383.174	29.15432
383.388	69.20492
383.603	-38.27997
383.817	-2.45859
384.031	-31.95906
384.246	14.40096
384.46	18.61609
384.674	-15.10224
384.888	-23.53085
385.103	-0.35123
385.317	-27.74501
385.531	18.61609
385.745	-48.81431
385.959	33.36978
386.174	20.72369
386.388	-4.56592
386.602	94.50427
386.816	1.75615
387.03	54.44846
387.244	16.50851
387.458	24.93896
387.672	-23.53085
387.887	1.75615
388.101	-15.10224
388.315	58.66448
388.529	-42.49378
388.743	1.75615
388.957	46.01671
389.171	31.26204
389.385	-6.67324
389.599	-34.06606
389.813	-40.38689
390.027	79.74592
390.241	18.61609
390.455	39.69314
390.669	5.97099
390.883	52.34049
391.097	48.12461
391.311	1.75615
391.525	-10.88778
391.738	43.90883
391.952	-25.63794
392.166	-10.88778
392.38	-6.67324
392.594	60.77252
392.808	37.58533
393.022	12.29343
393.236	79.74592
393.449	-10.88778
393.663	-19.31659
393.877	-27.74501
394.091	27.04663
394.305	-6.67324
394.518	37.58533
394.732	71.31307
394.946	37.58533
395.16	-65.66794
395.373	-0.35123
395.587	88.17913
395.801	18.61609
396.015	-10.88778
396.228	43.90883
396.442	22.83131
396.656	71.31307
396.869	81.85419
397.083	94.50427
397.297	48.12461
397.51	46.01671
397.724	20.72369
397.938	71.31307
398.151	88.17913
398.365	43.90883
398.578	1.75615
398.792	37.58533
399.005	39.69314
399.219	52.34049
399.433	71.31307
399.646	-38.27997
399.86	8.07845
400.073	69.20492
400.287	77.63768
400.5	35.47754
400.714	39.69314
400.927	27.04663
401.141	-31.95906
401.354	1.75615
401.567	-23.53085
401.781	67.09678
401.994	-15.10224
402.208	12.29343
402.421	29.15432
402.635	-59.34802
402.848	-19.31659
403.061	-19.31659
403.275	1.75615
403.488	20.72369
403.701	39.69314
403.915	10.18593
404.128	-38.27997
404.341	73.42125
404.555	37.58533
404.768	90.28749
404.981	73.42125
405.195	71.31307
405.408	-78.3071
405.621	-19.31659
405.834	54.44846
406.048	10.18593
406.261	-19.31659
406.474	94.50427
406.687	-19.31659
406.9	-46.70749
407.114	33.36978
407.327	79.74592
407.54	56.55646
407.753	-21.42373
407.966	1.75615
408.179	3.86356
408.392	12.29343
408.605	43.90883
408.819	-31.95906
409.032	60.77252
409.245	94.50427
409.458	-12.99502
409.671	39.69314
409.884	27.04663
410.097	18.61609
410.31	-17.20943
410.523	-4.56592
410.736	-55.13461
410.949	39.69314
411.162	27.04663
411.375	60.77252
411.588	43.90883
411.801	62.88058
412.014	48.12461
412.227	56.55646
412.44	46.01671
412.653	-23.53085
412.865	16.50851
413.078	31.26204
413.291	-21.42373
413.504	-4.56592
413.717	64.98867
413.93	-8.78052
414.143	50.23254
414.356	-6.67324
414.568	24.93896
414.781	22.83131
414.994	-57.24133
415.207	43.90883
415.42	46.01671
415.632	29.15432
415.845	-6.67324
416.058	-31.95906
416.271	-29.85205
416.483	27.04663
416.696	77.63768
416.909	-29.85205
417.121	71.31307
417.334	43.90883
417.547	164.09378
417.759	24.93896
417.972	46.01671
418.185	62.88058
418.397	58.66448
418.61	60.77252
418.823	20.72369
419.035	56.55646
419.248	43.90883
419.46	96.6127
419.673	18.61609
419.885	12.29343
420.098	71.31307
420.311	56.55646
420.523	12.29343
420.736	10.18593
420.948	71.31307
421.161	86.0708
421.373	27.04663
421.586	52.34049
421.798	46.01671
422.01	62.88058
422.223	46.01671
422.435	10.18593
422.648	43.90883
422.86	10.18593
423.073	-29.85205
423.285	37.58533
423.497	39.69314
423.71	27.04663
423.922	-34.06606
424.134	-21.42373
424.347	-48.81431
424.559	14.40096
424.771	86.0708
424.984	37.58533
425.196	77.63768
425.408	54.44846
425.621	27.04663
425.833	52.34049
426.045	35.47754
426.257	-2.45859
426.47	94.50427
426.682	27.04663
426.894	3.86356
427.106	46.01671
427.318	39.69314
427.531	37.58533
427.743	27.04663
427.955	27.04663
428.167	5.97099
428.379	69.20492
428.591	35.47754
428.804	-0.35123
429.016	1.75615
429.228	64.98867
429.44	62.88058
429.652	79.74592
429.864	77.63768
430.076	3.86356
430.288	18.61609
430.5	27.04663
430.712	31.26204
430.924	52.34049
431.136	153.54842
431.348	39.69314
431.56	71.31307
431.772	94.50427
431.984	33.36978
432.196	79.74592
432.408	69.20492
432.62	86.0708
432.832	60.77252
433.044	-40.38689
433.256	69.20492
433.468	109.26371
433.679	22.83131
433.891	35.47754
434.103	-12.99502
434.315	60.77252
434.527	35.47754
434.739	35.47754
434.95	94.50427
435.162	100.82962
435.374	119.80683
435.586	60.77252
435.798	107.15516
436.009	77.63768
436.221	29.15432
436.433	77.63768
436.645	69.20492
436.856	12.29343
437.068	81.85419
437.28	94.50427
437.491	27.04663
437.703	24.93896
437.915	107.15516
438.126	33.36978
438.338	71.31307
438.55	22.83131
438.761	90.28749
438.973	27.04663
439.184	94.50427
439.396	71.31307
439.608	20.72369
439.819	96.6127
440.031	29.15432
440.242	62.88058
440.454	94.50427
440.665	60.77252
440.877	111.37229
441.088	71.31307
441.3	107.15516
441.511	62.88058
441.723	62.88058
441.934	69.20492
442.146	178.85816
442.357	73.42125
442.569	81.85419
442.78	37.58533
442.991	77.63768
443.203	27.04663
443.414	73.42125
443.626	39.69314
443.837	79.74592
444.048	69.20492
444.26	29.15432
444.471	128.24171
444.682	105.04662
444.894	71.31307
445.105	37.58533
445.316	56.55646
445.528	136.67694
445.739	105.04662
445.95	107.15516
446.161	79.74592
446.373	31.26204
446.584	111.37229
446.795	98.72115
447.006	64.98867
447.217	73.42125
447.429	149.33043
447.64	39.69314
447.851	52.34049
448.062	183.07674
448.273	60.77252
448.484	88.17913
448.695	105.04662
448.907	128.24171
449.118	102.93811
449.329	94.50427
449.54	69.20492
449.751	124.02423
449.962	52.34049
450.173	71.31307
450.384	75.52945
450.595	166.20292
450.806	98.72115
451.017	67.09678
451.228	77.63768
451.439	161.98467
451.65	102.93811
451.861	157.7665
452.072	130.35049
452.283	29.15432
452.494	77.63768
452.705	119.80683
452.915	83.96248
453.126	216.8283
453.337	81.85419
453.548	121.91552
453.759	172.53045
453.97	172.53045
454.181	128.24171
454.391	170.42125
454.602	149.33043
454.813	98.72115
455.024	98.72115
455.235	145.11251
455.445	113.4809
455.656	143.00359
455.867	105.04662
456.078	119.80683
456.288	199.95188
456.499	98.72115
456.71	113.4809
456.921	119.80683
457.131	212.60907
457.342	145.11251
457.553	136.67694
457.763	105.04662
457.974	187.2954
458.184	237.92561
458.395	195.73297
458.606	233.70599
458.816	161.98467
459.027	208.38993
459.237	124.02423
459.448	178.85816
459.659	172.53045
459.869	254.80485
460.08	225.26699
460.29	273.79547
460.501	212.60907
460.711	271.68532
460.922	212.60907
461.132	330.77629
461.343	204.17086
461.553	246.36508
461.764	235.81579
461.974	263.24494
462.184	324.44443
462.395	216.8283
462.605	282.23623
462.816	318.11274
463.026	210.49949
463.236	284.34646
463.447	313.8917
463.657	297.00827
463.867	322.33385
464.078	320.22329
464.288	383.5478
464.498	391.99222
464.709	248.47499
464.919	275.90563
465.129	349.77279
465.339	330.77629
465.55	381.43673
465.76	364.54882
465.97	303.33942
466.18	491.23337
466.391	406.7706
466.601	453.22206
466.811	423.66115
467.021	482.78599
467.231	548.25922
467.441	394.10337
467.651	372.99264
467.862	482.78599
468.072	590.50708
468.282	645.43704
468.492	520.80104
468.702	550.37148
468.912	645.43704
469.122	603.18247
469.332	702.4883
469.542	662.34023
469.752	670.79211
469.962	687.69643
470.172	770.11505
470.382	727.84706
470.592	837.75202
470.802	808.15966
471.012	723.62049
471.222	973.05219
471.432	884.25779
471.642	856.7766
471.852	937.11002
472.062	939.22421
472.272	1028.02631
472.482	949.79526
472.691	1207.77453
472.901	947.68104
473.111	1066.0877
473.321	1152.78931
473.531	1112.60953
473.741	1146.44503
473.95	1279.6816
474.16	1264.87694
474.37	1341.01625
474.58	1368.51155
474.79	1440.42304
474.999	1463.68862
475.209	1338.90124
475.419	1525.02495
475.628	1548.29029
475.838	1514.44976
476.048	1508.10463
476.258	1626.54513
476.467	1601.16545
476.677	1776.70029
476.886	2064.25815
477.096	1928.94978
477.306	1962.7793
477.515	1768.24129
477.725	2013.52063
477.935	1912.03447
478.144	1943.75038
478.354	1996.60726
478.563	2250.25826
478.773	2182.62918
478.982	2269.27731
479.192	2303.0871
479.401	2480.54671
479.611	2311.53917
479.82	2503.7799
480.03	2529.12363
480.239	2607.25621
480.449	2565.0244
480.658	2717.03573
480.868	2738.14319
481.077	2961.79769
481.287	2790.90602
481.496	2909.06341
481.705	2930.15822
481.915	3111.5115
482.124	3001.86953
482.333	3200.03715
482.543	3195.8223
482.752	3402.27081
482.961	3345.4086
483.171	3425.43322
483.38	3242.18207
483.589	3509.64189
483.799	3463.33069
484.008	3604.34169
484.217	3326.4517
484.426	3627.4848
484.636	3475.96188
484.845	3844.07595
485.054	3814.64852
485.263	4108.74504
485.472	3848.27956
485.682	3984.853
485.891	3997.45546
486.1	4062.55642
486.309	4159.1211
486.518	4169.61459
486.727	4213.68148
486.936	4274.52034
487.146	4423.39428
487.355	4400.33646
487.564	4549.11739
487.773	4771.03235
487.982	4456.92819
488.191	4626.6069
488.4	4741.73732
488.609	4840.0673
488.818	4846.34198
489.027	4867.25608
489.236	4800.32293
489.445	5163.9881
489.654	4994.78248
489.863	5151.45957
490.072	4890.25895
490.281	5042.84397
490.49	5151.45957
490.698	5282.96727
490.907	5038.66519
491.116	5568.62333
491.325	5460.25107
491.534	5464.42041
491.743	5524.86527
491.952	5543.62
492.16	5537.36864
492.369	5760.20271
492.578	5601.95582
492.787	5868.39835
492.996	5672.76733
493.204	6076.28764
493.413	5945.34486
493.622	6067.97659
493.831	5899.59677
494.039	5978.60903
494.248	5839.27503
494.457	6412.56963
494.665	6198.83191
494.874	6227.89822
495.083	6269.41354
495.291	6281.86632
495.5	6263.18684
495.709	6369.01215
495.917	6337.89337
496.126	6406.34776
496.335	6507.9454
496.543	6445.74939
496.752	6708.90335
496.96	6599.12849
497.169	6528.67276
497.377	6462.33704
497.586	6673.69958
497.794	6742.03025
498.003	6690.26689
498.211	7108.10827
498.42	6737.88971
498.628	7008.90278
498.837	7225.84805
499.045	7064.71222
499.254	6907.57705
499.462	7223.78306
499.671	7281.59442
499.879	7318.74975
500.087	7395.10233
500.296	7582.76209
500.504	7399.22864
500.713	7751.71048
500.921	7531.22498
501.129	7555.96446
501.338	7634.28585
501.546	7747.59148
501.754	7467.30031
501.962	7823.7795
502.171	7776.42274
502.379	7825.83824
502.587	7665.19372
502.795	7978.12757
503.004	7764.06699
503.212	8052.1737
503.42	7947.26721
503.628	8027.49459
503.837	7829.95565
504.045	7969.89859
504.253	8181.69149
504.461	8348.09853
504.669	8335.77649
504.877	8368.6337
505.085	8124.13786
505.294	8339.88391
505.502	8117.97047
505.71	8483.59498
505.918	8362.47335
506.126	8362.47335
506.334	8327.56141
506.542	8754.34039
506.75	8368.6337
506.958	8456.9129
507.166	8426.12188
507.374	8520.53407
507.582	8619.00837
507.79	8672.33061
507.998	8588.23981
508.206	8778.93761
508.414	8686.68445
508.622	8828.12418
508.83	8655.9251
509.037	8897.78735
509.245	8750.2406
509.453	8918.27259
509.661	9028.86223
509.869	9030.90971
510.077	8905.98166
510.285	9163.95831
510.492	9294.88964
510.7	9298.98014
510.908	9051.38348
511.116	9213.06565
511.324	8971.52587
511.531	9393.04332
511.739	9258.07216
511.947	9253.981
512.155	9348.06093
512.362	9311.25123
512.57	9253.981
512.778	9525.89994
512.985	9485.02822
513.193	9407.35424
513.401	9529.98676
513.608	9703.61855
513.816	9773.04001
514.024	9593.32439
514.231	9423.7086
514.439	9442.10601
514.646	9550.41991
514.854	9666.85885
515.061	9699.53439
515.269	9777.12308
515.477	9670.94351
515.684	10134.16367
515.892	9875.09874
516.099	9879.18031
516.307	10011.79964
516.514	9985.28068
516.722	10095.42056
516.929	9911.83079
517.136	10013.83946
517.344	10154.55276
517.551	10109.69492
517.759	10203.48092
517.966	10232.0187
518.173	10246.28658
518.381	10295.20001
518.588	10360.40592
518.796	10256.47752
519.003	10445.9682
519.21	10405.22713
519.418	10297.23791
519.625	10517.25268
519.832	10466.3368
520.039	10401.15274
520.247	10759.50539
520.454	10767.64535
520.661	11109.35751
520.868	10718.80272
521.076	11158.14803
521.283	10948.71114
521.49	10942.60928
521.697	10580.37737
521.904	11076.82706
522.112	10480.59405
522.319	11137.81939
522.526	10922.26901
522.733	10893.79072
522.94	11133.75354
523.147	11091.05947
523.354	10979.21893
523.561	11255.71085
523.768	11135.78647
523.975	11137.81939
524.183	11487.32893
524.39	11603.09086
524.597	11532.01258
524.804	11521.85761
525.011	11552.32182
525.218	11485.29774
525.425	11566.53774
525.632	11536.0745
525.838	11402.01089
526.045	11832.49683
526.252	11621.36631
526.459	11771.6035
526.666	11572.63013
526.873	11950.2025
527.08	11592.93752
527.287	11869.02917
527.494	11609.18276
527.701	11797.99156
527.907	11666.03652
528.114	12047.59345
528.321	11917.73475
528.528	11998.90026
528.735	12157.13682
528.941	12078.0244
529.148	12059.76604
529.355	12242.32211
529.562	11879.17656
529.768	12236.23788
529.975	12071.93835
530.182	12408.60002
530.388	11944.11496
530.595	12534.29219
530.802	12368.04873
531.008	12556.58982
531.215	12207.84391
531.422	12676.17344
531.628	12473.47653
531.835	12514.02095
532.042	12400.48998
532.248	12605.23658
532.455	12546.45463
532.661	12830.18306
532.868	12540.37344
533.074	12726.83816
533.281	12807.89422
533.487	13146.21121
533.694	12562.67086
533.9	12937.56554
534.107	12903.12374
534.313	13081.3948
534.52	13091.52268
534.726	13036.83067
534.933	13148.23665
535.139	12949.72111
535.345	13296.08131
535.552	13425.67992
535.758	13395.30673
535.965	13326.45748
536.171	13413.53075
536.377	13294.05619
536.584	13287.98083
536.79	13375.05744
536.996	13464.15138
537.203	13302.15662
537.409	13263.679
537.615	13298.10641
537.821	13330.50757
538.028	13674.70868
538.234	13577.53311
538.44	13516.79432
538.646	13804.26453
538.853	14032.98301
539.059	13508.69557
539.265	13777.94952
539.471	13875.11022
539.677	14057.26978
539.883	13966.19258
540.09	14089.65163
540.296	13996.5522
540.502	14338.56921
540.708	14211.07857
540.914	14308.21495
541.12	14188.81752
541.326	14285.9549
541.532	14332.49839
541.738	14447.84153
541.944	14205.0074
542.15	14603.64863
542.356	14577.34405
542.562	14443.79449
542.768	14433.67685
542.974	14773.61253
543.18	14613.76572
543.386	14613.76572
543.592	14542.94546
543.798	14919.2915
544.004	14636.02323
544.21	15113.52658
544.415	14640.07004
544.621	14686.60802
544.827	14700.77166
545.033	15085.20077
545.239	14923.33809
545.445	15338.11002
545.651	14830.26585
545.856	15285.50472
546.062	15016.40936
546.268	15216.7134
546.474	15052.82837
546.679	14858.59231
546.885	15151.96873
547.091	15182.31779
547.297	15186.36433
547.502	15283.48144
547.708	15301.69095
547.914	15273.36506
548.119	15388.69223
548.325	15615.30447
548.531	14852.52236
548.736	15627.44465
548.942	15425.11158
549.147	15495.92744
549.353	15471.64764
549.559	15552.58064
549.764	15483.78753
549.97	15566.74403
550.175	15582.93079
550.381	15854.06753
550.586	15372.5059
550.792	15939.05468
550.997	15862.16145
551.203	15894.53733
551.408	15746.82477
551.614	15924.89
551.819	15736.70768
552.025	15906.67836
552.23	16034.16212
552.435	16179.86496
552.641	16400.45965
552.846	16246.64825
553.052	16252.71955
553.257	16337.71948
553.462	16165.69904
553.668	16060.46898
553.873	16408.55529
554.078	16058.44537
554.283	16295.21911
554.489	16718.23892
554.694	16627.15014
554.899	16700.02079
555.105	16200.10212
555.31	16572.49908
555.515	16440.93818
555.72	16639.29504
555.925	16752.65148
556.131	16752.65148
556.336	16471.2976
556.541	16752.65148
556.746	16841.72252
556.951	16716.21468
557.156	16728.36019
557.361	16606.90882
557.567	16890.30877
557.772	16669.65766
557.977	16878.16207
558.182	17104.91611
558.387	16861.96661
558.592	17036.07649
558.797	16837.67373
559.002	17200.0821
559.207	16953.06819
559.412	17147.43631
559.617	16855.89336
559.822	17206.15674
560.027	17052.27376
560.232	17256.77975
560.437	17052.27376
560.642	17133.26277
560.847	17108.9656
561.051	17104.91611
561.256	17214.2563
561.461	17526.12587
561.666	17467.3916
561.871	17479.5433
562.076	17639.55141
562.281	17420.81113
562.485	17240.58019
562.69	17321.5799
562.895	17386.38314
563.1	17515.99908
563.305	17779.32207
563.509	17817.81247
563.714	17511.94839
563.919	17426.88675
564.123	17432.9624
564.328	17757.03872
564.533	17669.93499
564.737	17388.40829
564.942	17601.0666
565.147	17710.44758
565.351	17665.8838
565.556	17384.35799
565.761	17538.27812
565.965	17882.64119
566.17	17852.25228
566.374	17852.25228
566.579	18030.54508
566.784	17955.57775
566.988	17836.04519
567.193	17894.79697
567.397	17550.43049
567.602	18397.34887
567.806	17732.73008
568.011	17829.96758
568.215	18312.22336
568.42	18135.91286
568.624	18192.65343
568.828	18251.42348
569.033	17921.13492
569.237	18496.67041
569.442	18291.95636
569.646	17971.78649
569.85	18450.04896
570.055	17971.78649
570.259	18370.99979
570.463	18251.42348
570.668	18381.13397
570.872	18196.70643
571.076	18450.04896
571.281	18693.31383
571.485	18474.37294
571.689	18360.8657
571.893	18549.37538
572.098	18875.79953
572.302	18871.74394
572.506	18812.93972
572.71	18425.72552
572.914	18450.04896
573.119	18454.10292
573.323	18470.31891
573.527	18792.66317
573.731	19082.65585
573.935	19147.56064
574.139	19143.50396
574.343	18859.57728
574.547	19119.16428
574.751	18981.25045
574.955	18760.22153
575.159	18563.56562
575.364	18851.46625
575.568	19074.54304
575.772	19046.14874
575.976	18859.57728
576.18	18985.30647
576.383	19068.45848
576.587	18784.55267
576.791	18952.85875
576.995	19104.9664
577.199	18839.29982
577.403	19082.65585
577.607	19283.46861
577.811	19354.47265
578.015	19143.50396
578.219	19374.76045
578.422	19350.41514
578.626	19530.9904
578.83	19464.03169
579.034	19224.64051
579.238	19175.9578
579.442	19419.39507
579.645	19224.64051
579.849	19772.48532
580.053	19581.71972
580.257	19756.24851
580.46	19279.41139
580.664	19512.72849
580.868	19725.80521
581.071	19715.65765
581.275	19695.36286
581.479	19709.56917
581.682	19555.34015
581.886	19934.86821
582.09	19857.73298
582.293	19993.73864
582.497	20113.52046
582.7	20030.2807
582.904	20141.94541
583.107	20009.97939
583.311	20022.16012
583.515	20024.19026
583.718	19991.70857
583.922	20034.34101
584.125	20196.76729
584.329	20148.03658
584.532	20304.38952
584.735	20280.02119
584.939	20479.04691
585.142	20115.55078
585.346	20156.15819
585.549	20308.45097
585.753	20204.88931
585.956	20385.62166
586.159	20539.9812
586.363	20529.82522
586.566	20454.67425
586.769	20580.60615
586.973	20550.13728
587.176	20444.51916
587.379	20641.5467
587.582	21151.56202
587.786	20529.82522
587.989	20893.474
588.192	20314.54317
588.395	20942.24147
588.599	20722.8066
588.802	20925.98538
589.005	20714.68031
589.208	21072.29962
589.411	21047.91244
589.615	21019.46147
589.818	21062.13823
590.021	21110.91386
590.224	20763.43904
590.427	20978.81863
590.63	21013.36494
590.833	20716.71188
591.036	21029.62244
591.239	21249.12424
591.442	21210.50474
591.645	21562.19888
591.848	21173.91921
592.051	21175.9517
592.254	21171.88671
592.457	21358.89285
592.66	21220.66763
592.863	21617.09831
593.066	21686.235
593.269	21663.86675
593.472	21850.96114
593.675	21932.31672
593.878	21617.09831
594.081	21891.63816
594.284	21425.97944
594.486	22086.90912
594.689	21960.79262
594.892	21537.80006
595.095	21926.21484
595.298	22023.84905
595.5	22048.25897
595.703	22149.9728
595.906	21649.63266
596.109	21932.31672
596.311	21964.86067
596.514	22011.6443
596.717	21771.64538
596.92	22194.72985
597.122	22251.69597
597.325	22276.1109
597.528	21958.7586
597.73	22585.41213
597.933	22180.48878
598.136	22182.52321
598.338	22048.25897
598.541	22052.32735
598.743	22048.25897
598.946	22064.53255
599.148	22208.97111
599.351	22160.1447
599.554	21950.62257
599.756	22162.17909
599.959	22442.96041
600.161	22483.65911
600.363	22221.17804
600.566	22198.79876
600.768	22825.58417
600.971	22436.85573
601.173	22430.75108
601.376	22552.8502
601.578	22451.10004
601.78	22530.46439
601.983	22200.83323
602.185	22558.95549
602.388	22632.2215
602.59	23023.04957
602.792	22630.18627
602.995	22817.44195
603.197	22577.27156
603.399	22603.72862
603.601	22721.77505
603.804	22831.69087
604.006	22733.98742
604.208	22666.82093
604.41	22833.72644
604.613	22744.16449
604.815	22778.76718
605.017	23281.63401
605.219	22780.80266
605.421	22754.34165
605.623	22850.01115
605.826	22880.54556
606.028	22872.40298
606.23	22886.65254
606.432	22727.88122
606.634	23458.80448
606.836	22886.65254
607.038	22790.98013
607.24	22709.5628
607.442	22959.93861
607.644	22703.45672
607.846	23137.06455
608.048	22898.86658
608.25	22821.51305
608.452	22471.44935
608.654	22888.6882
608.856	22831.69087
609.058	23118.74002
609.26	23039.33679
609.462	23523.97659
609.664	23361.0523
609.866	23391.59908
610.067	23187.96743
610.269	23124.84816
610.471	23078.01978
610.673	23320.32437
610.875	23214.43772
611.077	22931.43795
611.278	22652.57398
611.48	22864.26045
611.682	22933.47369
611.884	23680.80982
612.085	22902.93795
612.287	23226.65497
612.489	23477.13381
612.69	23534.16002
612.892	23027.12135
613.094	23434.36576
613.295	22917.18787
613.497	23361.0523
613.699	23371.23448
613.9	23414.0005
614.102	23434.36576
614.304	23065.80397
614.505	23080.05576
614.707	23464.91423
614.908	23344.76097
615.11	23446.58506
615.311	23452.69476
615.513	23430.29268
615.714	23652.29335
615.916	23232.76364
616.117	23434.36576
616.319	23585.0783
616.52	23621.74065
616.722	23487.31689
616.923	23676.736
617.124	23976.19291
617.326	23458.80448
617.527	23257.19859
617.729	23460.84106
617.93	23487.31689
618.131	23247.0173
618.333	23784.69618
618.534	24012.86538
618.735	23756.17759
618.937	23483.24365
619.138	23328.46985
619.339	23422.14656
619.54	23530.08664
619.742	23807.10405
619.943	23473.06061
620.144	23599.33576
620.345	23581.00477
620.546	23334.579
620.748	23735.80752
620.949	23487.31689
621.15	23927.29771
621.351	23471.02401
621.552	23745.99252
621.753	23548.41694
621.954	24051.57621
622.155	23031.19315
622.356	23289.77925
622.558	23564.71076
622.759	23725.6226
622.96	23668.5884
623.161	23898.77627
623.362	23713.40079
623.563	24078.06314
623.764	23642.10904
623.965	23831.5494
624.166	23635.99849
624.366	24124.92579
624.567	23536.19671
624.768	23754.14057
624.969	23466.95082
625.17	23393.63555
625.371	24037.31421
625.572	24027.12715
625.773	23528.04995
625.973	24145.30131
626.174	23882.47856
626.375	23886.55297
626.576	24226.80612
626.777	24289.97532
626.977	23540.27011
627.178	24010.828
627.379	23640.07219
627.58	24041.38905
627.78	24014.90277
627.981	24076.02567
628.182	24234.95684
628.382	24255.33383
628.583	24234.95684
628.784	23986.37962
628.984	23204.25677
629.185	23955.81971
629.386	23599.33576
629.586	23953.78241
629.787	23648.21962
629.987	23776.54795
630.188	23790.80738
630.388	24216.61778
630.589	23843.77223
630.79	24108.62557
630.99	23805.06695
631.191	24181.97793
631.391	23888.59018
631.591	23827.47514
631.792	24131.03841
631.992	24389.82863
632.193	24228.8438
632.393	23933.40952
632.594	24065.83834
632.794	24043.42648
632.994	24078.06314
633.195	24220.69311
633.395	23990.45432
633.595	24198.27894
633.796	24171.78989
633.996	24067.8758
634.196	24257.37154
634.397	24457.08032
634.597	24002.67849
634.797	24697.57872
634.997	24514.14456
635.198	24330.73101
635.398	24236.99453
635.598	24304.23969
635.798	24186.05317
635.998	24501.91634
636.199	24391.86652
636.399	24579.36327
636.599	24063.80089
636.799	24096.40052
636.999	24124.92579
637.199	24190.12842
637.399	24129.00087
637.599	24098.43802
637.799	24025.08974
637.999	24540.63935
638.199	24025.08974
638.399	24292.01308
638.599	24379.63923
638.799	24622.16445
638.999	24567.13457
639.199	24353.14709
639.399	24534.52513
639.599	24261.44698
639.799	24357.22277
639.999	24605.85911
640.199	24340.9201
640.399	24253.29612
640.599	23929.33498
640.799	24813.76399
640.998	24550.82977
641.198	24834.14817
641.398	24179.94032
641.598	24719.99983
641.798	24542.67743
641.997	24715.92324
642.197	24724.07642
642.397	24938.11119
642.597	24715.92324
642.796	24626.24081
642.996	24508.03044
643.196	24687.38741
643.395	24514.14456
643.595	24724.07642
643.795	24825.99447
643.994	24948.30397
644.194	25080.81531
644.394	25113.43495
644.593	24768.91962
644.793	25105.27999
644.992	25062.46701
645.192	25305.08672
645.392	24795.41843
645.591	25368.2952
645.791	25341.78817
645.99	25178.67594
646.19	24593.63021
646.389	25166.44308
646.589	24931.99555
646.788	24923.84139
646.987	24713.88495
647.187	25237.80253
647.386	25290.81412
647.586	25270.42488
647.785	25298.96988
647.984	25262.26924
648.184	24934.03409
648.383	25070.62179
648.582	24754.65121
648.782	25368.2952
648.981	24777.07306
649.18	24628.279
649.38	24887.14816
649.579	25025.77097
649.778	24783.18816
649.977	25231.6859
650.177	25048.19624
650.376	25088.97017
650.575	25358.10014
650.774	25380.52933
650.973	24958.4968
651.173	24791.34166
651.372	24440.77662
651.571	25044.1189
651.77	25121.58995
651.969	25782.25718
652.168	25105.27999
652.367	25517.14886
652.566	24699.61699
652.765	25203.14189
652.964	25588.52091
653.163	25233.72478
653.362	25325.47633
653.561	25270.42488
653.76	25388.68546
653.959	24980.92125
654.158	25029.84827
654.357	24791.34166
654.556	24469.3082
654.755	25156.2491
654.954	25015.57775
655.153	25052.27359
655.352	24987.03705
655.551	25633.38459
655.749	25692.52452
655.948	25504.9139
656.147	25647.65959
656.346	25351.98314
656.545	25443.7402
656.743	25460.05301
656.942	25354.02214
657.141	25551.81498
657.34	25311.20358
657.538	25288.77519
657.737	25413.15405
657.936	25633.38459
658.135	25345.86615
658.333	25723.11478
658.532	25464.13123
658.731	25515.1097
658.929	25578.32475
659.128	25282.6584
659.326	25486.5616
659.525	25525.30555
659.724	25519.18803
659.922	25596.67787
660.121	25508.99222
660.319	25133.82252
660.518	25199.06421
660.716	25296.93094
660.915	25223.53043
661.113	25441.70111
661.312	25286.73626
661.51	25545.69739
661.709	25539.57981
661.907	25772.0601
662.105	25451.89659
662.304	25749.6267
662.502	25431.50569
662.701	25562.01101
662.899	25653.77748
663.097	25778.17834
663.296	25684.36719
663.494	25639.50243
663.692	25576.28553
663.891	25417.23218
664.089	25358.10014
664.287	25462.09212
664.485	25315.2815
664.684	25829.16436
664.882	25392.76354
665.08	25286.73626
665.278	25543.65819
665.476	25508.99222
665.675	25082.85402
665.873	25366.25618
666.071	25347.90514
666.269	25327.5153
666.467	24618.0881
666.665	25023.73232
666.863	24779.11142
667.061	25086.93145
667.259	25123.62871
667.457	25649.69889
667.655	25366.25618
667.853	25252.07474
668.051	25227.60816
668.249	25472.2877
668.447	25101.20252
668.645	25333.63223
668.843	25468.20946
669.041	25044.1189
669.239	25058.38964
669.437	25500.8356
669.635	25582.40321
669.833	25441.70111
670.031	24956.45823
670.229	25431.50569
670.426	25447.81839
670.624	25651.73818
670.822	25435.58385
671.02	25943.37725
671.218	25431.50569
671.415	24984.99845
671.613	25496.75731
671.811	25392.76354
672.009	25178.67594
672.206	25364.21717
672.404	25245.95806
672.602	25378.4903
672.799	24976.84405
672.997	25207.21958
673.195	25333.63223
673.392	25296.93094
673.59	24671.08143
673.788	25056.35095
673.985	24838.22504
674.183	25553.85418
674.38	25494.71816
674.578	25608.91337
674.775	25146.05516
674.973	25315.2815
675.17	25137.90006
675.368	25117.51245
675.565	25219.4527
675.763	24966.65111
675.96	24770.95798
676.158	25296.93094
676.355	25086.93145
676.553	25349.94414
676.75	24989.07566
676.947	25272.46379
677.145	25178.67594
677.342	25260.23033
677.539	24982.95985
677.737	25174.59831
677.934	24913.64875
678.131	25464.13123
678.329	25307.12567
678.526	25498.79645
678.723	25506.95306
678.92	25182.75358
679.118	25319.35943
679.315	25172.5595
679.512	25111.39621
679.709	25337.7102
679.906	24285.89981
680.104	25029.84827
680.301	24897.34065
680.498	24960.53538
680.695	24359.26062
680.892	24724.07642
681.089	24679.2344
681.286	24787.26491
681.483	24053.61365
681.68	24450.96641
681.877	24687.38741
682.075	24654.77561
682.272	24342.95792
682.469	24603.82096
682.665	24271.63561
682.862	24234.95684
683.059	24292.01308
683.256	24082.13809
683.453	24247.183
683.65	24084.17558
683.847	24212.54246
684.044	24406.13181
684.241	24457.08032
684.438	24328.6932
684.635	24397.9802
684.831	24715.92324
685.028	24190.12842
685.225	24175.8651
685.422	23902.85073
685.619	24607.89727
685.815	24357.22277
686.012	24862.68643
686.209	24165.6771
686.405	24512.10652
686.602	23664.51462
686.799	23715.43775
686.996	23896.73905
687.192	24065.83834
687.389	23493.42677
687.586	24232.91916
687.782	23953.78241
687.979	24224.76845
688.175	23768.39977
688.372	23798.95569
688.568	23864.14385
688.765	24108.62557
688.962	24006.75324
689.158	23986.37962
689.355	24204.39186
689.551	24025.08974
689.748	24143.26374
689.944	23992.49167
690.14	23805.06695
690.337	23970.08092
690.533	24037.31421
690.73	23833.58653
690.926	24294.05084
691.123	23953.78241
691.319	23841.73508
691.515	24263.4847
691.712	23894.70182
691.908	23676.736
692.104	23581.00477
692.301	24094.36303
692.497	23542.30681
692.693	23664.51462
692.889	23407.89098
693.086	23807.10405
693.282	23947.67051
693.478	23674.6991
693.674	23411.96399
693.87	23733.77053
694.067	23562.67402
694.263	23939.52136
694.459	23931.37225
694.655	24204.39186
694.851	24106.58806
695.047	23699.14214
695.243	23972.11825
695.439	23823.4009
695.635	23733.77053
695.831	23562.67402
696.027	23862.10668
696.224	23259.23486
696.42	23289.77925
696.615	23065.80397
696.811	23517.86657
697.007	23862.10668
697.203	24039.35163
697.399	23658.40397
697.595	23800.99277
697.791	23609.51976
697.987	23130.95634
698.183	23750.06654
698.379	23379.38028
698.575	23644.1459
698.77	23277.56141
698.966	23688.95749
699.162	23255.16233
699.358	23578.96801
699.554	22947.72396
699.749	22921.2593
699.945	22733.98742
700.141	22603.72862
700.337	22921.2593
700.532	23595.26219
700.728	23507.68326
700.924	23167.60603
701.119	22882.58122
701.315	22725.84582
701.511	22585.41213
701.706	23116.70397
701.902	22727.88122
702.097	22833.72644
702.293	22632.2215
702.489	22703.45672
702.684	22752.30621
702.88	23073.94783
703.075	23251.08981
703.271	22974.18919
703.466	22998.61914
703.662	23010.83429
703.857	23253.12607
704.053	23192.03974
704.248	23277.56141
704.443	23454.73133
704.639	23043.40862
704.834	23114.66793
705.03	22909.04504
705.225	23220.54633
705.42	22909.04504
705.616	22860.1892
705.811	22764.51889
706.006	22858.15358
706.202	22856.11797
706.397	22896.8309
706.592	22866.29607
706.787	22622.04539
706.983	22713.63354
707.178	22931.43795
707.373	22475.51926
707.568	22579.3067
707.763	22044.19061
707.959	22772.66075
708.154	22945.6882
708.349	22617.97497
708.544	23106.52381
708.739	23088.19972
708.934	22864.26045
709.129	22817.44195
709.324	22615.93977
709.519	22778.76718
709.714	22740.09365
709.909	23102.45176
710.104	22571.16617
710.299	22679.03274
710.494	22442.96041
710.689	22833.72644
710.884	22852.04675
711.079	23185.93127
711.274	22272.04171
711.469	22371.74116
711.664	22585.41213
711.859	22721.77505
712.054	22691.24467
712.249	22501.974
712.443	22255.76509
712.638	22508.07902
712.833	21889.60427
713.028	22276.1109
713.223	21842.82592
713.417	22068.60099
713.612	22103.18328
713.807	22412.43733
714.002	22367.67162
714.196	22174.38552
714.391	22274.07631
714.586	22369.70639
714.78	22076.7379
714.975	22306.63032
715.17	21645.56581
715.364	21867.23176
715.559	21909.94332
715.754	21667.93367
715.948	21991.30334
716.143	22298.49173
716.337	22160.1447
716.532	22546.74493
716.726	22444.99531
716.921	22184.55764
717.115	22093.0119
717.31	22031.98563
717.504	22341.21999
717.699	22353.42836
717.893	21720.80504
718.088	21791.98219
718.282	21883.50263
718.476	21545.93294
718.671	21486.97102
718.865	21566.26541
719.059	21562.19888
719.254	21814.35313
719.448	21446.30957
719.642	22007.57608
719.837	21655.73296
720.031	21901.80766
720.225	21379.22166
720.419	21785.8811
720.614	21529.66725
720.808	21295.8761
721.002	21129.20533
721.196	21208.47218
721.39	20942.24147
721.585	20991.01131
721.779	21629.29857
721.973	21649.63266
722.167	20753.28078
722.361	20932.08138
722.555	20946.30553
722.749	21165.78926
722.943	20810.16841
723.137	21206.43962
723.331	20986.94706
723.525	21442.24351
723.719	21344.66293
723.913	21354.82714
724.107	21491.03725
724.301	21411.74859
724.495	21617.09831
724.689	21428.01243
724.883	21076.36421
725.077	21212.53731
725.271	20932.08138
725.465	21051.97693
725.659	20934.11339
725.853	21127.17293
726.046	21056.04144
726.24	20818.29548
726.434	20365.31299
726.628	20643.57812
726.822	20367.34384
727.015	20832.51801
727.209	20899.5698
727.403	21078.39651
727.596	20783.75589
727.79	21147.49713
727.984	20960.52988
728.177	21336.53163
728.371	20639.51529
728.565	20566.38723
728.758	20718.74345
728.952	20781.72419
729.146	20881.2825
729.339	21259.2875
729.533	21015.39711
729.726	21009.30061
729.92	21074.33191
730.113	21588.63158
730.307	21167.82174
730.5	20424.20928
730.694	20517.63819
730.887	20649.67239
731.081	20710.61719
731.274	20871.12304
731.468	20501.38905
731.661	20422.17831
731.854	20426.24024
732.048	20539.9812
732.241	20302.3588
732.435	20495.29569
732.628	20732.96456
732.821	20517.63819
733.014	20192.7063
733.208	20418.11639
733.401	20466.86051
733.594	20653.73526
733.788	20621.23277
733.981	20739.05938
734.174	20856.89996
734.367	20915.82546
734.56	20655.7667
734.754	20641.5467
734.947	20609.0446
735.14	20885.34632
735.333	20621.23277
735.526	20351.09718
735.719	20014.03962
735.912	20137.88465
736.105	20040.43151
736.298	20231.28634
736.491	19910.50906
736.684	20249.56162
736.877	20243.46983
737.07	20586.70003
737.263	20324.69692
737.456	20263.77597
737.649	20186.61486
737.842	20517.63819
738.035	20674.04986
738.228	20550.13728
738.421	20854.86811
738.614	20604.98192
738.807	20184.58438
739	19949.07799
739.192	19975.46813
739.385	19843.52452
739.578	20367.34384
739.771	20139.91503
739.964	20040.43151
740.156	20373.43641
740.349	20275.95986
740.542	20507.48244
740.735	20046.52204
740.927	20003.88908
741.12	20314.54317
741.313	20330.78923
741.505	20259.71471
741.698	19910.50906
741.891	20113.52046
742.083	19985.61837
742.276	20113.52046
742.468	20003.88908
742.661	19711.59866
742.854	19608.09999
743.046	19524.90306
743.239	19746.10064
743.431	20164.27988
743.624	19504.61219
743.816	19780.60383
744.009	19620.27574
744.201	19470.11866
744.393	19522.87396
744.586	19577.66128
744.778	19602.01218
744.971	19630.42232
745.163	19699.42178
745.355	19961.25796
745.548	19599.98291
745.74	19705.5102
745.932	19851.64362
746.125	19880.06098
746.317	20020.12999
746.509	19664.92144
746.702	19912.53896
746.894	19364.6165
747.086	19161.75912
747.278	19216.52656
747.471	19309.84095
747.663	19581.71972
747.855	19165.81586
748.047	19184.07142
748.239	19510.69941
748.431	19255.0684
748.623	18975.16644
748.815	19169.87262
749.008	19269.2684
749.2	19194.21354
749.392	19366.64528
749.584	18833.21666
749.776	19490.40883
749.968	19433.59741
750.16	19666.95084
750.352	19384.90451
750.544	19326.07043
750.736	19506.64126
750.928	19048.17687
751.12	18709.53349
751.311	19393.01983
751.503	19198.27041
751.695	19149.58898
751.887	18922.43994
752.079	18973.13845
752.271	19066.4303
752.463	19328.09913
752.654	18589.91944
752.846	18965.02652
753.038	18914.32841
753.23	18857.54951
753.421	19080.62764
753.613	19090.76872
753.805	18973.13845
753.997	18902.16124
754.188	18709.53349
754.38	18553.42972
754.572	18679.12184
754.763	18748.05617
754.955	18265.60982
755.146	18602.08296
755.338	18569.64721
755.53	18518.96835
755.721	18628.43773
755.913	18654.79316
756.104	18251.42348
756.296	18421.67167
756.487	18695.34128
756.679	18693.31383
756.87	18612.21933
757.062	18691.28639
757.253	18816.99507
757.445	18859.57728
757.636	18808.88438
757.827	18814.96739
758.019	18843.35528
758.21	18628.43773
758.401	18492.61629
758.593	18492.61629
758.784	18263.58319
758.975	18251.42348
759.167	18255.4767
759.358	18391.26826
759.549	18273.71638
759.74	18492.61629
759.932	17969.76039
760.123	17939.36923
760.314	17894.79697
760.505	17935.31714
760.696	17959.62991
760.888	18105.51731
761.079	17811.73495
761.27	18235.21074
761.461	17985.96933
761.652	18077.14886
761.843	18174.41508
762.034	18413.56401
762.225	17722.60162
762.416	17992.04774
762.607	17744.88434
762.798	18036.62373
762.989	18010.28316
763.18	17921.13492
763.371	17779.32207
763.562	17623.34714
763.753	17665.8838
763.944	17854.27819
764.135	17445.11378
764.326	17659.80705
764.517	17649.67919
764.708	17631.44925
764.899	16975.33827
765.089	17339.8055
765.28	17076.57
765.471	17546.37969
765.662	16975.33827
765.853	17104.91611
766.043	17127.18844
766.234	17194.00749
766.425	16831.60057
766.615	16839.69813
766.806	16712.16619
766.997	16928.77392
767.187	16876.13763
767.378	17246.655
767.569	17032.0272
767.759	17368.15691
767.95	17368.15691
768.141	17410.68515
768.331	17315.50476
768.522	17104.91611
768.712	17121.11414
768.903	17315.50476
769.093	17194.00749
769.284	16720.26317
769.474	16813.38122
769.665	16726.33593
769.855	16809.3325
770.046	16740.50579
770.236	16847.79572
770.426	16540.11403
770.617	17036.07649
770.807	16936.87197
770.998	16825.52743
771.188	16728.36019
771.378	16515.8256
771.569	16762.77295
771.759	16515.8256
771.949	16052.37454
772.139	16481.41751
772.33	16007.8555
772.52	16262.83842
772.71	16220.33945
772.9	15975.47845
773.09	16117.13079
773.281	16224.38694
773.471	16457.12981
773.661	16339.74333
773.851	16204.14957
774.041	15945.12528
774.231	16032.13852
774.421	15924.89
774.611	15793.3637
774.802	15617.32783
774.992	15967.38424
775.182	15845.97362
775.372	15872.27888
775.562	15554.60398
775.752	15734.68427
775.942	15631.49138
776.131	16032.13852
776.321	15635.53812
776.511	15864.18493
776.701	15775.15275
776.891	15629.46802
777.081	15663.86537
777.271	15528.30064
777.461	15841.92668
777.651	15637.56149
777.84	15773.12932
778.03	15506.04405
778.22	15447.36792
778.41	15611.25775
778.599	15257.17886
778.789	15354.2963
778.979	15603.16432
779.169	15475.69427
779.358	15336.08673
779.548	15431.18149
779.738	15238.9694
779.927	15408.92519
780.117	15340.1333
780.307	15273.36506
780.496	15315.85391
780.686	15202.5505
780.875	14927.38469
781.065	15113.52658
781.254	14959.75738
781.444	15093.29386
781.633	14741.23894
781.823	15174.22471
782.012	14971.89712
782.202	15162.08509
782.391	14789.79925
782.581	15014.38608
782.77	14895.01188
782.96	15129.71276
783.149	14716.95861
783.338	15348.22644
783.528	15321.92375
783.717	15236.94612
783.906	15247.06249
784.096	15188.3876
784.285	14951.66422
784.474	14617.81255
784.663	14911.1983
784.853	14864.66225
785.042	14694.70153
785.231	14565.20341
785.42	14587.46122
785.61	14757.42576
785.799	14269.76564
785.988	14377.01741
786.177	14209.05484
786.366	14085.60393
786.555	14002.62405
786.744	14312.2622
786.933	14603.64863
787.122	14470.10017
787.312	14557.10962
787.501	14457.95911
787.69	14403.32373
787.879	14370.94668
788.068	13984.40842
788.257	13794.14343
788.445	13688.87948
788.634	14030.95909
788.823	13796.16766
789.012	14142.27091
789.201	13717.2206
789.39	14225.24456
789.579	14053.22201
789.768	14407.37083
789.957	13990.48032
790.145	14043.10254
790.334	14016.79163
790.523	13852.8448
790.712	13917.61599
790.9	13652.43997
791.089	13528.94234
791.278	13867.01374
791.467	13547.16412
791.655	13925.71219
791.844	13741.5125
792.033	13512.74495
792.221	13241.40177
792.41	13397.33163
792.599	13036.83067
792.787	13745.56111
792.976	13474.27522
793.164	13832.60323
793.353	13672.68427
793.541	13494.52262
793.73	13666.61101
793.918	13753.65828
794.107	13411.50587
794.295	13607.90132
794.484	13391.2569
794.672	13085.44597
794.861	13109.75258
795.049	13304.18171
795.238	12747.10303
795.426	13322.40738
795.614	13162.41457
795.803	13397.33163
795.991	13350.75775
796.179	13249.50264
796.368	13065.18993
796.556	12957.82472
796.744	12623.47819
796.932	13075.31801
797.121	12528.21088
797.309	13061.13867
797.497	13093.54825
797.685	13138.10942
797.874	12686.30668
798.062	12848.41888
798.25	12558.61684
798.438	13057.08738
798.626	12757.23525
798.814	12872.73264
799.002	12813.97306
799.19	12931.48769
799.378	12457.25804
799.566	12886.9153
799.755	12418.73743
799.943	12684.28004
800.131	12903.12374
800.318	12793.71006
800.506	12572.8058
800.694	12783.57835
800.882	12591.04831
801.07	12813.97306
801.258	12627.53182
801.446	12597.12903
801.634	12548.48168
801.822	12749.12948
802.01	12795.73639
802.197	12992.26416
802.385	12617.39771
802.573	12708.59928
802.761	12684.28004
802.949	12738.99715
803.136	12451.176
803.324	12631.58542
803.512	12280.85412
803.699	12670.09343
803.887	12611.31717
804.075	12957.82472
804.262	12481.58562
804.45	12824.10435
804.638	12562.67086
804.825	12777.49926
805.013	12568.75185
805.201	12700.49296
805.388	12400.48998
805.576	12428.87466
805.763	12809.9205
805.951	12538.34636
806.138	12607.26345
806.326	12795.73639
806.513	12564.69786
806.701	12659.95995
806.888	12593.07522
807.075	12692.38655
807.263	12895.01956
807.45	12672.1201
807.638	12516.0481
807.825	12783.57835
808.012	12593.07522
808.2	12402.5175
808.387	12700.49296
808.574	12834.2355
808.761	12631.58542
808.949	12884.88922
809.136	12645.77283
809.323	12696.43977
809.51	12516.0481
809.698	12781.55199
809.885	12345.74435
810.072	12878.81095
810.259	12844.36652
810.446	13018.59921
810.633	12795.73639
810.82	12734.94418
811.008	12487.66737
811.195	12797.7627
811.382	12305.18879
811.569	12526.18377
811.756	12386.29715
811.943	12562.67086
812.13	12716.70551
812.317	12959.85061
812.504	12903.12374
812.691	13028.72785
812.878	12982.13506
813.064	12927.43576
813.251	12534.29219
813.438	12846.3927
813.625	12589.02139
813.812	12586.99446
813.999	12753.18238
814.186	12578.8867
814.372	12554.5628
814.559	12580.91365
814.746	12489.69461
814.933	12653.87979
815.12	12327.49469
815.306	12388.32471
815.493	12351.82744
815.68	12765.34092
815.866	12380.2144
816.053	12497.80349
816.24	12475.50382
816.426	12368.04873
816.613	12366.02109
816.799	12315.32794
816.986	12173.36359
817.173	12290.99369
817.359	11986.72626
817.546	12213.92845
817.732	12165.25026
817.919	12432.92951
818.105	11901.50008
818.292	11889.32374
818.478	11940.05655
818.665	12159.16519
818.851	12213.92845
819.037	12366.02109
819.224	11887.29432
819.41	12262.60244
819.597	12161.19355
819.783	12540.37344
819.969	12278.82618
820.156	12406.57252
820.342	12424.81979
820.528	12317.35575
820.714	12007.01611
820.901	12209.8721
821.087	11942.08576
821.273	12256.51842
821.459	12112.51072
821.646	12313.30013
821.832	12165.25026
822.018	11921.79333
822.204	11739.12388
822.39	11680.24885
822.576	11599.02955
822.762	11718.82299
822.948	11552.32182
823.134	12035.42058
823.32	11641.67149
823.507	11842.64498
823.693	11586.8454
823.879	11737.09383
824.065	11708.67221
824.25	11933.96889
824.436	11834.52648
824.622	11779.72306
824.808	11710.70238
824.994	11820.31878
825.18	11590.90682
825.366	11787.84247
825.552	11574.66091
825.738	11879.17656
825.923	11688.36999
826.109	11958.31912
826.295	11678.21855
826.481	11832.49683
826.667	11986.72626
826.852	11708.67221
827.038	11507.64025
827.224	11641.67149
827.409	11450.76614
827.595	11558.41442
827.781	11263.84
827.966	11393.88446
828.152	11267.90452
828.338	11438.57785
828.523	11296.35499
828.709	11432.48358
828.894	11101.22516
829.08	11605.12151
829.266	11064.62743
829.451	11131.72059
829.637	10851.06907
829.822	10820.55048
830.008	10891.75647
830.193	10745.26
830.378	10718.80272
830.564	10958.88069
830.749	10674.02424
830.935	11064.62743
831.12	10808.34231
831.305	11062.59412
831.491	10824.61978
831.676	10940.57531
831.861	11007.6906
832.047	10930.40526
832.232	10903.9618
832.417	11052.4274
832.602	11003.62335
832.788	11282.13
832.973	10962.94843
833.158	11007.6906
833.343	11080.89352
833.528	11058.52746
833.714	10849.03458
833.899	11050.39403
834.084	10800.20329
834.269	10952.779
834.454	10413.37576
834.639	10749.33017
834.824	10857.17248
835.009	10873.44771
835.194	10429.6724
835.379	10678.09525
835.564	10417.45
835.749	10686.23713
835.934	10682.16621
836.119	10586.48557
836.304	10645.52577
836.489	10557.97967
836.674	10535.58045
836.859	10384.85464
837.044	10478.55734
837.228	10270.74427
837.413	10317.61608
837.598	10419.4871
837.783	10238.13359
837.968	10152.51391
838.152	9979.16057
838.337	10183.09515
838.522	9897.54667
838.707	10174.94046
838.891	9991.40065
839.076	10158.63041
839.261	9928.15462
839.445	9973.04034
839.63	9764.8737
839.815	10072.98802
839.999	9911.83079
840.184	10172.90175
840.368	9993.44062
840.553	10409.30147
840.737	9889.38399
840.922	9930.19503
841.106	9917.95234
841.291	9968.96011
841.475	9603.53872
841.66	9813.86799
841.844	9685.23932
842.029	10001.60033
842.213	9864.89454
842.397	9638.26451
842.582	9464.58996
842.766	9607.62434
842.951	9576.98064
843.135	9705.66061
843.319	9576.98064
843.504	9538.16021
843.688	9615.79539
843.872	9591.28147
844.056	9854.68998
844.241	9819.99167
844.425	9388.95434
844.609	9656.64694
844.793	9489.11568
844.977	9446.19415
845.161	9270.34526
845.346	9579.02367
845.53	9266.25429
845.714	9699.53439
845.898	9174.18981
846.082	9499.33405
846.266	9168.05096
846.45	9478.89691
846.634	9168.05096
846.818	9088.23189
847.002	8969.47789
847.186	8992.00472
847.37	9086.1849
847.554	9139.40096
847.738	9294.88964
847.922	9390.99884
848.106	9274.43615
848.29	9219.20338
848.473	9028.86223
848.657	9090.27886
848.841	8721.54001
849.025	8910.07871
849.209	8844.51738
849.392	8791.23523
849.576	8571.82818
849.76	8885.49536
849.944	8569.77664
850.127	8701.03738
850.311	8446.64971
850.495	8850.66454
850.678	8641.56931
850.862	8983.81339
851.046	8645.67106
851.229	8657.97586
851.413	8557.46702
851.596	8918.27259
851.78	8696.93664
851.964	8686.68445
852.147	8393.27334
852.331	8752.29051
852.514	8473.33302
852.698	8504.11746
852.881	8115.91463
853.065	8571.82818
853.248	8473.33302
853.431	8518.48206
853.615	8315.23821
853.798	8426.12188
853.982	8148.80562
854.165	8315.23821
854.348	8099.46721
854.532	8553.36366
854.715	8231.01076
854.898	8465.12312
855.081	8339.88391
855.265	8391.22014
855.448	8183.74669
855.631	8479.49025
855.814	8148.80562
855.997	8380.95387
856.181	8364.52682
856.364	8183.74669
856.547	7912.28657
856.73	8220.73685
856.913	7867.00866
857.096	8150.86114
857.279	7990.47042
857.462	7827.89696
857.645	7634.28585
857.828	7879.35817
858.011	7895.82303
858.194	8029.55129
858.377	7638.40717
858.56	7762.00762
858.743	7722.87569
858.926	7832.01433
859.109	7388.91269
859.292	7541.53347
859.475	7384.78616
859.658	7621.92136
859.841	7310.49363
860.023	7378.59619
860.206	7176.2822
860.389	7378.59619
860.572	7403.35487
860.755	7452.86284
860.937	7155.62599
861.12	7393.03914
861.303	7178.3477
861.486	7469.36272
861.668	7050.24467
861.851	7163.88874
862.034	7178.3477
862.216	7184.54406
862.399	7041.97701
862.581	7120.50534
862.764	6735.8194
862.947	6946.87305
863.129	6905.50862
863.312	6946.87305
863.494	6905.50862
863.677	7364.15218
863.859	7188.67486
864.042	7112.24072
864.224	7126.70357
864.406	6998.5659
864.589	6706.83272
864.771	7072.97889
864.954	6710.97395
865.136	6706.83272
865.318	6603.27211
865.501	6636.41777
865.683	6449.89644
865.865	6636.41777
866.048	6507.9454
866.23	6665.41538
866.412	6721.32662
866.594	6723.39709
866.777	6568.04837
866.959	6754.45132
867.141	6543.18054
867.323	6634.34634
867.505	6650.91714
867.687	6700.62071
867.869	6623.98884
868.052	6599.12849
868.234	6342.04284
868.416	6833.09903
868.598	6576.33691
868.78	6555.61487
868.962	6574.26481
869.144	6719.25613
869.326	6522.4548
869.508	6634.34634
869.69	6321.29454
869.872	6429.16026
870.054	6182.22053
870.236	6294.31825
870.417	6182.22053
870.599	6491.36184
870.781	6099.14108
870.963	6134.45444
871.145	6099.14108
871.327	6109.52807
871.508	5751.87732
871.69	6121.99168
871.872	6130.30028
872.054	6290.1677
872.235	5918.31328
872.417	6142.76248
872.599	6059.66516
872.78	6151.07014
872.962	6061.74305
873.144	6171.83765
873.325	6009.7887
873.507	6184.29704
873.689	5860.07787
873.87	6151.07014
874.052	6024.3374
874.233	6157.30064
874.415	6144.83943
874.596	6478.9232
874.778	6252.80854
874.959	6180.144
875.141	6032.65043
875.322	6296.39349
875.503	6182.22053
875.685	6283.9417
875.866	6034.72863
876.048	6373.16093
876.229	6076.28764
876.41	6086.67592
876.592	5726.8989
876.773	5926.63111
876.954	5835.11418
877.136	6159.37743
877.317	5889.19789
877.498	6175.99088
877.679	5901.67648
877.86	6236.20203
878.042	5795.58138
878.223	6078.36534
878.404	5799.74313
878.585	6030.57221
878.766	5795.58138
878.947	6009.7887
879.128	5833.03372
879.309	5972.37245
879.49	5876.71845
879.672	6248.65705
879.853	5843.43579
880.034	6200.90823
880.215	6354.49071
880.396	6051.35336
880.576	6113.6827
880.757	6315.06959
880.938	6200.90823
881.119	6476.85001
881.3	6045.11926
881.481	5986.92412
881.662	6188.44998
881.843	6362.78882
882.023	6217.51792
882.204	6317.1446
882.385	5947.42404
882.566	6059.66516
882.747	5959.89867
882.927	6167.68434
883.108	5847.59645
883.289	5797.66227
883.469	5909.99507
883.65	6159.37743
883.831	6086.67592
884.011	6354.49071
884.192	6246.58127
884.373	6259.03559
884.553	6057.58725
884.734	6051.35336
884.914	6020.18075
885.095	6317.1446
885.275	6040.96308
885.456	6458.19026
885.636	6169.76101
885.817	6460.26366
885.997	6182.22053
886.178	6240.3538
886.358	5972.37245
886.538	6103.29595
886.719	6101.21852
886.899	6267.338
887.08	6097.06361
887.26	6242.42965
887.44	6148.99326
887.621	6391.82926
887.801	6043.04118
887.981	6072.13216
888.161	6018.10239
888.342	6103.29595
888.522	6167.68434
888.702	6146.91636
888.882	6084.59831
889.062	6364.86328
889.242	6144.83943
889.423	5995.23885
889.603	6225.82221
889.783	6499.65381
889.963	6119.91447
890.143	6406.34776
890.323	6209.21326
890.503	6290.1677
890.683	6005.63172
890.863	6232.05017
891.043	5997.31747
891.223	6157.30064
891.403	5909.99507
891.583	6053.43135
891.763	5724.81721
891.943	6151.07014
892.122	5737.30699
892.302	5968.21462
892.482	5785.17659
892.662	5887.11804
892.842	5876.71845
893.022	6034.72863
893.201	6038.88495
893.381	6092.9086
893.561	5824.71164
893.741	6115.75998
893.92	6134.45444
894.1	6105.37334
894.28	5839.27503
894.459	6045.11926
894.639	5826.79219
894.819	5901.67648
894.998	5703.99903
895.178	5818.46983
895.357	5481.09684
895.537	5762.28399
895.716	5570.70679
895.896	5597.78959
896.075	5620.7027
896.255	5726.8989
896.434	5501.94024
896.614	5893.35751
896.793	5333.04104
896.973	5766.4465
897.152	5560.28926
897.331	5683.17848
897.511	5506.10864
897.69	5753.9587
897.87	5337.21324
898.049	5474.84335
898.228	5453.99689
898.407	5510.27695
898.587	5326.78255
898.766	5524.86527
898.945	5095.07084
899.124	5226.61817
899.304	5226.61817
899.483	5303.83298
899.662	5111.78037
899.841	5439.40296
900.02	5107.60313
900.199	5193.21807
900.378	4969.70207
900.557	4921.62204
900.737	4649.63842
900.916	5078.35981
901.095	4750.10778
901.274	4959.25093
901.453	4599.38433
901.632	4614.04311
901.811	4670.57382
901.989	4712.43786
902.168	4653.82568
902.347	4699.87959
902.526	4605.6668
902.705	4785.67819
902.884	4509.31366
903.063	4921.62204
903.242	4526.0741
903.42	4634.98231
903.599	4274.52034
903.778	4511.4088
903.957	4366.79312
904.135	4362.59981
904.314	4259.83674
904.493	4486.26575
904.672	4257.739
904.85	4423.39428
905.029	4373.08292
905.207	4280.81299
905.386	4247.24997
905.565	4163.31856
905.743	4131.83557
905.922	4234.66242
906.1	3869.29638
906.279	4173.81184
906.457	3902.91914
906.636	4108.74504
906.814	3810.44428
906.993	3852.48308
907.171	3793.62655
907.35	4020.55807
907.528	3602.23766
907.707	3911.32402
907.885	3541.21264
908.063	3890.3112
908.242	3648.522
908.42	3570.67495
908.598	3377.00029
908.777	3490.69746
908.955	3305.38685
909.133	3522.27068
909.311	3364.36409
909.49	3484.38232
909.668	3410.69376
909.846	3494.90746
910.024	3256.93121
910.202	3553.83979
910.38	3435.96088
910.559	3570.67495
910.737	3358.04575
910.915	3604.34169
911.093	3507.53702
911.271	3435.96088
911.449	3233.75361
911.627	3677.97091
911.805	3452.8042
911.983	3406.48232
912.161	3256.93121
912.339	3659.0399
912.517	3480.17214
912.695	3860.88989
912.872	3534.89882
913.05	3818.85267
913.228	3475.96188
913.406	3652.72922
913.584	3313.813
913.762	3576.98782
913.939	3410.69376
914.117	3638.00364
914.295	3499.11739
914.473	3475.96188
914.65	3301.17367
914.828	3482.27724
915.006	3307.49341
915.184	3347.51483
915.361	3330.66447
915.539	3494.90746
915.716	3248.50323
915.894	3513.85156
916.072	3237.96787
916.249	3551.73531
916.427	3246.39619
916.604	3650.62562
916.782	3328.55809
916.959	3457.01485
917.137	3398.05924
917.314	3423.32764
917.492	3219.00318
917.669	3368.57623
917.847	3063.02121
918.024	3170.53178
918.201	3035.60999
918.379	3231.64646
918.556	3136.80745
918.733	3250.61025
918.911	3229.53929
919.088	3254.82424
919.265	3119.94374
919.442	3195.8223
919.62	2757.13878
919.797	3191.60737
919.974	2972.34344
920.151	3332.77082
920.328	3016.63146
920.506	3246.39619
920.683	2932.26763
920.86	2978.67071
921.037	2849.99024
921.214	2839.44029
921.391	2793.01636
921.568	2997.6517
921.745	2782.46453
921.922	3100.97084
922.099	3001.86953
922.276	2938.59574
922.453	2752.91763
922.63	2961.79769
922.807	2714.92491
922.984	2868.97927
923.161	2427.73904
923.338	2774.02283
923.514	2351.68439
923.691	2687.48309
923.868	2512.22799
924.045	2579.80608
924.222	2531.23553
924.399	2909.06341
924.575	2529.12363
924.752	2615.70199
924.929	2668.48362
925.105	2440.4135
925.282	2398.16383
925.459	2641.03815
925.635	2317.87812
925.812	2590.36406
925.989	2419.28919
926.165	2368.58657
926.342	2131.90172
926.518	2332.66867
926.695	2182.62918
926.871	2326.32992
927.048	2098.0809
927.224	2246.03171
927.401	1759.78224
927.577	2220.67163
927.754	1833.79675
927.93	2110.76394
928.107	2038.88988
928.283	2288.29561
928.459	2083.28367
928.636	2089.62539
928.812	1992.37885
928.988	2203.76422
929.165	1823.22358
929.341	2131.90172
929.517	1755.55269
929.693	2055.80217
929.87	1721.71575
930.046	1882.43183
930.222	1715.37123
930.398	1842.25521
930.574	1749.20833
930.751	1899.34776
930.927	1637.11991
931.103	1755.55269
931.279	1719.60092
931.455	1816.87961
931.631	1605.39541
931.807	1844.36982
931.983	1698.45236
932.159	1857.05733
932.335	1590.5905
932.511	1565.21044
932.687	1423.50263
932.863	1677.3035
933.039	1345.24629
933.215	1609.62537
933.391	1243.72766
933.566	1438.30799
933.742	1197.20026
933.918	1412.92739
934.094	1076.66063
934.27	1328.3262
934.445	1095.69222
934.621	1461.57356
934.797	1008.99632
934.973	1051.28583
935.148	1023.79738
935.324	1288.14145
935.5	888.48578
935.675	1108.38017
935.851	966.70931
936.027	907.51217
936.202	930.7675
936.378	1034.36975
936.553	748.98054
936.729	675.01812
936.904	770.11505
937.08	736.30033
937.255	594.73216
937.431	679.24418
937.606	558.82068
937.782	613.74564
937.957	567.2701
938.133	594.73216
938.308	516.57691
938.483	448.99889
938.659	501.79293
938.834	415.21575
939.009	334.99761
939.185	381.43673
939.36	307.56028
939.535	299.11864
939.71	332.88694
939.886	313.8917
940.061	432.10681
940.236	311.78121
940.411	324.44443
940.586	364.54882
940.761	339.219
940.937	288.56699
941.112	286.45672
941.287	271.68532
941.462	288.56699
941.637	305.44984
941.812	259.02486
941.987	259.02486
942.162	204.17086
942.337	246.36508
942.512	210.49949
942.687	237.92561
942.862	237.92561
943.037	206.28038
943.212	212.60907
943.386	254.80485
943.561	159.87558
943.736	229.48645
943.911	252.69488
944.086	231.59621
944.26	229.48645
944.435	221.0476
944.61	178.85816
944.785	119.80683
944.959	197.84241
945.134	237.92561
945.309	153.54842
945.483	187.2954
945.658	221.0476
945.833	204.17086
946.007	214.71868
946.182	197.84241
946.357	231.59621
946.531	111.37229
946.706	183.07674
946.88	121.91552
947.055	147.22146
947.229	254.80485
947.404	174.63967
947.578	195.73297
947.752	145.11251
947.927	225.26699
948.101	191.51415
948.276	267.46509
948.45	237.92561
948.624	197.84241
948.799	227.37671
948.973	244.25518
949.147	229.48645
949.321	229.48645
949.496	130.35049
949.67	318.11274
949.844	237.92561
950.018	161.98467
950.193	229.48645
950.367	316.00221
950.541	121.91552
950.715	197.84241
950.889	212.60907
951.063	212.60907
951.237	214.71868
951.411	189.40476
951.585	231.59621
951.759	225.26699
951.933	301.22902
952.107	216.8283
952.281	183.07674
952.455	259.02486
952.629	168.31207
952.803	301.22902
952.977	166.20292
953.151	237.92561
953.325	273.79547
953.499	212.60907
953.672	206.28038
953.846	183.07674
954.02	269.5752
954.194	187.2954
954.368	250.58493
954.541	265.355
954.715	136.67694
954.889	233.70599
955.062	267.46509
955.236	229.48645
955.41	246.36508
955.583	246.36508
955.757	195.73297
955.93	309.67074
956.104	218.93794
956.278	218.93794
956.451	212.60907
956.625	221.0476
956.798	174.63967
956.972	214.71868
957.145	218.93794
957.319	318.11274
957.492	180.96744
957.665	233.70599
957.839	301.22902
958.012	244.25518
958.185	316.00221
958.359	233.70599
958.532	204.17086
958.705	324.44443
958.879	237.92561
959.052	193.62355
959.225	214.71868
959.398	153.54842
959.572	180.96744
959.745	265.355
959.918	223.15728
960.091	237.92561
960.264	178.85816
960.438	269.5752
960.611	233.70599
960.784	278.01581
960.957	206.28038
961.13	269.5752
961.303	263.24494
961.476	223.15728
961.649	204.17086
961.822	180.96744
961.995	128.24171
962.168	187.2954
962.341	199.95188
962.514	254.80485
962.686	216.8283
962.859	155.65745
963.032	166.20292
963.205	261.13489
963.378	166.20292
963.551	166.20292
963.723	223.15728
963.896	223.15728
964.069	231.59621
964.242	195.73297
964.414	199.95188
964.587	223.15728
964.76	204.17086
964.932	147.22146
965.105	134.5681
965.278	225.26699
965.45	199.95188
965.623	263.24494
965.795	214.71868
965.968	197.84241
966.14	155.65745
966.313	324.44443
966.485	246.36508
966.658	288.56699
966.83	242.1453
967.003	237.92561
967.175	147.22146
967.348	153.54842
967.52	187.2954
967.692	113.4809
967.865	170.42125
968.037	126.13296
968.209	132.45929
968.382	193.62355
968.554	147.22146
968.726	204.17086
968.898	161.98467
969.071	206.28038
969.243	180.96744
969.415	166.20292
969.587	132.45929
969.759	75.52945
969.932	155.65745
970.104	149.33043
970.276	128.24171
970.448	149.33043
970.62	140.89469
970.792	164.09378
970.964	111.37229
971.136	170.42125
971.308	159.87558
971.48	151.43941
971.652	140.89469
971.824	161.98467
971.996	229.48645
972.168	121.91552
972.339	136.67694
972.511	225.26699
972.683	155.65745
972.855	161.98467
973.027	100.82962
973.199	113.4809
973.37	88.17913
973.542	138.7858
973.714	199.95188
973.886	130.35049
974.057	107.15516
974.229	132.45929
974.401	138.7858
974.572	119.80683
974.744	153.54842
974.915	130.35049
975.087	107.15516
975.259	153.54842
975.43	153.54842
975.602	136.67694
975.773	60.77252
975.945	119.80683
976.116	90.28749
976.288	52.34049
976.459	124.02423
976.63	96.6127
976.802	136.67694
976.973	143.00359
977.145	107.15516
977.316	77.63768
977.487	102.93811
977.659	62.88058
977.83	153.54842
978.001	119.80683
978.172	124.02423
978.344	174.63967
978.515	56.55646
978.686	73.42125
978.857	54.44846
979.028	119.80683
979.2	102.93811
979.371	73.42125
979.542	94.50427
979.713	98.72115
979.884	60.77252
980.055	46.01671
980.226	90.28749
980.397	153.54842
980.568	128.24171
980.739	56.55646
980.91	136.67694
981.081	183.07674
981.252	73.42125
981.423	62.88058
981.594	102.93811
981.765	60.77252
981.936	96.6127
982.106	52.34049
982.277	94.50427
982.448	79.74592
982.619	111.37229
982.79	52.34049
982.96	20.72369
983.131	98.72115
983.302	43.90883
983.472	35.47754
983.643	77.63768
983.814	46.01671
983.984	96.6127
984.155	62.88058
984.326	88.17913
984.496	69.20492
984.667	107.15516
984.837	102.93811
985.008	77.63768
985.178	43.90883
985.349	71.31307
985.519	157.7665
985.69	54.44846
985.86	39.69314
986.031	69.20492
986.201	35.47754
986.371	138.7858
986.542	128.24171
986.712	145.11251
986.882	102.93811
987.053	48.12461
987.223	64.98867
987.393	35.47754
987.563	77.63768
987.734	69.20492
987.904	54.44846
988.074	3.86356
988.244	88.17913
988.414	48.12461
988.585	96.6127
988.755	77.63768
988.925	69.20492
989.095	58.66448
989.265	29.15432
989.435	52.34049
989.605	58.66448
989.775	86.0708
989.945	98.72115
990.115	52.34049
990.285	119.80683
990.455	16.50851
990.625	94.50427
990.795	86.0708
990.965	77.63768
991.134	54.44846
991.304	124.02423
991.474	31.26204
991.644	33.36978
991.814	64.98867
991.984	43.90883
992.153	64.98867
992.323	69.20492
992.493	77.63768
992.662	79.74592
992.832	35.47754
993.002	73.42125
993.171	111.37229
993.341	31.26204
993.511	60.77252
993.68	24.93896
993.85	109.26371
994.019	62.88058
994.189	132.45929
994.358	86.0708
994.528	81.85419
994.697	14.40096
994.867	98.72115
995.036	81.85419
995.206	124.02423
995.375	27.04663
995.544	48.12461
995.714	102.93811
995.883	50.23254
996.052	8.07845
996.222	5.97099
996.391	1.75615
996.56	100.82962
996.73	-10.88778
996.899	52.34049
997.068	14.40096
997.237	18.61609
997.406	-12.99502
997.576	37.58533
997.745	43.90883
997.914	113.4809
998.083	-38.27997
998.252	111.37229
998.421	18.61609
998.59	22.83131
998.759	107.15516
998.928	88.17913
999.097	90.28749
999.266	69.20492
999.435	29.15432
999.604	54.44846
999.773	35.47754
999.942	69.20492
1000.111	20.72369
1000.28	35.47754
1000.448	3.86356
1000.617	27.04663
1000.786	12.29343
1000.955	54.44846
1001.124	27.04663
1001.292	81.85419
1001.461	43.90883
1001.63	-15.10224
1001.798	94.50427
1001.967	77.63768
1002.136	-31.95906
1002.304	37.58533
1002.473	46.01671
1002.642	-2.45859
1002.81	77.63768
1002.979	67.09678
1003.147	1.75615
1003.316	-2.45859
1003.484	69.20492
1003.653	90.28749
1003.821	22.83131
1003.99	-4.56592
1004.158	16.50851
1004.327	43.90883
1004.495	10.18593
1004.663	39.69314
1004.832	102.93811
1005	77.63768
1005.168	88.17913
1005.337	18.61609
1005.505	5.97099
1005.673	-36.17303
1005.842	12.29343
1006.01	-6.67324
1006.178	43.90883
1006.346	-38.27997
1006.514	31.26204
1006.683	94.50427
1006.851	43.90883
1007.019	90.28749
1007.187	27.04663
1007.355	86.0708
1007.523	18.61609
1007.691	130.35049
1007.859	-38.27997
1008.027	52.34049
1008.195	12.29343
1008.363	-10.88778
1008.531	52.34049
1008.699	14.40096
1008.867	-31.95906
1009.035	-10.88778
1009.203	-19.31659
1009.37	-40.38689
1009.538	-4.56592
1009.706	39.69314
1009.874	48.12461
1010.042	27.04663
1010.209	20.72369
1010.377	-6.67324
1010.545	69.20492
1010.713	79.74592
1010.88	14.40096
1011.048	86.0708
1011.216	-6.67324
1011.383	27.04663
1011.551	-4.56592
1011.718	94.50427
1011.886	20.72369
1012.054	18.61609
1012.221	27.04663
1012.389	-23.53085
1012.556	79.74592
1012.724	73.42125
1012.891	1.75615
1013.058	-44.60065
1013.226	56.55646
1013.393	1.75615
1013.561	77.63768
1013.728	-38.27997
1013.895	18.61609
1014.063	60.77252
1014.23	18.61609
1014.397	31.26204
1014.565	62.88058
1014.732	58.66448
1014.899	-12.99502
1015.066	-15.10224
1015.233	-6.67324
1015.401	71.31307
1015.568	27.04663
1015.735	37.58533
1015.902	22.83131
1016.069	62.88058
1016.236	5.97099
1016.403	3.86356
1016.57	10.18593
1016.737	-40.38689
1016.904	-23.53085
1017.071	48.12461
1017.238	24.93896
1017.405	35.47754
1017.572	12.29343
1017.739	31.26204
1017.906	-40.38689
1018.073	-46.70749
1018.24	43.90883
1018.407	-31.95906
1018.573	18.61609
1018.74	62.88058
1018.907	27.04663
1019.074	39.69314
1019.241	52.34049
1019.407	46.01671
1019.574	-12.99502
1019.741	60.77252
1019.907	56.55646
1020.074	-31.95906
1020.241	-40.38689
1020.407	-31.95906
1020.574	10.18593
1020.74	94.50427
1020.907	-53.02787
1021.073	48.12461
1021.24	31.26204
1021.406	-4.56592
1021.573	60.77252
1021.739	102.93811
1021.906	35.47754
1022.072	43.90883
1022.239	62.88058
1022.405	43.90883
1022.571	1.75615
1022.738	35.47754
1022.904	-19.31659
1023.07	43.90883
1023.237	-31.95906
1023.403	3.86356
1023.569	-23.53085
1023.735	92.39587
1023.902	64.98867
1024.068	35.47754
1024.234	22.83131
1024.4	20.72369
1024.566	54.44846
1024.732	41.80097
1024.898	-97.26409
1025.065	46.01671
1025.231	48.12461
1025.397	12.29343
1025.563	-15.10224
1025.729	39.69314
1025.895	18.61609
1026.061	29.15432
1026.227	46.01671
1026.392	27.04663
1026.558	-15.10224
1026.724	-23.53085
1026.89	31.26204
1027.056	27.04663
1027.222	-23.53085
1027.388	14.40096
1027.553	29.15432
1027.719	60.77252
1027.885	-21.42373
1028.051	-50.9211
1028.216	-29.85205
1028.382	14.40096
1028.548	18.61609
1028.713	43.90883
1028.879	-48.81431
1029.045	54.44846
1029.21	60.77252
1029.376	-38.27997
1029.541	-15.10224
1029.707	1.75615
1029.873	52.34049
1030.038	1.75615
1030.204	54.44846
1030.369	-128.85436
1030.534	24.93896
1030.7	24.93896
1030.865	-15.10224
1031.031	81.85419
1031.196	-17.20943
1031.361	-31.95906
1031.527	-48.81431
1031.692	18.61609
1031.857	29.15432
1032.023	54.44846
1032.188	-40.38689
1032.353	-29.85205
1032.518	35.47754
1032.684	-0.35123
1032.849	20.72369
1033.014	54.44846
1033.179	-44.60065
1033.344	60.77252
1033.509	43.90883
1033.674	10.18593
1033.839	22.83131
1034.004	43.90883
1034.17	-27.74501
1034.335	33.36978
1034.5	27.04663
1034.664	52.34049
1034.829	-8.78052
1034.994	18.61609
1035.159	35.47754
1035.324	100.82962
1035.489	43.90883
1035.654	60.77252
1035.819	46.01671
1035.984	39.69314
1036.148	-36.17303
1036.313	-6.67324
1036.478	-4.56592
1036.643	-6.67324
1036.807	71.31307
1036.972	5.97099
1037.137	-12.99502
1037.301	69.20492
1037.466	39.69314
1037.631	60.77252
1037.795	54.44846
1037.96	20.72369
1038.124	54.44846
1038.289	56.55646
1038.454	-109.90091
1038.618	58.66448
1038.783	-25.63794
1038.947	69.20492
1039.111	20.72369
1039.276	22.83131
1039.44	5.97099
1039.605	27.04663
1039.769	-10.88778
1039.933	-2.45859
1040.098	18.61609
1040.262	43.90883
1040.426	-0.35123
1040.591	31.26204
1040.755	-36.17303
1040.919	10.18593
1041.083	-44.60065
1041.248	-23.53085
1041.412	-48.81431
1041.576	8.07845
1041.74	39.69314
1041.904	41.80097
1042.068	-4.56592
1042.232	10.18593
1042.397	16.50851
1042.561	-10.88778
1042.725	-6.67324
1042.889	33.36978
1043.053	-0.35123
1043.217	-55.13461
1043.381	48.12461
1043.544	-19.31659
1043.708	-44.60065
1043.872	81.85419
1044.036	-2.45859
1044.2	-21.42373
1044.364	-15.10224
1044.528	-29.85205
1044.691	22.83131
1044.855	-0.35123
1045.019	-4.56592
1045.183	14.40096
1045.346	46.01671
1045.51	27.04663
1045.674	52.34049
1045.837	-2.45859
1046.001	33.36978
1046.165	69.20492
1046.328	-48.81431
1046.492	-29.85205
1046.655	14.40096
1046.819	16.50851
1046.983	-40.38689
1047.146	14.40096
1047.31	-17.20943
1047.473	22.83131
1047.636	31.26204
1047.8	10.18593
1047.963	5.97099
1048.127	-6.67324
1048.29	-4.56592
