Data from mixed_try1_USB4F045381__36__00140.txt Node

Date: Thu Apr 03 20:04:56 EDT 2025
User: mmckonesweet
Spectrometer: USB4F04538
Trigger mode: 4
Integration Time (sec): 2.700000E-3
Scans to average: 1
Electric dark correction enabled: true
Nonlinearity correction enabled: true
Boxcar width: 0
XAxis mode: Wavelengths
Number of Pixels in Spectrum: 3648
>>>>>Begin Spectral Data<<<<<
345.52	-5.79519
345.736	-5.79519
345.952	-5.79519
346.168	-18.43861
346.384	-69.00336
346.6	-16.33143
346.816	-16.33143
347.032	-16.33143
347.248	17.38667
347.464	-56.36353
347.68	15.2791
347.896	51.11085
348.112	-41.61591
348.328	61.65088
348.544	25.81715
348.76	-22.65289
348.975	-1.58052
349.191	-56.36353
349.407	-26.86706
349.623	-12.11701
349.839	67.97517
350.055	17.38667
350.27	49.00291
350.486	-10.00976
350.702	55.32679
350.918	32.14026
351.133	-1.58052
351.349	-28.97412
351.565	76.40788
351.781	-1.58052
351.996	-26.86706
352.212	-16.33143
352.428	-35.29512
352.644	-10.00976
352.859	-54.2568
353.075	23.70949
353.291	17.38667
353.506	-33.18815
353.722	38.46358
353.938	-60.57691
354.153	32.14026
354.369	67.97517
354.584	-12.11701
354.8	-14.22423
355.016	19.49425
355.231	6.8491
355.447	27.92483
355.662	-22.65289
355.878	86.94927
356.093	40.5714
356.309	25.81715
356.524	-14.22423
356.74	25.81715
356.955	-69.00336
357.171	23.70949
357.386	-54.2568
357.602	-18.43861
357.817	-1.58052
358.033	23.70949
358.248	23.70949
358.464	-18.43861
358.679	49.00291
358.895	-35.29512
359.11	0.52684
359.325	25.81715
359.541	-1.58052
359.756	-83.74867
359.972	23.70949
360.187	-1.58052
360.402	42.67924
360.618	23.70949
360.833	36.35578
361.048	17.38667
361.264	-22.65289
361.479	-16.33143
361.694	-66.89679
361.909	-43.72279
362.125	-56.36353
362.34	38.46358
362.555	-41.61591
362.77	38.46358
362.986	-52.15005
363.201	-18.43861
363.416	0.52684
363.631	30.03253
363.847	-1.58052
364.062	27.92483
364.277	15.2791
364.492	6.8491
364.707	11.06405
364.922	-35.29512
365.138	-66.89679
365.353	25.81715
365.568	30.03253
365.783	-22.65289
365.998	-52.15005
366.213	32.14026
366.428	-66.89679
366.643	82.73264
366.858	2.63424
367.073	-83.74867
367.288	-16.33143
367.503	-60.57691
367.718	2.63424
367.933	-22.65289
368.148	-39.50901
368.363	-18.43861
368.578	-50.04327
368.793	6.8491
369.008	-90.0677
369.223	34.24801
369.438	57.4348
369.653	-22.65289
369.868	-52.15005
370.083	49.00291
370.298	11.06405
370.513	15.2791
370.728	27.92483
370.943	-7.90249
371.157	0.52684
371.372	-26.86706
371.587	2.63424
371.802	0.52684
372.017	51.11085
372.232	6.8491
372.446	-14.22423
372.661	38.46358
372.876	-18.43861
373.091	-10.00976
373.306	49.00291
373.52	-1.58052
373.735	-54.2568
373.95	40.5714
374.165	-66.89679
374.379	-14.22423
374.594	-14.22423
374.809	44.78711
375.023	-26.86706
375.238	-26.86706
375.453	23.70949
375.667	2.63424
375.882	34.24801
376.097	32.14026
376.311	-77.42941
376.526	-35.29512
376.741	-10.00976
376.955	17.38667
377.17	-18.43861
377.384	23.70949
377.599	-16.33143
377.813	59.54283
378.028	-7.90249
378.242	25.81715
378.457	36.35578
378.672	49.00291
378.886	19.49425
379.101	15.2791
379.315	-7.90249
379.53	-77.42941
379.744	-73.21644
379.958	15.2791
380.173	15.2791
380.387	53.21881
380.602	-7.90249
380.816	-7.90249
381.031	27.92483
381.245	-56.36353
381.459	-5.79519
381.674	-14.22423
381.888	-22.65289
382.103	25.81715
382.317	2.63424
382.531	8.95656
382.746	-1.58052
382.96	-26.86706
383.174	15.2791
383.388	-43.72279
383.603	44.78711
383.817	-43.72279
384.031	74.29967
384.246	44.78711
384.46	2.63424
384.674	25.81715
384.888	-75.32294
385.103	-64.79019
385.317	51.11085
385.531	-98.49271
385.745	-113.23547
385.959	-16.33143
386.174	-43.72279
386.388	0.52684
386.602	-33.18815
386.816	72.19148
387.03	-60.57691
387.244	-39.50901
387.458	-1.58052
387.672	-28.97412
387.887	-1.58052
388.101	-45.82964
388.315	-56.36353
388.529	74.29967
388.743	8.95656
388.957	42.67924
389.171	-47.93647
389.385	-7.90249
389.599	21.60186
389.813	-1.58052
390.027	-52.15005
390.241	-50.04327
390.455	32.14026
390.669	23.70949
390.883	34.24801
391.097	0.52684
391.311	-1.58052
391.525	-24.75999
391.738	17.38667
391.952	-26.86706
392.166	-98.49271
392.38	-43.72279
392.594	-1.58052
392.808	38.46358
393.022	-37.40208
393.236	-24.75999
393.449	-43.72279
393.663	42.67924
393.877	-10.00976
394.091	-66.89679
394.305	-60.57691
394.518	6.8491
394.732	-1.58052
394.946	11.06405
395.16	-41.61591
395.373	-22.65289
395.587	8.95656
395.801	-5.79519
396.015	-5.79519
396.228	74.29967
396.442	-5.79519
396.656	-60.57691
396.869	15.2791
397.083	-1.58052
397.297	-5.79519
397.51	-69.00336
397.724	23.70949
397.938	-35.29512
398.151	-41.61591
398.365	42.67924
398.578	65.86705
398.792	-43.72279
399.005	27.92483
399.219	6.8491
399.433	-33.18815
399.646	-26.86706
399.86	40.5714
400.073	8.95656
400.287	-33.18815
400.5	-39.50901
400.714	30.03253
400.927	8.95656
401.141	23.70949
401.354	46.895
401.567	8.95656
401.781	-7.90249
401.994	-16.33143
402.208	0.52684
402.421	-94.28026
402.635	-33.18815
402.848	42.67924
403.061	-39.50901
403.275	-54.2568
403.488	55.32679
403.701	44.78711
403.915	51.11085
404.128	15.2791
404.341	-31.08114
404.555	-43.72279
404.768	49.00291
404.981	4.74166
405.195	57.4348
405.408	82.73264
405.621	13.17157
405.834	-56.36353
406.048	40.5714
406.261	-35.29512
406.474	32.14026
406.687	-31.08114
406.9	-20.54576
407.114	15.2791
407.327	-24.75999
407.54	-56.36353
407.753	15.2791
407.966	-5.79519
408.179	-7.90249
408.392	70.08331
408.605	25.81715
408.819	-39.50901
409.032	95.38278
409.245	40.5714
409.458	27.92483
409.671	21.60186
409.884	40.5714
410.097	-18.43861
410.31	67.97517
410.523	44.78711
410.736	-35.29512
410.949	27.92483
411.162	-26.86706
411.375	-5.79519
411.588	30.03253
411.801	-37.40208
412.014	-3.68787
412.227	40.5714
412.44	-85.85504
412.653	-22.65289
412.865	-39.50901
413.078	-37.40208
413.291	49.00291
413.504	-22.65289
413.717	17.38667
413.93	-43.72279
414.143	-10.00976
414.356	-47.93647
414.568	-26.86706
414.781	8.95656
414.994	-41.61591
415.207	30.03253
415.42	-39.50901
415.632	0.52684
415.845	34.24801
416.058	57.4348
416.271	34.24801
416.483	34.24801
416.696	-1.58052
416.909	84.84094
417.121	-31.08114
417.334	23.70949
417.547	-18.43861
417.759	-22.65289
417.972	13.17157
418.185	-60.57691
418.397	49.00291
418.61	-58.47023
418.823	-77.42941
419.035	32.14026
419.248	15.2791
419.46	-43.72279
419.673	-1.58052
419.885	-3.68787
420.098	-10.00976
420.311	19.49425
420.523	-26.86706
420.736	17.38667
420.948	19.49425
421.161	44.78711
421.373	34.24801
421.586	40.5714
421.798	15.2791
422.01	-20.54576
422.223	34.24801
422.435	42.67924
422.648	-10.00976
422.86	53.21881
423.073	15.2791
423.285	27.92483
423.497	91.16598
423.71	42.67924
423.922	11.06405
424.134	57.4348
424.347	-35.29512
424.559	17.38667
424.771	36.35578
424.984	-12.11701
425.196	-1.58052
425.408	124.90287
425.621	-14.22423
425.833	-10.00976
426.045	67.97517
426.257	30.03253
426.47	63.75895
426.682	-60.57691
426.894	-62.68356
427.106	-54.2568
427.318	32.14026
427.531	49.00291
427.743	49.00291
427.955	6.8491
428.167	49.00291
428.379	32.14026
428.591	57.4348
428.804	-10.00976
429.016	78.51611
429.228	4.74166
429.44	61.65088
429.652	53.21881
429.864	-58.47023
430.076	8.95656
430.288	21.60186
430.5	23.70949
430.712	49.00291
430.924	36.35578
431.136	8.95656
431.348	6.8491
431.56	34.24801
431.772	36.35578
431.984	42.67924
432.196	-22.65289
432.408	-20.54576
432.62	-18.43861
432.832	-52.15005
433.044	-22.65289
433.256	-52.15005
433.468	32.14026
433.679	11.06405
433.891	-43.72279
434.103	-7.90249
434.315	32.14026
434.527	34.24801
434.739	78.51611
434.95	6.8491
435.162	36.35578
435.374	40.5714
435.586	-1.58052
435.798	42.67924
436.009	23.70949
436.221	23.70949
436.433	61.65088
436.645	55.32679
436.856	36.35578
437.068	36.35578
437.28	38.46358
437.491	23.70949
437.703	11.06405
437.915	2.63424
438.126	11.06405
438.338	42.67924
438.55	-33.18815
438.761	34.24801
438.973	49.00291
439.184	23.70949
439.396	32.14026
439.608	19.49425
439.819	124.90287
440.031	32.14026
440.242	-35.29512
440.454	19.49425
440.665	40.5714
440.877	17.38667
441.088	17.38667
441.3	6.8491
441.511	15.2791
441.723	84.84094
441.934	27.92483
442.146	32.14026
442.357	32.14026
442.569	-26.86706
442.78	-16.33143
442.991	40.5714
443.203	-31.08114
443.414	49.00291
443.626	-5.79519
443.837	4.74166
444.048	59.54283
444.26	-60.57691
444.471	61.65088
444.682	25.81715
444.894	40.5714
445.105	6.8491
445.316	72.19148
445.528	-10.00976
445.739	2.63424
445.95	-43.72279
446.161	59.54283
446.373	-35.29512
446.584	19.49425
446.795	63.75895
447.006	6.8491
447.217	57.4348
447.429	25.81715
447.64	38.46358
447.851	133.33796
448.062	59.54283
448.273	-31.08114
448.484	74.29967
448.695	27.92483
448.907	-3.68787
449.118	27.92483
449.329	51.11085
449.54	74.29967
449.751	65.86705
449.962	-14.22423
450.173	91.16598
450.384	70.08331
450.595	-7.90249
450.806	74.29967
451.017	44.78711
451.228	129.12037
451.439	17.38667
451.65	40.5714
451.861	53.21881
452.072	42.67924
452.283	91.16598
452.494	2.63424
452.705	23.70949
452.915	53.21881
453.126	23.70949
453.337	74.29967
453.548	49.00291
453.759	112.25088
453.97	57.4348
454.181	55.32679
454.391	108.03372
454.602	-1.58052
454.813	82.73264
455.024	101.70815
455.235	78.51611
455.445	112.25088
455.656	95.38278
455.867	91.16598
456.078	65.86705
456.288	74.29967
456.499	101.70815
456.71	99.59967
456.921	8.95656
457.131	133.33796
457.342	82.73264
457.553	91.16598
457.763	127.01161
457.974	91.16598
458.184	80.62436
458.395	53.21881
458.606	53.21881
458.816	49.00291
459.027	61.65088
459.237	19.49425
459.448	95.38278
459.659	23.70949
459.869	91.16598
460.08	27.92483
460.29	101.70815
460.501	129.12037
460.711	116.46812
460.922	65.86705
461.132	145.99124
461.343	70.08331
461.553	152.31817
461.764	152.31817
461.974	183.95562
462.184	65.86705
462.395	38.46358
462.605	129.12037
462.816	59.54283
463.026	91.16598
463.236	179.73703
463.447	99.59967
463.657	194.50247
463.867	122.79415
464.078	211.37848
464.288	188.1743
464.498	99.59967
464.709	93.27437
464.919	158.64528
465.129	211.37848
465.339	112.25088
465.55	209.26891
465.76	175.51851
465.97	177.62776
466.18	103.81665
466.391	175.51851
466.601	200.83082
466.811	202.94032
467.021	133.33796
467.231	308.43963
467.441	188.1743
467.651	293.6669
467.862	268.3443
468.072	289.44628
468.282	200.83082
468.492	262.01407
468.702	259.90403
468.912	226.14603
469.122	281.00526
469.332	312.66058
469.542	302.10835
469.752	361.20655
469.962	243.02442
470.172	314.77108
470.382	369.65026
470.592	281.00526
470.802	380.20529
471.012	397.09419
471.222	392.87187
471.432	356.9848
471.642	361.20655
471.852	346.43071
472.062	361.20655
472.272	394.98302
472.482	439.32102
472.691	413.98415
472.901	563.92551
473.111	420.31815
473.321	481.5541
473.531	580.82481
473.741	525.90526
473.95	597.72496
474.16	593.49984
474.37	563.92551
474.58	597.72496
474.79	728.7276
474.999	614.62592
475.209	551.2516
475.419	589.27478
475.628	817.49515
475.838	692.80309
476.048	726.61431
476.258	716.048
476.467	844.97423
476.677	783.67688
476.886	950.67619
477.096	923.1918
477.306	946.44774
477.515	783.67688
477.725	1026.79287
477.935	937.99093
478.144	1056.39597
478.354	870.34086
478.563	1160.01479
478.773	1071.19793
478.982	1200.1963
479.192	1212.88546
479.401	1248.83871
479.611	1217.11521
479.82	1295.3676
480.03	1320.74745
480.239	1327.09245
480.449	1405.34847
480.658	1496.29563
480.868	1341.89751
481.077	1519.56111
481.287	1418.03876
481.496	1525.90622
481.705	1671.84
481.915	1648.57585
482.124	1608.39164
482.333	1811.41673
482.543	1737.40069
482.752	1946.7457
482.961	1843.1363
483.171	1978.46016
483.38	1756.43384
483.589	2010.17322
483.799	2101.07553
484.008	2094.73394
484.217	2012.28737
484.426	2187.73689
484.636	2094.73394
484.845	2278.61046
485.054	2069.36691
485.263	2274.38415
485.472	2339.8877
485.682	2306.08056
485.891	2367.35414
486.1	2415.94441
486.309	2491.98746
486.518	2631.36135
486.727	2506.77195
486.936	2519.44393
487.146	2654.58522
487.355	2682.02964
487.564	2720.02603
487.773	2920.48995
487.982	2804.44711
488.191	3006.96599
488.4	2950.02117
488.609	3057.57431
488.818	3049.14021
489.027	3015.40133
489.236	3009.07485
489.445	3133.46992
489.654	3091.30822
489.863	3325.22297
490.072	3236.73872
490.281	3287.30482
490.49	3215.66666
490.698	3306.26459
490.907	3276.77102
491.116	3342.07369
491.325	3184.05548
491.534	3504.20428
491.743	3373.6658
491.952	3464.20788
492.16	3434.73267
492.369	3676.74395
492.578	3624.15373
492.787	3647.29489
492.996	3672.53717
493.204	3929.00826
493.413	3941.61396
493.622	4029.83341
493.831	3630.46518
494.039	3958.42044
494.248	3840.74805
494.457	4159.99558
494.665	3939.51306
494.874	4275.39433
495.083	3983.62772
495.291	4260.7108
495.5	4294.27162
495.709	4269.10152
495.917	4084.42729
496.126	4453.60998
496.335	4285.88193
496.543	4426.36365
496.752	4397.01732
496.96	4516.47194
497.169	4340.40877
497.377	4531.13687
497.586	4466.18395
497.794	4562.55807
498.003	4397.01732
498.211	4713.30993
498.42	4539.51635
498.628	4690.28592
498.837	4539.51635
499.045	4897.40322
499.254	4880.67476
499.462	4656.7916
499.671	4838.8472
499.879	5022.81983
500.087	4985.20355
500.296	5022.81983
500.504	4905.7669
500.713	5104.29608
500.921	4914.13022
501.129	5148.15329
501.338	4874.40121
501.546	5206.61362
501.754	5014.4613
501.962	5200.35089
502.171	5031.17799
502.379	5392.31232
502.587	5202.43849
502.795	5475.71191
503.004	5244.18561
503.212	5490.30296
503.42	5323.47938
503.628	5502.80867
503.837	5398.56859
504.045	5486.13421
504.253	5748.58175
504.461	5496.55592
504.669	5429.84679
504.877	5956.60684
505.085	5709.0303
505.294	5852.62379
505.502	5459.035
505.71	5921.25922
505.918	5638.23277
506.126	6085.46398
506.334	5642.39809
506.542	6021.04673
506.75	5848.46324
506.958	5996.10494
507.166	5798.52929
507.374	5973.23866
507.582	5954.52776
507.79	6021.04673
507.998	5879.66506
508.206	6374.02524
508.414	6031.43814
508.622	6288.9571
508.83	6035.59454
509.037	6320.08415
509.245	6160.24275
509.453	6114.54823
509.661	6338.75785
509.869	6334.6083
510.077	6224.61119
510.285	6552.33367
510.492	6170.62628
510.7	6591.70427
510.908	6234.99108
511.116	6500.51753
511.324	6249.52195
511.531	6608.27886
511.739	6436.24538
511.947	6734.61171
512.155	6446.61337
512.362	6703.55418
512.57	6583.41641
512.778	6442.46624
512.985	6517.10027
513.193	6655.92261
513.401	6782.22325
513.608	6879.47885
513.816	6653.8514
514.024	6951.87065
514.231	6831.89197
514.439	6840.16881
514.646	6798.78095
514.854	6724.25978
515.061	6945.66672
515.269	6922.91725
515.477	6984.95482
515.684	7203.99246
515.892	7077.97317
516.099	6953.93858
516.307	6871.20373
516.514	7311.35365
516.722	7331.99322
516.929	7166.81505
517.136	7243.2275
517.344	7203.99246
517.551	7100.70409
517.759	7224.64348
517.966	7278.32578
518.173	7183.33923
518.381	7381.51926
518.588	7474.34679
518.796	7492.90703
519.003	7678.41397
519.21	7346.43962
519.418	7439.28377
519.625	7439.28377
519.832	7490.84487
520.039	7801.9899
520.247	7797.87192
520.454	7513.52748
520.661	7999.55567
520.868	7451.65967
521.076	8065.36898
521.283	7857.57451
521.49	7773.16227
521.697	7657.81061
521.904	7736.09215
522.112	7614.53665
522.319	8098.26787
522.526	8133.2173
522.733	8040.69142
522.94	8003.66961
523.147	8100.32388
523.354	8118.82706
523.561	8248.30405
523.768	8172.27158
523.975	8215.42847
524.183	8081.81907
524.39	8168.16094
524.597	8262.68552
524.804	8318.14792
525.011	8342.79329
525.218	8517.28505
525.425	8229.81216
525.632	8365.38242
525.838	8420.81854
526.045	8472.13577
526.252	8336.63221
526.459	8923.22292
526.666	8587.04317
526.873	8584.99177
527.08	8578.83746
527.287	8921.17452
527.494	8574.73449
527.701	8763.39384
527.907	8459.82072
528.114	8658.83033
528.321	8455.71556
528.528	8591.14591
528.735	8828.97802
528.941	8775.69229
529.148	8589.09455
529.355	8933.46465
529.562	8779.79163
529.768	9076.80266
529.975	9011.28737
530.182	8933.46465
530.388	8824.87955
530.595	9146.39324
530.802	9093.17871
531.008	9246.65083
531.215	9199.59621
531.422	9295.74183
531.628	9115.69396
531.835	9346.86811
532.042	9269.15207
532.248	9314.14848
532.455	9234.37657
532.661	9487.92351
532.868	9244.60516
533.074	9246.65083
533.281	9389.80622
533.487	9643.20066
533.694	9408.20606
533.9	9534.92492
534.107	9197.55015
534.313	9679.96358
534.52	9477.7047
534.726	9824.92454
534.933	9555.35769
535.139	9759.59949
535.345	9775.93219
535.552	9659.54035
535.758	9741.22403
535.965	9998.37047
536.171	9904.51877
536.377	9933.08559
536.584	9892.27497
536.79	10102.38789
536.996	10145.20793
537.203	9994.2906
537.409	9710.59552
537.615	9922.88348
537.821	9951.44846
538.028	10214.52264
538.234	9953.48871
538.44	10081.99523
538.646	9875.94907
538.853	10326.61602
539.059	10141.1301
539.265	10342.91713
539.471	10196.17618
539.677	10094.23099
539.883	10377.55418
540.09	10326.61602
540.296	10273.63151
540.502	10611.76555
540.708	10367.36721
540.914	10479.40597
541.12	10446.81692
541.326	10621.94487
541.532	10481.44268
541.738	10719.65074
541.944	10324.57832
542.15	10522.17413
542.356	10813.25954
542.562	10980.06633
542.768	10809.19011
542.974	11065.47464
543.18	10937.35482
543.386	10971.93119
543.592	11098.00605
543.798	10969.89738
544.004	10839.70968
544.21	11034.9739
544.415	10721.68599
544.621	11167.12617
544.827	11065.47464
545.033	11423.17271
545.239	10923.11655
545.445	11313.45818
545.651	10980.06633
545.856	11384.57274
546.062	11114.27072
546.268	11313.45818
546.474	11106.13847
546.679	10967.86355
546.885	10902.77519
547.091	11179.32256
547.297	11122.4028
547.502	11362.22377
547.708	11471.92554
547.914	11439.42427
548.119	11232.16924
548.325	11435.36144
548.531	11211.84443
548.736	11543.01354
548.942	11439.42427
549.147	11644.54799
549.353	11410.98363
549.559	11912.49236
549.764	11577.53784
549.97	11573.47629
550.175	11646.57844
550.381	12068.72624
550.586	11790.71807
550.792	12078.86968
550.997	11827.25354
551.203	11790.71807
551.408	11697.33691
551.614	11918.58029
551.819	11922.63886
552.025	11920.60958
552.23	11882.05161
552.435	12018.00612
552.641	12115.38448
552.846	12121.47004
553.052	12117.41301
553.257	12082.927
553.462	11969.31016
553.668	12101.18457
553.873	12064.66881
554.078	12119.44153
554.283	12257.36342
554.489	12176.23703
554.694	12462.15742
554.899	12368.89357
555.105	12269.53138
555.31	12541.21805
555.515	12597.97357
555.72	12628.37632
555.925	12222.88613
556.131	12407.41732
556.336	12537.1639
556.541	12664.85782
556.746	12610.13484
556.951	12875.60296
557.156	12666.88451
557.361	12569.59642
557.567	12703.36396
557.772	12871.55074
557.977	12484.45757
558.182	12595.94667
558.387	12691.20436
558.592	12660.80441
558.797	12664.85782
559.002	12600.00047
559.207	12729.70905
559.412	12677.01788
559.617	12441.88387
559.822	12608.10797
560.027	12689.17774
560.232	12826.97486
560.437	12802.65962
560.642	12991.08244
560.847	13037.67471
561.051	12895.86375
561.256	12847.23695
561.461	13118.69859
561.666	12822.92237
561.871	13185.5376
562.076	12790.5017
562.281	12893.83769
562.485	12829.00109
562.69	13116.67308
562.895	12820.89612
563.1	13043.75177
563.305	12893.83769
563.509	13124.77507
563.714	13446.7719
563.919	13023.49473
564.123	13149.08058
564.328	13092.36667
564.533	13047.80312
564.737	13307.05059
564.942	13305.0255
565.147	13582.42582
565.351	13282.74924
565.556	13240.22039
565.761	13604.69582
565.965	13424.49876
566.17	12954.61706
566.374	13377.92611
566.579	13416.39932
566.784	13266.548
566.988	13596.59769
567.193	13819.27736
567.397	13392.10062
567.602	13580.40126
567.806	13203.76556
568.011	13614.81841
568.215	13794.98686
568.42	13764.62313
568.624	13501.44039
568.828	13722.11276
569.033	13827.3741
569.237	13853.6882
569.442	13766.6474
569.646	13420.44905
569.85	13922.50745
570.055	14135.01898
570.259	13639.11228
570.463	14033.8263
570.668	13817.25317
570.872	13724.13709
571.076	13954.89191
571.281	13898.21866
571.485	13912.38717
571.689	13819.27736
571.893	13932.62766
572.098	13956.91591
572.302	13813.20478
572.506	14159.3044
572.71	13865.833
572.914	14177.51826
573.119	14161.32817
573.323	13952.8679
573.527	13936.67573
573.731	14141.09036
573.935	14274.65616
574.139	14369.76626
574.343	13991.32364
574.547	14262.51416
574.751	14147.16173
574.955	14462.84927
575.159	14076.32792
575.364	14252.39578
575.568	14234.18258
575.772	14406.19043
575.976	13969.0599
576.18	14238.22997
576.383	14446.66114
576.587	14511.4131
576.791	14213.9455
576.995	14456.77873
577.199	14693.52123
577.403	14592.35117
577.607	14685.42772
577.811	14513.43657
578.015	14529.62434
578.219	14717.80168
578.422	14375.83699
578.626	14802.78231
578.83	14452.7317
579.034	14495.22524
579.238	14381.9077
579.442	14851.3421
579.645	14778.50227
579.849	14859.43536
580.053	14871.57523
580.257	14679.35757
580.46	14703.6381
580.664	15098.18344
580.868	14758.26882
581.071	14984.87987
581.275	15118.41616
581.479	15274.20809
581.682	14980.8333
581.886	15175.06774
582.09	14879.66847
582.293	14845.27214
582.497	15128.53251
582.7	15185.18409
582.904	14901.92483
583.107	15280.27792
583.311	14843.24882
583.515	15162.92812
583.718	15177.09101
583.922	15474.514
584.125	15110.32307
584.329	15245.88225
584.532	15288.37103
584.735	15559.49372
584.939	15241.8357
585.142	15674.82536
585.346	15296.46414
585.549	15537.23702
585.753	15684.94231
585.956	15537.23702
586.159	15154.83503
586.363	15632.33445
586.566	15292.41759
586.769	15430.00123
586.973	15249.92879
587.176	15775.99585
587.379	15608.0541
587.582	15749.69128
587.786	15464.39744
587.989	15739.57419
588.192	15517.00372
588.395	15741.59761
588.599	16099.76112
588.802	15636.38119
589.005	15869.07502
589.208	16144.28168
589.411	15848.84021
589.615	15962.15674
589.818	16405.35076
590.021	15840.74632
590.224	15824.5586
590.427	15808.37094
590.63	15947.99196
590.833	15966.20384
591.036	15844.79326
591.239	16174.63705
591.442	16039.05248
591.645	16087.61928
591.848	15952.03903
592.051	16014.76939
592.254	15773.97241
592.457	15960.1332
592.66	15822.53513
592.863	16030.95809
593.066	16107.85571
593.269	16263.68166
593.472	16429.63784
593.675	16395.23123
593.878	16148.32904
594.081	16439.75754
594.284	16413.44642
594.486	16676.57366
594.689	16571.31837
594.892	16391.18343
595.095	16287.96715
595.298	16674.54946
595.5	16567.27021
595.703	16676.57366
595.906	16595.60751
596.109	16745.39779
596.311	16571.31837
596.514	16609.77633
596.717	16370.94455
596.92	16830.41968
597.122	16632.04183
597.325	16733.25216
597.528	16457.97313
597.73	16715.03387
597.933	16512.6209
598.136	17126.00732
598.338	17030.84616
598.541	16729.20363
598.743	16899.25015
598.946	16634.06598
599.148	16557.14985
599.351	16968.08359
599.554	16810.17598
599.756	16911.397
599.959	16741.34924
600.161	16901.27462
600.363	16866.85897
600.566	17107.7845
600.768	17018.69836
600.971	17445.95763
601.173	17051.09271
601.376	17204.97556
601.578	17119.93302
601.78	17346.72454
601.983	16990.35388
602.185	17336.59913
602.388	17128.0321
602.59	17285.97319
602.792	16713.00962
602.995	17273.82325
603.197	16765.64071
603.399	17421.65496
603.601	17219.14981
603.804	17020.72299
604.006	17077.41363
604.208	17113.85875
604.41	16903.29909
604.613	16858.76128
604.815	17346.72454
605.017	17415.57936
605.219	17279.89821
605.421	17081.46304
605.623	17107.7845
605.826	17482.41247
606.028	17134.10643
606.23	17117.90826
606.432	17235.34912
606.634	17488.48837
606.836	17553.29982
607.038	17484.43777
607.24	17338.6242
607.442	17397.35274
607.644	17247.49873
607.846	17458.10913
608.048	17403.42825
608.25	17650.52317
608.452	17559.37606
608.654	17822.70826
608.856	17437.85669
609.058	17348.74963
609.26	17547.22361
609.462	17695.0864
609.664	17913.87504
609.866	17531.02052
610.067	17379.12637
610.269	17709.26595
610.471	17425.70537
610.673	17283.9482
610.875	17855.12231
611.077	17968.57849
611.278	17405.45343
611.48	17682.93263
611.682	17334.57405
611.884	17915.90105
612.085	17526.96977
612.287	17765.98578
612.489	17476.33659
612.69	17369.00071
612.892	17751.80557
613.094	17826.75997
613.295	17443.93239
613.497	17516.84298
613.699	17650.52317
613.9	17877.40749
614.102	18071.91428
614.304	18114.46703
614.505	17713.31728
614.707	17877.40749
614.908	17869.30374
615.11	17620.14007
615.311	17652.54874
615.513	17468.23546
615.714	17413.55417
615.916	17802.44992
616.117	17601.91056
616.319	18343.46906
616.52	17875.38154
616.722	17865.25189
616.923	18102.30894
617.124	18294.8275
617.326	17938.18737
617.527	18329.28171
617.729	17887.53725
617.93	17976.68293
618.131	18063.80918
618.333	18203.63036
618.534	17936.16132
618.735	17942.23947
618.937	17721.41998
619.138	17733.57412
619.339	17571.52863
619.54	17654.57431
619.742	17855.12231
619.943	18031.38934
620.144	17533.04589
620.345	18047.59914
620.546	17761.93427
620.748	17940.21342
620.949	17790.29509
621.15	17940.21342
621.351	17678.8814
621.552	17717.36862
621.753	17581.65586
621.954	18063.80918
622.155	17371.02584
622.356	17721.41998
622.558	18122.57249
622.759	18007.07506
622.96	18053.67788
623.161	18167.15359
623.362	17788.26929
623.563	18223.89574
623.764	17636.3443
623.965	18163.10069
624.166	17776.1146
624.366	17786.2435
624.567	17806.50156
624.768	17749.77984
624.969	17581.65586
625.17	17944.26553
625.371	17948.31766
625.572	18041.52044
625.773	17816.63072
625.973	18211.73647
626.174	18065.83545
626.375	17928.05717
626.576	17940.21342
626.777	18175.25944
626.977	17851.07051
627.178	18329.28171
627.379	18134.7308
627.58	18268.48088
627.78	18124.59887
627.981	18219.84263
628.182	18106.36162
628.382	18100.2826
628.583	17930.0832
628.784	18185.39183
628.984	17838.91518
629.185	18124.59887
629.386	17842.96694
629.586	18404.27405
629.787	18244.16149
629.987	18021.25833
630.188	18138.7836
630.388	18414.40855
630.589	17774.08883
630.79	18343.46906
630.99	18122.57249
631.191	18398.1934
631.391	18096.22994
631.591	18073.94057
631.792	18278.61412
631.992	18519.81298
632.193	18225.9223
632.393	18408.32784
632.594	18402.24717
632.794	18122.57249
632.994	18090.15098
633.195	18333.33522
633.395	18562.3831
633.595	18807.70157
633.796	18854.33889
633.996	18714.43322
634.196	18351.57619
634.397	18564.41029
634.597	18345.49584
634.797	18592.79137
634.997	17932.10924
635.198	18246.18809
635.398	18187.41831
635.598	18414.40855
635.798	18483.32566
635.998	18181.33886
636.199	18167.15359
636.399	18536.02997
636.599	18173.23297
636.799	18440.75869
636.999	18197.55081
637.199	18252.2679
637.399	18163.10069
637.599	18315.09455
637.799	18438.73173
637.999	18803.64625
638.199	18219.84263
638.399	18582.65518
638.599	18386.0322
638.799	18892.86697
638.999	18884.75568
639.199	18900.97833
639.399	18333.33522
639.599	18850.28339
639.799	18562.3831
639.999	18586.70964
640.199	18448.86655
640.399	19059.16269
640.599	18252.2679
640.799	19000.34769
640.998	18884.75568
641.198	18929.36859
641.398	18661.72002
641.598	18534.00283
641.798	18513.73167
641.997	18536.02997
642.197	18252.2679
642.397	18748.90099
642.597	18795.53566
642.796	18911.11762
642.996	18459.00147
643.196	18765.1215
643.395	18521.84009
643.595	18546.16571
643.795	18475.21754
643.994	18698.21349
644.194	18621.17321
644.394	18850.28339
644.593	18830.00612
644.793	19245.77089
644.992	19095.67027
645.192	18817.83994
645.392	18469.13648
645.591	18882.72786
645.791	19136.2358
645.99	18917.20124
646.19	18730.6532
646.389	19091.61381
646.589	19024.68452
646.788	19006.43184
646.987	18838.11698
647.187	19436.47172
647.386	19146.37744
647.586	19168.6894
647.785	19057.13453
647.984	18907.06189
648.184	18884.75568
648.383	18969.92747
648.582	19046.99379
648.782	19178.83136
648.981	19002.37574
649.18	19040.9094
649.38	19120.0094
649.579	19065.2472
649.778	18961.81557
649.977	19255.91364
650.177	19126.09427
650.376	19414.15378
650.575	19067.27538
650.774	19221.42873
650.973	18765.1215
651.173	18615.09132
651.372	18925.31279
651.571	19083.50093
651.77	18864.47772
651.969	19130.15087
652.168	19061.19086
652.367	19093.64204
652.566	18963.84354
652.765	18907.06189
652.964	19046.99379
653.163	19320.82963
653.362	19172.74617
653.561	18909.08975
653.76	19136.2358
653.959	19207.22941
654.158	19235.62825
654.357	18984.12346
654.556	19128.12257
654.755	19069.30356
654.954	18947.61989
655.153	19205.20095
655.352	19363.43305
655.551	19428.35605
655.749	19633.2972
655.948	19550.09814
656.147	19472.99308
656.346	19353.28921
656.545	19274.17083
656.743	19213.3148
656.942	19191.00185
657.141	19574.44836
657.34	19351.26046
657.538	19231.57122
657.737	19615.03339
657.936	19381.69221
658.135	19412.1249
658.333	19227.51421
658.532	19268.08506
658.731	19101.755
658.929	18905.03403
659.128	18702.2684
659.326	19046.99379
659.525	19170.71778
659.724	19286.34248
659.922	19292.42836
660.121	19111.89629
660.319	19225.48571
660.518	19335.03057
660.716	19270.11365
660.915	19255.91364
661.113	19517.63212
661.312	19249.82798
661.51	19592.71141
661.709	19367.49061
661.907	19219.40024
662.105	19095.67027
662.304	19298.51428
662.502	19661.70824
662.701	19972.25391
662.899	19207.22941
663.097	19521.69031
663.296	19351.26046
663.494	19513.57394
663.692	19438.50065
663.891	19324.88702
664.089	19101.755
664.287	19554.15647
664.485	19158.54754
664.684	19424.29824
664.882	19312.7149
665.08	19375.60579
665.278	19278.22803
665.476	19578.50678
665.675	19369.5194
665.873	19184.91659
666.071	18832.03382
666.269	18801.6186
666.467	19091.61381
666.665	19282.28525
666.863	19002.37574
667.061	19235.62825
667.259	19144.3491
667.457	19055.10638
667.655	18651.58317
667.853	19030.76882
668.051	18915.17336
668.249	19176.80296
668.447	19217.37176
668.645	19333.00185
668.843	19197.08715
669.041	19172.74617
669.239	19233.59974
669.437	19231.57122
669.635	19387.77868
669.833	19176.80296
670.031	19138.26412
670.229	19128.12257
670.426	19284.31386
670.624	19034.82504
670.822	19010.48796
671.02	19257.9422
671.218	18971.95546
671.415	18986.15147
671.613	19010.48796
671.811	19174.77456
672.009	19160.5759
672.206	19600.82844
672.404	19180.85977
672.602	19168.6894
672.799	19115.95283
672.997	19296.48564
673.195	19053.07822
673.392	19373.57699
673.59	18819.86763
673.788	18917.20124
673.985	18785.39751
674.183	18896.92264
674.38	19069.30356
674.578	18919.22912
674.775	18840.1447
674.973	18941.53609
675.17	18945.59195
675.368	19109.86802
675.565	19193.03028
675.763	18998.31965
675.96	18803.64625
676.158	19261.99933
676.355	18888.81132
676.553	19408.06716
676.75	19028.74071
676.947	19083.50093
677.145	18898.95048
677.342	18625.22782
677.539	18894.89481
677.737	19314.74358
677.934	18797.5633
678.131	18832.03382
678.329	18903.00618
678.526	18996.29161
678.723	19180.85977
678.92	19247.79943
679.118	19339.08801
679.315	19249.82798
679.512	19178.83136
679.709	19166.66102
679.906	18609.00947
680.104	18592.79137
680.301	18513.73167
680.498	18552.2472
680.695	18728.62569
680.892	18544.13855
681.089	18848.25565
681.286	18655.6379
681.483	18238.08173
681.68	19006.43184
681.877	18681.99402
682.075	18992.23554
682.272	18262.40099
682.469	18637.39175
682.665	18430.62395
682.862	18063.80918
683.059	18015.17976
683.256	18304.96098
683.453	18209.70993
683.65	18584.68241
683.847	18181.33886
684.044	18112.44067
684.241	18142.83641
684.438	18475.21754
684.635	18611.03675
684.831	18890.83914
685.028	18454.94749
685.225	18367.79065
685.422	18106.36162
685.619	18345.49584
685.815	18331.30846
686.012	18343.46906
686.209	18136.7572
686.405	18795.53566
686.602	18475.21754
686.799	18306.98768
686.996	18183.36534
687.192	18420.4893
687.389	18075.96686
687.586	18108.38797
687.782	18138.7836
687.979	18428.59701
688.175	18227.94886
688.372	18296.85419
688.568	17887.53725
688.765	17986.81355
688.962	18209.70993
689.158	18499.54209
689.355	18203.63036
689.551	18256.32112
689.748	18240.10831
689.944	18179.31238
690.14	18298.88088
690.337	18280.64078
690.533	18473.19051
690.73	18191.4713
690.926	18073.94057
691.123	17901.71906
691.319	17755.85704
691.515	18203.63036
691.712	18069.888
691.908	17849.04461
692.104	17899.69308
692.301	17798.3983
692.497	17802.44992
692.693	17790.29509
692.889	17998.97041
693.086	17934.13528
693.282	17863.22596
693.478	17897.6671
693.674	17705.21463
693.87	17873.35561
694.067	18051.65163
694.263	17859.17413
694.459	17842.96694
694.655	17940.21342
694.851	17895.64112
695.047	17759.90853
695.243	17522.91905
695.439	17924.00512
695.635	17666.7278
695.831	18027.33692
696.027	17411.52898
696.224	17857.14822
696.42	17670.77899
696.615	18104.33528
696.811	17409.5038
697.007	17686.98388
697.203	17462.15965
697.399	17433.80624
697.595	17360.90024
697.791	17186.75173
697.987	17618.11455
698.183	17719.3943
698.379	17796.37249
698.575	17737.62553
698.77	17928.05717
698.966	17990.86582
699.162	17662.67662
699.358	17893.61515
699.554	17913.87504
699.749	18071.91428
699.945	17632.29322
700.141	17634.31876
700.337	17583.68131
700.532	17624.1911
700.728	17285.97319
700.924	17701.16333
701.119	17522.91905
701.315	17304.19831
701.511	17172.57781
701.706	17583.68131
701.902	17298.12325
702.097	17543.17281
702.293	17498.61495
702.489	17419.62976
702.684	17152.32959
702.88	17490.51368
703.075	17330.52392
703.271	17348.74963
703.466	17166.50331
703.662	17097.6608
703.857	17275.84823
704.053	17326.47379
704.248	17318.37358
704.443	17682.93263
704.639	17454.05861
704.834	17381.15151
705.03	17223.19962
705.225	17101.71027
705.42	16735.27642
705.616	16992.37847
705.811	16725.15512
706.006	16706.93691
706.202	17040.9694
706.397	17136.13121
706.592	17040.9694
706.787	17016.67374
706.983	17099.68554
707.178	17383.17665
707.373	17389.2521
707.568	17409.5038
707.763	16864.83455
707.959	17533.04589
708.154	17087.53718
708.349	17259.64845
708.544	17053.11738
708.739	17466.21019
708.934	16812.20034
709.129	16968.08359
709.324	16895.20121
709.519	17350.77473
709.714	16998.45225
709.909	17219.14981
710.104	16905.32356
710.299	16992.37847
710.494	17219.14981
710.689	17115.8835
710.884	16951.88721
711.079	17223.19962
711.274	17211.05022
711.469	17326.47379
711.664	17158.40402
711.859	17249.52368
712.054	16702.88845
712.249	17138.156
712.443	17012.6245
712.638	17055.14205
712.833	16518.69297
713.028	16883.05448
713.223	16459.99709
713.417	16577.39063
713.612	16690.74311
713.807	16911.397
714.002	16781.83522
714.196	16933.66649
714.391	16542.98143
714.586	16874.95671
714.78	16749.44636
714.975	16868.8834
715.17	16636.09013
715.364	16439.75754
715.559	16405.35076
715.754	16253.56279
715.948	16227.25392
716.143	16741.34924
716.337	16433.68571
716.532	16453.92521
716.726	16338.56275
716.921	16385.11175
717.115	16571.31837
717.31	16700.86422
717.504	16769.68932
717.699	16652.28343
717.893	16729.20363
718.088	16435.70965
718.282	16261.65788
718.476	16261.65788
718.671	16381.06397
718.865	16344.6343
719.059	15887.28645
719.254	15911.56852
719.448	15871.09851
719.642	16095.71384
719.837	15747.66786
720.031	16441.78149
720.225	15913.59203
720.419	16008.69866
720.614	15852.88716
720.808	15929.78018
721.002	15662.68507
721.196	15757.78498
721.39	15958.10965
721.585	16053.21771
721.779	15630.31109
721.973	16063.33577
722.167	15537.23702
722.361	15929.78018
722.555	15790.15992
722.749	16028.9345
722.943	15903.47447
723.137	15800.27714
723.331	15717.31667
723.525	15705.17626
723.719	15778.01928
723.913	15545.33035
724.107	15678.87214
724.301	15905.49798
724.495	15964.18029
724.689	16057.26493
724.883	15952.03903
725.077	16154.40009
725.271	15749.69128
725.465	15966.20384
725.659	15591.86726
725.853	15610.07746
726.046	15506.8871
726.24	15541.28368
726.434	15423.93132
726.628	15761.83183
726.822	15749.69128
727.015	15755.76155
727.209	15707.19966
727.403	15751.71471
727.596	15800.27714
727.79	15775.99585
727.984	15569.61043
728.177	15848.84021
728.371	15660.66168
728.565	15608.0541
728.758	15541.28368
728.952	15353.11605
729.146	15401.67504
729.339	15765.87869
729.533	15684.94231
729.726	15735.52736
729.92	15595.91396
730.113	15664.70845
730.307	15612.10081
730.5	15591.86726
730.694	15308.60382
730.887	15472.49069
731.081	15320.7435
731.274	15713.26986
731.468	15680.89553
731.661	15735.52736
731.854	15084.02053
732.048	15741.59761
732.241	15725.4103
732.435	15458.32751
732.628	15519.02705
732.821	15397.62845
733.014	15395.60515
733.208	15397.62845
733.401	15258.02189
733.594	15413.81482
733.788	15367.27907
733.981	15658.63831
734.174	15778.01928
734.367	15476.53732
734.56	15440.11774
734.754	15460.35082
734.947	15458.32751
735.14	15282.3012
735.333	15231.71934
735.526	15680.89553
735.719	15294.44086
735.912	15130.55579
736.105	15203.39353
736.298	15031.41536
736.491	14849.31878
736.684	15276.23137
736.877	15282.3012
737.07	14790.6423
737.263	15106.27653
737.456	15411.79152
737.649	15434.04783
737.842	15332.8832
738.035	15575.68046
738.228	15067.83433
738.421	15270.16154
738.614	14964.647
738.807	15405.72163
739	15417.86142
739.192	15466.42075
739.385	15274.20809
739.578	15146.74195
739.771	15579.72716
739.964	15387.51198
740.156	15624.24099
740.349	15342.99962
740.542	15223.62625
740.735	15086.0438
740.927	15150.78849
741.12	15175.06774
741.313	15270.16154
741.505	15342.99962
741.698	15094.13689
741.891	15175.06774
742.083	15110.32307
742.276	15084.02053
742.468	15061.76451
742.661	14695.54461
742.854	14877.64516
743.046	14618.65564
743.239	14800.75898
743.431	14988.92644
743.624	15029.39208
743.816	14916.08794
744.009	14869.55192
744.201	14515.46005
744.393	14703.6381
744.586	14723.87177
744.778	14837.17886
744.971	14513.43657
745.163	15009.15927
745.355	15013.20584
745.548	14675.31081
745.74	14831.1089
745.932	15013.20584
746.125	15047.60158
746.317	14893.83162
746.509	14855.38873
746.702	14855.38873
746.894	14495.22524
747.086	14632.81951
747.278	14713.75495
747.471	14600.44487
747.663	14385.95484
747.855	14296.91631
748.047	14849.31878
748.239	14644.95992
748.431	14681.38096
748.623	14845.27214
748.815	14796.71231
749.008	14956.55384
749.2	14474.9903
749.392	14252.39578
749.584	14495.22524
749.776	14703.6381
749.968	14501.2957
750.16	14454.75522
750.352	14588.30431
750.544	14655.07691
750.736	14640.91312
750.928	14723.87177
751.12	14529.62434
751.311	14418.3317
751.503	14507.36614
751.695	14400.11977
751.887	14092.51874
752.079	14357.62475
752.271	14288.82174
752.463	14114.78089
752.654	14248.34842
752.846	14422.37879
753.038	14323.22349
753.23	14487.13128
753.421	14383.93127
753.613	14280.72713
753.805	14509.38962
753.997	14260.49049
754.188	14262.51416
754.38	14377.86056
754.572	14045.96973
754.763	14276.67982
754.955	13748.42886
755.146	14110.73325
755.338	13819.27736
755.53	13807.13216
755.721	14025.73064
755.913	13880.00181
756.104	13837.49497
756.296	14143.11415
756.487	14365.71909
756.679	14319.17625
756.87	14349.53038
757.062	14325.24711
757.253	13938.69976
757.445	13952.8679
757.636	13920.4834
757.827	13977.15584
758.019	13884.05002
758.21	13861.78475
758.401	13738.30735
758.593	13572.30296
758.784	13633.03886
758.975	13592.5486
759.167	13531.8106
759.358	13799.03531
759.549	13588.4995
759.74	13604.69582
759.932	13505.4898
760.123	13428.54846
760.314	13428.54846
760.505	13313.12583
760.696	13471.06935
760.888	13491.3168
761.079	13260.47246
761.27	13341.47647
761.461	13276.67381
761.652	13369.8263
761.843	13386.02585
762.034	13426.52361
762.225	13250.34648
762.416	13539.90919
762.607	13381.97599
762.798	13503.4651
762.989	13402.22514
763.18	13456.8959
763.371	13270.59833
763.562	13098.44334
763.753	13098.44334
763.944	13442.72227
764.135	13132.87698
764.326	13386.02585
764.517	13017.41752
764.708	13392.10062
764.899	13011.34027
765.089	12879.65516
765.28	12855.34163
765.471	13120.72408
765.662	12794.55436
765.853	12778.34358
766.043	12715.52336
766.234	12893.83769
766.425	12567.56944
766.615	12762.13244
766.806	12693.23097
766.997	12666.88451
767.187	12478.37579
767.378	12800.63331
767.569	13007.28874
767.759	12774.29083
767.95	13086.28996
768.141	13013.36603
768.331	13110.59654
768.522	13045.77745
768.712	13037.67471
768.903	12423.63711
769.093	12656.75099
769.284	12723.6295
769.474	12340.50608
769.665	12549.32628
769.855	12948.53933
770.046	12563.51545
770.236	12464.18474
770.426	12575.67734
770.617	12476.34851
770.807	12701.33738
770.998	12577.7043
771.188	12687.15111
771.378	12387.14197
771.569	12381.05923
771.759	12137.69787
771.949	12174.20872
772.139	12235.05482
772.33	12172.1804
772.52	11981.48458
772.71	12036.26592
772.9	11902.34565
773.09	11961.19372
773.281	11918.58029
773.471	12204.6326
773.661	12080.89834
773.851	12115.38448
774.041	12040.32357
774.231	12105.24173
774.421	11733.87957
774.611	11808.98615
774.802	11902.34565
774.992	12089.01293
775.182	11902.34565
775.372	11648.60889
775.562	11518.64182
775.752	11802.89687
775.942	11644.54799
776.131	11802.89687
776.321	11713.57845
776.511	11699.36714
776.701	11614.09006
776.891	11713.57845
777.081	11575.50707
777.271	11768.38947
777.461	12015.97721
777.651	11934.8144
777.84	11666.8825
778.03	11800.86709
778.22	11419.10972
778.41	11699.36714
778.599	11309.39412
778.789	11254.52533
778.979	11114.27072
779.169	11100.03917
779.358	11175.25714
779.548	11386.60441
779.738	11504.42435
779.927	11262.65451
780.117	10963.79587
780.307	11100.03917
780.496	11028.87346
780.686	11258.58994
780.875	11187.45328
781.065	10892.60408
781.254	10963.79587
781.444	11179.32256
781.633	11171.19168
781.823	11211.84443
782.012	11032.94043
782.202	11034.9739
782.391	10733.89719
782.581	10799.01634
782.77	11156.96222
782.96	11055.308
783.149	10882.43268
783.338	11043.10767
783.528	10894.63832
783.717	10971.93119
783.906	10731.86202
784.096	10829.53678
784.285	10685.04979
784.474	10788.84227
784.663	10780.7028
784.853	10742.03775
785.042	10715.58022
785.231	10902.77519
785.42	10851.91677
785.61	10990.23501
785.799	10868.19225
785.988	10971.93119
786.177	10538.46528
786.366	10815.29424
786.555	10778.66791
786.744	10640.26686
786.933	10381.62888
787.122	10660.62347
787.312	10740.00262
787.501	10432.55817
787.69	10520.13767
787.879	10601.58593
788.068	10324.57832
788.257	10359.2174
788.445	10153.36343
788.634	10336.80431
788.823	10275.66954
789.012	10393.85265
789.201	10275.66954
789.39	10283.82154
789.579	10137.05221
789.768	10234.9063
789.957	10028.96767
790.145	9992.25064
790.334	10234.9063
790.523	10139.09116
790.712	9839.21234
790.9	10081.99523
791.089	10135.01324
791.278	10393.85265
791.467	10324.57832
791.655	10320.50288
791.844	10230.82968
792.033	10002.45028
792.221	9912.68101
792.41	10161.51871
792.599	9677.92132
792.787	10310.31406
792.976	10108.50542
793.164	9924.92394
793.353	9943.28733
793.541	10047.32445
793.73	9908.59992
793.918	9941.24701
794.107	9898.39694
794.295	9665.66748
794.484	9641.15812
794.672	9688.13243
794.861	9594.1756
795.049	9643.20066
795.238	9181.1811
795.426	9622.77464
795.614	9361.18162
795.803	9526.75137
795.991	9624.81731
796.179	9549.22802
796.368	9655.45552
796.556	9737.14043
796.744	9365.27104
796.932	9673.83677
797.121	9459.30982
797.309	9690.17461
797.497	9508.35994
797.685	9461.35376
797.874	9393.89519
798.062	9451.13389
798.25	8923.22292
798.438	9346.86811
798.626	9287.56067
798.814	9434.78128
799.002	9295.74183
799.19	9447.04584
799.378	9175.04242
799.566	9330.50883
799.755	9166.85728
799.943	9516.53407
800.131	9283.46998
800.318	9502.22918
800.506	9308.01308
800.694	9377.53893
800.882	9064.5199
801.07	9463.39768
801.258	9385.71719
801.446	9414.33904
801.634	9197.55015
801.822	9377.53893
802.01	9213.91812
802.197	9113.64721
802.385	9074.75558
802.573	9140.25369
802.761	8990.81017
802.949	9412.29473
803.136	9025.62036
803.324	9269.15207
803.512	9324.37382
803.699	9496.09828
803.887	9152.53263
804.075	9573.74583
804.262	9246.65083
804.45	9310.05823
804.638	9303.92273
804.825	9381.62809
805.013	9324.37382
805.201	9602.34707
805.388	9199.59621
805.576	9234.37657
805.763	9164.81095
805.951	9428.64878
806.138	9142.30022
806.326	9359.13688
806.513	9066.56707
806.701	9277.33383
806.888	9293.69657
807.075	9410.2504
807.263	9177.08866
807.45	9334.59875
807.638	9185.27346
807.825	9363.22634
808.012	9056.33105
808.2	9191.41188
808.387	9277.33383
808.574	9414.33904
808.761	9291.65128
808.949	9655.45552
809.136	9406.1617
809.323	9451.13389
809.51	9451.13389
809.698	9393.89519
809.885	9289.60598
810.072	9160.71825
810.259	9757.55783
810.446	9567.61659
810.633	9581.91792
810.82	9630.94523
811.008	9416.38334
811.195	9291.65128
811.382	9033.81026
811.569	9029.71535
811.756	8994.90575
811.943	9164.81095
812.13	9046.09459
812.317	9224.14756
812.504	9281.42462
812.691	9510.4035
812.878	9183.22729
813.064	9543.09822
813.251	9277.33383
813.438	9549.22802
813.625	9338.6886
813.812	9355.04736
813.999	9209.82623
814.186	9361.18162
814.372	9154.57906
814.559	9483.83603
814.746	9162.76461
814.933	9318.23867
815.12	9158.67187
815.306	8937.56122
815.493	9025.62036
815.68	9213.91812
815.866	9087.03782
816.053	9312.10337
816.24	9183.22729
816.426	9250.74211
816.613	9087.03782
816.799	9054.28379
816.986	9209.82623
817.173	9336.64368
817.359	9181.1811
817.546	9160.71825
817.732	8630.11821
817.919	9132.06739
818.105	9048.14191
818.292	8931.41634
818.478	9001.04899
818.665	9295.74183
818.851	9117.7407
819.037	9152.53263
819.224	8820.78101
819.41	9035.85769
819.597	8906.83522
819.783	9115.69396
819.969	9125.92748
820.156	8912.98074
820.342	8849.46927
820.528	8814.63307
820.714	8662.93177
820.901	9050.18922
821.087	9015.3826
821.273	9074.75558
821.459	9074.75558
821.646	9095.22563
821.832	8781.84127
822.018	8876.10521
822.204	8656.77959
822.39	8978.52301
822.576	8773.6426
822.762	8796.18825
822.948	8554.21853
823.134	8900.68954
823.32	8517.28505
823.507	8814.63307
823.693	8437.24136
823.879	8564.47675
824.065	8461.87328
824.25	8714.19345
824.436	8560.37352
824.622	8718.29388
824.808	8714.19345
824.994	8787.99009
825.18	8480.34541
825.366	8371.54269
825.552	8252.41314
825.738	8710.09294
825.923	8435.18857
826.109	8790.03966
826.295	8369.48929
826.481	8806.43555
826.667	8509.07677
826.852	8691.63973
827.038	8435.18857
827.224	8623.96514
827.409	8492.65931
827.595	8710.09294
827.781	8406.44756
827.966	8472.13577
828.152	8418.7656
828.338	8529.59689
828.523	8332.52473
828.709	8558.32188
828.894	8455.71556
829.08	8500.86819
829.266	8287.33724
829.451	8248.30405
829.637	7960.46915
829.822	7843.16514
830.008	7956.35435
830.193	8161.99484
830.378	7764.92505
830.564	8215.42847
830.749	7892.56447
830.935	8044.80455
831.12	7657.81061
831.305	8048.9176
831.491	7771.103
831.676	8287.33724
831.861	7954.29692
832.047	8307.87818
832.232	7999.55567
832.417	7972.81306
832.602	7647.50813
832.788	7789.6357
832.973	7777.28075
833.158	7851.39919
833.343	7736.09215
833.528	8009.84037
833.714	7972.81306
833.899	8110.60363
834.084	7836.98938
834.269	8050.97409
834.454	7690.77497
834.639	7653.68968
834.824	7624.84082
835.009	7748.44961
835.194	7579.49847
835.379	7608.35389
835.564	7575.37592
835.749	7946.067
835.934	7715.49469
836.119	8098.26787
836.304	7587.7433
836.489	7565.06919
836.674	7515.5894
836.859	7484.65825
837.044	7569.19195
837.228	7713.43483
837.413	7373.26579
837.598	7756.6875
837.783	7439.28377
837.968	7278.32578
838.152	7191.60079
838.337	7482.596
838.522	7422.78136
838.707	7620.71921
838.891	7412.46665
839.076	7593.9267
839.261	7284.51894
839.445	7476.40912
839.63	7168.88065
839.815	7375.32919
839.999	7113.10163
840.184	7156.48671
840.368	7119.3001
840.553	7084.17278
840.737	6947.73472
840.922	7418.65554
841.106	7125.49837
841.291	7119.3001
841.475	6968.41345
841.66	7164.74942
841.844	6887.7536
842.029	7152.35522
842.213	6935.32639
842.397	6821.5454
842.582	6703.55418
842.766	7119.3001
842.951	6761.52407
843.135	6815.33719
843.319	6581.34439
843.504	6848.44529
843.688	6699.41279
843.872	6631.06652
844.056	6703.55418
844.241	6976.68431
844.425	6802.92014
844.609	6697.34206
844.793	7067.64004
844.977	6956.00648
845.161	6400.98988
845.346	6657.9938
845.53	6568.91178
845.714	6862.92825
845.898	6850.51435
846.082	6935.32639
846.266	6471.49416
846.45	6622.78042
846.634	6490.15256
846.818	6653.8514
847.002	6552.33367
847.186	6564.76739
847.37	6315.93418
847.554	6628.99503
847.738	6413.43376
847.922	6405.13793
848.106	6371.95088
848.29	6558.55064
848.473	6336.68309
848.657	6459.05418
848.841	6205.9259
849.025	6205.9259
849.209	6145.70482
849.392	6440.39264
849.576	6033.51635
849.76	6436.24538
849.944	6195.54436
850.127	6347.05667
850.311	6081.30871
850.495	6288.9571
850.678	6284.80643
850.862	6467.3476
851.046	6224.61119
851.229	6174.77953
851.413	6039.75084
851.596	6253.67342
851.78	6077.15335
851.964	6122.85717
852.147	6160.24275
852.331	6097.92923
852.514	5881.74499
852.698	6027.28164
852.881	5781.88162
853.065	6135.31988
853.248	5873.42512
853.431	5981.554
853.615	5794.36752
853.798	5939.97351
853.982	5842.22224
854.165	5960.76494
854.348	5802.69098
854.532	5825.57854
854.715	5717.35763
854.898	5881.74499
855.081	5531.98535
855.265	5956.60684
855.448	5673.63495
855.631	5942.05276
855.814	5783.96266
855.997	5981.554
856.181	5825.57854
856.364	5831.8201
856.547	5629.90185
856.73	5625.73626
856.913	5427.76174
857.096	5734.01116
857.279	5444.44147
857.462	5473.62737
857.645	5396.48319
857.828	5519.48162
858.011	5315.13426
858.194	5400.65397
858.377	5235.83693
858.56	5581.99177
858.743	5248.35981
858.926	5461.11969
859.109	5179.4736
859.292	5367.28512
859.475	5085.49699
859.658	5456.95028
859.841	5250.44687
860.023	5187.82479
860.206	5158.59397
860.389	5540.3207
860.572	5118.91629
860.755	5041.62517
860.937	4949.6702
861.12	5300.52939
861.303	5183.64924
861.486	5292.18324
861.668	5058.33945
861.851	5175.29786
862.034	4776.08878
862.216	4937.12744
862.399	4790.73424
862.581	4813.74629
862.764	4702.84481
862.947	5060.42863
863.129	4939.21796
863.312	4872.30998
863.494	4759.34974
863.677	4951.76059
863.859	4809.56249
864.042	4918.31174
864.224	4880.67476
864.406	4826.29716
864.589	4694.47231
864.771	4826.29716
864.954	4679.81957
865.136	4583.50276
865.318	4606.53935
865.501	4654.69801
865.683	4681.91288
865.865	4717.49582
866.048	4417.97942
866.23	4522.75704
866.412	4388.63187
866.594	4545.80072
866.777	4491.32954
866.959	4748.88711
867.141	4541.61116
867.323	4719.58873
867.505	4373.95649
867.687	4394.92099
867.869	4271.19914
868.052	4306.85552
868.234	4185.17896
868.416	4600.25691
868.598	4235.53658
868.78	4447.32269
868.962	4411.69102
869.144	4480.8526
869.326	4174.68625
869.508	4457.80139
869.69	4189.3759
869.872	4445.22689
870.054	4227.1445
870.236	4438.93934
870.417	4246.02621
870.599	4281.68696
870.781	4193.57275
870.963	4302.66097
871.145	4168.39038
871.327	4315.24435
871.508	4229.24255
871.69	4470.37511
871.872	4271.19914
872.054	4296.36899
872.235	4147.40275
872.417	4287.97939
872.599	4252.31973
872.78	4357.18332
872.962	4178.8834
873.144	4298.46634
873.325	4271.19914
873.507	4443.13106
873.689	4086.52677
873.87	4334.11796
874.052	4019.33299
874.233	4273.29675
874.415	4023.53322
874.596	4204.0645
874.778	3941.61396
874.959	4019.33299
875.141	4023.53322
875.322	4094.9245
875.503	4105.4212
875.685	4338.31185
875.866	4118.01654
876.048	4183.08046
876.229	3891.18678
876.41	4128.51209
876.592	3861.76558
876.773	4201.96619
876.954	3929.00826
877.136	4313.14717
877.317	3834.4424
877.498	4298.46634
877.679	4067.63066
877.86	4080.22826
878.042	3958.42044
878.223	4206.16279
878.404	3954.21894
878.585	4336.21492
878.766	4101.22258
878.947	4319.43863
879.128	3926.90723
879.309	4149.50161
879.49	3666.22685
879.672	3968.92383
879.853	3741.93923
880.034	4069.73031
880.215	3943.71485
880.396	4264.9062
880.576	3779.78602
880.757	4055.03232
880.938	3737.73364
881.119	4185.17896
881.3	3901.6934
881.481	4055.03232
881.662	4027.73337
881.843	4361.37674
882.023	4279.58944
882.204	4214.55573
882.385	4126.41302
882.566	4006.7318
882.747	3912.19951
882.927	4034.03344
883.108	3876.47667
883.289	4210.3593
883.469	3826.03459
883.65	4044.53314
883.831	4097.02388
884.011	4143.20497
884.192	4145.30387
884.373	4415.88331
884.553	4113.81818
884.734	4340.40877
884.914	4386.53545
885.095	4267.00387
885.275	4067.63066
885.456	4430.55563
885.636	4149.50161
885.817	4344.60254
885.997	4271.19914
886.178	4122.21482
886.358	4128.51209
886.538	4300.56367
886.719	4378.14956
886.899	4306.85552
887.08	4101.22258
887.26	4428.45965
887.44	4151.60044
887.621	4256.51531
887.801	3884.88256
887.981	4371.85992
888.161	3992.02949
888.342	4243.92833
888.522	4151.60044
888.702	4348.79622
888.882	4252.31973
889.062	4243.92833
889.242	4008.83205
889.423	4105.4212
889.603	3899.59211
889.783	3994.12988
889.963	3914.30068
890.143	4122.21482
890.323	4017.23284
890.503	4298.46634
890.683	4118.01654
890.863	4441.03521
891.043	3968.92383
891.223	4067.63066
891.403	3840.74805
891.583	4101.22258
891.763	3958.42044
891.943	4084.42729
892.122	4057.1321
892.302	4183.08046
892.482	3920.60405
892.662	4027.73337
892.842	3800.80928
893.022	3857.56223
893.201	3697.7767
893.381	3977.32617
893.561	3706.18927
893.741	4092.8251
893.92	3758.7608
894.1	4015.13268
894.28	3701.98302
894.459	4004.63154
894.639	3807.11587
894.819	4067.63066
894.998	3693.5703
895.178	3819.72853
895.357	3874.37514
895.537	3868.07045
895.716	3800.80928
895.896	3962.62186
896.075	3767.17112
896.255	3695.67351
896.434	3815.52439
896.614	3794.5025
896.793	3394.72502
896.973	3666.22685
897.152	3554.71665
897.331	3834.4424
897.511	3645.19124
897.69	3811.32017
897.87	3594.69806
898.049	3912.19951
898.228	3735.63082
898.407	3626.25757
898.587	3424.20497
898.766	3748.24746
898.945	3382.0897
899.124	3497.8895
899.304	3481.04927
899.483	3615.7382
899.662	3194.59295
899.841	3571.55174
900.02	3299.94482
900.199	3512.62374
900.378	3388.40744
900.557	3390.51332
900.737	3160.87159
900.916	3207.23738
901.095	3006.96599
901.274	3213.55937
901.453	3032.27126
901.632	3057.57431
901.811	2956.34891
901.989	3021.72767
902.168	2931.03714
902.347	3156.65613
902.526	3144.00935
902.705	3179.84037
902.884	3093.41646
903.063	3099.74107
903.242	3042.81447
903.42	3089.19997
903.599	2722.13682
903.778	2973.22223
903.957	2846.64946
904.135	2895.17519
904.314	2707.36104
904.493	2774.90219
904.672	2658.80758
904.85	2732.69056
905.029	2426.50679
905.207	2751.68645
905.386	2500.43581
905.565	2637.69528
905.743	2373.69231
905.922	2587.02073
906.1	2331.43614
906.279	2614.47032
906.457	2322.98444
906.636	2772.79173
906.814	2187.73689
906.993	2418.05691
907.171	2280.7236
907.35	2384.25572
907.528	2234.23239
907.707	2204.64483
907.885	2086.27838
908.063	2259.59177
908.242	1984.80289
908.42	2234.23239
908.598	2027.08625
908.777	2090.50617
908.955	2043.99885
909.133	2158.14672
909.311	1982.68866
909.49	2120.09989
909.668	1883.31288
909.846	2090.50617
910.024	1963.66025
910.202	2162.37399
910.38	2020.74392
910.559	2225.77897
910.737	1786.04035
910.915	1974.23165
911.093	1953.0887
911.271	2263.81821
911.449	1931.94516
911.627	2382.14306
911.805	2092.62006
911.983	2158.14672
912.161	2130.66871
912.339	2356.79032
912.517	2126.4412
912.695	2249.02552
912.872	2322.98444
913.05	2356.79032
913.228	2170.82842
913.406	2255.3653
913.584	2105.30322
913.762	2257.47854
913.939	1995.37398
914.117	2293.40225
914.295	2008.05906
914.473	2145.46473
914.65	2094.73394
914.828	2156.03307
915.006	1917.14434
915.184	2200.41789
915.361	2096.84781
915.539	2352.56473
915.716	2020.74392
915.894	2122.21367
916.072	1849.48009
916.249	2134.89618
916.427	1984.80289
916.604	2077.8227
916.782	2001.71655
916.959	2191.96393
917.137	1893.88536
917.314	2213.09859
917.492	1790.26979
917.669	2001.71655
917.847	1811.41673
918.024	1980.57441
918.201	1769.12244
918.379	1938.28829
918.556	1870.62573
918.733	1807.18737
918.911	1528.02125
919.088	1866.39664
919.265	1667.61017
919.442	1764.89292
919.62	1580.89675
919.797	1845.2509
919.974	1756.43384
920.151	1832.56322
920.328	1676.06981
920.506	1900.22878
920.683	1805.07269
920.86	1756.43384
921.037	1538.59641
921.214	1781.8109
921.391	1563.97668
921.568	1699.33356
921.745	1494.18059
921.922	1678.18471
922.099	1640.11608
922.276	1551.28657
922.453	1468.79999
922.63	1621.08147
922.807	1464.56989
922.984	1583.01175
923.161	1422.26885
923.338	1743.74511
923.514	1434.95916
923.691	1798.72862
923.868	1489.95049
924.045	1555.51661
924.222	1388.42813
924.399	1434.95916
924.575	1212.88546
924.752	1443.41937
924.929	1234.03433
925.105	1341.89751
925.282	1223.45986
925.459	1434.95916
925.635	1295.3676
925.812	1568.20671
925.989	1445.53442
926.165	1428.614
926.342	1248.83871
926.518	1257.29842
926.695	1310.17248
926.871	1367.27778
927.048	1151.5557
927.224	1202.31115
927.401	1136.75245
927.577	1160.01479
927.754	1115.60533
927.93	1274.21796
928.107	1047.93783
928.283	1083.88554
928.459	1054.28143
928.636	1187.50725
928.812	1001.41971
928.988	1031.02181
929.165	1054.28143
929.341	1176.93315
929.517	1062.73964
929.693	1124.06413
929.87	965.47598
930.046	1198.08145
930.222	912.62122
930.398	988.73347
930.574	811.15404
930.751	918.96355
930.927	952.79042
931.103	1003.53411
931.279	880.91064
931.455	878.79667
931.631	800.58571
931.807	937.99093
931.983	923.1918
932.159	929.53424
932.335	716.048
932.511	819.60887
932.687	811.15404
932.863	885.13862
933.039	703.36879
933.215	844.97423
933.391	751.97453
933.566	819.60887
933.742	570.26265
933.918	690.68998
934.094	582.93728
934.27	667.44655
934.445	468.88354
934.621	692.80309
934.797	515.34488
934.973	492.11332
935.148	530.12951
935.324	521.68107
935.5	428.76371
935.675	487.88959
935.851	373.87222
936.027	479.44231
936.202	388.64961
936.378	483.66592
936.553	386.5385
936.729	382.31634
936.904	314.77108
937.08	331.65572
937.255	323.21326
937.431	369.65026
937.606	276.78487
937.782	243.02442
937.957	205.04983
938.133	268.3443
938.308	158.64528
938.483	297.88759
938.659	186.06495
938.834	247.24421
939.009	158.64528
939.185	207.15936
939.36	181.84631
939.535	243.02442
939.71	141.77339
939.886	177.62776
940.061	238.8047
940.236	135.44678
940.411	141.77339
940.586	152.31817
940.761	116.46812
940.937	116.46812
941.112	177.62776
941.287	82.73264
941.462	116.46812
941.637	99.59967
941.812	162.86346
941.987	116.46812
942.162	133.33796
942.337	116.46812
942.512	82.73264
942.687	108.03372
942.862	40.5714
943.037	99.59967
943.212	84.84094
943.386	162.86346
943.561	137.55563
943.736	91.16598
943.911	108.03372
944.086	141.77339
944.26	91.16598
944.435	152.31817
944.61	86.94927
944.785	103.81665
944.959	19.49425
945.134	74.29967
945.309	74.29967
945.483	141.77339
945.658	76.40788
945.833	89.05761
946.007	108.03372
946.182	133.33796
946.357	160.75436
946.531	122.79415
946.706	89.05761
946.88	63.75895
947.055	124.90287
947.229	6.8491
947.404	84.84094
947.578	177.62776
947.752	51.11085
947.927	57.4348
948.101	27.92483
948.276	118.57677
948.45	65.86705
948.624	76.40788
948.799	202.94032
948.973	57.4348
949.147	108.03372
949.321	74.29967
949.496	84.84094
949.67	129.12037
949.844	127.01161
950.018	145.99124
950.193	65.86705
950.367	150.20917
950.541	135.44678
950.715	82.73264
950.889	112.25088
951.063	114.35949
951.237	103.81665
951.411	86.94927
951.585	36.35578
951.759	141.77339
951.933	152.31817
952.107	177.62776
952.281	129.12037
952.455	84.84094
952.629	76.40788
952.803	133.33796
952.977	84.84094
953.151	143.8823
953.325	59.54283
953.499	82.73264
953.672	86.94927
953.846	91.16598
954.02	76.40788
954.194	65.86705
954.368	150.20917
954.541	137.55563
954.715	84.84094
954.889	89.05761
955.062	183.95562
955.236	183.95562
955.41	103.81665
955.583	116.46812
955.757	103.81665
955.93	133.33796
956.104	51.11085
956.278	133.33796
956.451	112.25088
956.625	141.77339
956.798	84.84094
956.972	27.92483
957.145	76.40788
957.319	84.84094
957.492	122.79415
957.665	27.92483
957.839	200.83082
958.012	150.20917
958.185	124.90287
958.359	160.75436
958.532	74.29967
958.705	150.20917
958.879	186.06495
959.052	95.38278
959.225	99.59967
959.398	156.53622
959.572	188.1743
959.745	74.29967
959.918	154.42718
960.091	82.73264
960.264	135.44678
960.438	127.01161
960.611	25.81715
960.784	116.46812
960.957	103.81665
961.13	82.73264
961.303	65.86705
961.476	61.65088
961.649	93.27437
961.822	112.25088
961.995	116.46812
962.168	101.70815
962.341	99.59967
962.514	57.4348
962.686	103.81665
962.859	40.5714
963.032	192.39306
963.205	44.78711
963.378	32.14026
963.551	158.64528
963.723	116.46812
963.896	127.01161
964.069	124.90287
964.242	122.79415
964.414	8.95656
964.587	23.70949
964.76	120.68545
964.932	17.38667
965.105	74.29967
965.278	93.27437
965.45	139.6645
965.623	91.16598
965.795	101.70815
965.968	53.21881
966.14	135.44678
966.313	112.25088
966.485	171.30008
966.658	105.92518
966.83	23.70949
967.003	70.08331
967.175	70.08331
967.348	65.86705
967.52	67.97517
967.692	38.46358
967.865	70.08331
968.037	91.16598
968.209	124.90287
968.382	86.94927
968.554	84.84094
968.726	108.03372
968.898	27.92483
969.071	70.08331
969.243	27.92483
969.415	42.67924
969.587	129.12037
969.759	116.46812
969.932	108.03372
970.104	112.25088
970.276	101.70815
970.448	141.77339
970.62	82.73264
970.792	110.14229
970.964	82.73264
971.136	34.24801
971.308	40.5714
971.48	30.03253
971.652	53.21881
971.824	76.40788
971.996	78.51611
972.168	74.29967
972.339	30.03253
972.511	65.86705
972.683	101.70815
972.855	61.65088
973.027	65.86705
973.199	112.25088
973.37	101.70815
973.542	116.46812
973.714	11.06405
973.886	57.4348
974.057	95.38278
974.229	2.63424
974.401	17.38667
974.572	67.97517
974.744	55.32679
974.915	59.54283
975.087	51.11085
975.259	40.5714
975.43	-1.58052
975.602	65.86705
975.773	40.5714
975.945	19.49425
976.116	145.99124
976.288	23.70949
976.459	95.38278
976.63	99.59967
976.802	19.49425
976.973	23.70949
977.145	34.24801
977.316	84.84094
977.487	17.38667
977.659	-50.04327
977.83	133.33796
978.001	53.21881
978.172	82.73264
978.344	61.65088
978.515	46.895
978.686	91.16598
978.857	-3.68787
979.028	46.895
979.2	-66.89679
979.371	32.14026
979.542	67.97517
979.713	-1.58052
979.884	44.78711
980.055	21.60186
980.226	59.54283
980.397	-1.58052
980.568	91.16598
980.739	6.8491
980.91	86.94927
981.081	89.05761
981.252	57.4348
981.423	51.11085
981.594	-18.43861
981.765	70.08331
981.936	67.97517
982.106	82.73264
982.277	19.49425
982.448	53.21881
982.619	89.05761
982.79	4.74166
982.96	84.84094
983.131	-28.97412
983.302	93.27437
983.472	-18.43861
983.643	78.51611
983.814	53.21881
983.984	-10.00976
984.155	0.52684
984.326	127.01161
984.496	42.67924
984.667	57.4348
984.837	11.06405
985.008	-16.33143
985.178	101.70815
985.349	36.35578
985.519	36.35578
985.69	-20.54576
985.86	40.5714
986.031	44.78711
986.201	65.86705
986.371	57.4348
986.542	84.84094
986.712	82.73264
986.882	23.70949
987.053	82.73264
987.223	21.60186
987.393	32.14026
987.563	32.14026
987.734	-7.90249
987.904	0.52684
988.074	-24.75999
988.244	15.2791
988.414	67.97517
988.585	32.14026
988.755	49.00291
988.925	-1.58052
989.095	-1.58052
989.265	23.70949
989.435	49.00291
989.605	82.73264
989.775	8.95656
989.945	99.59967
990.115	-1.58052
990.285	99.59967
990.455	53.21881
990.625	42.67924
990.795	51.11085
990.965	36.35578
991.134	-52.15005
991.304	32.14026
991.474	108.03372
991.644	4.74166
991.814	32.14026
991.984	0.52684
992.153	6.8491
992.323	49.00291
992.493	-24.75999
992.662	-37.40208
992.832	65.86705
993.002	-26.86706
993.171	72.19148
993.341	2.63424
993.511	-1.58052
993.68	23.70949
993.85	32.14026
994.019	36.35578
994.189	0.52684
994.358	36.35578
994.528	30.03253
994.697	-81.64228
994.867	84.84094
995.036	78.51611
995.206	-22.65289
995.375	-41.61591
995.544	49.00291
995.714	-41.61591
995.883	-33.18815
996.052	44.78711
996.222	57.4348
996.391	-16.33143
996.56	15.2791
996.73	6.8491
996.899	23.70949
997.068	49.00291
997.237	82.73264
997.406	44.78711
997.576	-1.58052
997.745	-33.18815
997.914	-18.43861
998.083	-43.72279
998.252	25.81715
998.421	57.4348
998.59	2.63424
998.759	-39.50901
998.928	8.95656
999.097	23.70949
999.266	55.32679
999.435	6.8491
999.604	-26.86706
999.773	40.5714
999.942	17.38667
1000.111	84.84094
1000.28	82.73264
1000.448	-22.65289
1000.617	17.38667
1000.786	-22.65289
1000.955	38.46358
1001.124	23.70949
1001.292	-14.22423
1001.461	-12.11701
1001.63	-7.90249
1001.798	-10.00976
1001.967	0.52684
1002.136	17.38667
1002.304	38.46358
1002.473	51.11085
1002.642	67.97517
1002.81	27.92483
1002.979	-5.79519
1003.147	11.06405
1003.316	-12.11701
1003.484	44.78711
1003.653	8.95656
1003.821	-5.79519
1003.99	17.38667
1004.158	-31.08114
1004.327	23.70949
1004.495	42.67924
1004.663	-22.65289
1004.832	-26.86706
1005	-16.33143
1005.168	27.92483
1005.337	-1.58052
1005.505	23.70949
1005.673	78.51611
1005.842	17.38667
1006.01	-14.22423
1006.178	65.86705
1006.346	-39.50901
1006.514	-22.65289
1006.683	2.63424
1006.851	-39.50901
1007.019	38.46358
1007.187	25.81715
1007.355	74.29967
1007.523	19.49425
1007.691	86.94927
1007.859	-14.22423
1008.027	15.2791
1008.195	-37.40208
1008.363	19.49425
1008.531	23.70949
1008.699	23.70949
1008.867	53.21881
1009.035	32.14026
1009.203	-39.50901
1009.37	51.11085
1009.538	-16.33143
1009.706	23.70949
1009.874	63.75895
1010.042	-10.00976
1010.209	-35.29512
1010.377	19.49425
1010.545	-37.40208
1010.713	-31.08114
1010.88	-1.58052
1011.048	-26.86706
1011.216	-31.08114
1011.383	57.4348
1011.551	15.2791
1011.718	67.97517
1011.886	0.52684
1012.054	0.52684
1012.221	65.86705
1012.389	11.06405
1012.556	-18.43861
1012.724	61.65088
1012.891	15.2791
1013.058	-52.15005
1013.226	40.5714
1013.393	32.14026
1013.561	-43.72279
1013.728	6.8491
1013.895	-24.75999
1014.063	23.70949
1014.23	-43.72279
1014.397	-1.58052
1014.565	11.06405
1014.732	21.60186
1014.899	-24.75999
1015.066	-77.42941
1015.233	-3.68787
1015.401	-18.43861
1015.568	65.86705
1015.735	6.8491
1015.902	-5.79519
1016.069	-26.86706
1016.236	76.40788
1016.403	-58.47023
1016.57	-39.50901
1016.737	36.35578
1016.904	-3.68787
1017.071	19.49425
1017.238	49.00291
1017.405	-3.68787
1017.572	2.63424
1017.739	44.78711
1017.906	76.40788
1018.073	74.29967
1018.24	-31.08114
1018.407	95.38278
1018.573	15.2791
1018.74	-33.18815
1018.907	-87.96139
1019.074	15.2791
1019.241	8.95656
1019.407	-35.29512
1019.574	67.97517
1019.741	8.95656
1019.907	6.8491
1020.074	53.21881
1020.241	-7.90249
1020.407	8.95656
1020.574	-1.58052
1020.74	27.92483
1020.907	0.52684
1021.073	-10.00976
1021.24	17.38667
1021.406	15.2791
1021.573	19.49425
1021.739	57.4348
1021.906	30.03253
1022.072	25.81715
1022.239	-35.29512
1022.405	19.49425
1022.571	-64.79019
1022.738	2.63424
1022.904	-43.72279
1023.07	-26.86706
1023.237	34.24801
1023.403	-41.61591
1023.569	-18.43861
1023.735	15.2791
1023.902	0.52684
1024.068	-5.79519
1024.234	-75.32294
1024.4	19.49425
1024.566	15.2791
1024.732	-10.00976
1024.898	19.49425
1025.065	67.97517
1025.231	21.60186
1025.397	21.60186
1025.563	49.00291
1025.729	51.11085
1025.895	11.06405
1026.061	-1.58052
1026.227	57.4348
1026.392	-3.68787
1026.558	40.5714
1026.724	-10.00976
1026.89	8.95656
1027.056	23.70949
1027.222	4.74166
1027.388	-1.58052
1027.553	-50.04327
1027.719	-10.00976
1027.885	-10.00976
1028.051	49.00291
1028.216	65.86705
1028.382	-94.28026
1028.548	-18.43861
1028.713	-58.47023
1028.879	-28.97412
1029.045	34.24801
1029.21	63.75895
1029.376	55.32679
1029.541	4.74166
1029.707	-43.72279
1029.873	76.40788
1030.038	23.70949
1030.204	-22.65289
1030.369	-3.68787
1030.534	34.24801
1030.7	-85.85504
1030.865	27.92483
1031.031	-16.33143
1031.196	-39.50901
1031.361	51.11085
1031.527	-33.18815
1031.692	21.60186
1031.857	0.52684
1032.023	-69.00336
1032.188	2.63424
1032.353	-26.86706
1032.518	-14.22423
1032.684	32.14026
1032.849	-31.08114
1033.014	82.73264
1033.179	6.8491
1033.344	42.67924
1033.509	-7.90249
1033.674	-22.65289
1033.839	-14.22423
1034.004	8.95656
1034.17	-18.43861
1034.335	67.97517
1034.5	51.11085
1034.664	-58.47023
1034.829	2.63424
1034.994	-16.33143
1035.159	-31.08114
1035.324	49.00291
1035.489	-33.18815
1035.654	32.14026
1035.819	-26.86706
1035.984	15.2791
1036.148	11.06405
1036.313	-69.00336
1036.478	-28.97412
1036.643	-60.57691
1036.807	-26.86706
1036.972	-41.61591
1037.137	-85.85504
1037.301	23.70949
1037.466	42.67924
1037.631	2.63424
1037.795	44.78711
1037.96	-45.82964
1038.124	-14.22423
1038.289	13.17157
1038.454	2.63424
1038.618	17.38667
1038.783	-1.58052
1038.947	65.86705
1039.111	110.14229
1039.276	32.14026
1039.44	-5.79519
1039.605	6.8491
1039.769	-35.29512
1039.933	15.2791
1040.098	8.95656
1040.262	-7.90249
1040.426	-37.40208
1040.591	6.8491
1040.755	-16.33143
1040.919	36.35578
1041.083	19.49425
1041.248	-43.72279
1041.412	-90.0677
1041.576	67.97517
1041.74	36.35578
1041.904	25.81715
1042.068	-20.54576
1042.232	-26.86706
1042.397	30.03253
1042.561	13.17157
1042.725	-26.86706
1042.889	57.4348
1043.053	2.63424
1043.217	8.95656
1043.381	13.17157
1043.544	67.97517
1043.708	32.14026
1043.872	17.38667
1044.036	-26.86706
1044.2	-50.04327
1044.364	-5.79519
1044.528	15.2791
1044.691	-60.57691
1044.855	17.38667
1045.019	-1.58052
1045.183	-62.68356
1045.346	49.00291
1045.51	15.2791
1045.674	-22.65289
1045.837	-31.08114
1046.001	36.35578
1046.165	17.38667
1046.328	-92.17399
1046.492	-60.57691
1046.655	0.52684
1046.819	-28.97412
1046.983	49.00291
1047.146	-71.10991
1047.31	-73.21644
1047.473	89.05761
1047.636	40.5714
1047.8	-85.85504
1047.963	-3.68787
1048.127	-22.65289
1048.29	-87.96139
