Data from mixed_try1_USB4F045381__2__00106.txt Node

Date: Thu Apr 03 19:58:34 EDT 2025
User: mmckonesweet
Spectrometer: USB4F04538
Trigger mode: 4
Integration Time (sec): 2.700000E-3
Scans to average: 1
Electric dark correction enabled: true
Nonlinearity correction enabled: true
Boxcar width: 0
XAxis mode: Wavelengths
Number of Pixels in Spectrum: 3648
>>>>>Begin Spectral Data<<<<<
345.52	2.63424
345.736	2.63424
345.952	2.63424
346.168	19.49425
346.384	2.63424
346.6	32.14026
346.816	8.95656
347.032	-41.61591
347.248	72.19148
347.464	32.14026
347.68	-43.72279
347.896	-35.29512
348.112	-16.33143
348.328	-22.65289
348.544	6.8491
348.76	27.92483
348.975	-20.54576
349.191	13.17157
349.407	-7.90249
349.623	15.2791
349.839	-75.32294
350.055	38.46358
350.27	-98.49271
350.486	-22.65289
350.702	23.70949
350.918	-14.22423
351.133	38.46358
351.349	19.49425
351.565	23.70949
351.781	-18.43861
351.996	2.63424
352.212	19.49425
352.428	38.46358
352.644	-22.65289
352.859	-3.68787
353.075	0.52684
353.291	38.46358
353.506	-60.57691
353.722	30.03253
353.938	-35.29512
354.153	63.75895
354.369	-81.64228
354.584	-47.93647
354.8	-22.65289
355.016	-20.54576
355.231	38.46358
355.447	-1.58052
355.662	-31.08114
355.878	-12.11701
356.093	17.38667
356.309	-12.11701
356.524	-37.40208
356.74	55.32679
356.955	36.35578
357.171	-47.93647
357.386	38.46358
357.602	-5.79519
357.817	-10.00976
358.033	-31.08114
358.248	-35.29512
358.464	-54.2568
358.679	-31.08114
358.895	-39.50901
359.11	-39.50901
359.325	-10.00976
359.541	-12.11701
359.756	51.11085
359.972	21.60186
360.187	-31.08114
360.402	-50.04327
360.618	6.8491
360.833	-58.47023
361.048	86.94927
361.264	-10.00976
361.479	53.21881
361.694	-62.68356
361.909	-20.54576
362.125	-73.21644
362.34	-10.00976
362.555	-33.18815
362.77	15.2791
362.986	-14.22423
363.201	2.63424
363.416	-31.08114
363.631	51.11085
363.847	-35.29512
364.062	36.35578
364.277	-60.57691
364.492	38.46358
364.707	-28.97412
364.922	40.5714
365.138	70.08331
365.353	59.54283
365.568	-52.15005
365.783	-56.36353
365.998	-35.29512
366.213	-7.90249
366.428	-41.61591
366.643	8.95656
366.858	-28.97412
367.073	25.81715
367.288	-37.40208
367.503	53.21881
367.718	-37.40208
367.933	-43.72279
368.148	-10.00976
368.363	72.19148
368.578	38.46358
368.793	-5.79519
369.008	15.2791
369.223	19.49425
369.438	63.75895
369.653	-52.15005
369.868	-14.22423
370.083	19.49425
370.298	53.21881
370.513	34.24801
370.728	-22.65289
370.943	-14.22423
371.157	55.32679
371.372	2.63424
371.587	2.63424
371.802	-39.50901
372.017	15.2791
372.232	-10.00976
372.446	40.5714
372.661	-10.00976
372.876	44.78711
373.091	19.49425
373.306	-31.08114
373.52	30.03253
373.735	-14.22423
373.95	-18.43861
374.165	-10.00976
374.379	-18.43861
374.594	19.49425
374.809	-77.42941
375.023	57.4348
375.238	63.75895
375.453	-31.08114
375.667	72.19148
375.882	40.5714
376.097	27.92483
376.311	-37.40208
376.526	-39.50901
376.741	-10.00976
376.955	55.32679
377.17	74.29967
377.384	-5.79519
377.599	15.2791
377.813	-28.97412
378.028	23.70949
378.242	-18.43861
378.457	51.11085
378.672	6.8491
378.886	4.74166
379.101	57.4348
379.315	-18.43861
379.53	-28.97412
379.744	36.35578
379.958	2.63424
380.173	4.74166
380.387	19.49425
380.602	-35.29512
380.816	36.35578
381.031	2.63424
381.245	27.92483
381.459	46.895
381.674	-83.74867
381.888	36.35578
382.103	27.92483
382.317	-12.11701
382.531	-1.58052
382.746	27.92483
382.96	2.63424
383.174	-18.43861
383.388	2.63424
383.603	46.895
383.817	0.52684
384.031	-56.36353
384.246	11.06405
384.46	32.14026
384.674	44.78711
384.888	2.63424
385.103	8.95656
385.317	-18.43861
385.531	74.29967
385.745	-12.11701
385.959	25.81715
386.174	27.92483
386.388	34.24801
386.602	-1.58052
386.816	-45.82964
387.03	-5.79519
387.244	30.03253
387.458	27.92483
387.672	21.60186
387.887	-33.18815
388.101	-47.93647
388.315	6.8491
388.529	57.4348
388.743	55.32679
388.957	46.895
389.171	4.74166
389.385	15.2791
389.599	55.32679
389.813	19.49425
390.027	-14.22423
390.241	2.63424
390.455	-37.40208
390.669	32.14026
390.883	-39.50901
391.097	23.70949
391.311	-39.50901
391.525	-18.43861
391.738	49.00291
391.952	19.49425
392.166	70.08331
392.38	65.86705
392.594	-5.79519
392.808	11.06405
393.022	95.38278
393.236	-18.43861
393.449	40.5714
393.663	30.03253
393.877	61.65088
394.091	-18.43861
394.305	15.2791
394.518	4.74166
394.732	27.92483
394.946	78.51611
395.16	-5.79519
395.373	-58.47023
395.587	15.2791
395.801	-1.58052
396.015	-14.22423
396.228	70.08331
396.442	61.65088
396.656	6.8491
396.869	-47.93647
397.083	114.35949
397.297	27.92483
397.51	-56.36353
397.724	65.86705
397.938	-47.93647
398.151	-10.00976
398.365	-18.43861
398.578	6.8491
398.792	-14.22423
399.005	19.49425
399.219	-39.50901
399.433	-24.75999
399.646	2.63424
399.86	-20.54576
400.073	44.78711
400.287	55.32679
400.5	-39.50901
400.714	36.35578
400.927	19.49425
401.141	15.2791
401.354	-20.54576
401.567	38.46358
401.781	11.06405
401.994	4.74166
402.208	-24.75999
402.421	19.49425
402.635	-39.50901
402.848	32.14026
403.061	-10.00976
403.275	15.2791
403.488	63.75895
403.701	-20.54576
403.915	-56.36353
404.128	13.17157
404.341	55.32679
404.555	-24.75999
404.768	32.14026
404.981	19.49425
405.195	86.94927
405.408	2.63424
405.621	91.16598
405.834	19.49425
406.048	-18.43861
406.261	25.81715
406.474	53.21881
406.687	19.49425
406.9	-1.58052
407.114	57.4348
407.327	95.38278
407.54	61.65088
407.753	2.63424
407.966	53.21881
408.179	2.63424
408.392	63.75895
408.605	32.14026
408.819	78.51611
409.032	-45.82964
409.245	27.92483
409.458	53.21881
409.671	63.75895
409.884	61.65088
410.097	70.08331
410.31	78.51611
410.523	-14.22423
410.736	2.63424
410.949	-1.58052
411.162	-14.22423
411.375	27.92483
411.588	44.78711
411.801	89.05761
412.014	40.5714
412.227	-22.65289
412.44	55.32679
412.653	63.75895
412.865	44.78711
413.078	-31.08114
413.291	91.16598
413.504	-5.79519
413.717	0.52684
413.93	91.16598
414.143	72.19148
414.356	63.75895
414.568	36.35578
414.781	38.46358
414.994	40.5714
415.207	76.40788
415.42	65.86705
415.632	114.35949
415.845	23.70949
416.058	27.92483
416.271	78.51611
416.483	53.21881
416.696	2.63424
416.909	27.92483
417.121	137.55563
417.334	21.60186
417.547	61.65088
417.759	57.4348
417.972	76.40788
418.185	82.73264
418.397	23.70949
418.61	57.4348
418.823	57.4348
419.035	38.46358
419.248	137.55563
419.46	99.59967
419.673	4.74166
419.885	55.32679
420.098	49.00291
420.311	53.21881
420.523	89.05761
420.736	57.4348
420.948	61.65088
421.161	40.5714
421.373	44.78711
421.586	118.57677
421.798	150.20917
422.01	32.14026
422.223	53.21881
422.435	65.86705
422.648	70.08331
422.86	95.38278
423.073	122.79415
423.285	80.62436
423.497	86.94927
423.71	36.35578
423.922	105.92518
424.134	44.78711
424.347	97.49122
424.559	63.75895
424.771	82.73264
424.984	162.86346
425.196	89.05761
425.408	120.68545
425.621	99.59967
425.833	148.10019
426.045	89.05761
426.257	122.79415
426.47	27.92483
426.682	112.25088
426.894	89.05761
427.106	175.51851
427.318	61.65088
427.531	74.29967
427.743	148.10019
427.955	181.84631
428.167	183.95562
428.379	188.1743
428.591	80.62436
428.804	122.79415
429.016	150.20917
429.228	181.84631
429.44	120.68545
429.652	162.86346
429.864	95.38278
430.076	175.51851
430.288	190.28367
430.5	205.04983
430.712	158.64528
430.924	190.28367
431.136	183.95562
431.348	114.35949
431.56	148.10019
431.772	156.53622
431.984	133.33796
432.196	167.08173
432.408	215.59768
432.62	148.10019
432.832	205.04983
433.044	175.51851
433.256	162.86346
433.468	196.6119
433.679	198.72135
433.891	238.8047
434.103	272.56455
434.315	219.81696
434.527	264.12413
434.739	226.14603
434.95	171.30008
435.162	207.15936
435.374	162.86346
435.586	266.2342
435.798	219.81696
436.009	308.43963
436.221	217.70731
436.433	205.04983
436.645	234.58507
436.856	333.76638
437.068	289.44628
437.28	186.06495
437.491	274.6747
437.703	331.65572
437.915	333.76638
438.126	323.21326
438.338	340.09847
438.55	344.31995
438.761	264.12413
438.973	407.65029
439.184	259.90403
439.396	407.65029
439.608	281.00526
439.819	314.77108
440.031	369.65026
440.242	342.2092
440.454	344.31995
440.665	352.76311
440.877	331.65572
441.088	318.99213
441.3	401.31658
441.511	375.98323
441.723	323.21326
441.934	407.65029
442.146	399.20538
442.357	451.9903
442.569	340.09847
442.78	340.09847
442.991	365.42837
443.203	382.31634
443.414	331.65572
443.626	460.4368
443.837	511.12083
444.048	409.76156
444.26	441.43252
444.471	409.76156
444.682	451.9903
444.894	483.66592
445.105	394.98302
445.316	466.77183
445.528	365.42837
445.739	475.21875
445.95	475.21875
446.161	475.21875
446.373	559.70082
446.584	585.04977
446.795	568.15026
447.006	614.62592
447.217	557.58849
447.429	451.9903
447.64	468.88354
447.851	494.22521
448.062	525.90526
448.273	559.70082
448.484	629.41493
448.695	511.12083
448.907	559.70082
449.118	608.28796
449.329	604.06272
449.54	610.4006
449.751	572.37505
449.962	589.27478
450.173	701.25563
450.384	639.97888
450.595	652.65602
450.806	787.90403
451.017	627.30218
451.228	777.33623
451.439	595.61239
451.65	707.59515
451.861	591.3873
452.072	699.14248
452.283	813.26773
452.494	804.81301
452.705	883.02463
452.915	764.6552
453.126	792.13122
453.337	876.6827
453.548	895.70869
453.759	838.63277
453.97	876.6827
454.181	940.10513
454.391	891.48064
454.602	980.27611
454.813	999.30532
455.024	1041.59428
455.235	978.16178
455.445	1050.05236
455.656	914.73532
455.867	1062.73964
456.078	1018.33505
456.288	990.84783
456.499	1069.08335
456.71	1052.16689
456.921	1109.26129
457.131	1238.26414
457.342	1185.39243
457.553	1050.05236
457.763	1147.32618
457.974	1280.56283
458.184	1176.93315
458.395	1248.83871
458.606	1236.14923
458.816	1337.66748
459.027	1540.71144
459.237	1481.4903
459.448	1502.64077
459.659	1470.91504
459.869	1519.56111
460.08	1415.92371
460.29	1532.25132
460.501	1895.99984
460.711	1703.56329
460.922	1610.50661
461.132	1690.87405
461.343	1542.82647
461.553	1722.59694
461.764	1709.90787
461.974	1821.99003
462.184	1686.64428
462.395	1847.3655
462.605	1950.97438
462.816	1919.25876
463.026	2048.22693
463.236	1889.65638
463.447	2166.60122
463.657	2014.40152
463.867	2177.16916
464.078	2191.96393
464.288	2166.60122
464.498	2301.85449
464.709	2365.2414
464.919	2259.59177
465.129	2405.38178
465.339	2491.98746
465.55	2380.03039
465.76	2382.14306
465.97	2409.60686
466.18	2388.48102
466.391	2899.39446
466.601	2631.36135
466.811	2783.34387
467.021	2777.01263
467.231	3011.18369
467.441	2739.02264
467.651	3004.85712
467.862	3019.6189
468.072	3316.79719
468.282	3082.87512
468.492	3150.33281
468.702	3356.81716
468.912	3478.94416
469.122	3247.27412
469.332	3516.83337
469.542	3255.70214
469.752	3762.966
469.962	3884.88256
470.172	3920.60405
470.382	3830.23853
470.592	3813.42229
470.802	3945.81571
471.012	4159.99558
471.222	4187.27744
471.432	4080.22826
471.642	4225.04642
471.852	4365.57008
472.062	4239.7325
472.272	4378.14956
472.482	4566.74719
472.691	4677.72623
472.901	4543.70595
473.111	4591.88001
473.321	4700.75172
473.531	4926.6745
473.741	4851.39643
473.95	5219.13846
474.16	4813.74629
474.37	5192.00025
474.58	5221.22585
474.79	5606.98989
474.999	5486.13421
475.209	5371.45655
475.419	5596.57442
475.628	5702.78456
475.838	5677.79946
476.048	5852.62379
476.258	5977.39638
476.467	6371.95088
476.677	6527.46373
476.886	6378.1739
477.096	6363.65318
477.306	6666.27833
477.515	6525.39109
477.725	6602.06356
477.935	6736.68203
478.144	6786.36281
478.354	6970.4812
478.563	7073.83999
478.773	7123.4323
478.982	7340.24843
479.192	7414.52964
479.401	7315.48174
479.611	7416.5926
479.82	7501.15547
480.03	7569.19195
480.239	7764.92505
480.449	8055.08702
480.658	8011.89725
480.868	8073.59419
481.077	8053.03057
481.287	7981.04192
481.496	8406.44756
481.705	8492.65931
481.915	8769.54315
482.124	8703.94203
482.333	8872.00757
482.543	8779.79163
482.752	8849.46927
482.961	8902.73812
483.171	9117.7407
483.38	8923.22292
483.589	9387.76171
483.799	9324.37382
484.008	9391.85071
484.217	9455.22189
484.426	9806.55342
484.636	9659.54035
484.845	9873.90827
485.054	9775.93219
485.263	10020.80873
485.472	10151.32458
485.682	10185.98322
485.891	10104.42708
486.1	10086.07387
486.309	10581.22574
486.518	10723.72122
486.727	10532.35619
486.936	10898.70678
487.146	10703.36837
487.355	11150.86372
487.564	10866.15785
487.773	11211.84443
487.982	11333.77788
488.191	11441.45567
488.4	11350.03291
488.609	11607.99823
488.818	11504.42435
489.027	11571.44551
489.236	11748.08983
489.445	11796.80751
489.654	11863.78627
489.863	12003.8036
490.072	12026.12166
490.281	12009.89044
490.49	12011.91937
490.698	12340.50608
490.907	12153.92521
491.116	12632.42992
491.325	12458.10276
491.534	12612.16169
491.743	12650.6708
491.952	12857.36779
492.16	12883.70734
492.369	13181.48689
492.578	13092.36667
492.787	13140.97882
492.996	12980.95333
493.204	13266.548
493.413	13432.59814
493.622	13738.30735
493.831	13379.95105
494.039	13805.10795
494.248	13586.47494
494.457	13991.32364
494.665	14062.16083
494.874	13792.96263
495.083	13983.22777
495.291	14149.18551
495.5	14238.22997
495.709	14394.04909
495.917	14228.11148
496.126	14169.42323
496.335	14288.82174
496.543	14541.76511
496.752	14371.78983
496.96	14557.95273
497.169	15059.74123
497.377	14687.4511
497.586	14952.50726
497.794	15041.53175
498.003	14699.59136
498.211	15104.25326
498.42	15090.09035
498.628	15177.09101
498.837	15294.44086
499.045	15393.58186
499.254	15434.04783
499.462	15383.46539
499.671	15885.26295
499.879	15648.52142
500.087	15875.14549
500.296	16026.91091
500.504	15832.65245
500.713	16028.9345
500.921	16399.27904
501.129	15820.51168
501.338	15879.19247
501.546	16415.47034
501.754	16346.65816
501.962	16283.91955
502.171	16124.04497
502.379	16587.5111
502.587	16245.46772
502.795	16474.1649
503.004	16273.80058
503.212	16798.02988
503.42	16524.76505
503.628	16992.37847
503.837	16611.80045
504.045	17051.09271
504.253	17130.05687
504.461	17263.69837
504.669	17057.16672
504.877	17245.47379
505.085	17229.27436
505.294	17391.27726
505.502	17255.59853
505.71	17482.41247
505.918	17253.57358
506.126	17535.07127
506.334	17115.8835
506.542	18007.07506
506.75	17662.67662
506.958	17812.57905
507.166	17855.12231
507.374	18015.17976
507.582	17737.62553
507.79	17998.97041
507.998	18053.67788
508.206	18175.25944
508.414	17924.00512
508.622	18033.41555
508.83	18173.23297
509.037	18335.36198
509.245	18315.09455
509.453	18444.81261
509.661	18347.52262
509.869	18769.17667
510.077	18219.84263
510.285	18698.21349
510.492	18444.81261
510.7	18791.48039
510.908	18898.95048
511.116	18850.28339
511.324	18515.75877
511.531	18969.92747
511.739	18947.61989
511.947	18781.34228
512.155	18720.51569
512.362	18844.20017
512.57	19006.43184
512.778	19223.45722
512.985	19219.40024
513.193	19136.2358
513.401	19302.57158
513.608	19343.14548
513.816	19521.69031
514.024	19349.23171
514.231	19493.2833
514.439	19448.64536
514.646	19700.26739
514.854	19594.74066
515.061	19255.91364
515.269	19633.2972
515.477	19663.73763
515.684	19619.09198
515.892	19953.98379
516.099	20085.94227
516.307	20112.3361
516.514	20262.59143
516.722	20108.27547
516.929	19980.37407
517.136	19913.38476
517.344	20073.76075
517.551	20217.91852
517.759	20266.65271
517.966	20276.80597
518.173	20356.005
518.381	20268.68335
518.588	20394.59145
518.796	20618.01643
519.003	20847.58734
519.21	20589.57772
519.418	20648.48739
519.625	20561.13982
519.832	21058.92047
520.039	21195.09123
520.247	21258.10178
520.454	20808.98321
520.661	21630.14582
520.868	20955.2804
521.076	21514.24896
521.283	21449.1897
521.49	21439.02456
521.697	21180.86358
521.904	21632.17921
522.112	21312.98511
522.319	21782.6611
522.526	21540.68045
522.733	21569.14588
522.94	21504.08319
523.147	21729.78665
523.354	21705.38395
523.561	21963.67415
523.768	21988.08273
523.975	22179.30203
524.183	22024.69661
524.39	22458.05268
524.597	22311.54741
524.804	22283.06248
525.011	22299.3395
525.218	22342.06779
525.425	22614.75257
525.632	22228.12928
525.838	22512.99698
526.045	22419.38974
526.252	22352.24143
526.459	22755.18975
526.666	22490.61195
526.873	22962.82265
527.08	22683.95142
527.287	22602.54143
527.494	22791.82826
527.701	23425.03164
527.907	23119.58837
528.114	23099.22807
528.321	23062.58037
528.528	23396.52057
528.735	23496.312
528.941	23634.81033
529.148	23205.10518
529.355	23429.1047
529.562	23559.44919
529.768	23909.81128
529.975	23150.12943
530.182	23783.50789
530.388	23734.61927
530.595	23844.62104
530.802	23895.55067
531.008	24421.24637
531.215	24260.25831
531.422	24406.98094
531.628	24193.01505
531.835	23754.98932
532.042	24339.73137
532.248	24584.28875
532.455	24101.32449
532.661	24368.26114
532.868	24482.38534
533.074	24883.92055
533.281	24800.34453
533.487	24625.05188
533.694	24623.0137
533.9	25409.92554
534.107	25002.15677
534.313	25293.70262
534.52	25322.24796
534.726	24951.19193
534.933	25114.28443
535.139	25373.22282
535.345	25460.90264
535.552	25324.28693
535.758	25383.41795
535.965	25679.09893
536.171	25448.66802
536.377	25677.05961
536.584	25566.9391
536.79	25815.73793
536.996	25878.96182
537.203	25367.10577
537.409	25254.96317
537.615	26029.89052
537.821	25426.23807
538.028	26231.82382
538.234	25781.06752
538.44	25844.29043
538.646	25925.87103
538.853	26335.85658
539.059	25980.93958
539.265	25993.17722
539.471	26103.31884
539.677	26337.89649
539.883	26739.7881
540.09	26421.53385
540.296	26639.81959
540.502	26803.03534
540.708	26664.30134
540.914	26960.13935
541.12	27035.63387
541.326	27347.83367
541.532	27486.59893
541.738	27107.04936
541.944	26758.15005
542.15	27219.27705
542.356	27068.28074
542.562	27490.68035
542.768	27358.0368
542.974	27609.04366
543.18	27482.51752
543.386	27651.90036
543.592	27304.98089
543.798	27655.98198
544.004	27698.83926
544.21	27831.49605
544.415	27635.57394
544.621	27866.19172
544.827	27225.39867
545.033	27933.5431
545.239	28098.86536
545.445	28258.07148
545.651	27943.74796
545.856	28164.17988
546.062	28433.61412
546.268	28343.80061
546.474	28141.72788
546.679	27862.10986
546.885	27776.39185
547.091	27931.50213
547.297	27927.42019
547.502	28386.66589
547.708	28370.33621
547.914	28211.12539
548.119	28515.26457
548.325	28298.89464
548.531	28056.00332
548.736	28549.96652
548.942	28327.47111
549.147	28376.45983
549.353	28652.03285
549.559	28594.87538
549.764	28752.0604
549.97	28570.37957
550.175	29156.2788
550.381	29311.44416
550.586	28913.33458
550.792	29274.69392
550.997	28974.57964
551.203	29188.94469
551.408	28923.54202
551.614	29235.90238
551.819	29423.73864
552.025	29768.80907
552.23	29366.57014
552.435	29580.95629
552.641	29838.23526
552.846	29989.34376
553.052	30017.93254
553.257	30250.73537
553.462	30281.36846
553.668	30007.72224
553.873	30097.57392
554.078	30028.14288
554.283	30175.17489
554.489	30569.33293
554.694	30312.00181
554.899	29942.37695
555.105	30309.95958
555.31	30475.38436
555.515	30222.14473
555.72	31071.80132
555.925	30179.2592
556.131	30463.13039
556.336	30489.68071
556.541	30853.23778
556.746	30777.66346
556.951	30781.74851
557.156	30371.22708
557.361	30802.17385
557.567	30657.15688
557.772	31047.2887
557.977	30951.28296
558.182	31012.56285
558.387	31110.61339
558.592	31180.06792
558.797	31071.80132
559.002	31333.28269
559.207	31670.38717
559.412	31231.13854
559.617	30896.13215
559.822	31451.77487
560.027	31092.22866
560.232	31231.13854
560.437	31333.28269
560.642	31382.31328
560.847	30722.51581
561.051	31437.4738
561.256	31306.72483
561.461	31950.32223
561.666	31476.29117
561.871	31893.1064
562.076	31535.53991
562.281	31680.60318
562.485	31643.82575
562.69	31582.53129
562.895	31394.57107
563.1	31739.85691
563.305	31807.28541
563.509	31686.73281
563.714	31645.86893
563.919	31766.41942
564.123	31725.55415
564.328	32124.02247
564.533	31731.6839
564.737	31380.27032
564.942	31649.95528
565.147	32506.21571
565.351	31862.45567
565.556	31819.54535
565.761	32549.14062
565.965	32318.1754
566.17	32109.71721
566.374	32146.50238
566.579	32168.98254
566.784	32361.096
566.988	32369.27146
567.193	32244.59944
567.397	32144.45874
567.602	32641.12602
567.806	32491.90763
568.011	32898.71127
568.215	32663.61207
568.42	32972.31442
568.624	32774.00239
568.828	32757.64781
569.033	32598.19891
569.237	33015.25117
569.442	32829.20024
569.646	32663.61207
569.85	32857.82207
570.055	32598.19891
570.259	32998.89418
570.463	33242.22249
570.668	32986.62654
570.872	32886.4444
571.076	33463.09322
571.281	33434.45987
571.485	33385.3755
571.689	33256.53715
571.893	33414.00784
572.098	33483.54597
572.302	33043.87633
572.506	33231.99781
572.71	33293.34692
572.914	33072.50201
573.119	33418.09822
573.323	33438.55031
573.527	33422.18861
573.731	33968.37019
573.935	33763.78041
574.139	33589.9053
574.343	33440.59553
574.547	33900.85177
574.751	34060.44694
574.955	34113.65016
575.159	33571.49635
575.364	34263.04176
575.568	33561.26926
575.772	33426.27902
575.976	33326.06752
576.18	33708.54695
576.383	33870.16283
576.587	33857.88747
576.791	33671.72596
576.995	33782.1921
577.199	33843.56637
577.403	34230.29669
577.607	34318.30128
577.811	34256.90199
578.015	34017.47689
578.219	33553.08765
578.422	34095.23338
578.626	34606.9255
578.83	34596.68922
579.034	34549.60366
579.238	34596.68922
579.442	35084.05624
579.645	34637.63497
579.849	34807.57796
580.053	35057.42878
580.257	34834.19824
580.46	34756.3872
580.664	35417.99241
580.868	35333.98394
581.071	34957.07077
581.275	34852.62809
581.479	35139.36196
581.682	34850.58031
581.886	34883.34532
582.09	35389.30564
582.293	35438.48356
582.497	35100.44276
582.7	34963.21483
582.904	35522.50264
583.107	34987.79144
583.311	35104.53944
583.515	35536.84823
583.718	35401.59985
583.922	35424.1397
584.125	35170.08885
584.329	35413.89424
584.532	35456.92604
584.735	36065.77012
584.939	35793.06307
585.142	35807.41359
585.346	35633.17523
585.549	35959.13587
585.753	35887.37151
585.956	36730.55219
586.159	36424.75314
586.363	36398.0794
586.566	36197.03394
586.769	35930.42929
586.973	35782.81286
587.176	35774.61278
587.379	35881.2206
587.582	36215.49487
587.786	35938.63106
587.989	36416.54572
588.192	36449.37599
588.395	36847.57426
588.599	36387.82055
588.802	36931.76164
589.005	36921.49427
589.208	37030.3372
589.411	36761.34536
589.615	36523.25
589.818	36644.33924
590.021	36595.07989
590.224	36716.18256
590.427	36656.65467
590.63	37196.72027
590.833	37108.38764
591.036	37176.17661
591.239	37346.71102
591.442	36728.49937
591.645	37044.71415
591.848	37178.23095
592.051	37474.13142
592.254	37188.50272
592.457	37416.58315
592.66	37492.63033
592.863	37519.35207
593.066	37332.32665
593.269	38239.28687
593.472	37276.84746
593.675	38245.4621
593.878	37211.10126
594.081	37381.64601
594.284	37722.89113
594.486	37984.11035
594.689	37838.05841
594.892	37589.24581
595.095	37780.47165
595.298	37838.05841
595.5	37712.60955
595.703	38371.04193
595.906	38163.13197
596.109	38212.52842
596.311	37938.85043
596.514	37811.32092
596.717	37714.66585
596.92	38500.77313
597.122	37675.59747
597.325	38130.20371
597.528	37959.42263
597.73	38181.65507
597.933	37945.022
598.136	38702.64736
598.338	38642.90006
598.541	38628.47944
598.743	39059.23225
598.946	38647.02032
599.148	38665.56193
599.351	38982.94485
599.554	38993.2532
599.756	38566.68177
599.959	38764.46298
600.161	38647.02032
600.363	38354.57061
600.566	39121.09648
600.768	39286.11028
600.971	39092.22543
601.173	38859.26301
601.376	39013.87061
601.578	38768.58432
601.78	38857.20194
601.983	39137.59507
602.185	39017.9942
602.388	39356.26009
602.59	39088.10115
602.792	39279.92113
602.995	38822.16502
603.197	38663.50172
603.399	39123.15877
603.601	38515.18987
603.804	38661.44151
604.006	39119.0342
604.208	39207.72097
604.41	38962.32886
604.613	39599.8106
604.815	39199.47028
605.017	39166.46908
605.219	39135.53271
605.421	38815.98231
605.623	39348.00658
605.826	39333.56331
606.028	39069.54236
606.23	38958.20578
606.432	39236.5996
606.634	39614.26292
606.836	39659.68779
607.038	39575.03634
607.24	39599.8106
607.442	39288.17334
607.644	39209.78366
607.846	39560.58536
608.048	39608.06901
608.25	39984.00167
608.452	40046.00198
608.654	40331.3283
608.856	39205.65828
609.058	39608.06901
609.26	39378.95806
609.462	39915.81235
609.664	40037.73472
609.866	39802.18897
610.067	39822.84541
610.269	39519.2996
610.471	39612.19828
610.673	40184.50419
610.875	40015.00063
611.077	39824.91111
611.278	39275.79509
611.48	39641.10429
611.682	39756.74846
611.884	40300.30453
612.085	39577.1008
612.287	40048.06883
612.489	39750.55242
612.69	40445.10336
612.892	40170.03154
613.094	39984.00167
613.295	39383.0851
613.497	39676.20715
613.699	39748.48709
613.9	40128.68405
614.102	39847.63452
614.304	40217.58651
614.505	39335.62661
614.707	39333.56331
614.908	39277.8581
615.11	39670.01231
615.311	39469.762
615.513	39143.7822
615.714	39647.2987
615.916	39667.94738
616.117	39603.93978
616.319	39891.01909
616.52	39577.1008
616.722	39352.13331
616.923	39366.5772
617.124	39872.42514
617.326	39703.05251
617.527	39905.48164
617.729	39787.73008
617.93	39362.45033
618.131	40041.86833
618.333	40008.80064
618.534	40209.31567
618.735	40010.86729
618.937	39872.42514
619.138	39785.66457
619.339	39740.22589
619.54	40141.08785
619.742	40279.62339
619.943	40029.46763
620.144	40449.24127
620.345	40095.60916
620.546	40227.92531
620.748	39888.95305
620.949	39527.55643
621.15	39874.49109
621.351	39537.87769
621.552	39777.40262
621.753	39645.23388
621.954	40486.48443
622.155	39864.16143
622.356	40170.03154
622.558	39905.48164
622.759	40451.31024
622.96	40399.58932
623.161	40358.21757
623.362	40496.8304
623.563	40796.98597
623.764	40221.722
623.965	40275.48729
624.166	40716.23101
624.366	40329.25997
624.567	40167.96407
624.768	40118.34785
624.969	39814.58271
625.17	40103.87763
625.371	39645.23388
625.572	39500.72232
625.773	39853.83203
625.973	40587.88696
626.174	40500.96886
626.375	40399.58932
626.576	40134.8859
626.777	40267.21523
626.977	39616.32758
627.178	40968.90739
627.379	40757.64164
627.58	40354.08064
627.78	40122.4823
627.981	40529.93936
628.182	41078.73045
628.382	40745.21797
628.583	40414.07048
628.784	40132.81861
628.984	39428.48509
629.185	39905.48164
629.386	39779.46809
629.586	40600.30545
629.787	40461.65526
629.987	40426.48333
630.188	40318.9185
630.388	40370.62863
630.589	39975.73568
630.79	40596.16591
630.99	39973.66921
631.191	40823.90817
631.391	40546.49492
631.591	40285.82761
631.792	40600.30545
631.992	41433.29188
632.193	40807.34044
632.393	40592.02641
632.594	40383.04009
632.794	40370.62863
632.994	40587.88696
633.195	40565.12078
633.395	40558.91206
633.595	40093.54207
633.796	40948.18974
633.996	41020.70663
634.196	40997.91406
634.397	40950.26145
634.597	40819.76617
634.797	41182.36738
634.997	40784.561
635.198	41060.07893
635.398	40716.23101
635.598	41192.7327
635.798	41368.98871
635.998	40917.11544
636.199	41093.23785
636.399	41084.94784
636.599	40844.61888
636.799	41298.47595
636.999	40993.77011
637.199	40869.47324
637.399	40989.62621
637.599	41122.25437
637.799	40494.76118
637.999	40993.77011
638.199	40339.60173
638.399	40347.87533
638.599	40203.11265
638.799	40649.98348
638.999	41319.21356
639.199	41232.12362
639.399	40890.18649
639.599	40796.98597
639.799	40542.35596
639.999	41128.4725
640.199	41120.18168
640.399	41033.13953
640.599	39862.09553
640.799	41786.13006
640.998	41277.73953
641.198	41161.63763
641.398	40997.91406
641.598	41528.7309
641.798	41300.54965
641.997	40592.02641
642.197	40683.10579
642.397	40975.12291
642.597	40724.51277
642.796	40906.75792
642.996	40772.13644
643.196	41408.39895
643.395	40790.77344
643.595	42087.36285
643.795	42137.24755
643.994	41470.63453
644.194	41213.46423
644.394	41138.83628
644.593	40906.75792
644.793	41678.16548
644.992	41354.47024
645.192	41020.70663
645.392	40331.3283
645.591	40780.41943
645.791	40867.40198
645.99	40908.8294
646.19	41238.34364
646.389	41371.06283
646.589	41935.67484
646.788	41478.93342
646.987	41543.25648
647.187	41856.74039
647.386	41933.59739
647.586	42212.08829
647.785	41991.77082
647.984	41530.80594
648.184	41435.36637
648.383	41391.80464
648.582	41742.52496
648.782	42353.49919
648.981	41605.51575
649.18	41734.21985
649.38	41487.23252
649.579	41655.33108
649.778	41472.70923
649.977	42619.84567
650.177	42151.79863
650.376	42054.11043
650.575	41524.58084
650.774	41476.85868
650.973	41572.30944
651.173	41198.95204
651.372	41346.17424
651.571	41798.58967
651.77	41898.28259
651.969	41871.27959
652.168	41518.35585
652.367	41792.35981
652.566	41142.98187
652.765	40991.69815
652.964	41271.51884
653.163	41383.50777
653.362	41711.3818
653.561	41694.77324
653.76	41617.96892
653.959	41694.77324
654.158	42012.54944
654.357	41831.81746
654.556	41466.48515
654.755	41767.44149
654.954	41854.66341
655.153	41811.04972
655.352	41900.35983
655.551	42031.25126
655.749	42143.48365
655.948	41989.69303
656.147	41931.51995
656.346	41400.1017
656.545	41692.69723
656.743	41954.37249
656.942	41946.0623
657.141	41628.3469
657.34	42027.09521
657.538	42326.46018
657.737	42103.99028
657.936	42882.23865
658.135	41779.90043
658.333	41628.3469
658.532	42145.56238
658.731	42112.30429
658.929	42234.95958
659.128	41393.87888
659.326	42079.04944
659.525	42301.50302
659.724	42118.53994
659.922	42343.09931
660.121	41727.99114
660.319	41358.61832
660.518	41640.80088
660.716	42270.30916
660.915	42172.58696
661.113	42655.23578
661.312	41775.7474
661.51	42361.81932
661.709	41892.05094
661.907	41512.13096
662.105	40782.49021
662.304	41387.65618
662.502	41624.19567
662.701	42020.86123
662.899	42101.91181
663.097	42045.79783
663.296	42110.22577
663.494	42220.40495
663.692	41528.7309
663.891	42101.91181
664.089	41416.6964
664.287	42158.035
664.485	41748.75393
664.684	42351.41919
664.882	41943.98478
665.08	42207.93004
665.278	42232.88031
665.476	42043.71971
665.675	42162.19264
665.873	42243.2768
666.071	41524.58084
666.269	41840.1249
666.467	41721.76254
666.665	42299.42334
666.863	41593.06301
667.061	42064.50146
667.259	42118.53994
667.457	41777.82391
667.655	41470.63453
667.853	41172.00236
668.051	41105.67322
668.249	41267.37177
668.447	40830.12126
668.645	41031.06735
668.843	41219.68392
669.041	41109.81843
669.239	41271.51884
669.437	41288.10759
669.635	41808.97301
669.833	41387.65618
670.031	41223.83044
670.229	40529.93936
670.426	41172.00236
670.624	41159.56472
670.822	40867.40198
671.02	41408.39895
671.218	41512.13096
671.415	41632.49818
671.613	41570.23415
671.811	41493.45697
672.009	41767.44149
672.206	41844.2787
672.404	41921.13293
672.602	41794.43641
672.799	41611.74228
672.997	41468.55983
673.195	41398.02742
673.392	41769.51795
673.59	41346.17424
673.788	41091.16533
673.985	40944.04635
674.183	41404.2503
674.38	41495.53181
674.578	41613.81781
674.775	41657.40688
674.973	41811.04972
675.17	41014.49033
675.368	41201.02517
675.565	41207.24465
675.763	40919.18698
675.96	41169.92939
676.158	40981.33854
676.355	40975.12291
676.553	41518.35585
676.75	41221.75718
676.947	41230.05031
677.145	40886.04375
677.342	40989.62621
677.539	41012.41826
677.737	41283.96033
677.934	40728.65372
678.131	41043.5006
678.329	41211.39103
678.526	41414.62202
678.723	41209.31783
678.92	41404.2503
679.118	41012.41826
679.315	40854.97466
679.512	40656.19369
679.709	40556.84251
679.906	41362.76644
680.104	41169.92939
680.301	40598.23567
680.498	40126.61679
680.695	39897.21726
680.892	40447.17231
681.089	40507.17664
681.286	40761.78295
681.483	40043.93515
681.68	40455.44821
681.877	40705.87906
682.075	40765.92431
682.272	40308.57729
682.469	40834.26338
682.665	40581.67787
682.862	40048.06883
683.059	40136.9532
683.256	40048.06883
683.453	39806.32018
683.65	39463.57021
683.847	39775.33715
684.044	39661.75267
684.241	39802.18897
684.438	39707.18272
684.635	39636.97474
684.831	39994.33439
685.028	39399.59363
685.225	39401.65724
685.422	39112.84742
685.619	39209.78366
685.815	39090.16329
686.012	39719.5736
686.209	38743.85686
686.405	39141.71981
686.602	39028.30336
686.799	38560.50245
686.996	39172.65662
687.192	39110.78518
687.389	39515.17124
687.586	39261.35423
687.782	39550.26354
687.979	39294.3626
688.175	39290.23642
688.372	39279.92113
688.568	39267.54311
688.765	38708.82856
688.962	38976.75996
689.158	38408.10444
689.355	39114.90967
689.551	39242.78812
689.748	39589.48781
689.944	38813.92143
690.14	38717.07027
690.337	38809.79969
690.533	39333.56331
690.73	39277.8581
690.926	39137.59507
691.123	38278.39797
691.319	38673.80288
691.515	39075.72853
691.712	38659.38131
691.908	38214.58671
692.104	38511.07075
692.301	38552.26348
692.497	38006.74179
692.693	38146.66757
692.889	38391.63186
693.086	38861.3241
693.282	39440.86774
693.478	39403.72086
693.674	38385.45479
693.87	38210.47014
694.067	38278.39797
694.263	38391.63186
694.459	38848.95771
694.655	38896.36402
694.851	38471.94096
695.047	38189.88777
695.243	37626.25199
695.439	37907.99366
695.635	38358.68839
695.831	37895.65147
696.027	37642.69999
696.224	37893.59446
696.42	38062.29595
696.615	38428.69594
696.811	38161.07389
697.007	38023.20166
697.203	37422.74876
697.399	37116.60407
697.595	37437.13543
697.791	37720.8348
697.987	37554.29783
698.183	38163.13197
698.379	37860.6835
698.575	37805.15092
698.77	37165.90506
698.966	37067.30719
699.162	36890.69319
699.358	38066.41131
699.554	37899.7655
699.749	37710.55325
699.945	37881.25261
700.141	37482.35308
700.337	38017.02915
700.532	38152.84166
700.728	37605.69269
700.924	37332.32665
701.119	37204.93794
701.315	37114.54995
701.511	37059.09144
701.706	37581.02256
701.902	37315.88781
702.097	37046.76803
702.293	37439.19069
702.489	37603.63681
702.684	37488.51941
702.88	37595.41334
703.075	38107.56678
703.271	37346.71102
703.466	37698.21566
703.662	37198.77468
703.857	37546.0751
704.053	38000.56948
704.248	37578.96676
704.443	37574.8552
704.639	37724.94747
704.834	37363.15075
705.03	36966.67198
705.225	36981.04742
705.42	36006.2991
705.616	37077.57704
705.811	36691.54966
706.006	37116.60407
706.202	36707.97149
706.397	37324.10717
706.592	37040.60641
706.787	37122.76647
706.983	36751.08081
707.178	37174.12229
707.373	36574.55626
707.568	36004.24846
707.763	35860.71793
707.959	36457.58381
708.154	36554.03327
708.349	36346.7867
708.544	36558.13782
708.739	36537.61535
708.934	36063.71932
709.129	36767.50418
709.324	36190.88041
709.519	36398.0794
709.714	36428.85688
709.909	36816.77686
710.104	36451.42793
710.299	36660.75986
710.494	36320.11603
710.689	36408.3384
710.884	36194.98276
711.079	36258.57226
711.274	36256.52089
711.469	36767.50418
711.664	36467.84372
711.859	36348.83834
712.054	35788.96297
712.249	35323.73958
712.443	35657.77122
712.638	35823.81453
712.833	35360.61986
713.028	35670.06951
713.223	34946.83078
713.417	35844.31619
713.612	36615.60416
713.807	36418.59757
714.002	35971.43903
714.196	35805.3635
714.391	35555.29292
714.586	36129.34802
714.78	35955.03486
714.975	36798.29915
715.17	35952.98436
715.364	36160.11354
715.559	35651.62215
715.754	35184.42843
715.948	35139.36196
716.143	35454.87685
716.337	34993.9357
716.532	35372.91364
716.726	35955.03486
716.921	35649.57247
717.115	35479.4674
717.31	35940.68151
717.504	35713.11504
717.699	35758.21291
717.893	35157.79796
718.088	35534.79884
718.282	35364.71777
718.476	34967.31088
718.671	34727.72155
718.865	34897.68037
719.059	34209.83151
719.254	34596.68922
719.448	34185.27379
719.642	34195.50611
719.837	33763.78041
720.031	34477.95587
720.225	33683.99951
720.419	34134.11359
720.614	34023.61538
720.808	34613.06732
721.002	34166.85585
721.196	34422.6881
721.39	34267.13496
721.585	34484.09692
721.779	34643.77698
721.973	34445.20425
722.167	34105.46489
722.361	34502.52027
722.555	34404.26616
722.749	34367.42322
722.943	33702.41004
723.137	33389.4658
723.331	33904.94369
723.525	33512.18035
723.719	33714.68388
723.913	33937.67953
724.107	33645.13369
724.301	34125.92818
724.495	33397.64643
724.689	33800.60406
724.883	33555.13305
725.077	34154.57739
725.271	33980.64667
725.465	34254.8554
725.659	33882.43831
725.853	33841.52051
726.046	34087.04824
726.24	33751.5061
726.434	33383.33036
726.628	34035.89244
726.822	33761.73469
727.015	33986.78496
727.209	33610.35998
727.403	33896.75987
727.596	33630.81499
727.79	34265.08836
727.984	34353.09576
728.177	33962.23199
728.371	34005.20003
728.565	33835.38296
728.758	33952.00174
728.952	33931.54149
729.146	34191.41317
729.339	34248.71567
729.533	34011.33844
729.726	33845.61223
729.92	33814.92467
730.113	34232.34323
730.307	33802.64986
730.5	33945.86363
730.694	33557.17845
730.887	33667.63481
731.081	33692.18194
731.274	34164.80943
731.468	33287.2119
731.661	33058.1891
731.854	32829.20024
732.048	33532.63385
732.241	33348.56336
732.435	33778.10059
732.628	33199.27934
732.821	33356.74375
733.014	33321.9774
733.208	33189.05496
733.401	32986.62654
733.594	32692.2311
733.788	33103.17297
733.981	33481.50068
734.174	33641.04261
734.367	33405.82711
734.56	33195.18958
734.754	33794.46671
734.947	34085.00197
735.14	33610.35998
735.333	33350.60845
735.526	33011.16191
735.719	32915.06723
735.912	32990.71575
736.105	32802.62327
736.298	33262.67205
736.491	33614.45096
736.684	33416.05303
736.877	33227.90796
737.07	32677.92153
737.263	32919.15625
737.456	33011.16191
737.649	33176.78581
737.842	32939.60149
738.035	32692.2311
738.228	32207.81248
738.421	32767.8694
738.614	32925.28979
738.807	33178.83066
739	33039.78699
739.192	33285.16689
739.385	33064.32319
739.578	33209.50378
739.771	33248.35732
739.964	32796.49018
740.156	32882.35546
740.349	33023.42974
740.542	33387.42065
740.735	32743.33769
740.927	33035.69766
741.12	32759.69213
741.313	32868.04427
741.505	33152.24779
741.698	33231.99781
741.891	32747.42629
742.083	32612.50783
742.276	32686.09841
742.468	32673.8331
742.661	32287.51842
742.854	32432.63248
743.046	32193.50663
743.239	32277.29953
743.431	32516.43583
743.624	32068.84555
743.816	31921.71413
744.009	32271.16822
744.201	32397.88585
744.393	31829.76202
744.586	32089.28128
744.778	32352.92058
744.971	32187.37558
745.163	32105.63
745.355	32175.11353
745.548	32130.15333
745.74	32463.2918
745.932	31907.41022
746.125	31805.2421
746.317	31839.97874
746.509	31921.71413
746.702	32189.41926
746.894	31696.94889
747.086	31662.2144
747.278	31519.19529
747.471	31196.41042
747.663	31300.59614
747.855	31672.43037
748.047	31913.54045
748.239	31731.6839
748.431	31251.56706
748.623	31905.36681
748.815	31647.9121
749.008	31388.44216
749.2	31449.73185
749.392	31247.48135
749.584	31298.55324
749.776	32050.45357
749.968	31705.12179
750.16	31433.38779
750.352	31347.58318
750.544	30957.41089
750.736	31370.05554
750.928	31192.32478
751.12	30890.00434
751.311	30959.45354
751.503	31110.61339
751.695	30661.24177
751.887	30683.70878
752.079	31037.07517
752.271	30354.88897
752.463	30265.03078
752.654	30657.15688
752.846	30963.53884
753.038	30785.83357
753.23	30818.51421
753.421	30548.9091
753.613	30246.65098
753.805	30620.39308
753.997	30824.64187
754.188	30826.68443
754.38	30557.07862
754.572	30734.77076
754.763	30454.96111
754.955	29860.69695
755.146	29758.59945
755.338	29331.8611
755.53	29981.17557
755.721	30469.25737
755.913	30622.4355
756.104	30211.93384
756.296	31026.86168
756.487	30399.81895
756.679	30240.5244
756.87	29419.65515
757.062	29648.33721
757.253	29695.30037
757.445	30085.32128
757.636	29821.89957
757.827	29703.46793
758.019	29848.4451
758.21	29454.36496
758.401	29474.78264
758.593	29346.15302
758.784	29103.1973
758.975	28660.19827
759.167	28756.14321
759.358	29050.11649
759.549	29056.24117
759.74	29225.69414
759.932	29137.90435
760.123	28764.30884
760.314	28721.43945
760.505	28300.93581
760.696	28413.20178
760.888	28547.92522
761.079	27847.82338
761.27	28290.72997
761.461	28750.019
761.652	28886.79534
761.843	29097.07255
762.034	29031.74253
762.225	28619.37134
762.416	28776.55732
762.607	28382.58346
762.798	28713.27391
762.989	28588.75141
763.18	28292.77114
763.371	27815.16879
763.562	28151.93332
763.753	27755.98311
763.944	28456.06783
764.135	28060.0854
764.326	28439.73785
764.517	28382.58346
764.708	28037.63403
764.899	27998.85471
765.089	27882.51921
765.28	27553.94299
765.471	27711.08429
765.662	27290.69676
765.853	27523.33189
766.043	27525.37262
766.234	27913.13346
766.425	27143.77797
766.615	27331.50874
766.806	27433.54094
766.997	27290.69676
767.187	27668.22686
767.378	27780.47362
767.569	27525.37262
767.759	27517.2097
767.95	27607.00288
768.141	27574.35054
768.331	27123.37313
768.522	27056.03813
768.712	27337.63058
768.903	27429.45959
769.093	27180.50702
769.284	26678.58246
769.474	27002.98736
769.665	26533.73456
769.855	26568.41574
770.046	27117.25171
770.236	26435.81367
770.426	26601.05727
770.617	26694.90383
770.807	27715.16598
770.998	27445.78502
771.188	27447.8257
771.378	26909.13062
771.569	26923.41297
771.759	26574.536
771.949	26566.37566
772.139	26803.03534
772.33	26350.13593
772.52	26490.89372
772.71	26329.73689
772.9	26154.31206
773.09	26193.06763
773.281	25927.91058
773.471	26727.54686
773.661	26433.77369
773.851	26531.6945
774.041	26031.93016
774.231	25923.83148
774.421	25350.79372
774.611	25320.20899
774.802	25505.76355
774.992	25838.17201
775.182	25850.40887
775.372	25872.8433
775.562	25715.80707
775.752	25813.69847
775.942	24898.19003
776.131	25699.49227
776.321	25112.24568
776.511	25530.23356
776.701	25650.54859
776.891	25709.689
777.081	25585.29212
777.271	25403.80837
777.461	25615.88084
777.651	25212.1468
777.84	25487.41124
778.03	25450.70712
778.22	24912.45962
778.41	25036.81368
778.599	25010.31128
778.789	25379.3399
778.979	24845.18971
779.169	24527.22206
779.358	24411.05676
779.548	24637.28101
779.738	24608.74651
779.927	24044.2754
780.117	24374.37473
780.307	24488.49937
780.496	24266.37147
780.686	24433.47398
780.875	24394.75353
781.065	24274.5224
781.254	23732.58229
781.444	24109.47454
781.633	23693.88006
781.823	23911.84853
782.012	24107.43702
782.202	23848.69534
782.391	24087.06201
782.581	23930.18384
782.77	24011.67691
782.96	24030.01347
783.149	23422.99512
783.338	23883.32739
783.528	23871.10422
783.717	23799.80447
783.906	23634.81033
784.096	23551.30229
784.285	23219.35854
784.474	22991.32404
784.663	23050.36471
784.853	22954.67951
785.042	23186.77967
785.231	22859.00176
785.42	23695.917
785.61	23512.60518
785.799	23425.03164
785.988	23361.90081
786.177	22893.60774
786.366	22952.64374
786.555	22930.25044
786.744	22683.95142
786.933	22521.1371
787.122	22517.06704
787.312	22671.73956
787.501	22602.54143
787.69	22557.76835
787.879	23009.6467
788.068	22195.57754
788.257	22468.22735
788.445	22205.74986
788.634	22747.04801
788.823	22578.11954
789.012	22462.12254
789.201	22635.10475
789.39	22207.78433
789.579	22104.03089
789.768	22643.24572
789.957	22154.88921
790.145	22195.57754
790.334	22421.4246
790.523	22329.85954
790.712	22793.86376
790.9	22392.9369
791.089	21861.97768
791.278	21664.71402
791.467	21825.3693
791.655	22551.66306
791.844	22126.40826
792.033	21979.94647
792.221	21443.0906
792.41	21646.41307
792.599	20831.33279
792.787	21406.49677
792.976	21662.68057
793.164	22095.89378
793.353	21475.61953
793.541	21927.06232
793.73	21861.97768
793.918	21821.30178
794.107	21506.11633
794.295	21666.74748
794.484	21798.93069
794.672	21589.4788
794.861	21455.28883
795.049	21685.04879
795.238	21540.68045
795.426	22012.49185
795.614	22045.03819
795.803	21774.5264
795.991	21691.1493
796.179	21552.87982
796.368	21235.74276
796.556	21103.63124
796.744	20772.41227
796.932	20914.64015
797.121	20729.74786
797.309	21186.96112
797.497	21125.98737
797.685	21333.31301
797.874	20967.47279
798.062	21121.92258
798.25	20833.36459
798.438	21071.11412
798.626	21158.50625
798.814	21123.95497
799.002	20912.60818
799.19	21069.08184
799.378	21028.43699
799.566	21056.88821
799.755	21018.27603
799.943	20926.83205
800.131	21174.76608
800.318	20880.09723
800.506	20985.76166
800.694	20975.60114
800.882	21077.211
801.07	20823.20561
801.258	20721.62151
801.446	20788.66586
801.634	20284.92865
801.822	20835.3964
802.01	20396.62236
802.197	20941.05612
802.385	20374.2826
802.573	20390.52965
802.761	20705.36902
802.949	20748.03238
803.136	20349.91254
803.324	20589.57772
803.512	20490.04866
803.699	20504.26648
803.887	20676.9278
804.075	20246.3465
804.262	20538.79633
804.45	20280.8673
804.638	20130.60917
804.825	20678.95929
805.013	20303.20493
805.201	20394.59145
805.388	20215.88799
805.576	20443.3344
805.763	20613.95371
805.951	20731.77946
806.138	20611.92235
806.326	20882.12913
806.513	20644.42454
806.701	20506.29761
806.888	20561.13982
807.075	20512.39104
807.263	20276.80597
807.45	20532.70274
807.638	20075.79099
807.825	20175.2781
808.012	20006.76505
808.2	20179.33901
808.387	20392.56055
808.574	20404.74603
808.761	20571.29612
808.949	20569.26485
809.136	20528.64037
809.323	20764.28557
809.51	20400.68419
809.698	20394.59145
809.885	20280.8673
810.072	20626.14193
810.259	20313.35857
810.446	20492.07976
810.633	20297.1128
810.82	20500.20422
811.008	20538.79633
811.195	20264.62207
811.382	20189.49137
811.569	20286.95933
811.756	19966.16383
811.943	20150.91298
812.13	20398.65327
812.317	20248.37711
812.504	20327.57384
812.691	20096.09366
812.878	20408.8079
813.064	20319.4508
813.251	20116.39675
813.438	20542.85875
813.625	20784.60243
813.812	20808.98321
813.999	20662.70749
814.186	20871.96966
814.372	21065.01728
814.559	20788.66586
814.746	20723.65309
814.933	20297.1128
815.12	20488.01756
815.306	20378.34434
815.493	20362.09749
815.68	20490.04866
815.866	20555.04609
816.053	21036.56583
816.24	20471.7689
816.426	20561.13982
816.613	20148.88258
816.799	20098.12395
816.986	20309.2971
817.173	20004.73495
817.359	19854.51915
817.546	20622.07917
817.732	19919.47451
817.919	20272.74465
818.105	19917.44459
818.292	19803.77576
818.478	19602.8577
818.665	19659.67885
818.851	19617.06268
819.037	19513.57394
819.224	19702.29687
819.41	19895.11574
819.597	19485.16716
819.783	19702.29687
819.969	19886.99629
820.156	19675.91407
820.342	19621.12129
820.528	19576.47757
820.714	19625.17991
820.901	19704.32634
821.087	19489.22522
821.273	19724.62132
821.459	19578.50678
821.646	19633.2972
821.832	19180.85977
822.018	19574.44836
822.204	19304.60024
822.39	19767.24215
822.576	19292.42836
822.762	19184.91659
822.948	19207.22941
823.134	19203.17249
823.32	18805.67391
823.507	18988.17949
823.693	18645.50111
823.879	18959.7876
824.065	18742.81836
824.25	18858.39441
824.436	18765.1215
824.622	18868.53328
824.808	18969.92747
824.994	19280.25664
825.18	18811.75691
825.366	19221.42873
825.552	18779.31467
825.738	18980.06744
825.923	18754.98365
826.109	18955.73168
826.295	18738.76329
826.481	18915.17336
826.667	19036.85315
826.852	19278.22803
827.038	19180.85977
827.224	19124.06597
827.409	19207.22941
827.595	19158.54754
827.781	18631.30977
827.966	19152.46247
828.152	18572.51909
828.338	18692.13116
828.523	17962.5002
828.709	18114.46703
828.894	18181.33886
829.08	18213.763
829.266	18177.28591
829.451	18748.90099
829.637	18017.20595
829.822	18138.7836
830.008	17966.55239
830.193	17986.81355
830.378	18096.22994
830.564	18203.63036
830.749	18300.90757
830.935	18361.7102
831.12	18175.25944
831.305	18065.83545
831.491	18041.52044
831.676	18114.46703
831.861	17889.56321
832.047	17958.44803
832.232	17447.98287
832.417	17352.79982
832.602	17543.17281
832.788	17595.83411
832.973	17583.68131
833.158	17524.94441
833.343	17741.67696
833.528	17782.19193
833.714	17593.80864
833.899	17944.26553
834.084	17705.21463
834.269	17668.75339
834.454	17788.26929
834.639	17605.96154
834.824	17492.53899
835.009	17678.8814
835.194	17763.96002
835.379	18073.94057
835.564	17415.57936
835.749	17871.32967
835.934	17800.42411
836.119	17796.37249
836.304	17360.90024
836.489	17731.54842
836.674	17591.78317
836.859	17249.52368
837.044	17249.52368
837.228	17314.32349
837.413	17219.14981
837.598	17150.30478
837.783	16810.17598
837.968	17219.14981
838.152	17429.7558
838.337	17247.49873
838.522	16822.32217
838.707	16856.73687
838.891	16435.70965
839.076	16154.40009
839.261	16579.41472
839.445	16891.15229
839.63	16542.98143
839.815	16646.21093
839.999	16162.49486
840.184	16338.56275
840.368	16328.44354
840.553	16312.25289
840.737	16148.32904
840.922	16190.82673
841.106	16182.73188
841.291	16411.4225
841.475	16530.83716
841.66	16700.86422
841.844	16089.64292
842.029	16358.80132
842.213	16433.68571
842.397	16200.94534
842.582	15848.84021
842.766	16039.05248
842.951	15535.21368
843.135	15950.01549
843.319	15775.99585
843.504	15761.83183
843.688	15871.09851
843.872	16008.69866
844.056	16281.89575
844.241	16356.77745
844.425	15834.67592
844.609	16055.24132
844.793	15707.19966
844.977	15626.26435
845.161	15450.23428
845.346	15814.4413
845.53	15405.72163
845.714	15790.15992
845.898	15458.32751
846.082	15711.24646
846.266	15561.51706
846.45	15964.18029
846.634	15488.67721
846.818	15175.06774
847.002	15156.8583
847.186	15454.28089
847.37	15359.18591
847.554	15383.46539
847.738	15385.48868
847.922	15668.75521
848.106	15775.99585
848.29	15496.77049
848.473	15300.5107
848.657	15027.3688
848.841	14766.36221
849.025	14853.36541
849.209	14596.39802
849.392	14315.12901
849.576	14632.81951
849.76	14499.27221
849.944	14632.81951
850.127	15138.64887
850.311	14800.75898
850.495	15274.20809
850.678	14895.85492
850.862	15391.55856
851.046	14851.3421
851.229	14470.94329
851.413	14096.56643
851.596	14157.28062
851.78	14100.6141
851.964	14547.83547
852.147	14371.78983
852.331	14483.08429
852.514	14511.4131
852.698	14408.21398
852.881	14088.47105
853.065	14369.76626
853.248	14128.94757
853.431	14412.26107
853.615	14126.92377
853.798	14379.88413
853.982	14474.9903
854.165	14151.20929
854.348	13823.32574
854.532	14149.18551
854.715	13803.08374
854.898	14242.27735
855.081	13750.45316
855.265	14074.30406
855.448	13948.81987
855.631	13851.66405
855.814	13892.1464
855.997	13859.76061
856.181	13693.77174
856.364	13884.05002
856.547	13592.5486
856.73	13622.91642
856.913	12997.15984
857.096	13311.10076
857.279	13114.64757
857.462	13061.98268
857.645	13444.74709
857.828	13598.62223
858.011	13497.39097
858.194	13485.2426
858.377	13167.30927
858.56	13175.4108
858.743	13138.95336
858.926	13031.59761
859.109	12895.86375
859.292	13187.56295
859.475	12883.70734
859.658	13041.72609
859.841	12618.24222
860.023	12808.7385
860.206	12604.05423
860.389	12887.7595
860.572	12877.62906
860.755	12731.73556
860.937	12804.68592
861.12	12762.13244
861.303	12328.3396
861.486	12368.89357
861.668	12206.6608
861.851	12356.72767
862.034	12127.55553
862.216	12297.9223
862.399	12052.49633
862.581	12320.22847
862.764	12056.55385
862.947	12346.58923
863.129	12306.03373
863.312	12060.61135
863.494	12194.49149
863.677	12157.98197
863.859	12097.12739
864.042	12036.26592
864.224	11995.68771
864.406	12007.8615
864.589	11719.66888
864.771	11737.93969
864.954	11605.9676
865.136	11894.22813
865.318	11587.69153
865.501	11705.45775
865.683	11563.32227
865.865	11839.43142
866.048	11532.85882
866.23	11410.98363
866.412	11122.4028
866.594	11396.76259
866.777	11217.94198
866.959	11658.76099
867.141	11374.41427
867.323	11506.45545
867.505	11378.47769
867.687	10992.26871
867.869	11022.77292
868.052	11362.22377
868.234	10906.84355
868.416	11429.26712
868.598	11335.80979
868.78	11278.91238
868.962	11695.30668
869.144	11949.01882
869.326	11719.66888
869.508	11638.45657
869.69	11423.17271
869.872	11447.54982
870.054	11530.82785
870.236	11719.66888
870.417	11386.60441
870.599	11573.47629
870.781	11215.90947
870.963	11224.03944
871.145	10849.88229
871.327	11150.86372
871.508	11018.70584
871.69	11325.65012
871.872	11014.63871
872.054	11435.36144
872.235	11209.81189
872.417	10978.03256
872.599	11156.96222
872.78	11376.44598
872.962	10900.74099
873.144	10935.32082
873.325	10813.25954
873.507	10870.22663
873.689	10699.29766
873.87	10931.25277
874.052	10678.94337
874.233	11004.4707
874.415	11053.27464
874.596	11215.90947
874.778	11045.14109
874.959	10888.53555
875.141	10851.91677
875.322	11104.10538
875.503	10735.93234
875.685	10898.70678
875.866	10493.66265
876.048	10660.62347
876.229	10516.06473
876.41	10395.8899
876.592	10495.69926
876.773	10597.51399
876.954	10522.17413
877.136	10831.57139
877.317	10851.91677
877.498	10984.13384
877.679	10988.2013
877.86	11034.9739
878.042	10894.63832
878.223	11010.57154
878.404	10794.94675
878.585	10821.39826
878.766	10522.17413
878.947	10780.7028
879.128	10499.77246
879.309	10900.74099
879.49	10827.50217
879.672	10929.21873
879.853	10959.72814
880.034	10925.15062
880.215	11142.73224
880.396	11071.57449
880.576	11098.00605
880.757	11252.49301
880.938	10862.08903
881.119	11183.38794
881.3	10813.25954
881.481	11329.71402
881.662	10990.23501
881.843	11165.0934
882.023	11215.90947
882.204	11138.66644
882.385	11337.8417
882.566	11295.16959
882.747	11213.87696
882.927	11370.35081
883.108	11118.33678
883.289	10951.59254
883.469	10939.38882
883.65	10839.70968
883.831	10623.9807
884.011	10994.30241
884.192	10864.12345
884.373	10904.80937
884.553	10737.96749
884.734	11085.8071
884.914	10742.03775
885.095	10837.67512
885.275	10410.15029
885.456	10764.4233
885.636	10735.93234
885.817	11183.38794
885.997	11022.77292
886.178	11498.33101
886.358	11087.84028
886.538	11136.63352
886.719	11032.94043
886.899	11171.19168
887.08	11285.00891
887.26	11465.83174
887.44	11102.07228
887.621	11386.60441
887.801	11043.10767
887.981	11014.63871
888.161	10914.98014
888.342	10984.13384
888.522	11124.43579
888.702	11100.03917
888.882	11136.63352
889.062	11350.03291
889.242	11154.9294
889.423	11177.28986
889.603	11195.58383
889.783	11142.73224
889.963	10849.88229
890.143	11358.16019
890.323	11150.86372
890.503	11191.51858
890.683	10764.4233
890.863	11122.4028
891.043	11177.28986
891.223	11331.74595
891.403	11429.26712
891.583	11319.5542
891.763	10914.98014
891.943	11325.65012
892.122	11012.60513
892.302	10971.93119
892.482	10833.60598
892.662	10575.11744
892.842	10762.38831
893.022	10949.55862
893.201	10933.2868
893.381	11034.9739
893.561	10689.12067
893.741	11012.60513
893.92	10839.70968
894.1	11020.73938
894.28	10662.65906
894.459	10894.63832
894.639	10760.35331
894.819	10882.43268
894.998	10595.478
895.178	11085.8071
895.357	10980.06633
895.537	10719.65074
895.716	10815.29424
895.896	10750.17811
896.075	10796.98155
896.255	10874.29536
896.434	10678.94337
896.614	10853.95125
896.793	10593.442
896.973	10587.33393
897.152	10489.58937
897.331	10746.10795
897.511	10839.70968
897.69	10914.98014
897.87	10721.68599
898.049	10672.83685
898.228	10410.15029
898.407	10589.36996
898.587	10591.40599
898.766	10534.39257
898.945	10489.58937
899.124	10489.58937
899.304	10648.40965
899.483	10465.14867
899.662	10605.65781
899.841	10483.47937
900.02	10410.15029
900.199	10322.54061
900.378	10010.60974
900.557	9906.55935
900.737	10022.84849
900.916	10096.27024
901.095	10145.20793
901.274	10126.85724
901.453	10157.4411
901.632	9904.51877
901.811	9804.51211
901.989	9998.37047
902.168	9849.41747
902.347	9745.30757
902.526	9624.81731
902.705	9814.71851
902.884	9714.67952
903.063	9886.15287
903.242	9663.62512
903.42	9667.70983
903.599	9565.57348
903.778	9661.58274
903.957	9254.83333
904.135	9635.03044
904.314	9285.51533
904.493	9561.48721
904.672	9447.04584
904.85	9630.94523
905.029	9528.79478
905.207	9853.49942
905.386	9557.40088
905.565	10081.99523
905.743	9773.89066
905.922	9902.47817
906.1	9520.62104
906.279	9710.59552
906.457	9440.91363
906.636	9594.1756
906.814	9076.80266
906.993	9132.06739
907.171	8894.5437
907.35	9031.76281
907.528	8966.23521
907.707	9130.02077
907.885	8695.74057
908.063	8949.8505
908.242	8738.79496
908.42	8964.18719
908.598	8888.39769
908.777	8960.09108
908.955	8906.83522
909.133	8912.98074
909.311	9054.28379
909.49	8929.36801
909.668	8628.0672
909.846	8736.74494
910.024	8463.92581
910.202	8724.4444
910.38	8242.14026
910.559	8546.01162
910.737	8439.29412
910.915	8392.07565
911.093	8451.61031
911.271	8652.67804
911.449	8340.73962
911.627	8570.63145
911.805	8476.24063
911.983	8330.47095
912.161	8213.37358
912.339	8531.6488
912.517	8110.60363
912.695	8455.71556
912.872	8305.82417
913.05	8410.55365
913.228	8431.08294
913.406	8381.80941
913.584	8055.08702
913.762	8087.98752
913.939	7806.1078
914.117	7861.69128
914.295	7676.35373
914.473	7828.75475
914.65	7616.59752
914.828	7874.04111
915.006	7579.49847
915.184	7839.04799
915.361	7344.37591
915.539	7641.32639
915.716	7461.97232
915.894	7781.39915
916.072	7602.17093
916.249	7468.15965
916.427	7486.72048
916.604	7684.59457
916.782	7395.96198
916.959	7744.33054
917.137	7422.78136
917.314	7517.65131
917.492	7170.94623
917.669	7228.77341
917.847	6833.96121
918.024	7350.56696
918.201	7106.90296
918.379	7226.70846
918.556	6999.42733
918.733	7088.30574
918.911	6852.58339
919.088	6736.68203
919.265	6492.2256
919.442	6707.69549
919.62	6392.69349
919.797	6867.06604
919.974	6527.46373
920.151	6701.4835
920.328	6390.61933
920.506	6796.71131
920.683	6519.17301
920.86	6440.39264
921.037	6351.20594
921.214	6334.6083
921.391	6083.38636
921.568	6432.09802
921.745	6295.18293
921.922	6344.982
922.099	5979.4752
922.276	6276.50481
922.453	6162.3195
922.63	6378.1739
922.807	6120.77997
922.984	6338.75785
923.161	6291.0324
923.338	6342.90731
923.514	6093.77424
923.691	6079.23104
923.868	5671.55265
924.045	5690.29244
924.222	5721.52116
924.399	5627.81907
924.575	5548.65566
924.752	5623.65342
924.929	5486.13421
925.105	5544.48823
925.282	5335.99636
925.459	5596.57442
925.635	5450.69598
925.812	5681.96388
925.989	5452.78077
926.165	5561.15741
926.342	5210.78866
926.518	5375.62789
926.695	5327.6518
926.871	5665.30564
927.048	5212.87614
927.224	5262.96876
927.401	4650.51077
927.577	5127.27018
927.754	4951.76059
927.93	5194.08794
928.107	4937.12744
928.283	5089.67473
928.459	4916.22099
928.636	5146.06509
928.812	5158.59397
928.988	5075.05225
929.165	4828.38889
929.341	4953.85094
929.517	4713.30993
929.693	4658.88516
929.87	4424.26763
930.046	4742.60926
930.222	4430.55563
930.398	4667.25919
930.574	4323.63283
930.751	4529.04195
930.927	4099.12324
931.103	4669.35265
931.279	4258.61306
931.455	4403.30618
931.631	4013.03249
931.807	4189.3759
931.983	4090.72568
932.159	4294.27162
932.335	3823.93259
932.511	4069.73031
932.687	3725.11641
932.863	3813.42229
933.039	3575.76033
933.215	3874.37514
933.391	3573.65605
933.566	3853.3588
933.742	3640.98389
933.918	3773.47866
934.094	3474.73388
934.27	3567.34308
934.445	3415.78248
934.621	3373.6658
934.797	3139.79363
934.973	3474.73388
935.148	3361.02943
935.324	3066.00817
935.5	2810.77782
935.675	2994.31254
935.851	2861.41896
936.027	2895.17519
936.202	2479.31461
936.378	2709.4719
936.553	2563.79256
936.729	2665.14102
936.904	2335.66194
937.08	2352.56473
937.255	2117.9861
937.431	2191.96393
937.606	1851.59467
937.782	2096.84781
937.957	1684.52939
938.133	1745.85991
938.308	1676.06981
938.483	1663.38034
938.659	1365.16275
938.834	1627.42636
939.009	1422.26885
939.185	1528.02125
939.36	1449.76452
939.535	1413.80866
939.71	1231.91943
939.886	1274.21796
940.061	1130.40827
940.236	1176.93315
940.411	1064.8542
940.586	1117.72003
940.761	1050.05236
940.937	1170.58874
941.112	859.77128
941.287	980.27611
941.462	840.74658
941.637	897.82273
941.812	754.08795
941.987	906.27896
942.162	745.63433
942.337	838.63277
942.512	792.13122
942.687	796.35845
942.862	790.01762
943.037	809.04035
943.212	730.84091
943.386	804.81301
943.561	656.88183
943.736	794.24483
943.911	701.25563
944.086	728.7276
944.26	627.30218
944.435	749.86112
944.61	625.18944
944.785	604.06272
944.959	563.92551
945.134	678.01157
945.309	604.06272
945.483	669.55954
945.658	639.97888
945.833	665.33358
946.007	604.06272
946.182	711.82155
946.357	559.70082
946.531	737.18088
946.706	623.07671
946.88	601.95012
947.055	642.09171
947.229	646.31739
947.404	618.85129
947.578	713.93477
947.752	627.30218
947.927	673.78553
948.101	686.4638
948.276	754.08795
948.45	656.88183
948.624	722.38775
948.799	656.88183
948.973	724.50103
949.147	663.22063
949.321	735.06755
949.496	697.02933
949.67	770.99567
949.844	705.48196
950.018	705.48196
950.193	534.35382
950.367	720.27449
950.541	720.27449
950.715	773.10918
950.889	528.01738
951.063	787.90403
951.237	680.12461
951.411	724.50103
951.585	749.86112
951.759	893.59466
951.933	639.97888
952.107	836.51897
952.281	766.76868
952.455	880.91064
952.629	794.24483
952.803	760.42827
952.977	673.78553
953.151	872.4548
953.325	720.27449
953.499	741.40759
953.672	597.72496
953.846	745.63433
954.02	688.57688
954.194	809.04035
954.368	625.18944
954.541	766.76868
954.715	716.048
954.889	870.34086
955.062	804.81301
955.236	914.73532
955.41	747.74772
955.583	1033.1363
955.757	754.08795
955.93	790.01762
956.104	703.36879
956.278	781.56332
956.451	661.10768
956.625	616.7386
956.798	601.95012
956.972	711.82155
957.145	610.4006
957.319	768.88217
957.492	675.89855
957.665	747.74772
957.839	815.38144
958.012	828.06384
958.185	682.23766
958.359	762.54173
958.532	707.59515
958.705	796.35845
958.879	692.80309
959.052	982.39044
959.225	697.02933
959.398	830.17761
959.572	751.97453
959.745	777.33623
959.918	758.31482
960.091	756.20138
960.264	756.20138
960.438	686.4638
960.611	644.20454
960.784	694.9162
960.957	559.70082
961.13	768.88217
961.303	669.55954
961.476	760.42827
961.649	644.20454
961.822	773.10918
961.995	716.048
962.168	574.48747
962.341	576.59991
962.514	758.31482
962.686	570.26265
962.859	578.71235
963.032	601.95012
963.205	722.38775
963.378	656.88183
963.551	654.76892
963.723	479.44231
963.896	785.79045
964.069	730.84091
964.242	768.88217
964.414	654.76892
964.587	585.04977
964.76	601.95012
964.932	578.71235
965.105	485.77775
965.278	620.96399
965.45	494.22521
965.623	525.90526
965.795	534.35382
965.968	654.76892
966.14	580.82481
966.313	614.62592
966.485	578.71235
966.658	601.95012
966.83	485.77775
967.003	597.72496
967.175	515.34488
967.348	673.78553
967.52	511.12083
967.692	631.5277
967.865	470.99526
968.037	536.46599
968.209	449.87871
968.382	464.66014
968.554	485.77775
968.726	534.35382
968.898	500.56096
969.071	485.77775
969.243	511.12083
969.415	572.37505
969.587	420.31815
969.759	418.2068
969.932	394.98302
970.104	473.107
970.276	382.31634
970.448	346.43071
970.62	416.09547
970.792	418.2068
970.964	445.65559
971.136	479.44231
971.308	441.43252
971.48	517.45693
971.652	416.09547
971.824	576.59991
971.996	367.53931
972.168	460.4368
972.339	483.66592
972.511	435.09805
972.683	511.12083
972.855	481.5541
973.027	302.10835
973.199	382.31634
973.37	378.09425
973.542	424.5409
973.714	293.6669
973.886	369.65026
974.057	331.65572
974.229	432.98659
974.401	394.98302
974.572	297.88759
974.744	331.65572
974.915	449.87871
975.087	348.54149
975.259	432.98659
975.43	388.64961
975.602	449.87871
975.773	352.76311
975.945	354.87394
976.116	314.77108
976.288	369.65026
976.459	331.65572
976.63	342.2092
976.802	314.77108
976.973	262.01407
977.145	264.12413
977.316	331.65572
977.487	287.336
977.659	340.09847
977.83	215.59768
978.001	257.79401
978.172	266.2342
978.344	348.54149
978.515	344.31995
978.686	297.88759
978.857	255.68401
979.028	356.9848
979.2	238.8047
979.371	272.56455
979.542	215.59768
979.713	272.56455
979.884	247.24421
980.055	213.48807
980.226	266.2342
980.397	224.03632
980.568	243.02442
980.739	211.37848
980.91	264.12413
981.081	209.26891
981.252	192.39306
981.423	283.11549
981.594	137.55563
981.765	171.30008
981.936	198.72135
982.106	186.06495
982.277	156.53622
982.448	213.48807
982.619	234.58507
982.79	205.04983
982.96	297.88759
983.131	179.73703
983.302	145.99124
983.472	192.39306
983.643	150.20917
983.814	198.72135
983.984	145.99124
984.155	272.56455
984.326	259.90403
984.496	139.6645
984.667	173.40929
984.837	162.86346
985.008	213.48807
985.178	200.83082
985.349	141.77339
985.519	164.97259
985.69	139.6645
985.86	183.95562
986.031	164.97259
986.201	131.22915
986.371	196.6119
986.542	137.55563
986.712	173.40929
986.882	148.10019
987.053	158.64528
987.223	232.47528
987.393	103.81665
987.563	188.1743
987.734	116.46812
987.904	116.46812
988.074	65.86705
988.244	84.84094
988.414	112.25088
988.585	154.42718
988.755	137.55563
988.925	143.8823
989.095	36.35578
989.265	112.25088
989.435	95.38278
989.605	141.77339
989.775	51.11085
989.945	179.73703
990.115	122.79415
990.285	95.38278
990.455	124.90287
990.625	82.73264
990.795	72.19148
990.965	188.1743
991.134	53.21881
991.304	38.46358
991.474	82.73264
991.644	122.79415
991.814	46.895
991.984	103.81665
992.153	95.38278
992.323	99.59967
992.493	72.19148
992.662	86.94927
992.832	11.06405
993.002	86.94927
993.171	78.51611
993.341	133.33796
993.511	21.60186
993.68	80.62436
993.85	63.75895
994.019	108.03372
994.189	27.92483
994.358	82.73264
994.528	78.51611
994.697	120.68545
994.867	129.12037
995.036	21.60186
995.206	108.03372
995.375	61.65088
995.544	108.03372
995.714	110.14229
995.883	55.32679
996.052	36.35578
996.222	118.57677
996.391	114.35949
996.56	148.10019
996.73	63.75895
996.899	53.21881
997.068	114.35949
997.237	40.5714
997.406	116.46812
997.576	65.86705
997.745	78.51611
997.914	32.14026
998.083	103.81665
998.252	82.73264
998.421	171.30008
998.59	19.49425
998.759	27.92483
998.928	131.22915
999.097	74.29967
999.266	6.8491
999.435	11.06405
999.604	67.97517
999.773	13.17157
999.942	133.33796
1000.111	70.08331
1000.28	131.22915
1000.448	6.8491
1000.617	61.65088
1000.786	32.14026
1000.955	53.21881
1001.124	-1.58052
1001.292	105.92518
1001.461	65.86705
1001.63	2.63424
1001.798	93.27437
1001.967	97.49122
1002.136	38.46358
1002.304	19.49425
1002.473	-10.00976
1002.642	57.4348
1002.81	23.70949
1002.979	-52.15005
1003.147	72.19148
1003.316	55.32679
1003.484	86.94927
1003.653	61.65088
1003.821	-12.11701
1003.99	78.51611
1004.158	80.62436
1004.327	61.65088
1004.495	2.63424
1004.663	21.60186
1004.832	93.27437
1005	78.51611
1005.168	11.06405
1005.337	-10.00976
1005.505	4.74166
1005.673	89.05761
1005.842	53.21881
1006.01	23.70949
1006.178	49.00291
1006.346	13.17157
1006.514	4.74166
1006.683	2.63424
1006.851	42.67924
1007.019	57.4348
1007.187	46.895
1007.355	36.35578
1007.523	44.78711
1007.691	19.49425
1007.859	44.78711
1008.027	32.14026
1008.195	-41.61591
1008.363	61.65088
1008.531	2.63424
1008.699	-20.54576
1008.867	72.19148
1009.035	36.35578
1009.203	21.60186
1009.37	-22.65289
1009.538	23.70949
1009.706	38.46358
1009.874	-1.58052
1010.042	44.78711
1010.209	-45.82964
1010.377	-31.08114
1010.545	19.49425
1010.713	15.2791
1010.88	30.03253
1011.048	61.65088
1011.216	6.8491
1011.383	15.2791
1011.551	-106.91731
1011.718	13.17157
1011.886	51.11085
1012.054	36.35578
1012.221	32.14026
1012.389	44.78711
1012.556	40.5714
1012.724	-12.11701
1012.891	19.49425
1013.058	-12.11701
1013.226	40.5714
1013.393	59.54283
1013.561	63.75895
1013.728	70.08331
1013.895	40.5714
1014.063	40.5714
1014.23	-3.68787
1014.397	46.895
1014.565	-5.79519
1014.732	38.46358
1014.899	80.62436
1015.066	55.32679
1015.233	19.49425
1015.401	13.17157
1015.568	11.06405
1015.735	8.95656
1015.902	0.52684
1016.069	55.32679
1016.236	82.73264
1016.403	65.86705
1016.57	27.92483
1016.737	-18.43861
1016.904	32.14026
1017.071	55.32679
1017.238	51.11085
1017.405	67.97517
1017.572	27.92483
1017.739	53.21881
1017.906	27.92483
1018.073	4.74166
1018.24	25.81715
1018.407	-1.58052
1018.573	27.92483
1018.74	27.92483
1018.907	6.8491
1019.074	-3.68787
1019.241	40.5714
1019.407	0.52684
1019.574	82.73264
1019.741	-18.43861
1019.907	4.74166
1020.074	6.8491
1020.241	34.24801
1020.407	15.2791
1020.574	97.49122
1020.74	27.92483
1020.907	-31.08114
1021.073	46.895
1021.24	-5.79519
1021.406	-5.79519
1021.573	15.2791
1021.739	44.78711
1021.906	38.46358
1022.072	38.46358
1022.239	15.2791
1022.405	36.35578
1022.571	40.5714
1022.738	32.14026
1022.904	44.78711
1023.07	34.24801
1023.237	-22.65289
1023.403	44.78711
1023.569	-20.54576
1023.735	103.81665
1023.902	44.78711
1024.068	-26.86706
1024.234	38.46358
1024.4	91.16598
1024.566	13.17157
1024.732	27.92483
1024.898	-28.97412
1025.065	-18.43861
1025.231	-56.36353
1025.397	-22.65289
1025.563	32.14026
1025.729	-28.97412
1025.895	-22.65289
1026.061	-69.00336
1026.227	44.78711
1026.392	91.16598
1026.558	-20.54576
1026.724	-62.68356
1026.89	38.46358
1027.056	-37.40208
1027.222	2.63424
1027.388	4.74166
1027.553	36.35578
1027.719	-26.86706
1027.885	19.49425
1028.051	44.78711
1028.216	-14.22423
1028.382	30.03253
1028.548	-18.43861
1028.713	2.63424
1028.879	44.78711
1029.045	-14.22423
1029.21	6.8491
1029.376	-37.40208
1029.541	2.63424
1029.707	13.17157
1029.873	-37.40208
1030.038	8.95656
1030.204	2.63424
1030.369	-14.22423
1030.534	-54.2568
1030.7	-94.28026
1030.865	-35.29512
1031.031	-37.40208
1031.196	-3.68787
1031.361	34.24801
1031.527	-39.50901
1031.692	36.35578
1031.857	53.21881
1032.023	21.60186
1032.188	19.49425
1032.353	103.81665
1032.518	72.19148
1032.684	-10.00976
1032.849	38.46358
1033.014	11.06405
1033.179	-7.90249
1033.344	74.29967
1033.509	-35.29512
1033.674	27.92483
1033.839	-28.97412
1034.004	19.49425
1034.17	-31.08114
1034.335	-7.90249
1034.5	49.00291
1034.664	23.70949
1034.829	84.84094
1034.994	-12.11701
1035.159	-37.40208
1035.324	27.92483
1035.489	19.49425
1035.654	2.63424
1035.819	-5.79519
1035.984	38.46358
1036.148	32.14026
1036.313	53.21881
1036.478	38.46358
1036.643	-22.65289
1036.807	-14.22423
1036.972	-47.93647
1037.137	8.95656
1037.301	-31.08114
1037.466	6.8491
1037.631	80.62436
1037.795	-5.79519
1037.96	53.21881
1038.124	-28.97412
1038.289	19.49425
1038.454	11.06405
1038.618	-24.75999
1038.783	-31.08114
1038.947	61.65088
1039.111	49.00291
1039.276	19.49425
1039.44	-39.50901
1039.605	36.35578
1039.769	2.63424
1039.933	36.35578
1040.098	-22.65289
1040.262	13.17157
1040.426	72.19148
1040.591	53.21881
1040.755	-50.04327
1040.919	-14.22423
1041.083	-41.61591
1041.248	-56.36353
1041.412	-5.79519
1041.576	0.52684
1041.74	13.17157
1041.904	-7.90249
1042.068	53.21881
1042.232	63.75895
1042.397	4.74166
1042.561	27.92483
1042.725	2.63424
1042.889	36.35578
1043.053	-22.65289
1043.217	53.21881
1043.381	49.00291
1043.544	15.2791
1043.708	-28.97412
1043.872	-20.54576
1044.036	0.52684
1044.2	36.35578
1044.364	-33.18815
1044.528	-47.93647
1044.691	13.17157
1044.855	-39.50901
1045.019	2.63424
1045.183	13.17157
1045.346	21.60186
1045.51	21.60186
1045.674	-12.11701
1045.837	-37.40208
1046.001	17.38667
1046.165	6.8491
1046.328	-1.58052
1046.492	114.35949
1046.655	-31.08114
1046.819	38.46358
1046.983	-14.22423
1047.146	19.49425
1047.31	27.92483
1047.473	-3.68787
1047.636	19.49425
1047.8	23.70949
1047.963	4.74166
1048.127	-3.68787
1048.29	21.60186
