Data from mixed_try1_USB4F045381__16__00120.txt Node

Date: Thu Apr 03 20:00:25 EDT 2025
User: mmckonesweet
Spectrometer: USB4F04538
Trigger mode: 4
Integration Time (sec): 2.700000E-3
Scans to average: 1
Electric dark correction enabled: true
Nonlinearity correction enabled: true
Boxcar width: 0
XAxis mode: Wavelengths
Number of Pixels in Spectrum: 3648
>>>>>Begin Spectral Data<<<<<
345.52	-23.53085
345.736	-23.53085
345.952	-23.53085
346.168	-15.10224
346.384	-31.95906
346.6	-10.88778
346.816	-55.13461
347.032	-4.56592
347.248	46.01671
347.464	75.52945
347.68	10.18593
347.896	-36.17303
348.112	14.40096
348.328	-29.85205
348.544	-46.70749
348.76	27.04663
348.975	10.18593
349.191	48.12461
349.407	22.83131
349.623	-46.70749
349.839	-6.67324
350.055	-23.53085
350.27	52.34049
350.486	20.72369
350.702	-25.63794
350.918	48.12461
351.133	-48.81431
351.349	1.75615
351.565	22.83131
351.781	43.90883
351.996	54.44846
352.212	14.40096
352.428	-15.10224
352.644	46.01671
352.859	62.88058
353.075	10.18593
353.291	-15.10224
353.506	-12.99502
353.722	39.69314
353.938	-53.02787
354.153	48.12461
354.369	-55.13461
354.584	-86.73269
354.8	18.61609
355.016	-40.38689
355.231	-6.67324
355.447	35.47754
355.662	-65.66794
355.878	-95.15786
356.093	39.69314
356.309	5.97099
356.524	37.58533
356.74	-46.70749
356.955	-19.31659
357.171	-15.10224
357.386	-82.51994
357.602	10.18593
357.817	60.77252
358.033	-10.88778
358.248	33.36978
358.464	-31.95906
358.679	-29.85205
358.895	-6.67324
359.11	-4.56592
359.325	-15.10224
359.541	-15.10224
359.756	43.90883
359.972	-6.67324
360.187	-38.27997
360.402	-19.31659
360.618	5.97099
360.833	-99.37029
361.048	-27.74501
361.264	54.44846
361.479	18.61609
361.694	-57.24133
361.909	-23.53085
362.125	-29.85205
362.34	46.01671
362.555	-17.20943
362.77	-65.66794
362.986	52.34049
363.201	-17.20943
363.416	16.50851
363.631	-15.10224
363.847	-21.42373
364.062	-65.66794
364.277	-12.99502
364.492	-0.35123
364.707	-23.53085
364.922	-4.56592
365.138	35.47754
365.353	-2.45859
365.568	12.29343
365.783	-34.06606
365.998	-2.45859
366.213	-53.02787
366.428	-27.74501
366.643	3.86356
366.858	-6.67324
367.073	29.15432
367.288	-31.95906
367.503	50.23254
367.718	-55.13461
367.933	-53.02787
368.148	18.61609
368.363	-4.56592
368.578	-8.78052
368.793	46.01671
369.008	18.61609
369.223	1.75615
369.438	52.34049
369.653	54.44846
369.868	-65.66794
370.083	-53.02787
370.298	14.40096
370.513	-21.42373
370.728	10.18593
370.943	-46.70749
371.157	-40.38689
371.372	-23.53085
371.587	-50.9211
371.802	29.15432
372.017	27.04663
372.232	-34.06606
372.446	5.97099
372.661	48.12461
372.876	37.58533
373.091	3.86356
373.306	-15.10224
373.52	3.86356
373.735	-57.24133
373.95	12.29343
374.165	24.93896
374.379	-48.81431
374.594	-17.20943
374.809	-12.99502
375.023	10.18593
375.238	3.86356
375.453	-25.63794
375.667	-19.31659
375.882	-10.88778
376.097	52.34049
376.311	10.18593
376.526	27.04663
376.741	60.77252
376.955	-15.10224
377.17	-12.99502
377.384	-31.95906
377.599	-12.99502
377.813	-2.45859
378.028	60.77252
378.242	8.07845
378.457	-74.09415
378.672	22.83131
378.886	-4.56592
379.101	43.90883
379.315	-4.56592
379.53	31.26204
379.744	20.72369
379.958	10.18593
380.173	67.09678
380.387	54.44846
380.602	-27.74501
380.816	27.04663
381.031	5.97099
381.245	27.04663
381.459	3.86356
381.674	-40.38689
381.888	-10.88778
382.103	88.17913
382.317	31.26204
382.531	-17.20943
382.746	-4.56592
382.96	-44.60065
383.174	-53.02787
383.388	-80.41353
383.603	-78.3071
383.817	-12.99502
384.031	5.97099
384.246	-21.42373
384.46	10.18593
384.674	50.23254
384.888	-78.3071
385.103	20.72369
385.317	-19.31659
385.531	10.18593
385.745	-55.13461
385.959	-31.95906
386.174	71.31307
386.388	-27.74501
386.602	35.47754
386.816	-15.10224
387.03	-17.20943
387.244	-27.74501
387.458	3.86356
387.672	-38.27997
387.887	-4.56592
388.101	18.61609
388.315	3.86356
388.529	-74.09415
388.743	3.86356
388.957	-65.66794
389.171	-38.27997
389.385	-2.45859
389.599	27.04663
389.813	46.01671
390.027	-29.85205
390.241	29.15432
390.455	54.44846
390.669	-40.38689
390.883	18.61609
391.097	-6.67324
391.311	-10.88778
391.525	43.90883
391.738	12.29343
391.952	-53.02787
392.166	22.83131
392.38	12.29343
392.594	-8.78052
392.808	22.83131
393.022	29.15432
393.236	52.34049
393.449	-29.85205
393.663	-10.88778
393.877	-17.20943
394.091	-12.99502
394.305	58.66448
394.518	31.26204
394.732	31.26204
394.946	27.04663
395.16	-25.63794
395.373	-23.53085
395.587	29.15432
395.801	39.69314
396.015	46.01671
396.228	46.01671
396.442	-34.06606
396.656	-19.31659
396.869	29.15432
397.083	-12.99502
397.297	-23.53085
397.51	14.40096
397.724	-10.88778
397.938	-48.81431
398.151	-29.85205
398.365	43.90883
398.578	37.58533
398.792	69.20492
399.005	27.04663
399.219	29.15432
399.433	60.77252
399.646	-6.67324
399.86	35.47754
400.073	-15.10224
400.287	102.93811
400.5	50.23254
400.714	39.69314
400.927	43.90883
401.141	8.07845
401.354	-53.02787
401.567	-23.53085
401.781	-23.53085
401.994	33.36978
402.208	14.40096
402.421	20.72369
402.635	62.88058
402.848	-4.56592
403.061	-23.53085
403.275	12.29343
403.488	-53.02787
403.701	37.58533
403.915	10.18593
404.128	48.12461
404.341	1.75615
404.555	-118.32493
404.768	-48.81431
404.981	-46.70749
405.195	-6.67324
405.408	-71.98763
405.621	-71.98763
405.834	-15.10224
406.048	16.50851
406.261	52.34049
406.474	18.61609
406.687	-112.00696
406.9	-23.53085
407.114	-31.95906
407.327	10.18593
407.54	-50.9211
407.753	33.36978
407.966	3.86356
408.179	-57.24133
408.392	-25.63794
408.605	29.15432
408.819	-48.81431
409.032	3.86356
409.245	10.18593
409.458	-36.17303
409.671	39.69314
409.884	-23.53085
410.097	-2.45859
410.31	-44.60065
410.523	1.75615
410.736	-74.09415
410.949	-36.17303
411.162	-34.06606
411.375	-44.60065
411.588	22.83131
411.801	31.26204
412.014	-29.85205
412.227	24.93896
412.44	81.85419
412.653	1.75615
412.865	-71.98763
413.078	-36.17303
413.291	-23.53085
413.504	10.18593
413.717	31.26204
413.93	1.75615
414.143	60.77252
414.356	46.01671
414.568	-10.88778
414.781	16.50851
414.994	-17.20943
415.207	12.29343
415.42	-71.98763
415.632	-8.78052
415.845	-53.02787
416.058	1.75615
416.271	-65.66794
416.483	14.40096
416.696	43.90883
416.909	-17.20943
417.121	43.90883
417.334	-2.45859
417.547	-15.10224
417.759	-6.67324
417.972	1.75615
418.185	-78.3071
418.397	-4.56592
418.61	10.18593
418.823	-6.67324
419.035	33.36978
419.248	10.18593
419.46	-0.35123
419.673	-19.31659
419.885	39.69314
420.098	-42.49378
420.311	48.12461
420.523	3.86356
420.736	10.18593
420.948	-2.45859
421.161	12.29343
421.373	12.29343
421.586	-2.45859
421.798	-31.95906
422.01	67.09678
422.223	29.15432
422.435	39.69314
422.648	20.72369
422.86	3.86356
423.073	29.15432
423.285	-38.27997
423.497	77.63768
423.71	1.75615
423.922	10.18593
424.134	29.15432
424.347	56.55646
424.559	-10.88778
424.771	31.26204
424.984	-80.41353
425.196	18.61609
425.408	-53.02787
425.621	37.58533
425.833	18.61609
426.045	-15.10224
426.257	-15.10224
426.47	18.61609
426.682	-38.27997
426.894	-38.27997
427.106	-71.98763
427.318	-55.13461
427.531	-44.60065
427.743	-57.24133
427.955	-17.20943
428.167	-46.70749
428.379	27.04663
428.591	27.04663
428.804	-12.99502
429.016	-6.67324
429.228	-23.53085
429.44	-57.24133
429.652	16.50851
429.864	60.77252
430.076	5.97099
430.288	-8.78052
430.5	-48.81431
430.712	-31.95906
430.924	20.72369
431.136	46.01671
431.348	60.77252
431.56	-15.10224
431.772	56.55646
431.984	-38.27997
432.196	-6.67324
432.408	-2.45859
432.62	-31.95906
432.832	126.13296
433.044	-27.74501
433.256	-31.95906
433.468	-55.13461
433.679	5.97099
433.891	41.80097
434.103	1.75615
434.315	-114.11298
434.527	-23.53085
434.739	79.74592
434.95	18.61609
435.162	-69.8811
435.374	86.0708
435.586	-19.31659
435.798	52.34049
436.009	1.75615
436.221	35.47754
436.433	10.18593
436.645	-15.10224
436.856	-2.45859
437.068	-34.06606
437.28	-69.8811
437.491	48.12461
437.703	-2.45859
437.915	27.04663
438.126	-38.27997
438.338	-36.17303
438.55	54.44846
438.761	5.97099
438.973	10.18593
439.184	14.40096
439.396	20.72369
439.608	60.77252
439.819	-4.56592
440.031	-4.56592
440.242	-27.74501
440.454	-71.98763
440.665	1.75615
440.877	3.86356
441.088	14.40096
441.3	-42.49378
441.511	-2.45859
441.723	3.86356
441.934	1.75615
442.146	-31.95906
442.357	-57.24133
442.569	-21.42373
442.78	-10.88778
442.991	10.18593
443.203	-15.10224
443.414	10.18593
443.626	-61.45468
443.837	-4.56592
444.048	29.15432
444.26	-46.70749
444.471	-29.85205
444.682	-36.17303
444.894	12.29343
445.105	88.17913
445.316	35.47754
445.528	-4.56592
445.739	-36.17303
445.95	10.18593
446.161	12.29343
446.373	31.26204
446.584	-48.81431
446.795	-57.24133
447.006	27.04663
447.217	-103.58262
447.429	-12.99502
447.64	54.44846
447.851	60.77252
448.062	-63.56133
448.273	12.29343
448.484	20.72369
448.695	-67.77453
448.907	-29.85205
449.118	48.12461
449.329	-99.37029
449.54	14.40096
449.751	94.50427
449.962	18.61609
450.173	27.04663
450.384	73.42125
450.595	22.83131
450.806	18.61609
451.017	-29.85205
451.228	98.72115
451.439	39.69314
451.65	-2.45859
451.861	10.18593
452.072	3.86356
452.283	5.97099
452.494	-105.68875
452.705	18.61609
452.915	-40.38689
453.126	50.23254
453.337	-65.66794
453.548	1.75615
453.759	43.90883
453.97	22.83131
454.181	24.93896
454.391	-19.31659
454.602	-2.45859
454.813	37.58533
455.024	1.75615
455.235	-31.95906
455.445	-53.02787
455.656	29.15432
455.867	12.29343
456.078	-12.99502
456.288	-4.56592
456.499	18.61609
456.71	14.40096
456.921	5.97099
457.131	-40.38689
457.342	-8.78052
457.553	-107.79484
457.763	58.66448
457.974	-31.95906
458.184	5.97099
458.395	56.55646
458.606	37.58533
458.816	60.77252
459.027	12.29343
459.237	-19.31659
459.448	37.58533
459.659	-36.17303
459.869	-23.53085
460.08	48.12461
460.29	27.04663
460.501	-0.35123
460.711	52.34049
460.922	14.40096
461.132	37.58533
461.343	-4.56592
461.553	22.83131
461.764	10.18593
461.974	-15.10224
462.184	-6.67324
462.395	60.77252
462.605	-4.56592
462.816	8.07845
463.026	43.90883
463.236	-31.95906
463.447	1.75615
463.657	-23.53085
463.867	-15.10224
464.078	-4.56592
464.288	20.72369
464.498	-23.53085
464.709	-29.85205
464.919	35.47754
465.129	29.15432
465.339	-2.45859
465.55	-19.31659
465.76	14.40096
465.97	-6.67324
466.18	35.47754
466.391	33.36978
466.601	20.72369
466.811	-0.35123
467.021	1.75615
467.231	-38.27997
467.441	-15.10224
467.651	-2.45859
467.862	12.29343
468.072	39.69314
468.282	-31.95906
468.492	-6.67324
468.702	29.15432
468.912	56.55646
469.122	33.36978
469.332	-31.95906
469.542	69.20492
469.752	90.28749
469.962	-6.67324
470.172	35.47754
470.382	39.69314
470.592	8.07845
470.802	-23.53085
471.012	35.47754
471.222	-6.67324
471.432	22.83131
471.642	77.63768
471.852	-31.95906
472.062	64.98867
472.272	41.80097
472.482	52.34049
472.691	-137.27742
472.901	-19.31659
473.111	-53.02787
473.321	-23.53085
473.531	5.97099
473.741	27.04663
473.95	-6.67324
474.16	43.90883
474.37	41.80097
474.58	35.47754
474.79	22.83131
474.999	54.44846
475.209	-2.45859
475.419	29.15432
475.628	14.40096
475.838	62.88058
476.048	22.83131
476.258	-23.53085
476.467	-23.53085
476.677	52.34049
476.886	1.75615
477.096	43.90883
477.306	-6.67324
477.515	-48.81431
477.725	-4.56592
477.935	-44.60065
478.144	-57.24133
478.354	1.75615
478.563	31.26204
478.773	3.86356
478.982	10.18593
479.192	39.69314
479.401	-23.53085
479.611	60.77252
479.82	37.58533
480.03	-27.74501
480.239	-6.67324
480.449	-19.31659
480.658	3.86356
480.868	18.61609
481.077	37.58533
481.287	-15.10224
481.496	83.96248
481.705	-6.67324
481.915	18.61609
482.124	33.36978
482.333	77.63768
482.543	136.67694
482.752	-48.81431
482.961	60.77252
483.171	-2.45859
483.38	27.04663
483.589	5.97099
483.799	132.45929
484.008	10.18593
484.217	-23.53085
484.426	43.90883
484.636	14.40096
484.845	71.31307
485.054	71.31307
485.263	79.74592
485.472	20.72369
485.682	102.93811
485.891	37.58533
486.1	8.07845
486.309	46.01671
486.518	12.29343
486.727	39.69314
486.936	67.09678
487.146	77.63768
487.355	86.0708
487.564	5.97099
487.773	67.09678
487.982	37.58533
488.191	39.69314
488.4	58.66448
488.609	58.66448
488.818	8.07845
489.027	-4.56592
489.236	29.15432
489.445	88.17913
489.654	81.85419
489.863	12.29343
490.072	-53.02787
490.281	-23.53085
490.49	31.26204
490.698	60.77252
490.907	56.55646
491.116	39.69314
491.325	31.26204
491.534	35.47754
491.743	54.44846
491.952	98.72115
492.16	3.86356
492.369	43.90883
492.578	81.85419
492.787	52.34049
492.996	5.97099
493.204	-12.99502
493.413	-27.74501
493.622	60.77252
493.831	62.88058
494.039	73.42125
494.248	3.86356
494.457	-6.67324
494.665	130.35049
494.874	132.45929
495.083	128.24171
495.291	81.85419
495.5	132.45929
495.709	39.69314
495.917	43.90883
496.126	88.17913
496.335	67.09678
496.543	27.04663
496.752	128.24171
496.96	107.15516
497.169	96.6127
497.377	60.77252
497.586	10.18593
497.794	12.29343
498.003	62.88058
498.211	77.63768
498.42	71.31307
498.628	12.29343
498.837	109.26371
499.045	113.4809
499.254	48.12461
499.462	52.34049
499.671	107.15516
499.879	12.29343
500.087	73.42125
500.296	69.20492
500.504	102.93811
500.713	100.82962
500.921	79.74592
501.129	86.0708
501.338	83.96248
501.546	130.35049
501.754	105.04662
501.962	111.37229
502.171	153.54842
502.379	88.17913
502.587	143.00359
502.795	96.6127
503.004	31.26204
503.212	115.58952
503.42	111.37229
503.628	193.62355
503.837	90.28749
504.045	145.11251
504.253	189.40476
504.461	81.85419
504.669	88.17913
504.877	187.2954
505.085	107.15516
505.294	92.39587
505.502	90.28749
505.71	86.0708
505.918	124.02423
506.126	153.54842
506.334	73.42125
506.542	170.42125
506.75	174.63967
506.958	149.33043
507.166	121.91552
507.374	164.09378
507.582	145.11251
507.79	50.23254
507.998	187.2954
508.206	166.20292
508.414	136.67694
508.622	98.72115
508.83	130.35049
509.037	119.80683
509.245	90.28749
509.453	147.22146
509.661	174.63967
509.869	124.02423
510.077	195.73297
510.285	208.38993
510.492	189.40476
510.7	246.36508
510.908	170.42125
511.116	187.2954
511.324	130.35049
511.531	212.60907
511.739	136.67694
511.947	212.60907
512.155	96.6127
512.362	155.65745
512.57	119.80683
512.778	105.04662
512.985	210.49949
513.193	178.85816
513.401	128.24171
513.608	121.91552
513.816	254.80485
514.024	189.40476
514.231	178.85816
514.439	174.63967
514.646	242.1453
514.854	280.12601
515.061	147.22146
515.269	147.22146
515.477	206.28038
515.684	223.15728
515.892	193.62355
516.099	183.07674
516.307	278.01581
516.514	299.11864
516.722	244.25518
516.929	145.11251
517.136	284.34646
517.344	250.58493
517.551	208.38993
517.759	172.53045
517.966	229.48645
518.173	246.36508
518.381	280.12601
518.588	210.49949
518.796	324.44443
519.003	254.80485
519.21	267.46509
519.418	216.8283
519.625	250.58493
519.832	246.36508
520.039	349.77279
520.247	254.80485
520.454	273.79547
520.661	305.44984
520.868	271.68532
521.076	419.43842
521.283	353.99443
521.49	282.23623
521.697	364.54882
521.904	299.11864
522.112	292.78759
522.319	402.54813
522.526	286.45672
522.733	360.32701
522.94	318.11274
523.147	461.6686
523.354	339.219
523.561	400.43691
523.768	339.219
523.975	387.76998
524.183	368.7707
524.39	366.65975
524.597	432.10681
524.804	406.7706
525.011	288.56699
525.218	330.77629
525.425	415.21575
525.632	366.65975
525.838	356.10527
526.045	402.54813
526.252	383.5478
526.459	381.43673
526.666	370.88166
526.873	510.24083
527.08	408.88187
527.287	440.55273
527.494	309.67074
527.701	448.99889
527.907	457.4453
528.114	482.78599
528.321	525.02522
528.528	470.11538
528.735	434.21827
528.941	427.88395
529.148	398.32572
529.355	457.4453
529.562	478.56239
529.768	510.24083
529.975	436.32974
530.182	552.48376
530.388	525.02522
530.595	622.19641
530.802	474.33885
531.008	546.14697
531.215	425.77255
531.422	550.37148
531.628	552.48376
531.835	664.45318
532.042	493.34525
532.248	656.00144
532.455	531.3616
532.661	491.23337
532.868	484.89782
533.074	653.88854
533.281	518.68897
533.487	592.61962
533.694	563.04536
533.9	753.20736
534.107	550.37148
534.313	579.94462
534.52	588.39456
534.726	617.971
534.933	582.05709
535.139	679.24418
535.345	685.58335
535.552	679.24418
535.758	634.87293
535.965	729.96036
536.171	592.61962
536.377	687.69643
536.584	546.14697
536.79	723.62049
536.996	704.60147
537.203	753.20736
537.409	708.82785
537.615	801.81867
537.821	617.971
538.028	770.11505
538.234	647.5499
538.44	666.56615
538.646	588.39456
538.853	753.20736
539.059	787.02337
539.265	791.25055
539.471	776.4556
539.677	871.57399
539.883	833.52443
540.09	816.61443
540.296	757.43422
540.502	835.63822
540.708	744.75376
540.914	799.70503
541.12	753.20736
541.326	880.02982
541.532	822.95561
541.738	846.2073
541.944	837.75202
542.15	1023.79738
542.356	939.22421
542.562	861.00439
542.768	822.95561
542.974	896.94188
543.18	939.22421
543.386	949.79526
543.592	973.05219
543.798	1025.91184
544.004	905.3981
544.21	983.6238
544.415	863.11829
544.621	1083.00445
544.827	869.46005
545.033	1083.00445
545.239	1118.9536
545.445	1093.57758
545.651	932.88167
545.856	1025.91184
546.062	1055.51491
546.268	1074.54603
546.474	992.08121
546.679	1057.62946
546.885	930.7675
547.091	1184.51125
547.297	1019.56848
547.502	1055.51491
547.708	1040.71324
547.914	1074.54603
548.119	1137.98605
548.325	1142.21553
548.531	1019.56848
548.736	1129.52714
548.942	1173.93717
549.147	1220.46377
549.353	1152.78931
549.559	1167.59277
549.764	1006.88191
549.97	1169.70757
550.175	1044.94226
550.381	1412.92739
550.586	1061.85857
550.792	1317.7512
550.997	1169.70757
551.203	1237.38293
551.408	1051.28583
551.614	1305.06126
551.819	1283.91152
552.025	1345.24629
552.23	1298.71631
552.435	1321.98119
552.641	1252.18734
552.846	1419.27253
553.052	1345.24629
553.257	1457.34346
553.462	1302.94628
553.668	1406.58225
553.873	1336.78623
554.078	1463.68862
554.283	1421.38758
554.489	1474.26387
554.694	1341.01625
554.899	1489.06922
555.105	1345.24629
555.31	1431.96284
555.515	1345.24629
555.72	1495.41436
555.925	1349.47632
556.131	1594.82048
556.336	1457.34346
556.541	1725.94542
556.746	1505.98959
556.951	1550.40531
557.156	1387.54686
557.361	1531.37006
557.567	1421.38758
557.772	1550.40531
557.977	1522.90992
558.182	1637.11991
558.387	1582.1305
558.592	1740.74914
558.797	1434.07789
559.002	1759.78224
559.207	1544.06024
559.412	1717.48608
559.617	1620.20024
559.822	1704.79696
560.027	1552.52034
560.232	1687.87797
560.437	1594.82048
560.642	1601.16545
560.847	1609.62537
561.051	1711.14153
561.256	1554.63536
561.461	1719.60092
561.666	1689.99285
561.871	1802.07688
562.076	1565.21044
562.281	1838.02599
562.485	1645.57968
562.69	1950.09341
562.895	1700.56723
563.1	1804.19157
563.305	1785.15922
563.509	1935.29293
563.714	1649.80956
563.919	1831.68213
564.123	1590.5905
564.328	1950.09341
564.533	1829.5675
564.737	1895.11881
564.942	1785.15922
565.147	1829.5675
565.351	1740.74914
565.556	1867.63013
565.761	1795.73279
565.965	1825.33822
566.17	1986.03619
566.374	1916.26333
566.579	1810.53561
566.784	1979.69348
566.988	1928.94978
567.193	1975.46497
567.397	1814.76495
567.602	2081.16976
567.806	1912.03447
568.011	2079.05583
568.215	1916.26333
568.42	2167.83416
568.624	2089.62539
568.828	1912.03447
569.033	1865.51558
569.237	2182.62918
569.442	2076.9419
569.646	2009.29232
569.85	1869.74468
570.055	2068.48609
570.259	2121.33293
570.463	2172.06135
570.668	2091.73927
570.872	2085.39759
571.076	2241.80512
571.281	2123.4467
571.485	2125.56047
571.689	2153.03873
571.893	2032.54766
572.098	2341.1202
572.302	2085.39759
572.506	2305.20013
572.71	2193.1968
572.914	2400.27641
573.119	2140.35662
573.323	2281.95626
573.527	2083.28367
573.731	2260.82449
573.935	2317.87812
574.139	2368.58657
574.343	2214.33142
574.547	2292.5218
574.751	2165.72055
574.955	2486.88317
575.159	2267.16412
575.364	2286.1825
575.568	2315.76515
575.772	2336.89446
575.976	2347.45874
576.18	2476.32235
576.383	2300.97406
576.587	2495.33162
576.791	2364.36109
576.995	2546.01853
577.199	2421.40167
577.403	2446.75059
577.607	2444.63824
577.811	2512.22799
578.015	2396.05123
578.219	2529.12363
578.422	2472.09794
578.626	2469.98572
578.83	2520.6759
579.034	2366.47383
579.238	2516.45197
579.442	2594.58717
579.645	2429.85148
579.849	2685.37209
580.053	2664.26138
580.257	2681.15005
580.46	2465.76125
580.664	2750.80704
580.868	2419.28919
581.071	2641.03815
581.275	2522.78785
581.479	2579.80608
581.682	2590.36406
581.886	2776.13328
582.09	2664.26138
582.293	2622.03619
582.497	2550.24214
582.7	2822.55963
582.904	2653.70555
583.107	2790.90602
583.311	2748.69643
583.515	2767.69141
583.718	2562.91268
583.922	2858.42995
584.125	2881.63798
584.329	2959.6885
584.532	2729.70037
584.735	2904.84427
584.939	2736.03251
585.142	3012.41384
585.346	2765.58091
585.549	2953.36083
585.753	2866.86943
585.956	3069.3465
586.159	2833.11015
586.363	3077.78
586.566	2963.90687
586.769	3143.13108
586.973	2868.97927
587.176	2995.54276
587.379	2974.45254
587.582	3398.05924
587.786	2894.29617
587.989	3067.23808
588.192	2841.55031
588.395	2938.59574
588.599	2961.79769
588.802	3094.64626
589.005	2885.85743
589.208	3463.33069
589.411	2951.25157
589.615	3037.71863
589.818	3100.97084
590.021	3153.67014
590.224	3060.91274
590.427	3288.53373
590.63	3204.25194
590.833	3318.02597
591.036	3343.30235
591.239	3406.48232
591.442	2917.50151
591.645	3225.3249
591.848	3410.69376
592.051	3336.98348
592.254	3094.64626
592.457	3410.69376
592.66	3309.59996
592.863	3242.18207
593.066	3172.63942
593.269	3389.63587
593.472	3334.87716
593.675	3282.21353
593.878	3322.23887
594.081	3652.72922
594.284	3212.68132
594.486	3541.21264
594.689	3604.34169
594.892	3507.53702
595.095	3539.10805
595.298	3465.43593
595.5	3368.57623
595.703	3583.30053
595.906	3427.53879
596.109	3608.5497
596.311	3425.43322
596.514	3377.00029
596.717	3393.84759
596.92	3591.71722
597.122	3501.22232
597.325	3555.94425
597.528	3467.54116
597.73	3635.89991
597.933	3545.42177
598.136	3720.03428
598.338	3467.54116
598.541	3814.64852
598.743	3612.75763
598.946	3642.21104
599.148	3608.5497
599.351	3759.98733
599.554	3661.14342
599.756	3686.3842
599.959	3593.82135
600.161	3793.62655
600.363	3823.05675
600.566	3694.79718
600.768	3631.69239
600.971	3919.72859
601.173	3724.24019
601.376	3944.94035
601.578	3734.75463
601.78	3667.45387
601.983	3633.79616
602.185	3810.44428
602.388	3520.16593
602.59	3949.14203
602.792	3743.16584
602.995	3921.82968
603.197	3802.03557
603.399	3997.45546
603.601	3816.7506
603.804	4087.75146
604.006	3894.51393
604.208	3997.45546
604.41	3797.8311
604.613	4083.5525
604.815	3928.13283
605.017	4014.2576
605.219	3743.16584
605.421	3926.0318
605.623	4003.75642
605.826	4188.50154
606.028	3860.88989
606.23	4112.94351
606.432	3869.29638
606.634	4169.61459
606.836	3949.14203
607.038	4073.05472
607.24	3921.82968
607.442	4159.1211
607.644	3991.15432
607.846	4163.31856
608.048	3907.12162
608.25	4020.55807
608.452	3846.17776
608.654	4180.10755
608.856	3986.95346
609.058	4138.13254
609.26	4054.15741
609.462	4268.2275
609.664	4073.05472
609.866	4217.87784
610.067	4003.75642
610.269	4196.89519
610.471	4049.95778
610.673	4205.28851
610.875	4035.25843
611.077	4274.52034
611.278	4108.74504
611.48	4352.11616
611.682	4142.33042
611.884	4266.12984
612.085	4182.20608
612.287	4198.99355
612.489	4045.75807
612.69	4375.17948
612.892	4070.9551
613.094	4465.31079
613.295	4154.92356
613.497	4406.62522
613.699	4081.45298
613.9	4440.16193
614.102	4249.34782
614.304	4400.33646
614.505	4198.99355
614.707	4264.03216
614.908	4056.25719
615.11	4419.20214
615.311	4209.48503
615.513	4314.37053
615.714	4182.20608
615.916	4398.24017
616.117	4207.38678
616.319	4387.75836
616.52	4178.009
616.722	4316.46769
616.923	4465.31079
617.124	4289.20289
617.326	4368.88974
617.527	4465.31079
617.729	4261.93446
617.93	4373.08292
618.131	4322.75905
618.333	4389.85477
618.534	4412.91378
618.735	4448.54524
618.937	4373.08292
619.138	4484.17035
619.339	4373.08292
619.54	4660.1064
619.742	4337.43813
619.943	4664.29343
620.144	4245.1521
620.345	4375.17948
620.546	4360.50312
620.748	4777.30927
620.949	4417.10604
621.15	4643.35737
621.351	4350.01936
621.552	4486.26575
621.753	4532.3589
621.954	4530.26399
622.155	4498.83767
622.356	4576.34691
622.558	4322.75905
622.759	4561.68533
622.96	4366.79312
623.161	4549.11739
623.362	4509.31366
623.563	4620.3251
623.764	4553.30679
623.965	4603.57267
624.166	4603.57267
624.366	4800.32293
624.567	4507.21851
624.768	4509.31366
624.969	4429.68231
625.17	4616.13713
625.371	4544.9279
625.572	4523.97912
625.773	4463.21517
625.973	4634.98231
626.174	4618.23113
626.375	4718.71669
626.576	4509.31366
626.777	4710.34487
626.977	4601.47851
627.178	4768.93999
627.379	4603.57267
627.58	4766.84761
627.78	4599.38433
627.981	4902.80481
628.182	4593.10167
628.382	4911.16825
628.583	4655.91928
628.784	4940.43741
628.984	4764.75521
629.185	4969.70207
629.386	4461.11953
629.586	4950.8896
629.787	4777.30927
629.987	4825.4256
630.188	4814.96655
630.388	5051.20124
630.589	4637.07611
630.79	4867.25608
630.99	4653.82568
631.191	4733.3665
631.391	4752.20034
631.591	4827.51734
631.792	4666.38692
631.992	5067.91467
632.193	4863.07344
632.393	4729.18095
632.594	4693.60015
632.794	4959.25093
632.994	4810.78277
633.195	5021.94917
633.395	4909.07742
633.595	5138.9302
633.796	4752.20034
633.996	4904.8957
634.196	4842.15889
634.397	4969.70207
634.597	4760.57035
634.797	5063.73645
634.997	4768.93999
635.198	4890.25895
635.398	4969.70207
635.598	5151.45957
635.798	4819.15024
635.998	4913.25905
636.199	4748.0152
636.399	5163.9881
636.599	4904.8957
636.799	5078.35981
636.999	4860.98209
637.199	5262.09922
637.399	4927.89404
637.599	5040.75459
637.799	4762.66279
637.999	5042.84397
638.199	4863.07344
638.399	5097.15961
638.599	4963.43146
638.799	5178.60366
638.999	5143.10675
639.199	5268.35988
639.399	5118.04607
639.599	5120.13459
639.799	4881.89459
639.999	5343.47138
640.199	5078.35981
640.399	5207.83135
640.599	4944.61836
640.799	5435.23305
640.998	5055.37973
641.198	5178.60366
641.398	5214.09383
641.598	5197.39341
641.798	5195.30576
641.997	5337.21324
642.197	5026.12831
642.397	5428.97802
642.597	5274.62033
642.796	5570.70679
642.996	5234.96726
643.196	5374.75887
643.395	5105.51447
643.595	5470.67425
643.795	5151.45957
643.994	5347.64335
644.194	5080.44877
644.394	5456.08164
644.593	5042.84397
644.793	5539.45245
644.992	5303.83298
645.192	5468.58966
645.392	5262.09922
645.591	5378.93014
645.791	5320.52386
645.99	5489.43448
646.19	5147.28321
646.389	5410.21165
646.589	5278.79384
646.788	5485.26571
646.987	5076.27083
647.187	5479.01236
647.386	5147.28321
647.586	5545.70374
647.785	5243.31597
647.984	5330.9549
648.184	5347.64335
648.383	5353.90113
648.582	5255.83834
648.782	5547.78746
648.981	5412.2969
649.18	5368.50179
649.38	5351.81522
649.579	5712.32658
649.778	5583.20704
649.977	5791.41954
650.177	5243.31597
650.376	5689.42489
650.575	5410.21165
650.774	5643.61295
650.973	5403.95577
651.173	5589.45684
651.372	5453.99689
651.571	5735.22542
651.77	5635.28228
651.969	5626.95123
652.168	5328.86874
652.367	5606.12196
652.566	5493.60316
652.765	5839.27503
652.964	5543.62
653.163	5835.11418
653.362	5585.29033
653.561	5593.62327
653.76	5312.17861
653.959	5743.55156
654.158	5364.33029
654.357	5629.03403
654.556	5703.99903
654.755	5901.67648
654.954	5378.93014
655.153	5720.65376
655.352	5770.60891
655.551	5762.28399
655.749	5610.288
655.948	5893.35751
656.147	5697.75311
656.346	5853.83727
656.545	5649.86071
656.743	5726.8989
656.942	5585.29033
657.141	6055.50931
657.34	5516.52923
657.538	5830.95323
657.737	5618.61981
657.936	6003.55319
658.135	5547.78746
658.333	6049.27535
658.532	5585.29033
658.731	5845.51613
658.929	5595.70644
659.128	5712.32658
659.326	5681.0963
659.525	5995.23885
659.724	5643.61295
659.922	5974.45133
660.121	5649.86071
660.319	6013.94559
660.518	5693.58905
660.716	5912.07465
660.915	5703.99903
661.113	5914.15422
661.312	5810.14709
661.51	5989.00284
661.709	5658.19072
661.907	5899.59677
662.105	5716.49022
662.304	6119.91447
662.502	5909.99507
662.701	5918.31328
662.899	5868.39835
663.097	5976.53019
663.296	5976.53019
663.494	5972.37245
663.692	5651.94325
663.891	5876.71845
664.089	5785.17659
664.287	6040.96308
664.485	5857.99769
664.684	5997.31747
664.882	5626.95123
665.08	6070.05439
665.278	6109.52807
665.476	5864.23816
665.675	5843.43579
665.873	6047.19732
666.071	5714.40841
666.269	6072.13216
666.467	5664.43798
666.665	6018.10239
666.863	5710.24473
667.061	5955.74056
667.259	5803.90478
667.457	6005.63172
667.655	5745.63303
667.853	6144.83943
668.051	6020.18075
668.249	5964.05669
668.447	5845.51613
668.645	5810.14709
668.843	5808.06634
669.041	6063.82092
669.239	5526.94923
669.437	5918.31328
669.635	5849.67675
669.833	6130.30028
670.031	5835.11418
670.229	5976.53019
670.426	5764.36526
670.624	5812.22781
670.822	5778.93344
671.02	6105.37334
671.218	5776.85234
671.415	6134.45444
671.613	5885.03817
671.811	5993.1602
672.009	5870.47841
672.206	6153.147
672.404	5939.10715
672.602	6049.27535
672.799	6034.72863
672.997	6065.89877
673.195	5918.31328
673.392	6153.147
673.59	5857.99769
673.788	6003.55319
673.985	5822.63106
674.183	6045.11926
674.38	5778.93344
674.578	6080.44302
674.775	5843.43579
674.973	6055.50931
675.17	5839.27503
675.368	6038.88495
675.565	5837.19462
675.763	6151.07014
675.96	5978.60903
676.158	5939.10715
676.355	5828.87272
676.553	6151.07014
676.75	5976.53019
676.947	6200.90823
677.145	5756.04006
677.342	6026.4157
677.539	5772.69008
677.737	6040.96308
677.934	5633.19955
678.131	5868.39835
678.329	5887.11804
678.526	6200.90823
678.723	5984.84538
678.92	6200.90823
679.118	5778.93344
679.315	5972.37245
679.512	5820.55045
679.709	6043.04118
679.906	5966.13567
680.104	5812.22781
680.301	6182.22053
680.498	6028.49396
680.695	5812.22781
680.892	6080.44302
681.089	5710.24473
681.286	6001.47464
681.483	5751.87732
681.68	5953.66147
681.877	5610.288
682.075	5893.35751
682.272	5810.14709
682.469	5966.13567
682.665	5841.35542
682.862	5803.90478
683.059	5803.90478
683.256	5760.20271
683.453	5951.58235
683.65	5816.38918
683.847	5901.67648
684.044	5978.60903
684.241	5826.79219
684.438	6018.10239
684.635	5747.71449
684.831	6140.6855
685.028	5749.79591
685.225	5997.31747
685.422	5899.59677
685.619	6016.024
685.815	5909.99507
686.012	6252.80854
686.209	5616.53689
686.405	6105.37334
686.602	5893.35751
686.799	5901.67648
686.996	5874.63846
687.192	5753.9587
687.389	5766.4465
687.586	5922.47224
687.782	5803.90478
687.979	5974.45133
688.175	5672.76733
688.372	6026.4157
688.568	5764.36526
688.765	5797.66227
688.962	5574.87363
689.158	5895.43729
689.355	5726.8989
689.551	5872.55844
689.748	5812.22781
689.944	5824.71164
690.14	5828.87272
690.337	5939.10715
690.533	5783.09557
690.73	5822.63106
690.926	5793.50047
691.123	5708.16285
691.319	5851.75702
691.515	6028.49396
691.712	5654.02576
691.908	5934.94857
692.104	5651.94325
692.301	5724.81721
692.497	5637.36498
692.693	5743.55156
692.889	5851.75702
693.086	5733.14382
693.282	5762.28399
693.478	5853.83727
693.674	5847.59645
693.87	5833.03372
694.067	5647.77815
694.263	5843.43579
694.459	5718.572
694.655	5824.71164
694.851	5556.12209
695.047	5893.35751
695.243	5689.42489
695.439	5683.17848
695.635	5576.95702
695.831	5828.87272
696.027	5803.90478
696.224	5851.75702
696.42	5522.7813
696.615	5943.26565
696.811	5768.52771
697.007	5914.15422
697.203	5635.28228
697.399	5995.23885
697.595	5676.93186
697.791	5928.71051
697.987	5718.572
698.183	5887.11804
698.379	5637.36498
698.575	5887.11804
698.77	5547.78746
698.966	5803.90478
699.162	5510.27695
699.358	5716.49022
699.554	5585.29033
699.749	5805.98557
699.945	5654.02576
700.141	5889.19789
700.337	5768.52771
700.532	5679.01409
700.728	5604.0389
700.924	5787.2576
701.119	5581.12372
701.315	5560.28926
701.511	5581.12372
701.706	5818.46983
701.902	5624.86841
702.097	5814.3085
702.293	5647.77815
702.489	5693.58905
702.684	5710.24473
702.88	5676.93186
703.075	5520.6973
703.271	5579.04038
703.466	5504.02446
703.662	5572.79022
703.857	5591.54007
704.053	5882.95827
704.248	5601.95582
704.443	5855.91749
704.639	5722.7355
704.834	5722.7355
705.03	5635.28228
705.225	5868.39835
705.42	5481.09684
705.616	5857.99769
705.811	5487.3501
706.006	5703.99903
706.202	5643.61295
706.397	5703.99903
706.592	5437.31802
706.787	5706.08095
706.983	5551.95482
707.178	5549.87115
707.373	5460.25107
707.568	5687.34278
707.763	5370.58751
707.959	5909.99507
708.154	5556.12209
708.349	5654.02576
708.544	5487.3501
708.739	5643.61295
708.934	5610.288
709.129	5679.01409
709.324	5685.26064
709.519	5631.1168
709.714	5493.60316
709.909	5803.90478
710.104	5385.18686
710.299	5622.78557
710.494	5535.2848
710.689	5606.12196
710.884	5360.1587
711.079	5610.288
711.274	5426.89296
711.469	5726.8989
711.664	5422.72278
711.859	5862.15803
712.054	5660.27316
712.249	5776.85234
712.443	5410.21165
712.638	5579.04038
712.833	5353.90113
713.028	5781.01452
713.223	5620.7027
713.417	5435.23305
713.612	5543.62
713.807	5520.6973
714.002	5420.63765
714.196	5566.53985
714.391	5460.25107
714.586	5631.1168
714.78	5497.77175
714.975	5651.94325
715.17	5464.42041
715.364	5656.10825
715.559	5412.2969
715.754	5412.2969
715.948	5504.02446
716.143	5612.37099
716.337	5285.05394
716.532	5562.37281
716.726	5681.0963
716.921	5541.53623
717.115	5124.31155
717.31	5510.27695
717.504	5420.63765
717.699	5512.36107
717.893	5397.69968
718.088	5274.62033
718.282	5209.91887
718.476	5401.87043
718.671	5291.31383
718.865	5416.46732
719.059	5072.0928
719.254	5426.89296
719.448	5351.81522
719.642	5489.43448
719.837	5199.48105
720.031	5335.12715
720.225	5209.91887
720.419	5435.23305
720.614	5209.91887
720.808	5372.6732
721.002	5260.01228
721.196	5308.00584
721.39	5212.00636
721.585	5426.89296
721.779	5178.60366
721.973	5251.66431
722.167	5107.60313
722.361	5435.23305
722.555	5301.74651
722.749	5237.05447
722.943	5172.33999
723.137	5270.44672
723.331	5234.96726
723.525	5597.78959
723.719	5176.51579
723.913	5278.79384
724.107	5178.60366
724.301	5366.41606
724.495	5222.44348
724.689	5418.55249
724.883	5195.30576
725.077	5543.62
725.271	5205.74381
725.465	5479.01236
725.659	5189.04264
725.853	5437.31802
726.046	5161.90007
726.24	5326.78255
726.434	5122.22308
726.628	5437.31802
726.822	5038.66519
727.015	5243.31597
727.209	5201.56866
727.403	5385.18686
727.596	5168.16409
727.79	5479.01236
727.984	5472.75881
728.177	5539.45245
728.371	5341.38536
728.565	5414.38212
728.758	5220.3561
728.952	5241.22883
729.146	5130.57683
729.339	5385.18686
729.533	5059.55814
729.726	5193.21807
729.92	5057.46895
730.113	5560.28926
730.307	5038.66519
730.5	5418.55249
730.694	5270.44672
730.887	5481.09684
731.081	5287.14059
731.274	5245.40309
731.468	5207.83135
731.661	5278.79384
731.854	4942.5279
732.048	5310.09223
732.241	5099.24836
732.435	5395.61427
732.628	5134.75356
732.821	5320.52386
733.014	5207.83135
733.208	5393.52883
733.401	5337.21324
733.594	5193.21807
733.788	5289.22722
733.981	5222.44348
734.174	5280.88057
734.367	5157.72394
734.56	5347.64335
734.754	5163.9881
734.947	5268.35988
735.14	5320.52386
735.333	5376.84452
735.526	5157.72394
735.719	5391.44338
735.912	5234.96726
736.105	5289.22722
736.298	5249.57726
736.491	5195.30576
736.684	5514.44516
736.877	5320.52386
737.07	5067.91467
737.263	5143.10675
737.456	5426.89296
737.649	5176.51579
737.842	5272.53353
738.035	5268.35988
738.228	5260.01228
738.421	5264.18613
738.614	5351.81522
738.807	5395.61427
739	5193.21807
739.192	5230.79276
739.385	5155.63584
739.578	5195.30576
739.771	5243.31597
739.964	5017.76993
740.156	5157.72394
740.349	4892.34999
740.542	5180.6915
740.735	5072.0928
740.927	5237.05447
741.12	5151.45957
741.313	5086.71551
741.505	5232.88002
741.698	5159.81202
741.891	4925.80339
742.083	5155.63584
742.276	5067.91467
742.468	5330.9549
742.661	4950.8896
742.854	5101.33709
743.046	5224.53084
743.239	5226.61817
743.431	5159.81202
743.624	5105.51447
743.816	5333.04104
744.009	5084.62662
744.201	5138.9302
744.393	5128.48843
744.586	5105.51447
744.778	5026.12831
744.971	5186.95489
745.163	4892.34999
745.355	4892.34999
745.548	5078.35981
745.74	5095.07084
745.932	4950.8896
746.125	5047.02265
746.317	5172.33999
746.509	5072.0928
746.702	5122.22308
746.894	4994.78248
747.086	5017.76993
747.278	5024.03875
747.471	5201.56866
747.663	5103.42579
747.855	5205.74381
748.047	4909.07742
748.239	5218.2687
748.431	5011.5009
748.623	5251.66431
748.815	5086.71551
749.008	5151.45957
749.2	5228.70547
749.392	5182.77932
749.584	4938.34691
749.776	5155.63584
749.968	5143.10675
750.16	5207.83135
750.352	5038.66519
750.544	4963.43146
750.736	4973.88237
750.928	4863.07344
751.12	4909.07742
751.311	5001.05206
751.503	5001.05206
751.695	5118.04607
751.887	4911.16825
752.079	5036.57577
752.271	4796.13883
752.463	5051.20124
752.654	4886.07682
752.846	5067.91467
753.038	4904.8957
753.23	5042.84397
753.421	4681.04067
753.613	4783.586
753.805	4821.24205
753.997	4852.61645
754.188	4975.97249
754.38	4825.4256
754.572	4890.25895
754.763	4791.95465
754.955	4701.97269
755.146	4888.1679
755.338	4750.10778
755.53	4814.96655
755.721	4781.49378
755.913	4804.50693
756.104	4710.34487
756.296	4863.07344
756.487	4877.71228
756.679	4948.79921
756.87	4980.15265
757.062	4867.25608
757.253	4706.15883
757.445	4894.441
757.636	4978.06258
757.827	4869.34737
758.019	4808.69085
758.21	4783.586
758.401	4676.854
758.593	4595.19591
758.784	4611.94906
758.975	4649.63842
759.167	4609.855
759.358	4842.15889
759.549	4733.3665
759.74	4670.57382
759.932	4624.51299
760.123	4660.1064
760.314	4586.8188
760.505	4582.63011
760.696	4555.40146
760.888	4664.29343
761.079	4431.77828
761.27	4743.82997
761.461	4584.72447
761.652	4685.22725
761.843	4404.52899
762.034	4676.854
762.225	4350.01936
762.416	4720.80958
762.607	4574.25247
762.798	4618.23113
762.989	4454.83248
763.18	4486.26575
763.371	4517.69406
763.562	4538.6435
763.753	4415.00992
763.944	4448.54524
764.135	4245.1521
764.326	4553.30679
764.517	4498.83767
764.708	4614.04311
764.899	4438.06605
765.089	4419.20214
765.28	4415.00992
765.471	4643.35737
765.662	4322.75905
765.853	4517.69406
766.043	4364.69647
766.234	4473.69304
766.425	4425.49031
766.615	4295.49509
766.806	4276.61791
766.997	4442.25779
767.187	4211.58327
767.378	4163.31856
767.569	4100.34786
767.759	4354.21293
767.95	4230.4664
768.141	4243.0542
768.331	4054.15741
768.522	4291.30031
768.712	4087.75146
768.903	4322.75905
769.093	4243.0542
769.284	4326.95318
769.474	4104.54649
769.665	4297.59245
769.855	4060.4567
770.046	4224.17222
770.236	4075.15432
770.426	4180.10755
770.617	4089.85091
770.807	4228.36836
770.998	4085.65199
771.188	4287.10545
771.378	4100.34786
771.569	4150.72593
771.759	3972.2498
771.949	3953.34362
772.139	4033.15844
772.33	4020.55807
772.52	3879.80404
772.71	4064.65612
772.9	3787.31958
773.09	4215.77967
773.281	4056.25719
773.471	4054.15741
773.661	4045.75807
773.851	4121.34019
774.041	3886.1084
774.231	4203.19021
774.421	3944.94035
774.611	4068.85546
774.802	3854.58481
774.992	3989.0539
775.182	3957.54514
775.372	4173.81184
775.562	3957.54514
775.752	3995.3551
775.942	3984.853
776.131	4047.85794
776.321	3955.44439
776.511	3944.94035
776.701	3818.85267
776.891	3886.1084
777.081	3808.34213
777.271	3896.61526
777.461	3911.32402
777.651	3846.17776
777.84	3762.08992
778.03	3789.42192
778.22	3524.37542
778.41	3812.54641
778.599	3610.65367
778.789	3816.7506
778.979	3633.79616
779.169	3827.26075
779.358	3608.5497
779.548	3898.71657
779.738	3699.00355
779.927	3907.12162
780.117	3669.55732
780.307	3684.2809
780.496	3783.11483
780.686	3848.27956
780.875	3680.07426
781.065	3736.85747
781.254	3600.13361
781.444	3814.64852
781.633	3585.40473
781.823	3583.30053
782.012	3515.95637
782.202	3465.43593
782.391	3549.63081
782.581	3692.69396
782.77	3785.21721
782.96	3667.45387
783.149	3425.43322
783.338	3486.48738
783.528	3501.22232
783.717	3734.75463
783.906	3532.79418
784.096	3473.85673
784.285	3507.53702
784.474	3610.65367
784.663	3366.47017
784.853	3690.59073
785.042	3339.08979
785.231	3659.0399
785.42	3490.69746
785.61	3427.53879
785.799	3469.64637
785.988	3581.19632
786.177	3389.63587
786.366	3336.98348
786.555	3414.90512
786.744	3457.01485
786.933	3301.17367
787.122	3355.9396
787.312	3277.99998
787.501	3448.59347
787.69	3271.67953
787.879	3457.01485
788.068	3275.89318
788.257	3360.15188
788.445	3109.4034
788.634	3368.57623
788.823	3122.05176
789.012	3332.77082
789.201	3237.96787
789.39	3172.63942
789.579	3113.61958
789.768	3326.4517
789.957	3149.45456
790.145	3334.87716
790.334	3172.63942
790.523	3305.38685
790.712	3063.02121
790.9	3229.53929
791.089	3025.06651
791.278	3233.75361
791.467	3149.45456
791.655	3210.574
791.844	3077.78
792.033	3105.18715
792.221	3090.42979
792.41	3216.89591
792.599	3111.5115
792.787	3290.64043
792.976	2974.45254
793.164	3206.35931
793.353	3018.74025
793.541	3214.78863
793.73	3020.84902
793.918	3320.13243
794.107	2681.15005
794.295	2968.12518
794.484	3149.45456
794.672	3001.86953
794.861	3031.39264
795.049	3077.78
795.238	3020.84902
795.426	3065.12965
795.614	2934.37701
795.803	3010.30501
795.991	2871.08909
796.179	3149.45456
796.368	2733.92181
796.556	2892.18651
796.744	2849.99024
796.932	3016.63146
797.121	2875.30869
797.309	2966.01603
797.497	2782.46453
797.685	2824.66976
797.874	2651.59435
798.062	2942.81441
798.25	2672.70582
798.438	2892.18651
798.626	2879.52823
798.814	3063.02121
799.002	2776.13328
799.19	2909.06341
799.378	2755.02821
799.566	2934.37701
799.755	2793.01636
799.943	3016.63146
800.131	2928.04881
800.318	2993.4338
800.506	2877.41846
800.694	2951.25157
800.882	2917.50151
801.07	3155.7779
801.258	2807.78833
801.446	2849.99024
801.634	2858.42995
801.822	2885.85743
802.01	2892.18651
802.197	2942.81441
802.385	2919.611
802.573	2809.89856
802.761	2860.53984
802.949	2917.50151
803.136	2858.42995
803.324	2921.72047
803.512	2963.90687
803.699	2993.4338
803.887	2849.99024
804.075	3037.71863
804.262	2936.48638
804.45	2774.02283
804.638	2759.24933
804.825	3113.61958
805.013	2940.70508
805.201	2968.12518
805.388	2860.53984
805.576	3056.69577
805.763	2868.97927
805.951	3010.30501
806.138	2866.86943
806.326	2879.52823
806.513	2917.50151
806.701	2923.82993
806.888	2799.34729
807.075	3071.4549
807.263	2771.91237
807.45	2978.67071
807.638	2862.64972
807.825	2993.4338
808.012	2932.26763
808.2	2978.67071
808.387	2786.6853
808.574	3018.74025
808.761	2831.00007
808.949	2978.67071
809.136	2835.22021
809.323	3094.64626
809.51	2942.81441
809.698	3033.50132
809.885	2723.36811
810.072	3153.67014
810.259	2984.99784
810.446	2961.79769
810.633	2782.46453
810.82	2982.88881
811.008	2852.10019
811.195	3069.3465
811.382	2993.4338
811.569	3153.67014
811.756	2820.44949
811.943	3094.64626
812.13	2793.01636
812.317	3012.41384
812.504	2919.611
812.691	2947.03302
812.878	2849.99024
813.064	3065.12965
813.251	2995.54276
813.438	2938.59574
813.625	2799.34729
813.812	3086.21326
813.999	2849.99024
814.186	3119.94374
814.372	2868.97927
814.559	3153.67014
814.746	2942.81441
814.933	3086.21326
815.12	2923.82993
815.306	3145.23892
815.493	2776.13328
815.68	3077.78
815.866	2736.03251
816.053	2906.95385
816.24	2774.02283
816.426	2959.6885
816.613	2858.42995
816.799	2966.01603
816.986	2719.14653
817.173	2801.45757
817.359	2738.14319
817.546	2824.66976
817.732	2769.8019
817.919	2997.6517
818.105	2816.22916
818.292	3003.97842
818.478	2938.59574
818.665	2860.53984
818.851	2925.93938
819.037	2997.6517
819.224	2719.14653
819.41	2795.12668
819.597	2632.59296
819.783	2786.6853
819.969	2757.13878
820.156	2871.08909
820.342	2723.36811
820.528	2900.62507
820.714	2666.37251
820.901	2871.08909
821.087	2723.36811
821.273	2875.30869
821.459	2784.57493
821.646	2885.85743
821.832	2790.90602
822.018	2849.99024
822.204	2672.70582
822.39	2725.47887
822.576	2617.8134
822.762	2799.34729
822.948	2622.03619
823.134	2689.59407
823.32	2683.26107
823.507	2959.6885
823.693	2446.75059
823.879	2774.02283
824.065	2630.48163
824.25	2883.74771
824.436	2698.03789
824.622	2740.25387
824.808	2655.81674
824.994	2837.33025
825.18	2719.14653
825.366	2858.42995
825.552	2603.03324
825.738	2719.14653
825.923	2702.25972
826.109	2786.6853
826.295	2638.92687
826.481	2695.92696
826.667	2609.36767
826.852	2584.02931
827.038	2554.4657
827.224	2714.92491
827.409	2463.649
827.595	2579.80608
827.781	2393.93863
827.966	2723.36811
828.152	2339.00733
828.338	2592.47562
828.523	2573.47114
828.709	2725.47887
828.894	2436.18873
829.08	2793.01636
829.266	2562.91268
829.451	2704.37062
829.637	2508.00397
829.822	2482.65887
830.008	2353.7972
830.193	2486.88317
830.378	2218.55824
830.564	2590.36406
830.749	2288.29561
830.935	2664.26138
831.12	2248.14499
831.305	2427.73904
831.491	2216.44483
831.676	2562.91268
831.861	2305.20013
832.047	2404.50155
832.232	2305.20013
832.417	2463.649
832.602	2227.01177
832.788	2351.68439
832.973	2119.21914
833.158	2423.51414
833.343	2345.34591
833.528	2434.07632
833.714	2157.26603
833.899	2457.31218
834.084	2271.39049
834.269	2362.24833
834.454	2182.62918
834.639	2448.86293
834.824	2332.66867
835.009	2339.00733
835.194	2343.23306
835.379	2362.24833
835.564	2258.71126
835.749	2351.68439
835.934	2108.65012
836.119	2250.25826
836.304	1996.60726
836.489	2277.72998
836.674	2184.74272
836.859	2216.44483
837.044	2110.76394
837.228	2387.60075
837.413	2066.37212
837.598	2300.97406
837.783	2100.19475
837.968	2284.06939
838.152	2000.83564
838.337	2332.66867
838.522	2043.118
838.707	2119.21914
838.891	2038.88988
839.076	2191.0833
839.261	2026.20538
839.445	2134.01546
839.63	1990.26464
839.815	1945.86473
839.999	1973.35071
840.184	2254.48478
840.368	1954.32206
840.553	2066.37212
840.737	2013.52063
840.922	2267.16412
841.106	1964.89359
841.291	2076.9419
841.475	1863.40103
841.66	2123.4467
841.844	1831.68213
842.029	2068.48609
842.213	1812.65028
842.397	1988.15042
842.582	1825.33822
842.766	1945.86473
842.951	1759.78224
843.135	2081.16976
843.319	1863.40103
843.504	1914.1489
843.688	1835.91138
843.872	1857.05733
844.056	1882.43183
844.241	2043.118
844.425	1844.36982
844.609	1937.4073
844.793	1683.64819
844.977	2013.52063
845.161	1666.72896
845.346	1981.80772
845.53	1624.43017
845.714	2019.86303
845.898	1768.24129
846.082	1897.23328
846.266	1818.99427
846.45	1833.79675
846.634	1658.26928
846.818	1715.37123
847.002	1624.43017
847.186	1797.84749
847.37	1677.3035
847.554	1736.51952
847.738	1546.17526
847.922	1759.78224
848.106	1615.9703
848.29	1797.84749
848.473	1491.18427
848.657	1780.92976
848.841	1607.51039
849.025	1776.70029
849.209	1459.45851
849.392	1624.43017
849.576	1556.75038
849.76	1804.19157
849.944	1592.70549
850.127	1732.28989
850.311	1535.60012
850.495	1624.43017
850.678	1412.92739
850.862	1689.99285
851.046	1379.08671
851.229	1730.17507
851.413	1404.4672
851.596	1563.09543
851.78	1412.92739
851.964	1747.09354
852.147	1529.25502
852.331	1632.89
852.514	1338.90124
852.698	1573.67049
852.881	1440.42304
853.065	1611.74035
853.248	1480.60903
853.431	1514.44976
853.615	1501.7595
853.798	1577.9005
853.982	1372.74161
854.165	1552.52034
854.348	1296.60134
854.532	1565.21044
854.715	1438.30799
854.898	1641.3498
855.081	1429.84778
855.265	1522.90992
855.448	1493.29932
855.631	1486.95417
855.814	1404.4672
855.997	1505.98959
856.181	1226.80843
856.364	1476.37892
856.547	1412.92739
856.73	1389.6619
856.913	1260.64707
857.096	1366.39652
857.279	1154.90408
857.462	1277.56664
857.645	1201.42996
857.828	1404.4672
858.011	1167.59277
858.194	1370.62658
858.377	1178.16679
858.56	1351.59134
858.743	1144.33028
858.926	1220.46377
859.109	1302.94628
859.292	1315.63621
859.475	1311.40622
859.658	1319.8662
859.841	1319.8662
860.023	1135.87131
860.206	1083.00445
860.389	1372.74161
860.572	1129.52714
860.755	1201.42996
860.937	1091.46294
861.12	1144.33028
861.303	1226.80843
861.486	1298.71631
861.668	1205.65967
861.851	1294.48636
862.034	1112.60953
862.216	1209.8894
862.399	1023.79738
862.581	1091.46294
862.764	1159.13363
862.947	1184.51125
863.129	1017.45403
863.312	1127.41242
863.494	989.96684
863.677	1000.53871
863.859	873.68793
864.042	1074.54603
864.224	1049.1713
864.406	1127.41242
864.589	962.48076
864.771	1057.62946
864.954	1040.71324
865.136	989.96684
865.318	888.48578
865.501	1019.56848
865.683	844.09347
865.865	1032.25526
866.048	871.57399
866.23	1015.3396
866.412	837.75202
866.594	987.85249
866.777	977.28082
866.959	943.45261
867.141	989.96684
867.323	1000.53871
867.505	784.9098
867.687	913.85444
867.869	854.66273
868.052	989.96684
868.234	896.94188
868.416	973.05219
868.598	854.66273
868.78	956.13798
868.962	858.89049
869.144	882.1438
869.326	740.52702
869.508	882.1438
869.69	867.34612
869.872	1078.77523
870.054	814.50072
870.236	856.7766
870.417	861.00439
870.599	994.19557
870.781	778.56913
870.963	772.22855
871.145	795.47777
871.327	977.28082
871.508	748.98054
871.69	924.42505
871.872	787.02337
872.054	939.22421
872.235	744.75376
872.417	890.59979
872.599	837.75202
872.78	973.05219
872.962	753.20736
873.144	907.51217
873.325	772.22855
873.507	795.47777
873.689	808.15966
873.87	1006.88191
874.052	706.71465
874.233	985.73814
874.415	778.56913
874.596	985.73814
874.778	829.29687
874.959	820.84188
875.141	816.61443
875.322	930.7675
875.503	710.94105
875.685	909.62625
875.866	871.57399
876.048	839.86582
876.229	778.56913
876.41	854.66273
876.592	780.68268
876.773	829.29687
876.954	685.58335
877.136	873.68793
877.317	854.66273
877.498	812.38703
877.679	820.84188
877.86	854.66273
878.042	782.79623
878.223	981.50947
878.404	833.52443
878.585	852.54886
878.766	774.34207
878.947	833.52443
879.128	753.20736
879.309	863.11829
879.49	812.38703
879.672	966.70931
879.853	814.50072
880.034	833.52443
880.215	795.47777
880.396	954.02373
880.576	763.77459
880.757	979.39514
880.938	829.29687
881.119	791.25055
881.3	884.25779
881.481	1002.65311
881.662	740.52702
881.843	930.7675
882.023	863.11829
882.204	1023.79738
882.385	839.86582
882.566	949.79526
882.747	896.94188
882.927	956.13798
883.108	867.34612
883.289	941.33841
883.469	837.75202
883.65	956.13798
883.831	799.70503
884.011	956.13798
884.192	871.57399
884.373	920.19678
884.553	829.29687
884.734	1019.56848
884.914	863.11829
885.095	888.48578
885.275	871.57399
885.456	1023.79738
885.636	930.7675
885.817	981.50947
885.997	816.61443
886.178	977.28082
886.358	723.62049
886.538	850.435
886.719	772.22855
886.899	937.11002
887.08	814.50072
887.26	985.73814
887.44	943.45261
887.621	896.94188
887.801	791.25055
887.981	973.05219
888.161	787.02337
888.342	852.54886
888.522	880.02982
888.702	770.11505
888.882	884.25779
889.062	884.25779
889.242	770.11505
889.423	937.11002
889.603	837.75202
889.783	1036.48424
889.963	837.75202
890.143	1087.23368
890.323	875.80189
890.503	880.02982
890.683	941.33841
890.863	846.2073
891.043	932.88167
891.223	867.34612
891.403	831.41065
891.583	973.05219
891.763	854.66273
891.943	913.85444
892.122	780.68268
892.302	831.41065
892.482	831.41065
892.662	932.88167
892.842	871.57399
893.022	869.46005
893.201	755.32078
893.381	854.66273
893.561	799.70503
893.741	926.53919
893.92	797.5914
894.1	873.68793
894.28	774.34207
894.459	1011.11074
894.639	880.02982
894.819	806.04598
894.998	841.97964
895.178	761.66112
895.357	744.75376
895.537	863.11829
895.716	795.47777
895.896	772.22855
896.075	746.86714
896.255	744.75376
896.434	732.07367
896.614	852.54886
896.793	713.05426
896.973	789.13696
897.152	634.87293
897.331	839.86582
897.511	668.67912
897.69	816.61443
897.87	863.11829
898.049	679.24418
898.228	592.61962
898.407	812.38703
898.587	696.14886
898.766	761.66112
898.945	710.94105
899.124	746.86714
899.304	639.09854
899.483	706.71465
899.662	658.11436
899.841	746.86714
900.02	577.83217
900.199	727.84706
900.378	660.22729
900.557	569.38248
900.737	482.78599
900.916	558.82068
901.095	620.0837
901.274	626.42187
901.453	491.23337
901.632	643.32419
901.811	535.58592
901.989	518.68897
902.168	520.80104
902.347	700.37515
902.526	569.38248
902.705	586.28206
902.884	582.05709
903.063	622.19641
903.242	571.49488
903.42	594.73216
903.599	499.68099
903.778	495.45715
903.957	533.47375
904.135	592.61962
904.314	432.10681
904.493	512.35284
904.672	478.56239
904.85	438.44123
905.029	434.21827
905.207	512.35284
905.386	457.4453
905.565	408.88187
905.743	423.66115
905.922	432.10681
906.1	453.22206
906.279	451.11047
906.457	472.22711
906.636	440.55273
906.814	358.21613
906.993	372.99264
907.171	370.88166
907.35	434.21827
907.528	292.78759
907.707	427.88395
907.885	351.8836
908.063	470.11538
908.242	332.88694
908.42	408.88187
908.598	398.32572
908.777	313.8917
908.955	305.44984
909.133	423.66115
909.311	309.67074
909.49	383.5478
909.668	400.43691
909.846	370.88166
910.024	316.00221
910.202	351.8836
910.38	375.10364
910.559	389.88109
910.737	322.33385
910.915	398.32572
911.093	288.56699
911.271	387.76998
911.449	358.21613
911.627	324.44443
911.805	423.66115
911.983	347.662
912.161	381.43673
912.339	379.32569
912.517	419.43842
912.695	372.99264
912.872	385.65888
913.05	387.76998
913.228	343.44047
913.406	461.6686
913.584	332.88694
913.762	406.7706
913.939	339.219
914.117	400.43691
914.295	334.99761
914.473	305.44984
914.65	351.8836
914.828	442.66424
915.006	328.66565
915.184	383.5478
915.361	372.99264
915.539	356.10527
915.716	288.56699
915.894	406.7706
916.072	330.77629
916.249	394.10337
916.427	349.77279
916.604	326.55503
916.782	299.11864
916.959	318.11274
917.137	330.77629
917.314	391.99222
917.492	290.67728
917.669	254.80485
917.847	294.89792
918.024	343.44047
918.201	269.5752
918.379	332.88694
918.556	297.00827
918.733	341.32972
918.911	305.44984
919.088	307.56028
919.265	305.44984
919.442	294.89792
919.62	261.13489
919.797	278.01581
919.974	297.00827
920.151	288.56699
920.328	290.67728
920.506	271.68532
920.683	297.00827
920.86	221.0476
921.037	229.48645
921.214	322.33385
921.391	246.36508
921.568	172.53045
921.745	275.90563
921.922	351.8836
922.099	316.00221
922.276	313.8917
922.453	267.46509
922.63	240.03545
922.807	265.355
922.984	280.12601
923.161	273.79547
923.338	197.84241
923.514	214.71868
923.691	320.22329
923.868	231.59621
924.045	221.0476
924.222	195.73297
924.399	284.34646
924.575	178.85816
924.752	225.26699
924.929	221.0476
925.105	248.47499
925.282	271.68532
925.459	229.48645
925.635	237.92561
925.812	187.2954
925.989	347.662
926.165	204.17086
926.342	248.47499
926.518	248.47499
926.695	191.51415
926.871	214.71868
927.048	69.20492
927.224	134.5681
927.401	204.17086
927.577	164.09378
927.754	206.28038
927.93	240.03545
928.107	218.93794
928.283	164.09378
928.459	92.39587
928.636	252.69488
928.812	197.84241
928.988	161.98467
929.165	130.35049
929.341	166.20292
929.517	191.51415
929.693	79.74592
929.87	128.24171
930.046	71.31307
930.222	109.26371
930.398	113.4809
930.574	119.80683
930.751	178.85816
930.927	111.37229
931.103	191.51415
931.279	77.63768
931.455	124.02423
931.631	105.04662
931.807	178.85816
931.983	138.7858
932.159	115.58952
932.335	134.5681
932.511	130.35049
932.687	166.20292
932.863	102.93811
933.039	208.38993
933.215	136.67694
933.391	195.73297
933.566	79.74592
933.742	58.66448
933.918	83.96248
934.094	69.20492
934.27	172.53045
934.445	96.6127
934.621	119.80683
934.797	96.6127
934.973	83.96248
935.148	79.74592
935.324	102.93811
935.5	90.28749
935.675	115.58952
935.851	136.67694
936.027	98.72115
936.202	46.01671
936.378	105.04662
936.553	69.20492
936.729	105.04662
936.904	56.55646
937.08	136.67694
937.255	52.34049
937.431	62.88058
937.606	50.23254
937.782	43.90883
937.957	27.04663
938.133	48.12461
938.308	14.40096
938.483	86.0708
938.659	94.50427
938.834	81.85419
939.009	88.17913
939.185	10.18593
939.36	39.69314
939.535	86.0708
939.71	29.15432
939.886	48.12461
940.061	83.96248
940.236	10.18593
940.411	86.0708
940.586	52.34049
940.761	35.47754
940.937	43.90883
941.112	35.47754
941.287	31.26204
941.462	46.01671
941.637	-17.20943
941.812	62.88058
941.987	3.86356
942.162	29.15432
942.337	37.58533
942.512	18.61609
942.687	-29.85205
942.862	64.98867
943.037	-15.10224
943.212	31.26204
943.386	31.26204
943.561	54.44846
943.736	-8.78052
943.911	62.88058
944.086	3.86356
944.26	90.28749
944.435	-6.67324
944.61	52.34049
944.785	77.63768
944.959	69.20492
945.134	-23.53085
945.309	69.20492
945.483	92.39587
945.658	81.85419
945.833	29.15432
946.007	69.20492
946.182	-36.17303
946.357	86.0708
946.531	71.31307
946.706	24.93896
946.88	24.93896
947.055	43.90883
947.229	-23.53085
947.404	46.01671
947.578	12.29343
947.752	29.15432
947.927	-17.20943
948.101	64.98867
948.276	-40.38689
948.45	56.55646
948.624	22.83131
948.799	39.69314
948.973	54.44846
949.147	27.04663
949.321	69.20492
949.496	107.15516
949.67	60.77252
949.844	81.85419
950.018	39.69314
950.193	-17.20943
950.367	5.97099
950.541	35.47754
950.715	-31.95906
950.889	33.36978
951.063	46.01671
951.237	31.26204
951.411	-8.78052
951.585	62.88058
951.759	52.34049
951.933	102.93811
952.107	22.83131
952.281	37.58533
952.455	46.01671
952.629	35.47754
952.803	20.72369
952.977	86.0708
953.151	48.12461
953.325	-10.88778
953.499	-4.56592
953.672	20.72369
953.846	-50.9211
954.02	27.04663
954.194	48.12461
954.368	22.83131
954.541	22.83131
954.715	35.47754
954.889	-40.38689
955.062	69.20492
955.236	79.74592
955.41	71.31307
955.583	52.34049
955.757	-2.45859
955.93	48.12461
956.104	48.12461
956.278	-38.27997
956.451	60.77252
956.625	3.86356
956.798	102.93811
956.972	10.18593
957.145	128.24171
957.319	98.72115
957.492	77.63768
957.665	-36.17303
957.839	35.47754
958.012	75.52945
958.185	75.52945
958.359	-0.35123
958.532	98.72115
958.705	43.90883
958.879	18.61609
959.052	35.47754
959.225	37.58533
959.398	48.12461
959.572	27.04663
959.745	3.86356
959.918	62.88058
960.091	-38.27997
960.264	46.01671
960.438	-6.67324
960.611	60.77252
960.784	39.69314
960.957	43.90883
961.13	62.88058
961.303	136.67694
961.476	54.44846
961.649	29.15432
961.822	31.26204
961.995	31.26204
962.168	18.61609
962.341	22.83131
962.514	22.83131
962.686	14.40096
962.859	1.75615
963.032	48.12461
963.205	111.37229
963.378	81.85419
963.551	3.86356
963.723	18.61609
963.896	37.58533
964.069	16.50851
964.242	10.18593
964.414	46.01671
964.587	18.61609
964.76	119.80683
964.932	12.29343
965.105	46.01671
965.278	43.90883
965.45	37.58533
965.623	14.40096
965.795	-4.56592
965.968	-8.78052
966.14	20.72369
966.313	27.04663
966.485	43.90883
966.658	69.20492
966.83	54.44846
967.003	22.83131
967.175	18.61609
967.348	35.47754
967.52	-4.56592
967.692	60.77252
967.865	20.72369
968.037	12.29343
968.209	54.44846
968.382	71.31307
968.554	-6.67324
968.726	43.90883
968.898	10.18593
969.071	35.47754
969.243	27.04663
969.415	-65.66794
969.587	96.6127
969.759	-57.24133
969.932	46.01671
970.104	5.97099
970.276	77.63768
970.448	60.77252
970.62	115.58952
970.792	79.74592
970.964	39.69314
971.136	37.58533
971.308	62.88058
971.48	37.58533
971.652	1.75615
971.824	10.18593
971.996	58.66448
972.168	-4.56592
972.339	14.40096
972.511	3.86356
972.683	-71.98763
972.855	-21.42373
973.027	119.80683
973.199	1.75615
973.37	37.58533
973.542	-44.60065
973.714	90.28749
973.886	60.77252
974.057	71.31307
974.229	1.75615
974.401	48.12461
974.572	37.58533
974.744	-57.24133
974.915	20.72369
975.087	126.13296
975.259	60.77252
975.43	41.80097
975.602	50.23254
975.773	86.0708
975.945	56.55646
976.116	35.47754
976.288	52.34049
976.459	86.0708
976.63	60.77252
976.802	56.55646
976.973	37.58533
977.145	1.75615
977.316	-8.78052
977.487	20.72369
977.659	29.15432
977.83	39.69314
978.001	18.61609
978.172	12.29343
978.344	33.36978
978.515	71.31307
978.686	3.86356
978.857	35.47754
979.028	18.61609
979.2	46.01671
979.371	20.72369
979.542	52.34049
979.713	29.15432
979.884	1.75615
980.055	-17.20943
980.226	71.31307
980.397	5.97099
980.568	111.37229
980.739	10.18593
980.91	-15.10224
981.081	27.04663
981.252	16.50851
981.423	-19.31659
981.594	56.55646
981.765	64.98867
981.936	-15.10224
982.106	-21.42373
982.277	52.34049
982.448	46.01671
982.619	18.61609
982.79	48.12461
982.96	69.20492
983.131	20.72369
983.302	43.90883
983.472	-40.38689
983.643	-15.10224
983.814	79.74592
983.984	27.04663
984.155	35.47754
984.326	77.63768
984.496	-8.78052
984.667	1.75615
984.837	29.15432
985.008	-27.74501
985.178	27.04663
985.349	-38.27997
985.519	-25.63794
985.69	35.47754
985.86	-53.02787
986.031	-8.78052
986.201	39.69314
986.371	-21.42373
986.542	5.97099
986.712	71.31307
986.882	-36.17303
987.053	10.18593
987.223	-31.95906
987.393	3.86356
987.563	-6.67324
987.734	-12.99502
987.904	29.15432
988.074	43.90883
988.244	-15.10224
988.414	43.90883
988.585	-6.67324
988.755	-44.60065
988.925	-25.63794
989.095	138.7858
989.265	-6.67324
989.435	-29.85205
989.605	18.61609
989.775	22.83131
989.945	-27.74501
990.115	-23.53085
990.285	29.15432
990.455	-29.85205
990.625	-6.67324
990.795	-19.31659
990.965	-21.42373
991.134	14.40096
991.304	-2.45859
991.474	-53.02787
991.644	-88.83902
991.814	1.75615
991.984	20.72369
992.153	27.04663
992.323	20.72369
992.493	69.20492
992.662	56.55646
992.832	94.50427
993.002	-40.38689
993.171	37.58533
993.341	-10.88778
993.511	31.26204
993.68	60.77252
993.85	-12.99502
994.019	14.40096
994.189	27.04663
994.358	10.18593
994.528	35.47754
994.697	-38.27997
994.867	43.90883
995.036	-69.8811
995.206	54.44846
995.375	37.58533
995.544	10.18593
995.714	12.29343
995.883	62.88058
996.052	-19.31659
996.222	-34.06606
996.391	-8.78052
996.56	22.83131
996.73	60.77252
996.899	29.15432
997.068	69.20492
997.237	-6.67324
997.406	-6.67324
997.576	14.40096
997.745	-38.27997
997.914	1.75615
998.083	18.61609
998.252	10.18593
998.421	14.40096
998.59	37.58533
998.759	14.40096
998.928	102.93811
999.097	12.29343
999.266	-27.74501
999.435	1.75615
999.604	22.83131
999.773	27.04663
999.942	60.77252
1000.111	43.90883
1000.28	29.15432
1000.448	48.12461
1000.617	60.77252
1000.786	-31.95906
1000.955	43.90883
1001.124	-99.37029
1001.292	8.07845
1001.461	-15.10224
1001.63	-6.67324
1001.798	-12.99502
1001.967	18.61609
1002.136	-29.85205
1002.304	10.18593
1002.473	14.40096
1002.642	35.47754
1002.81	-40.38689
1002.979	43.90883
1003.147	29.15432
1003.316	-78.3071
1003.484	5.97099
1003.653	-36.17303
1003.821	41.80097
1003.99	5.97099
1004.158	-55.13461
1004.327	12.29343
1004.495	41.80097
1004.663	-10.88778
1004.832	14.40096
1005	-38.27997
1005.168	27.04663
1005.337	-6.67324
1005.505	-10.88778
1005.673	10.18593
1005.842	-0.35123
1006.01	88.17913
1006.178	5.97099
1006.346	50.23254
1006.514	-31.95906
1006.683	73.42125
1006.851	22.83131
1007.019	-19.31659
1007.187	5.97099
1007.355	-2.45859
1007.523	-23.53085
1007.691	18.61609
1007.859	1.75615
1008.027	1.75615
1008.195	-80.41353
1008.363	-23.53085
1008.531	1.75615
1008.699	-6.67324
1008.867	-2.45859
1009.035	-40.38689
1009.203	-38.27997
1009.37	69.20492
1009.538	1.75615
1009.706	-74.09415
1009.874	-38.27997
1010.042	-15.10224
1010.209	-31.95906
1010.377	46.01671
1010.545	39.69314
1010.713	54.44846
1010.88	71.31307
1011.048	10.18593
1011.216	-40.38689
1011.383	-109.90091
1011.551	18.61609
1011.718	64.98867
1011.886	54.44846
1012.054	-61.45468
1012.221	-4.56592
1012.389	46.01671
1012.556	14.40096
1012.724	50.23254
1012.891	37.58533
1013.058	5.97099
1013.226	-55.13461
1013.393	-6.67324
1013.561	-27.74501
1013.728	-12.99502
1013.895	14.40096
1014.063	-6.67324
1014.23	10.18593
1014.397	62.88058
1014.565	-15.10224
1014.732	-0.35123
1014.899	27.04663
1015.066	14.40096
1015.233	-6.67324
1015.401	35.47754
1015.568	-19.31659
1015.735	-48.81431
1015.902	-19.31659
1016.069	-23.53085
1016.236	18.61609
1016.403	22.83131
1016.57	-27.74501
1016.737	-59.34802
1016.904	1.75615
1017.071	35.47754
1017.238	-8.78052
1017.405	27.04663
1017.572	-15.10224
1017.739	20.72369
1017.906	-12.99502
1018.073	20.72369
1018.24	-10.88778
1018.407	48.12461
1018.573	8.07845
1018.74	31.26204
1018.907	-48.81431
1019.074	-46.70749
1019.241	35.47754
1019.407	24.93896
1019.574	113.4809
1019.741	10.18593
1019.907	-17.20943
1020.074	10.18593
1020.241	-53.02787
1020.407	-57.24133
1020.574	24.93896
1020.74	-0.35123
1020.907	-29.85205
1021.073	8.07845
1021.24	-80.41353
1021.406	10.18593
1021.573	27.04663
1021.739	5.97099
1021.906	-48.81431
1022.072	-31.95906
1022.239	-69.8811
1022.405	62.88058
1022.571	37.58533
1022.738	20.72369
1022.904	-12.99502
1023.07	3.86356
1023.237	-6.67324
1023.403	-15.10224
1023.569	-40.38689
1023.735	-8.78052
1023.902	-34.06606
1024.068	3.86356
1024.234	-31.95906
1024.4	22.83131
1024.566	27.04663
1024.732	-36.17303
1024.898	-15.10224
1025.065	56.55646
1025.231	-34.06606
1025.397	-31.95906
1025.563	-15.10224
1025.729	1.75615
1025.895	10.18593
1026.061	-10.88778
1026.227	18.61609
1026.392	18.61609
1026.558	-46.70749
1026.724	-6.67324
1026.89	-10.88778
1027.056	-48.81431
1027.222	1.75615
1027.388	54.44846
1027.553	41.80097
1027.719	-25.63794
1027.885	14.40096
1028.051	29.15432
1028.216	29.15432
1028.382	-44.60065
1028.548	-63.56133
1028.713	43.90883
1028.879	-57.24133
1029.045	-19.31659
1029.21	29.15432
1029.376	67.09678
1029.541	-17.20943
1029.707	10.18593
1029.873	-23.53085
1030.038	3.86356
1030.204	-25.63794
1030.369	20.72369
1030.534	52.34049
1030.7	-23.53085
1030.865	-15.10224
1031.031	5.97099
1031.196	-78.3071
1031.361	-2.45859
1031.527	-29.85205
1031.692	27.04663
1031.857	-2.45859
1032.023	-31.95906
1032.188	60.77252
1032.353	27.04663
1032.518	-19.31659
1032.684	-34.06606
1032.849	1.75615
1033.014	29.15432
1033.179	14.40096
1033.344	-0.35123
1033.509	-46.70749
1033.674	10.18593
1033.839	-31.95906
1034.004	18.61609
1034.17	-116.21897
1034.335	-40.38689
1034.5	1.75615
1034.664	8.07845
1034.829	31.26204
1034.994	41.80097
1035.159	-29.85205
1035.324	-67.77453
1035.489	18.61609
1035.654	-90.94533
1035.819	14.40096
1035.984	-8.78052
1036.148	-44.60065
1036.313	-10.88778
1036.478	-21.42373
1036.643	71.31307
1036.807	-40.38689
1036.972	73.42125
1037.137	10.18593
1037.301	-63.56133
1037.466	-34.06606
1037.631	60.77252
1037.795	12.29343
1037.96	62.88058
1038.124	-12.99502
1038.289	69.20492
1038.454	-74.09415
1038.618	-34.06606
1038.783	-48.81431
1038.947	-40.38689
1039.111	18.61609
1039.276	5.97099
1039.44	-17.20943
1039.605	-19.31659
1039.769	10.18593
1039.933	-36.17303
1040.098	-19.31659
1040.262	48.12461
1040.426	-2.45859
1040.591	60.77252
1040.755	43.90883
1040.919	-38.27997
1041.083	-21.42373
1041.248	86.0708
1041.412	27.04663
1041.576	-65.66794
1041.74	-38.27997
1041.904	52.34049
1042.068	43.90883
1042.232	-19.31659
1042.397	-48.81431
1042.561	52.34049
1042.725	10.18593
1042.889	8.07845
1043.053	-42.49378
1043.217	43.90883
1043.381	-2.45859
1043.544	33.36978
1043.708	-53.02787
1043.872	20.72369
1044.036	60.77252
1044.2	46.01671
1044.364	-53.02787
1044.528	1.75615
1044.691	-27.74501
1044.855	-15.10224
1045.019	-48.81431
1045.183	-57.24133
1045.346	-31.95906
1045.51	22.83131
1045.674	18.61609
1045.837	-4.56592
1046.001	10.18593
1046.165	1.75615
1046.328	-6.67324
1046.492	10.18593
1046.655	-21.42373
1046.819	-6.67324
1046.983	-4.56592
1047.146	-50.9211
1047.31	-6.67324
1047.473	-12.99502
1047.636	54.44846
1047.8	-0.35123
1047.963	5.97099
1048.127	62.88058
1048.29	-10.88778
