Data from mixed_try1_USB4F045381__17__00121.txt Node

Date: Thu Apr 03 20:00:25 EDT 2025
User: mmckonesweet
Spectrometer: USB4F04538
Trigger mode: 4
Integration Time (sec): 2.700000E-3
Scans to average: 1
Electric dark correction enabled: true
Nonlinearity correction enabled: true
Boxcar width: 0
XAxis mode: Wavelengths
Number of Pixels in Spectrum: 3648
>>>>>Begin Spectral Data<<<<<
345.52	52.69182
345.736	52.69182
345.952	52.69182
346.168	-18.9654
346.384	-6.32202
346.6	12.64469
346.816	12.64469
347.032	-21.07254
347.248	-8.42931
347.464	-92.70056
347.68	4.2148
347.896	77.98905
348.112	56.90779
348.328	-10.53658
348.544	-14.75104
348.76	-6.32202
348.975	-10.53658
349.191	-14.75104
349.407	10.53718
349.623	10.53718
349.839	-69.53
350.055	10.53718
350.27	27.39791
350.486	-46.35635
350.702	2.10739
350.918	0
351.133	10.53718
351.349	44.26014
351.565	29.5056
351.781	23.18258
351.996	-27.39383
352.212	44.26014
352.428	8.4297
352.644	14.75222
352.859	21.07496
353.075	35.82884
353.291	10.53718
353.506	27.39791
353.722	35.82884
353.938	18.96735
354.153	67.44814
354.369	-18.9654
354.584	-14.75104
354.8	-35.82187
355.016	44.26014
355.231	-56.89021
355.447	54.79979
355.662	-8.42931
355.878	145.464
356.093	56.90779
356.309	-18.9654
356.524	-6.32202
356.74	6.32224
356.955	69.55627
357.171	-2.10736
357.386	-21.07254
357.602	107.50658
357.817	52.69182
358.033	31.61332
358.248	80.0973
358.464	69.55627
358.679	2.10739
358.895	-21.07254
359.11	14.75222
359.325	52.69182
359.541	21.07496
359.756	27.39791
359.972	-29.50088
360.187	103.28953
360.402	44.26014
360.618	21.07496
360.833	-27.39383
361.048	52.69182
361.264	52.69182
361.479	37.93663
361.694	12.64469
361.909	4.2148
362.125	27.39791
362.34	-12.64382
362.555	31.61332
362.77	16.85977
362.986	2.10739
363.201	-35.82187
363.416	-4.2147
363.631	27.39791
363.847	-12.64382
364.062	10.53718
364.277	90.63889
364.492	27.39791
364.707	6.32224
364.922	21.07496
365.138	12.64469
365.353	-63.21022
365.568	-73.74306
365.783	77.98905
365.998	37.93663
366.213	-40.03573
366.428	-6.32202
366.643	-46.35635
366.858	2.10739
367.073	6.32224
367.288	-29.50088
367.503	-18.9654
367.718	23.18258
367.933	-52.67674
368.148	31.61332
368.363	-6.32202
368.578	25.29023
368.793	82.20557
369.008	29.5056
369.223	14.75222
369.438	-18.9654
369.653	4.2148
369.868	18.96735
370.083	-31.6079
370.298	10.53718
370.513	56.90779
370.728	-18.9654
370.943	-71.63655
371.157	14.75222
371.372	-27.39383
371.587	35.82884
371.802	-46.35635
372.017	37.93663
372.232	23.18258
372.446	99.07256
372.661	94.85568
372.876	2.10739
373.091	-23.17966
373.306	12.64469
373.52	88.53052
373.735	77.98905
373.95	-23.17966
374.165	-40.03573
374.379	18.96735
374.594	-23.17966
374.809	46.36803
375.023	8.4297
375.238	69.55627
375.453	18.96735
375.667	6.32224
375.882	12.64469
376.097	2.10739
376.311	-6.32202
376.526	10.53718
376.741	18.96735
376.955	56.90779
377.17	65.34002
377.384	14.75222
377.599	27.39791
377.813	25.29023
378.028	-40.03573
378.242	88.53052
378.457	44.26014
378.672	52.69182
378.886	80.0973
379.101	12.64469
379.315	73.77262
379.53	-63.21022
379.744	12.64469
379.958	46.36803
380.173	21.07496
380.387	-2.10736
380.602	-23.17966
380.816	69.55627
381.031	4.2148
381.245	25.29023
381.459	31.61332
381.674	46.36803
381.888	-35.82187
382.103	54.79979
382.317	65.34002
382.531	25.29023
382.746	54.79979
382.96	-12.64382
383.174	-35.82187
383.388	59.01582
383.603	27.39791
383.817	61.12386
384.031	-14.75104
384.246	31.61332
384.46	10.53718
384.674	23.18258
384.888	-18.9654
385.103	18.96735
385.317	2.10739
385.531	21.07496
385.745	4.2148
385.959	10.53718
386.174	4.2148
386.388	33.72107
386.602	48.47593
386.816	-10.53658
387.03	-14.75104
387.244	4.2148
387.458	-86.38163
387.672	35.82884
387.887	44.26014
388.101	48.47593
388.315	-40.03573
388.529	54.79979
388.743	35.82884
388.957	56.90779
389.171	14.75222
389.385	35.82884
389.599	18.96735
389.813	-14.75104
390.027	6.32224
390.241	35.82884
390.455	-42.14263
390.669	31.61332
390.883	-2.10736
391.097	42.15228
391.311	4.2148
391.525	31.61332
391.738	6.32224
391.952	-10.53658
392.166	31.61332
392.38	-6.32202
392.594	4.2148
392.808	23.18258
393.022	6.32224
393.236	6.32224
393.449	-6.32202
393.663	-4.2147
393.877	-31.6079
394.091	44.26014
394.305	-71.63655
394.518	-65.31684
394.732	61.12386
394.946	4.2148
395.16	35.82884
395.373	69.55627
395.587	35.82884
395.801	54.79979
396.015	46.36803
396.228	50.58386
396.442	-40.03573
396.656	29.5056
396.869	31.61332
397.083	-10.53658
397.297	14.75222
397.51	23.18258
397.724	25.29023
397.938	46.36803
398.151	10.53718
398.365	-52.67674
398.578	56.90779
398.792	4.2148
399.005	27.39791
399.219	56.90779
399.433	71.66443
399.646	-35.82187
399.86	-14.75104
400.073	37.93663
400.287	44.26014
400.5	42.15228
400.714	12.64469
400.927	18.96735
401.141	94.85568
401.354	27.39791
401.567	-4.2147
401.781	73.77262
401.994	44.26014
402.208	92.74727
402.421	71.66443
402.635	29.5056
402.848	-25.28676
403.061	-61.10358
403.275	40.04444
403.488	35.82884
403.701	12.64469
403.915	31.61332
404.128	-14.75104
404.341	31.61332
404.555	44.26014
404.768	27.39791
404.981	14.75222
405.195	-14.75104
405.408	6.32224
405.621	2.10739
405.834	2.10739
406.048	-23.17966
406.261	69.55627
406.474	31.61332
406.687	-12.64382
406.9	56.90779
407.114	-27.39383
407.327	54.79979
407.54	42.15228
407.753	44.26014
407.966	6.32224
408.179	-23.17966
408.392	73.77262
408.605	-21.07254
408.819	-8.42931
409.032	69.55627
409.245	105.39804
409.458	2.10739
409.671	-35.82187
409.884	18.96735
410.097	35.82884
410.31	61.12386
410.523	80.0973
410.736	-40.03573
410.949	27.39791
411.162	40.04444
411.375	14.75222
411.588	-6.32202
411.801	56.90779
412.014	21.07496
412.227	-44.2495
412.44	77.98905
412.653	71.66443
412.865	40.04444
413.078	14.75222
413.291	-35.82187
413.504	31.61332
413.717	59.01582
413.93	59.01582
414.143	63.23193
414.356	-12.64382
414.568	61.12386
414.781	27.39791
414.994	46.36803
415.207	52.69182
415.42	56.90779
415.632	10.53718
415.845	-6.32202
416.058	-21.07254
416.271	42.15228
416.483	69.55627
416.696	120.15828
416.909	-2.10736
417.121	52.69182
417.334	52.69182
417.547	69.55627
417.759	84.31387
417.972	40.04444
418.185	14.75222
418.397	-6.32202
418.61	61.12386
418.823	71.66443
419.035	54.79979
419.248	35.82884
419.46	10.53718
419.673	-48.46317
419.885	-46.35635
420.098	29.5056
420.311	46.36803
420.523	40.04444
420.736	52.69182
420.948	61.12386
421.161	111.72373
421.373	84.31387
421.586	2.10739
421.798	-10.53658
422.01	61.12386
422.223	-99.01926
422.435	8.4297
422.648	61.12386
422.86	42.15228
423.073	71.66443
423.285	14.75222
423.497	-18.9654
423.71	50.58386
423.922	48.47593
424.134	21.07496
424.347	52.69182
424.559	-27.39383
424.771	48.47593
424.984	56.90779
425.196	54.79979
425.408	-48.46317
425.621	113.83233
425.833	-14.75104
426.045	-31.6079
426.257	-37.92881
426.47	18.96735
426.682	-10.53658
426.894	10.53718
427.106	-6.32202
427.318	2.10739
427.531	23.18258
427.743	46.36803
427.955	21.07496
428.167	-46.35635
428.379	31.61332
428.591	27.39791
428.804	35.82884
429.016	-37.92881
429.228	-54.78349
429.44	-14.75104
429.652	-21.07254
429.864	-6.32202
430.076	65.34002
430.288	14.75222
430.5	37.93663
430.712	63.23193
430.924	-14.75104
431.136	-40.03573
431.348	77.98905
431.56	12.64469
431.772	29.5056
431.984	-31.6079
432.196	29.5056
432.408	56.90779
432.62	29.5056
432.832	44.26014
433.044	21.07496
433.256	77.98905
433.468	27.39791
433.679	46.36803
433.891	-14.75104
434.103	25.29023
434.315	-6.32202
434.527	54.79979
434.739	35.82884
434.95	120.15828
435.162	-14.75104
435.374	29.5056
435.586	67.44814
435.798	-2.10736
436.009	90.63889
436.221	42.15228
436.433	-44.2495
436.645	-21.07254
436.856	-14.75104
437.068	10.53718
437.28	40.04444
437.491	86.42218
437.703	73.77262
437.915	46.36803
438.126	-14.75104
438.338	18.96735
438.55	-44.2495
438.761	-14.75104
438.973	29.5056
439.184	27.39791
439.396	23.18258
439.608	77.98905
439.819	63.23193
440.031	21.07496
440.242	35.82884
440.454	12.64469
440.665	35.82884
440.877	88.53052
441.088	2.10739
441.3	18.96735
441.511	29.5056
441.723	40.04444
441.934	21.07496
442.146	10.53718
442.357	46.36803
442.569	23.18258
442.78	69.55627
442.991	-21.07254
443.203	44.26014
443.414	8.4297
443.626	61.12386
443.837	50.58386
444.048	80.0973
444.26	105.39804
444.471	-23.17966
444.682	-2.10736
444.894	52.69182
445.105	27.39791
445.316	99.07256
445.528	27.39791
445.739	14.75222
445.95	44.26014
446.161	35.82884
446.373	29.5056
446.584	12.64469
446.795	10.53718
447.006	8.4297
447.217	-52.67674
447.429	31.61332
447.64	69.55627
447.851	23.18258
448.062	31.61332
448.273	14.75222
448.484	69.55627
448.695	-8.42931
448.907	-23.17966
449.118	40.04444
449.329	82.20557
449.54	29.5056
449.751	16.85977
449.962	48.47593
450.173	-6.32202
450.384	-25.28676
450.595	37.93663
450.806	-25.28676
451.017	48.47593
451.228	-18.9654
451.439	6.32224
451.65	-4.2147
451.861	37.93663
452.072	-2.10736
452.283	33.72107
452.494	61.12386
452.705	-4.2147
452.915	23.18258
453.126	-40.03573
453.337	2.10739
453.548	77.98905
453.759	54.79979
453.97	82.20557
454.181	10.53718
454.391	-12.64382
454.602	23.18258
454.813	37.93663
455.024	92.74727
455.235	56.90779
455.445	-21.07254
455.656	35.82884
455.867	-12.64382
456.078	73.77262
456.288	21.07496
456.499	33.72107
456.71	35.82884
456.921	-6.32202
457.131	27.39791
457.342	23.18258
457.553	21.07496
457.763	25.29023
457.974	44.26014
458.184	44.26014
458.395	31.61332
458.606	21.07496
458.816	2.10739
459.027	23.18258
459.237	8.4297
459.448	31.61332
459.659	67.44814
459.869	21.07496
460.08	29.5056
460.29	-6.32202
460.501	-46.35635
460.711	-14.75104
460.922	40.04444
461.132	44.26014
461.343	59.01582
461.553	6.32224
461.764	8.4297
461.974	27.39791
462.184	16.85977
462.395	-10.53658
462.605	27.39791
462.816	2.10739
463.026	29.5056
463.236	-33.71489
463.447	-61.10358
463.657	35.82884
463.867	2.10739
464.078	37.93663
464.288	31.61332
464.498	111.72373
464.709	23.18258
464.919	12.64469
465.129	40.04444
465.339	-10.53658
465.55	50.58386
465.76	96.96411
465.97	4.2148
466.18	52.69182
466.391	82.20557
466.601	-21.07254
466.811	10.53718
467.021	56.90779
467.231	101.18103
467.441	12.64469
467.651	44.26014
467.862	8.4297
468.072	-23.17966
468.282	6.32224
468.492	46.36803
468.702	44.26014
468.912	-12.64382
469.122	-12.64382
469.332	56.90779
469.542	4.2148
469.752	10.53718
469.962	99.07256
470.172	37.93663
470.382	2.10739
470.592	59.01582
470.802	52.69182
471.012	18.96735
471.222	-6.32202
471.432	25.29023
471.642	23.18258
471.852	35.82884
472.062	35.82884
472.272	37.93663
472.482	69.55627
472.691	21.07496
472.901	50.58386
473.111	10.53718
473.321	-27.39383
473.531	42.15228
473.741	75.88082
473.95	54.79979
474.16	16.85977
474.37	54.79979
474.58	31.61332
474.79	33.72107
474.999	37.93663
475.209	80.0973
475.419	88.53052
475.628	35.82884
475.838	31.61332
476.048	153.89993
476.258	56.90779
476.467	40.04444
476.677	12.64469
476.886	86.42218
477.096	31.61332
477.306	44.26014
477.515	37.93663
477.725	-23.17966
477.935	16.85977
478.144	69.55627
478.354	2.10739
478.563	54.79979
478.773	88.53052
478.982	2.10739
479.192	42.15228
479.401	69.55627
479.611	-40.03573
479.82	-2.10736
480.03	77.98905
480.239	59.01582
480.449	37.93663
480.658	44.26014
480.868	6.32224
481.077	35.82884
481.287	12.64469
481.496	-33.71489
481.705	80.0973
481.915	-4.2147
482.124	120.15828
482.333	48.47593
482.543	14.75222
482.752	54.79979
482.961	40.04444
483.171	2.10739
483.38	29.5056
483.589	52.69182
483.799	80.0973
484.008	35.82884
484.217	29.5056
484.426	35.82884
484.636	65.34002
484.845	77.98905
485.054	52.69182
485.263	54.79979
485.472	54.79979
485.682	14.75222
485.891	120.15828
486.1	14.75222
486.309	73.77262
486.518	94.85568
486.727	61.12386
486.936	-2.10736
487.146	120.15828
487.355	14.75222
487.564	59.01582
487.773	35.82884
487.982	65.34002
488.191	130.70195
488.4	37.93663
488.609	75.88082
488.818	69.55627
489.027	86.42218
489.236	56.90779
489.445	99.07256
489.654	46.36803
489.863	77.98905
490.072	37.93663
490.281	-23.17966
490.49	183.42829
490.698	12.64469
490.907	61.12386
491.116	54.79979
491.325	44.26014
491.534	94.85568
491.743	172.88198
491.952	63.23193
492.16	137.02842
492.369	50.58386
492.578	92.74727
492.787	-6.32202
492.996	109.61514
493.204	2.10739
493.413	107.50658
493.622	88.53052
493.831	82.20557
494.039	25.29023
494.248	27.39791
494.457	145.464
494.665	90.63889
494.874	103.28953
495.083	111.72373
495.291	14.75222
495.5	86.42218
495.709	130.70195
495.917	103.28953
496.126	94.85568
496.335	69.55627
496.543	94.85568
496.752	124.37568
496.96	82.20557
497.169	115.94096
497.377	69.55627
497.586	141.24617
497.794	105.39804
498.003	141.24617
498.211	153.89993
498.42	149.68192
498.628	86.42218
498.837	109.61514
499.045	128.59318
499.254	177.10045
499.462	149.68192
499.671	137.02842
499.879	124.37568
500.087	153.89993
500.296	145.464
500.504	105.39804
500.713	183.42829
500.921	158.11802
501.129	141.24617
501.338	153.89993
501.546	128.59318
501.754	143.35507
501.962	141.24617
502.171	166.55444
502.379	122.26697
502.587	21.07496
502.795	124.37568
503.004	128.59318
503.212	122.26697
503.42	96.96411
503.628	143.35507
503.837	122.26697
504.045	162.33619
504.253	111.72373
504.461	145.464
504.669	141.24617
504.877	109.61514
505.085	141.24617
505.294	139.13728
505.502	137.02842
505.71	145.464
505.918	177.10045
506.126	191.86571
506.334	240.38709
506.542	183.42829
506.75	187.64696
506.958	187.64696
507.166	185.53762
507.374	231.94784
507.582	137.02842
507.79	118.04961
507.998	179.20971
508.206	172.88198
508.414	158.11802
508.622	189.75633
508.83	105.39804
509.037	212.96067
509.245	196.08454
509.453	217.1799
509.661	179.20971
509.869	183.42829
510.077	158.11802
510.285	253.04654
510.492	191.86571
510.7	229.83807
510.908	236.16742
511.116	196.08454
511.324	168.6636
511.531	139.13728
511.739	164.4453
511.947	242.49695
512.155	223.5089
512.362	137.02842
512.57	267.81677
512.778	217.1799
512.985	231.94784
513.193	246.71673
513.401	196.08454
513.608	238.27725
513.816	200.30345
514.024	297.36
514.231	305.80158
514.439	231.94784
514.646	225.6186
514.854	255.15652
515.061	147.57295
515.269	288.91871
515.477	274.14716
515.684	272.03701
515.892	263.59661
516.099	318.4645
516.307	246.71673
516.514	297.36
516.722	193.97512
516.929	314.24345
517.136	291.029
517.344	314.24345
517.551	312.13296
517.759	305.80158
517.966	339.57079
518.173	259.37653
518.381	297.36
518.588	280.47771
518.796	267.81677
519.003	257.26651
519.21	301.58075
519.418	221.39921
519.625	269.92688
519.832	206.63197
520.039	314.24345
520.247	367.01157
520.454	272.03701
520.661	274.14716
520.868	272.03701
521.076	388.12183
521.283	316.35397
521.49	322.68561
521.697	367.01157
521.904	377.56649
522.112	339.57079
522.319	381.78858
522.526	398.67758
522.733	459.90888
522.94	348.0138
523.147	375.45547
523.354	381.78858
523.561	451.4624
523.768	274.14716
523.975	453.574
524.183	375.45547
524.39	443.01617
524.597	337.46008
524.804	449.35082
525.011	432.45872
525.218	398.67758
525.425	337.46008
525.632	474.69081
525.838	375.45547
526.045	390.23295
526.252	434.57018
526.459	417.67897
526.666	364.90064
526.873	470.46733
527.08	375.45547
527.287	510.59283
527.494	364.90064
527.701	436.68165
527.907	440.90465
528.114	525.37723
528.321	462.02054
528.528	500.03297
528.735	455.68561
528.941	468.35561
529.148	519.04098
529.355	533.82578
529.562	476.80258
529.768	614.09776
529.975	569.73455
530.182	521.15305
530.388	550.72353
530.595	440.90465
530.802	576.0718
531.008	544.38677
531.215	533.82578
531.422	535.93795
531.628	554.94811
531.835	645.78918
532.042	639.45067
532.248	576.0718
532.455	502.14492
532.661	571.84695
532.868	660.57945
533.074	580.2967
533.281	690.1617
533.487	552.83581
533.694	550.72353
533.9	685.93553
534.107	628.88674
534.313	664.80534
534.52	586.63414
534.726	658.46652
534.933	681.7094
535.139	728.19928
535.345	628.88674
535.552	753.55959
535.758	626.77399
535.965	736.65255
536.171	742.99261
536.377	795.83004
536.584	669.03129
536.79	685.93553
536.996	707.06685
537.203	835.99052
537.409	711.29325
537.615	781.03494
537.821	647.90204
538.028	823.3079
538.234	652.12779
538.44	812.73931
538.646	783.14849
538.853	829.64917
539.059	673.25728
539.265	785.26206
539.471	814.85301
539.677	831.76294
539.883	840.21813
540.09	852.90117
540.296	812.73931
540.502	869.81237
540.708	749.33277
540.914	823.3079
541.12	814.85301
541.326	973.40458
541.532	905.75044
541.738	897.29422
541.944	888.83812
542.15	962.83314
542.356	926.89155
542.562	1032.60768
542.768	800.0573
542.974	981.86185
543.18	816.96672
543.386	1167.94524
543.592	1015.692
543.798	983.97619
544.004	909.9786
544.21	1087.58612
544.415	871.92631
544.621	1210.24188
544.827	964.94741
545.033	1051.63825
545.239	929.0057
545.445	1195.43789
545.651	948.03341
545.856	1077.01306
546.062	1096.04466
546.268	1157.37131
546.474	1157.37131
546.679	1068.55471
546.885	1068.55471
547.091	1163.71566
547.297	1043.18016
547.502	1176.40445
547.708	943.80498
547.914	1237.73541
548.119	1085.4715
548.325	1305.41376
548.531	1112.96198
548.736	1208.12701
548.942	1026.26425
549.147	1231.3907
549.353	1125.65016
549.559	1108.73262
549.764	1087.58612
549.97	1260.99955
550.175	1256.76969
550.381	1307.52874
550.586	1178.51926
550.792	1286.37898
550.997	1138.33851
551.203	1400.58962
551.408	1239.85032
551.614	1277.91913
551.819	1229.27581
552.025	1375.20915
552.23	1189.09338
552.435	1311.75872
552.641	1322.33369
552.846	1457.69597
553.052	1237.73541
553.257	1387.89937
553.462	1275.80418
553.668	1464.04112
553.873	1354.05887
554.078	1561.33292
554.283	1354.05887
554.489	1631.12754
554.694	1345.59879
554.899	1453.46586
555.105	1438.6605
555.31	1485.19163
555.515	1540.18269
555.72	1648.04711
555.925	1354.05887
556.131	1495.76687
556.336	1404.81971
556.541	1567.67796
556.746	1531.72256
556.951	1590.943
557.156	1387.89937
557.361	1679.77088
557.567	1499.99696
557.772	1734.75718
557.977	1567.67796
558.182	1605.74791
558.387	1550.75782
558.592	1738.9868
558.797	1567.67796
559.002	1734.75718
559.207	1607.86289
559.412	1802.42933
559.617	1675.54108
559.822	1815.1174
560.027	1595.17298
560.232	1709.37915
560.437	1557.10288
560.642	1738.9868
560.847	1612.09285
561.051	1802.42933
561.256	1554.98786
561.461	1694.57509
561.666	1730.52754
561.871	1796.08524
562.076	1783.39695
562.281	1901.81463
562.485	1800.31464
562.69	1840.49304
562.895	1745.33121
563.1	1798.19994
563.305	1738.9868
563.509	1939.87406
563.714	1912.38688
563.919	1918.73016
564.123	1903.92909
564.328	1903.92909
564.533	1857.40976
564.737	2005.41636
564.942	1863.75345
565.147	2081.52208
565.351	1829.91994
565.556	1912.38688
565.761	1760.1347
565.965	2087.86381
566.17	1846.83685
566.374	1994.84542
566.579	1815.1174
566.784	1958.90308
566.988	1914.50131
567.193	1992.73122
567.397	1903.92909
567.602	2083.63599
567.806	2007.53052
568.011	2005.41636
568.215	2136.48148
568.42	2087.86381
568.624	2049.81245
568.828	2102.66091
569.033	2030.78592
569.237	2049.81245
569.442	2005.41636
569.646	2058.26851
569.85	2011.75884
570.055	2121.68522
570.259	2138.5952
570.463	2309.77833
570.668	2168.18642
570.872	2111.11624
571.076	2210.4568
571.281	2208.34336
571.485	2064.61048
571.689	2373.16413
571.893	2109.00242
572.098	2466.11329
572.302	2157.61831
572.506	2345.69805
572.71	2290.76089
572.914	2259.06347
573.119	2166.07282
573.323	2371.05142
573.527	2288.64779
573.731	2377.38954
573.935	2362.60046
574.139	2333.02082
574.343	2193.54905
574.547	2362.60046
574.751	2368.93869
574.955	2592.82755
575.159	2537.92315
575.364	2354.14933
575.568	2233.70405
575.772	2411.19126
575.976	2487.23519
576.18	2504.1319
576.383	2341.47234
576.587	2605.49664
576.791	2447.10264
576.995	2580.15801
577.199	2493.57154
577.403	2554.81766
577.607	2478.78656
577.811	2694.16783
578.015	2394.29073
578.219	2575.93474
578.422	2406.96619
578.626	2656.16861
578.83	2548.48231
579.034	2658.27978
579.238	2504.1319
579.442	2588.60442
579.645	2436.54079
579.849	2685.72392
580.053	2673.05766
580.257	2521.02789
580.46	2546.3705
580.664	2791.25774
580.868	2662.5021
581.071	2770.15364
581.275	2673.05766
581.479	2784.92666
581.682	2622.38809
581.886	2825.02145
582.09	2689.9459
582.293	2727.94142
582.497	2506.24394
582.7	2740.60564
582.904	2749.0482
583.107	2797.58871
583.311	2673.05766
583.515	2846.12196
583.718	2660.39095
583.922	2932.61919
584.125	2489.34732
584.329	2979.02222
584.532	2732.16288
584.735	2924.18151
584.939	2749.0482
585.142	2905.19587
585.346	2816.58086
585.549	2979.02222
585.753	2810.25026
585.956	2943.16596
586.159	2968.47671
586.363	2850.3419
586.566	3099.21403
586.769	3172.99069
586.973	2801.80928
587.176	3031.74409
587.379	3035.96143
587.582	2922.07205
587.786	3101.3222
587.989	3107.64664
588.192	3063.37261
588.395	3166.66775
588.599	3063.37261
588.802	3170.88306
589.005	3137.15877
589.208	3208.81789
589.411	3154.02143
589.615	3105.53851
589.818	2989.56735
590.021	3185.63612
590.224	3113.97093
590.427	3196.17354
590.63	3223.56888
590.833	3288.88485
591.036	3194.06609
591.239	3314.16408
591.442	3196.17354
591.645	3269.92382
591.848	3238.31906
592.051	3335.22822
592.254	3164.56007
592.457	3303.63137
592.66	3189.85114
592.863	3364.7151
593.066	3261.49625
593.269	3497.36326
593.472	3552.08606
593.675	3516.30717
593.878	3229.89049
594.081	3385.77507
594.284	3331.01553
594.486	3451.04974
594.689	3543.66797
594.892	3629.93923
595.095	3560.50385
595.298	3499.46821
595.5	3349.97208
595.703	3482.62809
595.906	3474.20759
596.109	3602.58833
596.311	3520.51672
596.514	3585.75543
596.717	3486.83823
596.92	3751.92719
597.122	3444.73358
597.325	3703.56037
597.528	3621.52391
597.73	3764.54293
597.933	3467.89203
598.136	3844.42626
598.338	3453.15509
598.541	3693.0445
598.743	3806.59033
598.946	3745.61905
599.148	3488.94327
599.351	3976.80104
599.554	3549.98156
599.756	3762.44036
599.959	3798.18148
600.161	3888.56004
600.363	3869.64664
600.566	3985.20307
600.768	3836.01883
600.971	3846.52806
601.173	3625.73161
601.376	3699.35408
601.578	3802.38594
601.78	3848.62985
601.983	3669.90789
602.185	3932.685
602.388	3756.13251
602.59	3882.25576
602.792	3684.63145
602.995	3829.71305
603.197	3800.28372
603.399	3920.07877
603.601	3787.66997
603.804	3945.29049
604.006	3739.31074
604.208	4012.50744
604.41	3831.81499
604.613	4054.50738
604.815	3938.98784
605.017	4142.68024
605.219	3962.09668
605.421	4044.00817
605.623	3796.07921
605.826	4041.90826
606.028	3884.35721
606.23	4159.47089
606.432	4029.3084
606.634	4176.26019
606.836	3865.44344
607.038	4039.80834
607.24	3844.42626
607.442	4073.40465
607.644	3978.90158
607.846	4111.19416
608.048	3873.84976
608.25	4125.88825
608.452	4109.09492
608.654	4272.77235
608.856	4035.60842
609.058	4323.10856
609.26	3894.86415
609.462	4134.28441
609.664	4138.48237
609.866	4142.68024
610.067	4048.20791
610.269	4130.08637
610.471	3949.49216
610.673	4444.70293
610.875	4169.96436
611.077	4190.94973
611.278	4165.76704
611.48	4562.03443
611.682	4174.16161
611.884	4482.42417
612.085	4090.20082
612.287	4188.85128
612.489	4073.40465
612.69	4237.11006
612.892	4176.26019
613.094	4264.38178
613.295	4344.07832
613.497	4308.42845
613.699	4176.26019
613.9	4436.31947
614.102	4381.81843
614.304	4258.08863
614.505	4239.20801
614.707	4417.45539
614.908	4176.26019
615.11	4459.37315
615.311	4268.57711
615.513	4358.75587
615.714	4222.4238
615.916	4509.66285
616.117	4203.53993
616.319	4585.07352
616.52	4243.40385
616.722	4499.18688
616.923	4308.42845
617.124	4459.37315
617.326	4132.1854
617.527	4658.36178
617.729	4230.81608
617.93	4381.81843
618.131	4467.75565
618.333	4570.41259
618.534	4360.85257
618.735	4528.51821
618.937	4341.98144
619.138	4350.36883
619.339	4356.65914
619.54	4530.61314
619.742	4555.75057
619.943	4522.23329
620.144	4616.48613
620.345	4425.83965
620.546	4314.72005
620.748	4725.34412
620.949	4626.95588
621.15	4834.14103
621.351	4442.6071
621.552	4557.84521
621.753	4318.91435
621.954	4691.85583
622.155	4224.5219
622.356	4771.38107
622.558	4543.18226
622.759	4572.50708
622.96	4306.3312
623.161	4664.64235
623.362	4599.73336
623.563	4612.29807
623.764	4457.27747
623.965	4574.60154
624.166	4541.08746
624.366	4649.98736
624.567	4448.89453
624.768	4534.80294
624.969	4450.9903
625.17	4742.0861
625.371	4501.28212
625.572	4629.04976
625.773	4432.1276
625.973	4660.45532
626.174	4513.85309
626.375	4683.48286
626.576	4534.80294
626.777	4729.52975
626.977	4375.5289
627.178	4869.69591
627.379	4520.13828
627.58	4758.82663
627.78	4652.081
627.981	4790.21121
628.182	4725.34412
628.382	4978.41092
628.583	4825.77422
628.784	4794.39543
628.984	4706.50767
629.185	4961.68958
629.386	4742.0861
629.586	4934.51426
629.787	4796.48751
629.987	4886.42533
630.188	4970.05044
630.388	4901.06238
630.589	4769.28872
630.79	4970.05044
630.99	4819.49887
631.191	5016.02855
631.391	4842.50748
631.591	4871.78717
631.792	4819.49887
631.992	5016.02855
632.193	4802.76361
632.393	4982.59103
632.594	4599.73336
632.794	4871.78717
632.994	4817.40705
633.195	5036.92401
633.395	4928.24248
633.595	4974.23073
633.796	4846.69057
633.996	5151.8076
634.196	4934.51426
634.397	5072.44097
634.597	4938.69533
634.797	5041.10282
634.997	4988.86102
635.198	4921.97049
635.398	4788.11906
635.598	5013.93888
635.798	4919.87978
635.998	4957.50901
636.199	4905.24418
636.399	5074.52999
636.599	4995.13079
636.799	5089.15252
636.999	4932.42369
637.199	5061.9955
637.399	4936.6048
637.599	4926.15184
637.799	4980.50099
637.999	5101.68521
638.199	4951.23799
638.399	4972.14059
638.599	4859.23928
638.799	5110.03987
638.999	5066.17376
639.199	5222.79137
639.399	4909.4259
639.599	5262.44704
639.799	4995.13079
639.999	5089.15252
640.199	5128.8365
640.399	5197.74135
640.599	4850.87356
640.799	5404.30333
640.998	5191.47832
641.198	5266.62082
641.398	5135.10162
641.598	5302.09426
641.798	5093.33017
641.997	5283.31505
642.197	5260.36011
642.397	5535.63211
642.597	5370.93513
642.796	5264.53394
642.996	5189.3906
643.196	5329.21643
643.395	5260.36011
643.595	5400.13263
643.795	5153.89574
643.994	5320.87157
644.194	5245.75094
644.394	5577.30425
644.593	5316.699
644.793	5414.72965
644.992	5310.43996
645.192	5493.95055
645.392	5329.21643
645.591	5410.55919
645.791	5462.6832
645.99	5412.64444
646.19	5293.74818
646.389	5402.21799
646.589	5153.89574
646.788	5671.03208
646.987	5314.61268
647.187	5452.25957
647.386	5193.56602
647.586	5502.28761
647.785	5356.33465
647.984	5637.7121
648.184	5562.72007
648.383	5402.21799
648.582	5450.17478
648.782	5593.97046
648.981	5243.66383
649.18	5471.02168
649.38	5377.19212
649.579	5583.55425
649.778	5491.86622
649.977	5446.00512
650.177	5329.21643
650.376	5573.13746
650.575	5268.70768
650.774	5664.78504
650.973	5452.25957
651.173	5777.19919
651.372	5529.38048
651.571	5587.72081
651.77	5504.37182
651.969	5633.54668
652.168	5485.61311
652.367	5658.53779
652.566	5529.38048
652.765	5781.36136
652.964	5702.26407
653.163	5866.66495
653.362	5593.97046
653.561	5612.71815
653.76	5621.04984
653.959	5693.93606
654.158	5579.38761
654.357	5593.97046
654.556	5754.3056
654.755	5696.0181
654.954	5560.63652
655.153	5752.22422
655.352	5739.73546
655.551	5935.29512
655.749	5566.8871
655.948	5820.89722
656.147	5677.2789
656.346	5854.18397
656.545	5668.94976
656.743	5985.19184
656.942	5635.6294
657.141	6016.3704
657.34	5687.6898
657.538	5748.06139
657.737	5479.35978
657.936	5852.10373
658.135	5633.54668
658.333	5685.60767
658.532	5631.46393
658.731	5922.81882
658.929	5614.80111
659.128	5829.21948
659.326	5652.29033
659.525	5999.7425
659.724	5737.65391
659.922	5945.69139
660.121	5795.9282
660.319	5999.7425
660.518	5612.71815
660.716	6087.02218
660.915	5718.91896
661.113	5954.00798
661.312	5710.59171
661.51	5810.49387
661.709	5773.03693
661.907	5929.05707
662.105	5837.54135
662.304	6136.87766
662.502	5879.14507
662.701	5845.86285
662.899	5937.37442
663.097	6072.47845
663.296	5739.73546
663.494	6099.48732
663.692	5860.42457
663.891	5976.87667
664.089	5858.34439
664.287	5829.21948
664.485	5764.71213
664.684	6217.86394
664.882	5756.38695
665.08	6089.09977
665.278	5837.54135
665.476	6126.49222
665.675	5679.36113
665.873	6103.64218
666.071	5931.13645
666.269	6005.97814
666.467	5843.78251
666.665	6219.94004
666.863	5879.14507
667.061	5958.16614
667.259	5737.65391
667.457	5947.77057
667.655	5872.90511
667.853	5954.00798
668.051	5866.66495
668.249	5987.27058
668.447	5698.10011
668.645	6076.63392
668.843	5862.50472
669.041	6128.56935
669.239	6018.44878
669.437	6018.44878
669.635	5856.26419
669.833	6070.40068
670.031	5985.19184
670.229	6126.49222
670.426	6005.97814
670.624	5970.64003
670.822	5748.06139
671.02	5960.24518
671.218	5889.54452
671.415	5893.70414
671.613	5743.89847
671.811	6109.87429
672.009	5978.9555
672.206	6172.18376
672.404	5993.50664
672.602	6203.33057
672.799	5951.92887
672.997	6259.38153
673.195	6122.33788
673.392	6080.7893
673.59	6053.77768
673.788	5983.11308
673.985	6008.05664
674.183	6039.23131
674.38	6084.94458
674.578	6084.94458
674.775	5895.78391
674.973	6084.94458
675.17	5910.34167
675.368	6111.95161
675.565	5954.00798
675.763	6037.15316
675.96	6084.94458
676.158	6080.7893
676.355	5904.10277
676.553	6072.47845
676.75	5887.46468
676.947	6176.33697
677.145	5929.05707
677.342	6111.95161
677.539	5902.02309
677.737	6122.33788
677.934	5895.78391
678.131	6176.33697
678.329	5881.22501
678.526	6186.7196
678.723	5889.54452
678.92	6157.64677
679.118	5951.92887
679.315	6043.38753
679.512	6093.25486
679.709	6043.38753
679.906	5739.73546
680.104	5943.61218
680.301	5825.0584
680.498	6070.40068
680.695	5918.65986
680.892	6091.17732
681.089	5789.68541
681.286	6020.52714
681.483	5847.94317
681.68	6230.3202
681.877	5843.78251
682.075	6132.72355
682.272	5710.59171
682.469	6186.7196
682.665	6010.13511
682.862	5985.19184
683.059	5818.8166
683.256	6018.44878
683.453	5789.68541
683.65	6149.33941
683.847	6037.15316
684.044	6070.40068
684.241	5681.44333
684.438	6178.41354
684.635	5681.44333
684.831	5962.3242
685.028	5914.50081
685.225	6028.84034
685.422	5895.78391
685.619	6211.63549
685.815	5843.78251
686.012	5904.10277
686.209	5729.32751
686.405	6072.47845
686.602	5870.82508
686.799	5893.70414
686.996	5664.78504
687.192	6010.13511
687.389	5668.94976
687.586	5802.17077
687.782	5804.25158
687.979	5939.4537
688.175	5702.26407
688.372	5762.63087
688.568	5764.71213
688.765	6018.44878
688.962	5968.56111
689.158	6001.82107
689.355	5729.32751
689.551	5935.29512
689.748	5683.52551
689.944	5839.62176
690.14	5748.06139
690.337	5904.10277
690.533	5727.24584
690.73	5943.61218
690.926	5810.49387
691.123	5862.50472
691.319	5648.12524
691.515	5897.86366
691.712	5791.76636
691.908	5939.4537
692.104	5704.34602
692.301	5943.61218
692.497	5639.79477
692.693	5931.13645
692.889	5827.13895
693.086	5935.29512
693.282	5795.9282
693.478	5937.37442
693.674	5779.28029
693.87	5831.29998
694.067	5868.74503
694.263	6010.13511
694.459	5877.06511
694.655	5964.40319
694.851	5593.97046
695.047	5748.06139
695.243	5708.50983
695.439	5902.02309
695.635	5885.38481
695.831	5945.69139
696.027	5735.57235
696.224	5943.61218
696.42	5760.54959
696.615	5945.69139
696.811	5768.87458
697.007	6095.33237
697.203	5814.65528
697.399	5820.89722
697.595	5795.9282
697.791	5956.08707
697.987	5646.04266
698.183	5758.46828
698.379	5689.77191
698.575	5968.56111
698.77	5556.46936
698.966	5777.19919
699.162	5648.12524
699.358	5791.76636
699.554	5646.04266
699.749	5897.86366
699.945	5793.84729
700.141	5837.54135
700.337	5431.41056
700.532	5864.58484
700.728	5550.21843
700.924	5889.54452
701.119	5660.62023
701.315	5673.11438
701.511	5621.04984
701.706	5775.11808
701.902	5535.63211
702.097	5704.34602
702.293	5725.16416
702.489	5818.8166
702.684	5706.42794
702.88	5852.10373
703.075	5443.92025
703.271	5608.55216
703.466	5562.72007
703.662	5783.44241
703.857	5635.6294
704.053	5941.53295
704.248	5493.95055
704.443	5837.54135
704.639	5646.04266
704.834	5754.3056
705.03	5512.70842
705.225	5866.66495
705.42	5585.63754
705.616	5743.89847
705.811	5535.63211
706.006	5783.44241
706.202	5696.0181
706.397	5604.38608
706.592	5681.44333
706.787	5706.42794
706.983	5485.61311
707.178	5777.19919
707.373	5716.83719
707.568	5643.96005
707.763	5466.85249
707.959	5770.95577
708.154	5743.89847
708.349	5745.97994
708.544	5502.28761
708.739	5777.19919
708.934	5633.54668
709.129	5883.30492
709.324	5602.303
709.519	5872.90511
709.714	5631.46393
709.909	5777.19919
710.104	5435.58055
710.299	5843.78251
710.494	5537.71594
710.689	5631.46393
710.884	5648.12524
711.079	5600.2199
711.274	5543.96729
711.469	5706.42794
711.664	5571.05403
711.859	5698.10011
712.054	5450.17478
712.249	5562.72007
712.443	5608.55216
712.638	5854.18397
712.833	5593.97046
713.028	5743.89847
713.223	5579.38761
713.417	5693.93606
713.612	5533.54825
713.807	5706.42794
714.002	5506.45601
714.196	5773.03693
714.391	5481.44424
714.586	5662.70265
714.78	5660.62023
714.975	5525.2126
715.17	5587.72081
715.364	5637.7121
715.559	5541.88353
715.754	5635.6294
715.948	5462.6832
716.143	5577.30425
716.337	5475.19077
716.532	5660.62023
716.726	5391.79096
716.921	5452.25957
717.115	5418.90002
717.31	5560.63652
717.504	5493.95055
717.699	5502.28761
717.893	5243.66383
718.088	5568.97057
718.282	5254.09918
718.476	5429.32553
718.671	5268.70768
718.865	5471.02168
719.059	5174.77588
719.254	5521.04463
719.448	5395.96184
719.642	5560.63652
719.837	5245.75094
720.031	5568.97057
720.225	5204.00417
720.419	5360.50633
720.614	5345.90504
720.808	5583.55425
721.002	5078.70797
721.196	5473.10624
721.39	5293.74818
721.585	5272.88133
721.779	5322.95782
721.973	5443.92025
722.167	5130.92489
722.361	5431.41056
722.555	5237.40234
722.749	5460.59852
722.943	5084.97477
723.137	5418.90002
723.331	5135.10162
723.525	5391.79096
723.719	5155.98386
723.913	5416.81485
724.107	5193.56602
724.301	5491.86622
724.495	5105.86258
724.689	5398.04725
724.883	5204.00417
725.077	5537.71594
725.271	5316.699
725.465	5585.63754
725.659	5277.05489
725.853	5354.24878
726.046	5078.70797
726.24	5197.74135
726.434	5061.9955
726.628	5360.50633
726.822	5082.88586
727.015	5285.40172
727.209	5061.9955
727.403	5393.87641
727.596	5254.09918
727.79	5493.95055
727.984	5322.95782
728.177	5577.30425
728.371	5229.05336
728.565	5381.36333
728.758	5350.07695
728.952	5479.35978
729.146	5110.03987
729.339	5352.16288
729.533	5099.59648
729.726	5345.90504
729.92	5212.35427
730.113	5274.96812
730.307	5245.75094
730.5	5406.38864
730.694	5318.7853
730.887	5508.54017
731.081	5306.26716
731.274	5412.64444
731.468	5264.53394
731.661	5285.40172
731.854	5360.50633
732.048	5404.30333
732.241	5197.74135
732.435	5254.09918
732.628	5258.27315
732.821	5258.27315
733.014	5318.7853
733.208	5335.47484
733.401	5364.67792
733.594	5322.95782
733.788	5502.28761
733.981	5210.26678
734.174	5352.16288
734.367	5297.92126
734.56	5170.60004
734.754	5354.24878
734.947	5043.19219
735.14	5477.27529
735.333	5264.53394
735.526	5331.30259
735.719	5266.62082
735.912	5400.13263
736.105	5314.61268
736.298	5366.76368
736.491	5281.22835
736.684	5277.05489
736.877	4905.24418
737.07	5026.47657
737.263	5036.92401
737.456	5245.75094
737.649	5145.54303
737.842	5245.75094
738.035	5347.99101
738.228	5218.6166
738.421	5189.3906
738.614	5466.85249
738.807	5164.3361
739	5285.40172
739.192	5206.09173
739.385	5270.79452
739.578	5030.65561
739.771	5214.44174
739.964	5187.30285
740.156	5427.24047
740.349	5022.29743
740.542	5277.05489
740.735	5164.3361
740.927	5191.47832
741.12	5118.39416
741.313	5116.30562
741.505	5218.6166
741.698	4957.50901
741.891	5187.30285
742.083	5036.92401
742.276	5126.74807
742.468	4986.77104
742.661	5001.40036
742.854	5128.8365
743.046	5051.54945
743.239	5120.48267
743.431	5350.07695
743.624	5141.36654
743.816	5204.00417
744.009	5352.16288
744.201	5053.6387
744.393	5191.47832
744.586	4928.24248
744.778	5176.86377
744.971	4972.14059
745.163	5001.40036
745.355	5043.19219
745.548	5034.83457
745.74	5026.47657
745.932	5043.19219
746.125	5036.92401
746.317	5235.31513
746.509	5051.54945
746.702	5061.9955
746.894	5051.54945
747.086	5003.49017
747.278	5247.83804
747.471	4995.13079
747.663	5101.68521
747.855	5064.08464
748.047	5076.619
748.239	5135.10162
748.431	4934.51426
748.623	5051.54945
748.815	4909.4259
749.008	5118.39416
749.2	4986.77104
749.392	5337.56092
749.584	5041.10282
749.776	4978.41092
749.968	4928.24248
750.16	5130.92489
750.352	5084.97477
750.544	5087.06366
750.736	4844.59904
750.928	5170.60004
751.12	4829.95767
751.311	4928.24248
751.503	5047.37087
751.695	5164.3361
751.887	5003.49017
752.079	5078.70797
752.271	4823.68246
752.463	5049.46017
752.654	4875.96962
752.846	5245.75094
753.038	4913.60752
753.23	4967.96026
753.421	4938.69533
753.613	4913.60752
753.805	4955.4187
753.997	4852.96503
754.188	4907.33505
754.38	4947.0572
754.572	5051.54945
754.763	4934.51426
754.955	4779.75025
755.146	4921.97049
755.338	4832.04936
755.53	4838.3243
755.721	4777.65799
755.913	4957.50901
756.104	4944.96676
756.296	4896.88048
756.487	4829.95767
756.679	5045.28154
756.87	4827.86596
757.062	4616.48613
757.253	4735.80802
757.445	4813.22332
757.636	4880.15197
757.827	4959.59931
758.019	4712.78669
758.21	4821.59068
758.401	4746.27136
758.593	4725.34412
758.784	4633.23746
758.975	4534.80294
759.167	4698.13532
759.358	4763.01153
759.549	4840.4159
759.74	4769.28872
759.932	4559.93983
760.123	4532.70805
760.314	4593.45071
760.505	4670.92272
760.696	4660.45532
760.888	4568.31808
761.079	4576.69598
761.27	4802.76361
761.461	4383.9149
761.652	4706.50767
761.843	4509.66285
762.034	4702.32154
762.225	4511.75798
762.416	4551.56122
762.607	4599.73336
762.798	4689.76262
762.989	4549.46651
763.18	4465.66006
763.371	4476.13779
763.562	4608.10993
763.753	4291.64988
763.944	4593.45071
764.135	4362.94925
764.326	4595.54495
764.517	4325.20564
764.708	4373.43235
764.899	4255.99087
765.089	4467.75565
765.28	4440.51124
765.471	4453.08604
765.662	4417.45539
765.853	4442.6071
766.043	4513.85309
766.234	4524.32829
766.425	4386.01134
766.615	4507.5677
766.806	4230.81608
766.997	4291.64988
767.187	4155.27336
767.378	4302.13665
767.569	4079.70337
767.759	4402.78211
767.95	4348.27201
768.141	4356.65914
768.331	4073.40465
768.522	4308.42845
768.712	4237.11006
768.903	4289.55246
769.093	4352.46562
769.284	4471.94676
769.474	4138.48237
769.665	4308.42845
769.855	4211.93297
770.046	4300.03934
770.236	3987.30353
770.426	4314.72005
770.617	4132.1854
770.807	4283.26008
770.998	4031.40843
771.188	4203.53993
771.378	4193.04815
771.569	4056.60716
771.759	3964.19737
771.949	3869.64664
772.139	4106.99566
772.33	3886.45863
772.52	3978.90158
772.71	4268.57711
772.9	4079.70337
773.09	4281.16258
773.281	4123.78916
773.471	4067.10575
773.661	4048.20791
773.851	4067.10575
774.041	4075.50425
774.231	4016.7078
774.421	4146.87803
774.611	3840.22258
774.802	3592.06791
774.992	4041.90826
775.182	3981.0021
775.372	4041.90826
775.562	3962.09668
775.752	4054.50738
775.942	3886.45863
776.131	3953.69375
776.321	3701.45724
776.511	3936.88691
776.701	3810.79464
776.891	3777.15797
777.081	3911.67422
777.271	4025.10829
777.461	3751.92719
777.651	3873.84976
777.84	3650.97622
778.03	3762.44036
778.22	3739.31074
778.41	3922.17986
778.599	3777.15797
778.789	3743.5163
778.979	3707.76659
779.169	3772.95304
779.358	3699.35408
779.548	3829.71305
779.738	3751.92719
779.927	3787.66997
780.117	3676.2181
780.307	3888.56004
780.496	3558.39943
780.686	3924.28093
780.875	3621.52391
781.065	3743.5163
781.254	3661.49401
781.444	3793.97693
781.633	3592.06791
781.823	3688.83801
782.012	3653.07982
782.202	3785.56761
782.391	3541.56341
782.581	3543.66797
782.77	3634.14678
782.96	3602.58833
783.149	3381.56321
783.338	3604.69236
783.528	3495.25829
783.717	3478.41788
783.906	3539.45882
784.096	3602.58833
784.285	3482.62809
784.474	3499.46821
784.663	3364.7151
784.853	3663.59751
785.042	3440.52272
785.231	3606.79637
785.42	3349.97208
785.61	3598.38022
785.799	3516.30717
785.988	3533.14495
786.177	3358.39677
786.366	3379.45726
786.555	3491.04829
786.744	3408.939
786.933	3263.60317
787.122	3482.62809
787.312	3349.97208
787.501	3444.73358
787.69	3318.37705
787.879	3469.99723
788.068	3381.56321
788.257	3309.95105
788.445	3179.31348
788.634	3295.20489
788.823	3196.17354
789.012	3408.939
789.201	3120.29508
789.39	3400.516
789.579	3187.74364
789.768	3371.03327
789.957	3033.85277
790.145	3217.24713
790.334	3181.42104
790.523	3309.95105
790.712	3229.89049
790.9	3326.80277
791.089	3038.07007
791.278	3328.90916
791.467	3113.97093
791.655	3257.28237
791.844	3257.28237
792.033	3288.88485
792.221	3107.64664
792.41	3107.64664
792.599	3113.97093
792.787	3246.74736
792.976	2968.47671
793.164	3065.48106
793.353	3076.02304
793.541	3339.44084
793.73	3050.72162
793.918	3116.079
794.107	3135.05086
794.295	3305.73794
794.484	2751.1588
794.672	3238.31906
794.861	3111.86285
795.049	3170.88306
795.238	2900.97668
795.426	3160.34466
795.614	2943.16596
795.803	3061.26415
795.991	2934.72857
796.179	3054.93868
796.368	2943.16596
796.556	2947.38457
796.744	2915.74359
796.932	3166.66775
797.121	2780.70586
797.309	3044.39592
797.497	2839.79196
797.685	2915.74359
797.874	2860.89149
798.062	2936.83794
798.25	2801.80928
798.438	2928.40038
798.626	3069.6979
798.814	3029.6354
799.002	2837.68193
799.19	3027.52669
799.378	2810.25026
799.566	3141.37453
799.755	2953.71237
799.943	2951.60312
800.131	2900.97668
800.318	3078.13139
800.506	3019.09171
800.694	3004.3299
800.882	2801.80928
801.07	2768.04316
801.258	2848.23194
801.446	3046.5045
801.634	2793.36808
801.822	3010.65648
802.01	2844.01198
802.197	2934.72857
802.385	2768.04316
802.573	3025.41797
802.761	2774.37457
802.949	3035.96143
803.136	3000.11211
803.324	3035.96143
803.512	2863.00136
803.699	2858.7816
803.887	2888.31875
804.075	2896.75743
804.262	2825.02145
804.45	2833.46182
804.638	2884.09933
804.825	2970.58584
805.013	2765.93266
805.201	2827.13157
805.388	2772.26412
805.576	2930.50979
805.763	2765.93266
805.951	2953.71237
806.138	2881.9896
806.326	2833.46182
806.513	2881.9896
806.701	2858.7816
806.888	2909.415
807.075	3187.74364
807.263	2746.93758
807.45	2989.56735
807.638	2677.2798
807.825	3052.83016
808.012	2875.66032
808.2	2949.49385
808.387	2919.96258
808.574	3094.99763
808.761	2926.29095
808.949	2985.34934
809.136	2867.22107
809.323	3172.99069
809.51	2833.46182
809.698	3019.09171
809.885	2985.34934
810.072	3128.72705
810.259	2985.34934
810.446	3004.3299
810.633	2979.02222
810.82	2926.29095
811.008	3046.5045
811.195	3090.78116
811.382	2955.8216
811.569	3107.64664
811.756	2856.67169
811.943	3021.20048
812.13	2865.11122
812.317	3050.72162
812.504	2848.23194
812.691	2936.83794
812.878	2863.00136
813.064	3048.61307
813.251	2884.09933
813.438	3014.87413
813.625	2825.02145
813.812	2900.97668
813.999	2960.04003
814.186	2964.2584
814.372	2903.08628
814.559	3177.2059
814.746	3094.99763
814.933	3069.6979
815.12	2981.13127
815.306	3217.24713
815.493	2850.3419
815.68	3084.45635
815.866	2831.35175
816.053	3010.65648
816.24	2919.96258
816.426	3116.079
816.613	2749.0482
816.799	2955.8216
816.986	2806.0298
817.173	3044.39592
817.359	2679.39085
817.546	2985.34934
817.732	2930.50979
817.919	3196.17354
818.105	2947.38457
818.292	3071.8063
818.478	2778.59545
818.665	2955.8216
818.851	2844.01198
819.037	2934.72857
819.224	2936.83794
819.41	3052.83016
819.597	2632.94484
819.783	2765.93266
819.969	2711.05504
820.156	2841.90197
820.342	2892.53812
820.528	3002.22101
820.714	2639.27875
820.901	2928.40038
821.087	2801.80928
821.273	2949.49385
821.459	2787.03703
821.646	2909.415
821.832	2793.36808
822.018	2898.86706
822.204	2569.59974
822.39	2791.25774
822.576	2725.83067
822.762	3029.6354
822.948	2582.26963
823.134	2839.79196
823.32	2673.05766
823.507	2867.22107
823.693	2860.89149
823.879	2919.96258
824.065	2567.48805
824.25	2782.81627
824.436	2749.0482
824.622	2900.97668
824.808	2717.38753
824.994	2863.00136
825.18	2658.27978
825.366	2951.60312
825.552	2649.83501
825.738	2808.14004
825.923	2613.94246
826.109	2863.00136
826.295	2586.49283
826.481	2795.4784
826.667	2499.90779
826.852	2816.58086
827.038	2645.61254
827.224	2888.31875
827.409	2531.58751
827.595	2649.83501
827.781	2461.88878
827.966	2825.02145
828.152	2419.64127
828.338	2504.1319
828.523	2656.16861
828.709	2626.61083
828.894	2421.75375
829.08	2694.16783
829.266	2647.72378
829.451	2601.27366
829.637	2470.33776
829.822	2554.81766
830.008	2335.13372
830.193	2643.50129
830.378	2406.96619
830.564	2679.39085
830.749	2415.41629
830.935	2563.26463
831.12	2440.76557
831.305	2512.57999
831.491	2316.11731
831.676	2525.25178
831.861	2297.10012
832.047	2582.26963
832.232	2360.48769
832.417	2506.24394
832.602	2461.88878
832.788	2506.24394
832.973	2371.05142
833.158	2347.81088
833.343	2166.07282
833.528	2565.37635
833.714	2368.93869
833.899	2457.66422
834.084	2341.47234
834.269	2337.2466
834.454	2140.70891
834.639	2411.19126
834.824	2149.16367
835.009	2411.19126
835.194	2267.51632
835.379	2404.85364
835.564	2288.64779
835.749	2400.62851
835.934	2163.9592
836.119	2347.81088
836.304	2233.70405
836.489	2216.79707
836.674	2024.44362
836.859	2330.90792
837.044	2214.68365
837.228	2138.5952
837.413	2166.07282
837.598	2309.77833
837.783	2054.0405
837.968	2153.39101
838.152	2041.35629
838.337	2140.70891
838.522	2212.57023
838.707	2292.87398
838.891	1971.58881
839.076	2195.66255
839.261	2149.16367
839.445	2166.07282
839.63	2140.70891
839.815	2216.79707
839.999	1967.36026
840.184	2172.41361
840.368	2106.88859
840.553	2343.5852
840.737	2170.30002
840.922	2085.7499
841.106	1895.47122
841.291	2075.18028
841.475	2018.10126
841.66	2157.61831
841.844	1791.85583
842.029	2176.64077
842.213	1870.0971
842.397	2005.41636
842.582	1751.67558
842.766	2166.07282
842.951	1777.05275
843.135	1931.41657
843.319	1751.67558
843.504	1793.97054
843.688	2037.12816
843.872	1931.41657
844.056	1878.55522
844.241	1933.53095
844.425	1806.6587
844.609	2026.55773
844.793	1971.58881
844.977	1937.7597
845.161	1910.27244
845.346	1912.38688
845.53	1624.78266
845.714	1920.84457
845.898	1705.14944
846.082	1851.06603
846.266	1863.75345
846.45	1793.97054
846.634	1819.34672
846.818	1980.04585
847.002	1662.85161
847.186	1867.98256
847.37	1457.69597
847.554	1916.61574
847.738	1635.35745
847.922	1620.55273
848.106	1660.73669
848.29	1874.32617
848.473	1641.70229
848.657	1743.21641
848.841	1736.87199
849.025	1667.08145
849.209	1552.87284
849.392	1629.01258
849.576	1584.598
849.76	1607.86289
849.944	1660.73669
850.127	1810.88806
850.311	1474.61638
850.495	1671.31127
850.678	1586.713
850.862	1635.35745
851.046	1559.2179
851.229	1730.52754
851.413	1514.80227
851.596	1633.24249
851.78	1499.99696
851.964	1747.446
852.147	1491.53678
852.331	1616.32279
852.514	1379.43922
852.698	1707.2643
852.881	1442.8906
853.065	1561.33292
853.248	1506.3421
853.431	1705.14944
853.615	1514.80227
853.798	1618.43776
853.982	1548.64279
854.165	1593.05799
854.348	1387.89937
854.532	1455.58092
854.715	1373.09412
854.898	1614.20782
855.081	1379.43922
855.265	1561.33292
855.448	1282.14905
855.631	1548.64279
855.814	1392.12945
855.997	1499.99696
856.181	1375.20915
856.364	1483.07658
856.547	1184.86372
856.73	1417.50999
856.913	1337.13873
857.096	1595.17298
857.279	1206.01215
857.462	1320.2187
857.645	1269.45932
857.828	1394.24449
858.011	1347.71381
858.194	1510.57218
858.377	1260.99955
858.56	1320.2187
858.743	1290.60891
858.926	1286.37898
859.109	1282.14905
859.292	1277.91913
859.475	1330.79371
859.658	1415.39495
859.841	1218.70137
860.023	1271.57427
860.206	1239.85032
860.389	1307.52874
860.572	1121.42075
860.755	1256.76969
860.937	1157.37131
861.12	1170.06004
861.303	1299.06881
861.486	1392.12945
861.668	1184.86372
861.851	1284.26401
862.034	1144.68274
862.216	1303.29877
862.399	1019.92089
862.581	1123.53545
862.764	1193.32305
862.947	1256.76969
863.129	958.60461
863.312	1197.55274
863.494	1195.43789
863.677	1121.42075
863.859	1015.692
864.042	1036.83665
864.224	1083.35688
864.406	1121.42075
864.589	1003.00551
864.771	1170.06004
864.954	990.31924
865.136	981.86185
865.318	914.20679
865.501	1091.81538
865.683	922.66327
865.865	1049.52372
866.048	948.03341
866.23	992.4336
866.412	962.83314
866.594	967.06169
866.777	981.86185
866.959	1146.79749
867.141	909.9786
867.323	926.89155
867.505	882.49613
867.687	922.66327
867.869	926.89155
868.052	1024.14979
868.234	787.37564
868.416	948.03341
868.598	880.38215
868.78	990.31924
868.962	973.40458
869.144	948.03341
869.326	740.87925
869.508	897.29422
869.69	846.55961
869.872	956.49035
870.054	950.14763
870.236	880.38215
870.417	933.23403
870.599	962.83314
870.781	781.03494
870.963	914.20679
871.145	895.18018
871.327	1024.14979
871.508	888.83812
871.69	1028.37872
871.872	899.40826
872.054	973.40458
872.235	806.39826
872.417	878.26818
872.599	846.55961
872.78	888.83812
872.962	876.15421
873.144	931.11986
873.325	882.49613
873.507	880.38215
873.689	770.4673
873.87	952.26187
874.052	838.10432
874.233	863.47061
874.415	814.85301
874.596	890.95213
874.778	878.26818
874.959	884.61012
875.141	943.80498
875.322	973.40458
875.503	876.15421
875.685	926.89155
875.866	732.42589
876.048	865.58452
876.229	766.24031
876.41	952.26187
876.592	742.99261
876.773	958.60461
876.954	816.96672
877.136	871.92631
877.317	795.83004
877.498	922.66327
877.679	759.89991
877.86	819.08044
878.042	723.97271
878.223	1000.89111
878.404	899.40826
878.585	935.34821
878.766	871.92631
878.947	1032.60768
879.128	768.3538
879.309	884.61012
879.49	800.0573
879.672	998.77672
879.853	865.58452
880.034	867.69844
880.215	745.10599
880.396	983.97619
880.576	884.61012
880.757	958.60461
880.938	766.24031
881.119	937.46239
881.3	893.06615
881.481	897.29422
881.662	791.60282
881.843	846.55961
882.023	791.60282
882.204	973.40458
882.385	871.92631
882.566	975.51889
882.747	863.47061
882.927	990.31924
883.108	939.57658
883.289	838.10432
883.469	857.12892
883.65	935.34821
883.831	738.76589
884.011	981.86185
884.192	899.40826
884.373	996.66234
884.553	975.51889
884.734	952.26187
884.914	878.26818
885.095	1043.18016
885.275	833.87673
885.456	905.75044
885.636	768.3538
885.817	909.9786
885.997	833.87673
886.178	998.77672
886.358	863.47061
886.538	1034.72216
886.719	816.96672
886.899	1108.73262
887.08	850.78731
887.26	1015.692
887.44	835.99052
887.621	935.34821
887.801	785.26206
887.981	962.83314
888.161	914.20679
888.342	829.64917
888.522	880.38215
888.702	998.77672
888.882	931.11986
889.062	1022.03534
889.242	825.42165
889.423	905.75044
889.603	867.69844
889.783	956.49035
889.963	909.9786
890.143	1096.04466
890.323	878.26818
890.503	964.94741
890.683	941.69077
890.863	986.09053
891.043	880.38215
891.223	958.60461
891.403	838.10432
891.583	929.0057
891.763	850.78731
891.943	918.43502
892.122	802.17095
892.302	1024.14979
892.482	757.78646
892.662	876.15421
892.842	855.01504
893.022	935.34821
893.201	878.26818
893.381	937.46239
893.561	816.96672
893.741	821.19417
893.92	810.62562
894.1	874.04026
894.28	857.12892
894.459	922.66327
894.639	664.80534
894.819	939.57658
894.998	774.69432
895.178	899.40826
895.357	795.83004
895.537	795.83004
895.716	795.83004
895.896	852.90117
896.075	812.73931
896.255	800.0573
896.434	723.97271
896.614	869.81237
896.793	728.19928
896.973	776.80785
897.152	842.33194
897.331	909.9786
897.511	740.87925
897.69	897.29422
897.87	762.01336
898.049	800.0573
898.228	800.0573
898.407	690.1617
898.587	679.59635
898.766	685.93553
898.945	702.8405
899.124	747.21937
899.304	643.67633
899.483	626.77399
899.662	590.85917
899.841	762.01336
900.02	635.22506
900.199	669.03129
900.378	656.3536
900.557	694.38792
900.737	622.54853
900.916	768.3538
901.095	571.84695
901.274	762.01336
901.453	597.19681
901.632	673.25728
901.811	449.35082
901.989	664.80534
902.168	544.38677
902.347	639.45067
902.526	535.93795
902.705	614.09776
902.884	595.08425
903.063	605.64718
903.242	578.18424
903.42	580.2967
903.599	510.59283
903.778	601.42197
903.957	546.49901
904.135	493.69724
904.314	495.80913
904.493	580.2967
904.672	464.13222
904.85	569.73455
905.029	495.80913
905.207	493.69724
905.386	470.46733
905.565	525.37723
905.743	466.24391
905.922	462.02054
906.1	421.90167
906.279	538.05013
906.457	417.67897
906.636	504.25687
906.814	419.79031
906.993	466.24391
907.171	421.90167
907.35	468.35561
907.528	329.01742
907.707	390.23295
907.885	381.78858
908.063	451.4624
908.242	333.23872
908.42	434.57018
908.598	333.23872
908.777	457.79724
908.955	329.01742
909.133	392.34408
909.311	320.57505
909.49	396.5664
909.668	322.68561
909.846	432.45872
910.024	329.01742
910.202	459.90888
910.38	341.68151
910.559	402.9
910.737	436.68165
910.915	337.46008
911.093	453.574
911.271	415.56764
911.449	284.69817
911.627	337.46008
911.805	390.23295
911.983	402.9
912.161	394.45523
912.339	430.34728
912.517	331.12806
912.695	434.57018
912.872	360.67883
913.05	432.45872
913.228	335.34939
913.406	453.574
913.584	457.79724
913.762	428.23586
913.939	371.23349
914.117	407.12248
914.295	329.01742
914.473	508.48083
914.65	331.12806
914.828	398.67758
915.006	352.2354
915.184	407.12248
915.361	407.12248
915.539	445.1277
915.716	398.67758
915.894	468.35561
916.072	324.7962
916.249	305.80158
916.427	377.56649
916.604	407.12248
916.782	407.12248
916.959	371.23349
917.137	333.23872
917.314	405.01123
917.492	373.34447
917.669	398.67758
917.847	360.67883
918.024	390.23295
918.201	369.12252
918.379	278.36751
918.556	314.24345
918.733	341.68151
918.911	238.27725
919.088	426.12445
919.265	354.34623
919.442	297.36
919.62	369.12252
919.797	356.45708
919.974	229.83807
920.151	316.35397
920.328	276.25732
920.506	250.93658
920.683	339.57079
920.86	339.57079
921.037	293.13931
921.214	383.89964
921.391	274.14716
921.568	316.35397
921.745	314.24345
921.922	356.45708
922.099	238.27725
922.276	324.7962
922.453	297.36
922.63	316.35397
922.807	240.38709
922.984	193.97512
923.161	272.03701
923.338	215.07028
923.514	200.30345
923.691	187.64696
923.868	225.6186
924.045	280.47771
924.222	187.64696
924.399	316.35397
924.575	326.9068
924.752	276.25732
924.929	179.20971
925.105	341.68151
925.282	272.03701
925.459	240.38709
925.635	204.52245
925.812	312.13296
925.989	291.029
926.165	261.48656
926.342	280.47771
926.518	288.91871
926.695	280.47771
926.871	310.02248
927.048	276.25732
927.224	215.07028
927.401	250.93658
927.577	221.39921
927.754	153.89993
927.93	204.52245
928.107	208.74152
928.283	187.64696
928.459	187.64696
928.636	212.96067
928.812	187.64696
928.988	240.38709
929.165	153.89993
929.341	179.20971
929.517	191.86571
929.693	225.6186
929.87	215.07028
930.046	191.86571
930.222	198.19399
930.398	174.9912
930.574	223.5089
930.751	246.71673
930.927	215.07028
931.103	145.464
931.279	164.4453
931.455	196.08454
931.631	156.00896
931.807	200.30345
931.983	126.48442
932.159	139.13728
932.335	202.41294
932.511	162.33619
932.687	196.08454
932.863	174.9912
933.039	172.88198
933.215	115.94096
933.391	118.04961
933.566	126.48442
933.742	132.81075
933.918	158.11802
934.094	145.464
934.27	187.64696
934.445	145.464
934.621	179.20971
934.797	122.26697
934.973	185.53762
935.148	132.81075
935.324	128.59318
935.5	61.12386
935.675	115.94096
935.851	69.55627
936.027	139.13728
936.202	143.35507
936.378	137.02842
936.553	105.39804
936.729	130.70195
936.904	124.37568
937.08	118.04961
937.255	88.53052
937.431	27.39791
937.606	107.50658
937.782	94.85568
937.957	48.47593
938.133	18.96735
938.308	101.18103
938.483	69.55627
938.659	96.96411
938.834	132.81075
939.009	40.04444
939.185	96.96411
939.36	54.79979
939.535	63.23193
939.71	50.58386
939.886	120.15828
940.061	120.15828
940.236	82.20557
940.411	77.98905
940.586	44.26014
940.761	109.61514
940.937	59.01582
941.112	113.83233
941.287	46.36803
941.462	10.53718
941.637	14.75222
941.812	107.50658
941.987	-12.64382
942.162	48.47593
942.337	73.77262
942.512	77.98905
942.687	2.10739
942.862	18.96735
943.037	52.69182
943.212	69.55627
943.386	61.12386
943.561	99.07256
943.736	88.53052
943.911	46.36803
944.086	10.53718
944.26	96.96411
944.435	54.79979
944.61	21.07496
944.785	63.23193
944.959	61.12386
945.134	61.12386
945.309	69.55627
945.483	86.42218
945.658	44.26014
945.833	126.48442
946.007	88.53052
946.182	2.10739
946.357	77.98905
946.531	103.28953
946.706	40.04444
946.88	103.28953
947.055	174.9912
947.229	59.01582
947.404	-50.56997
947.578	96.96411
947.752	27.39791
947.927	18.96735
948.101	84.31387
948.276	2.10739
948.45	-37.92881
948.624	37.93663
948.799	86.42218
948.973	-73.74306
949.147	31.61332
949.321	96.96411
949.496	35.82884
949.67	-10.53658
949.844	56.90779
950.018	-14.75104
950.193	88.53052
950.367	88.53052
950.541	77.98905
950.715	44.26014
950.889	115.94096
951.063	10.53718
951.237	113.83233
951.411	35.82884
951.585	35.82884
951.759	86.42218
951.933	90.63889
952.107	75.88082
952.281	113.83233
952.455	46.36803
952.629	56.90779
952.803	63.23193
952.977	86.42218
953.151	29.5056
953.325	44.26014
953.499	8.4297
953.672	111.72373
953.846	0
954.02	35.82884
954.194	71.66443
954.368	4.2148
954.541	80.0973
954.715	6.32224
954.889	77.98905
955.062	6.32224
955.236	88.53052
955.41	27.39791
955.583	27.39791
955.757	105.39804
955.93	44.26014
956.104	52.69182
956.278	63.23193
956.451	111.72373
956.625	73.77262
956.798	-14.75104
956.972	35.82884
957.145	54.79979
957.319	12.64469
957.492	65.34002
957.665	52.69182
957.839	50.58386
958.012	6.32224
958.185	31.61332
958.359	92.74727
958.532	-6.32202
958.705	126.48442
958.879	56.90779
959.052	77.98905
959.225	54.79979
959.398	86.42218
959.572	14.75222
959.745	75.88082
959.918	80.0973
960.091	27.39791
960.264	35.82884
960.438	50.58386
960.611	96.96411
960.784	46.36803
960.957	105.39804
961.13	103.28953
961.303	73.77262
961.476	52.69182
961.649	96.96411
961.822	-71.63655
961.995	82.20557
962.168	124.37568
962.341	18.96735
962.514	-35.82187
962.686	103.28953
962.859	2.10739
963.032	56.90779
963.205	56.90779
963.378	118.04961
963.551	44.26014
963.723	27.39791
963.896	115.94096
964.069	27.39791
964.242	44.26014
964.414	46.36803
964.587	18.96735
964.76	21.07496
964.932	12.64469
965.105	122.26697
965.278	-6.32202
965.45	18.96735
965.623	92.74727
965.795	96.96411
965.968	86.42218
966.14	46.36803
966.313	94.85568
966.485	37.93663
966.658	52.69182
966.83	153.89993
967.003	-10.53658
967.175	82.20557
967.348	8.4297
967.52	96.96411
967.692	-33.71489
967.865	23.18258
968.037	122.26697
968.209	73.77262
968.382	27.39791
968.554	4.2148
968.726	59.01582
968.898	122.26697
969.071	48.47593
969.243	86.42218
969.415	69.55627
969.587	52.69182
969.759	-37.92881
969.932	-14.75104
970.104	23.18258
970.276	103.28953
970.448	65.34002
970.62	77.98905
970.792	61.12386
970.964	-18.9654
971.136	-2.10736
971.308	77.98905
971.48	111.72373
971.652	8.4297
971.824	105.39804
971.996	37.93663
972.168	-18.9654
972.339	-10.53658
972.511	31.61332
972.683	84.31387
972.855	50.58386
973.027	67.44814
973.199	77.98905
973.37	27.39791
973.542	48.47593
973.714	31.61332
973.886	35.82884
974.057	23.18258
974.229	-10.53658
974.401	65.34002
974.572	109.61514
974.744	61.12386
974.915	71.66443
975.087	130.70195
975.259	44.26014
975.43	86.42218
975.602	170.77278
975.773	99.07256
975.945	44.26014
976.116	10.53718
976.288	101.18103
976.459	48.47593
976.63	42.15228
976.802	27.39791
976.973	37.93663
977.145	94.85568
977.316	77.98905
977.487	-12.64382
977.659	115.94096
977.83	21.07496
978.001	35.82884
978.172	69.55627
978.344	2.10739
978.515	54.79979
978.686	44.26014
978.857	35.82884
979.028	56.90779
979.2	31.61332
979.371	65.34002
979.542	44.26014
979.713	42.15228
979.884	107.50658
980.055	56.90779
980.226	92.74727
980.397	71.66443
980.568	29.5056
980.739	-21.07254
980.91	44.26014
981.081	-10.53658
981.252	37.93663
981.423	-31.6079
981.594	35.82884
981.765	18.96735
981.936	71.66443
982.106	16.85977
982.277	99.07256
982.448	54.79979
982.619	101.18103
982.79	56.90779
982.96	10.53718
983.131	88.53052
983.302	96.96411
983.472	-31.6079
983.643	25.29023
983.814	65.34002
983.984	65.34002
984.155	14.75222
984.326	16.85977
984.496	-2.10736
984.667	35.82884
984.837	-82.16888
985.008	63.23193
985.178	25.29023
985.349	27.39791
985.519	65.34002
985.69	-23.17966
985.86	82.20557
986.031	122.26697
986.201	86.42218
986.371	35.82884
986.542	14.75222
986.712	-10.53658
986.882	86.42218
987.053	21.07496
987.223	92.74727
987.393	88.53052
987.563	16.85977
987.734	77.98905
987.904	23.18258
988.074	4.2148
988.244	73.77262
988.414	75.88082
988.585	18.96735
988.755	18.96735
988.925	31.61332
989.095	103.28953
989.265	44.26014
989.435	65.34002
989.605	52.69182
989.775	10.53718
989.945	94.85568
990.115	61.12386
990.285	61.12386
990.455	2.10739
990.625	16.85977
990.795	6.32224
990.965	56.90779
991.134	94.85568
991.304	65.34002
991.474	82.20557
991.644	21.07496
991.814	52.69182
991.984	23.18258
992.153	-35.82187
992.323	46.36803
992.493	-6.32202
992.662	8.4297
992.832	-27.39383
993.002	59.01582
993.171	63.23193
993.341	61.12386
993.511	25.29023
993.68	-10.53658
993.85	46.36803
994.019	69.55627
994.189	42.15228
994.358	52.69182
994.528	-6.32202
994.697	31.61332
994.867	61.12386
995.036	-14.75104
995.206	50.58386
995.375	-33.71489
995.544	94.85568
995.714	18.96735
995.883	73.77262
996.052	-12.64382
996.222	37.93663
996.391	-25.28676
996.56	122.26697
996.73	14.75222
996.899	29.5056
997.068	44.26014
997.237	44.26014
997.406	63.23193
997.576	54.79979
997.745	61.12386
997.914	-16.85823
998.083	65.34002
998.252	71.66443
998.421	-44.2495
998.59	-69.53
998.759	103.28953
998.928	14.75222
999.097	10.53718
999.266	153.89993
999.435	14.75222
999.604	31.61332
999.773	67.44814
999.942	94.85568
1000.111	18.96735
1000.28	2.10739
1000.448	21.07496
1000.617	-8.42931
1000.786	44.26014
1000.955	69.55627
1001.124	54.79979
1001.292	16.85977
1001.461	52.69182
1001.63	-27.39383
1001.798	-40.03573
1001.967	101.18103
1002.136	54.79979
1002.304	37.93663
1002.473	23.18258
1002.642	10.53718
1002.81	18.96735
1002.979	63.23193
1003.147	90.63889
1003.316	18.96735
1003.484	31.61332
1003.653	-4.2147
1003.821	63.23193
1003.99	18.96735
1004.158	73.77262
1004.327	69.55627
1004.495	8.4297
1004.663	-4.2147
1004.832	25.29023
1005	-54.78349
1005.168	29.5056
1005.337	2.10739
1005.505	-58.9969
1005.673	-10.53658
1005.842	31.61332
1006.01	-69.53
1006.178	88.53052
1006.346	25.29023
1006.514	71.66443
1006.683	56.90779
1006.851	-4.2147
1007.019	44.26014
1007.187	96.96411
1007.355	90.63889
1007.523	25.29023
1007.691	42.15228
1007.859	-18.9654
1008.027	31.61332
1008.195	-2.10736
1008.363	2.10739
1008.531	44.26014
1008.699	-6.32202
1008.867	56.90779
1009.035	23.18258
1009.203	6.32224
1009.37	33.72107
1009.538	-23.17966
1009.706	18.96735
1009.874	-31.6079
1010.042	46.36803
1010.209	-27.39383
1010.377	77.98905
1010.545	35.82884
1010.713	52.69182
1010.88	50.58386
1011.048	29.5056
1011.216	35.82884
1011.383	44.26014
1011.551	-6.32202
1011.718	-4.2147
1011.886	12.64469
1012.054	-14.75104
1012.221	-33.71489
1012.389	25.29023
1012.556	46.36803
1012.724	48.47593
1012.891	-35.82187
1013.058	48.47593
1013.226	-6.32202
1013.393	52.69182
1013.561	4.2148
1013.728	63.23193
1013.895	14.75222
1014.063	137.02842
1014.23	59.01582
1014.397	27.39791
1014.565	-12.64382
1014.732	84.31387
1014.899	27.39791
1015.066	14.75222
1015.233	37.93663
1015.401	-63.21022
1015.568	-35.82187
1015.735	31.61332
1015.902	-2.10736
1016.069	4.2148
1016.236	80.0973
1016.403	40.04444
1016.57	25.29023
1016.737	82.20557
1016.904	35.82884
1017.071	107.50658
1017.238	27.39791
1017.405	111.72373
1017.572	-23.17966
1017.739	21.07496
1017.906	-12.64382
1018.073	35.82884
1018.24	96.96411
1018.407	73.77262
1018.573	23.18258
1018.74	33.72107
1018.907	69.55627
1019.074	27.39791
1019.241	56.90779
1019.407	-29.50088
1019.574	56.90779
1019.741	77.98905
1019.907	-6.32202
1020.074	-6.32202
1020.241	46.36803
1020.407	77.98905
1020.574	52.69182
1020.74	77.98905
1020.907	52.69182
1021.073	-23.17966
1021.24	-23.17966
1021.406	-31.6079
1021.573	-14.75104
1021.739	88.53052
1021.906	-18.9654
1022.072	40.04444
1022.239	-25.28676
1022.405	31.61332
1022.571	73.77262
1022.738	18.96735
1022.904	40.04444
1023.07	-18.9654
1023.237	-14.75104
1023.403	-6.32202
1023.569	84.31387
1023.735	18.96735
1023.902	56.90779
1024.068	40.04444
1024.234	27.39791
1024.4	63.23193
1024.566	16.85977
1024.732	69.55627
1024.898	44.26014
1025.065	40.04444
1025.231	-23.17966
1025.397	61.12386
1025.563	82.20557
1025.729	77.98905
1025.895	-12.64382
1026.061	46.36803
1026.227	69.55627
1026.392	10.53718
1026.558	29.5056
1026.724	-8.42931
1026.89	25.29023
1027.056	-10.53658
1027.222	31.61332
1027.388	-6.32202
1027.553	-14.75104
1027.719	18.96735
1027.885	40.04444
1028.051	-6.32202
1028.216	35.82884
1028.382	40.04444
1028.548	63.23193
1028.713	6.32224
1028.879	-12.64382
1029.045	82.20557
1029.21	52.69182
1029.376	-23.17966
1029.541	40.04444
1029.707	-86.38163
1029.873	-12.64382
1030.038	-23.17966
1030.204	35.82884
1030.369	69.55627
1030.534	12.64469
1030.7	77.98905
1030.865	-6.32202
1031.031	12.64469
1031.196	96.96411
1031.361	46.36803
1031.527	18.96735
1031.692	16.85977
1031.857	10.53718
1032.023	73.77262
1032.188	-29.50088
1032.353	23.18258
1032.518	-29.50088
1032.684	4.2148
1032.849	-40.03573
1033.014	56.90779
1033.179	52.69182
1033.344	35.82884
1033.509	10.53718
1033.674	-10.53658
1033.839	71.66443
1034.004	48.47593
1034.17	8.4297
1034.335	27.39791
1034.5	-4.2147
1034.664	10.53718
1034.829	-4.2147
1034.994	-21.07254
1035.159	-46.35635
1035.324	29.5056
1035.489	54.79979
1035.654	33.72107
1035.819	-27.39383
1035.984	-8.42931
1036.148	23.18258
1036.313	103.28953
1036.478	-8.42931
1036.643	-6.32202
1036.807	21.07496
1036.972	103.28953
1037.137	-18.9654
1037.301	88.53052
1037.466	-14.75104
1037.631	-18.9654
1037.795	59.01582
1037.96	65.34002
1038.124	-40.03573
1038.289	27.39791
1038.454	10.53718
1038.618	40.04444
1038.783	21.07496
1038.947	42.15228
1039.111	94.85568
1039.276	27.39791
1039.44	25.29023
1039.605	6.32224
1039.769	56.90779
1039.933	16.85977
1040.098	40.04444
1040.262	-4.2147
1040.426	73.77262
1040.591	-44.2495
1040.755	25.29023
1040.919	52.69182
1041.083	-67.42343
1041.248	4.2148
1041.412	-4.2147
1041.576	6.32224
1041.74	65.34002
1041.904	27.39791
1042.068	-31.6079
1042.232	40.04444
1042.397	-10.53658
1042.561	69.55627
1042.725	-35.82187
1042.889	-14.75104
1043.053	71.66443
1043.217	-56.89021
1043.381	35.82884
1043.544	-63.21022
1043.708	6.32224
1043.872	-8.42931
1044.036	-4.2147
1044.2	14.75222
1044.364	35.82884
1044.528	-31.6079
1044.691	44.26014
1044.855	31.61332
1045.019	63.23193
1045.183	-31.6079
1045.346	-14.75104
1045.51	-2.10736
1045.674	52.69182
1045.837	6.32224
1046.001	46.36803
1046.165	-44.2495
1046.328	-46.35635
1046.492	63.23193
1046.655	27.39791
1046.819	52.69182
1046.983	27.39791
1047.146	77.98905
1047.31	31.61332
1047.473	69.55627
1047.636	35.82884
1047.8	18.96735
1047.963	10.53718
1048.127	12.64469
1048.29	10.53718
