Data from mixed_try1_USB4F045381__27__00131.txt Node

Date: Thu Apr 03 20:01:40 EDT 2025
User: mmckonesweet
Spectrometer: USB4F04538
Trigger mode: 4
Integration Time (sec): 2.700000E-3
Scans to average: 1
Electric dark correction enabled: true
Nonlinearity correction enabled: true
Boxcar width: 0
XAxis mode: Wavelengths
Number of Pixels in Spectrum: 3648
>>>>>Begin Spectral Data<<<<<
345.52	-13.52183
345.736	-13.52183
345.952	-13.52183
346.168	49.70556
346.384	43.38186
346.6	47.59764
346.816	-47.2342
347.032	-5.09275
347.248	-30.3788
347.464	-5.09275
347.68	3.33671
347.896	-26.16471
348.112	41.27401
348.328	7.55158
348.544	3.33671
348.76	24.41204
348.975	-13.52183
349.191	3.33671
349.407	79.21886
349.623	66.56975
349.839	3.33671
350.055	-2.98542
350.27	3.33671
350.486	13.87408
350.702	-5.09275
350.918	11.76656
351.133	81.32712
351.349	-30.3788
351.565	5.44413
351.781	-7.20006
351.996	-28.27177
352.212	3.33671
352.428	56.02946
352.644	-17.73622
352.859	-17.73622
353.075	-38.8067
353.291	-2.98542
353.506	11.76656
353.722	-40.91361
353.938	26.51971
354.153	32.84284
354.369	-47.2342
354.584	28.62739
354.8	-21.95051
355.016	-28.27177
355.231	-21.95051
355.447	9.65906
355.662	83.43541
355.878	11.76656
356.093	13.87408
356.309	9.65906
356.524	-2.98542
356.74	-13.52183
356.955	-11.4146
357.171	-24.05762
357.386	-17.73622
357.602	-26.16471
357.817	1.22931
358.033	28.62739
358.248	87.65205
358.464	-28.27177
358.679	24.41204
358.895	58.13747
359.11	-47.2342
359.325	53.92147
359.541	-13.52183
359.756	-38.8067
359.972	-34.5928
360.187	56.02946
360.402	-49.34101
360.618	20.19678
360.833	37.05838
361.048	13.87408
361.264	-13.52183
361.479	30.7351
361.694	18.08919
361.909	7.55158
362.125	20.19678
362.34	-53.55456
362.555	28.62739
362.77	-51.44779
362.986	18.08919
363.201	-13.52183
363.416	45.48974
363.631	87.65205
363.847	11.76656
364.062	-64.08798
364.277	-0.87807
364.492	28.62739
364.707	-11.4146
364.922	-28.27177
365.138	15.98162
365.353	20.19678
365.568	51.8135
365.783	62.35357
365.998	75.0024
366.213	20.19678
366.428	15.98162
366.643	7.55158
366.858	-47.2342
367.073	70.78603
367.288	83.43541
367.503	11.76656
367.718	-21.95051
367.933	20.19678
368.148	37.05838
368.363	-26.16471
368.578	26.51971
368.793	51.8135
369.008	79.21886
369.223	72.8942
369.438	56.02946
369.653	22.3044
369.868	15.98162
370.083	37.05838
370.298	5.44413
370.513	11.76656
370.728	24.41204
370.943	26.51971
371.157	-9.30734
371.372	32.84284
371.587	3.33671
371.802	-55.66129
372.017	70.78603
372.232	7.55158
372.446	129.82329
372.661	30.7351
372.876	-21.95051
373.091	-5.09275
373.306	-11.4146
373.52	5.44413
373.735	-21.95051
373.95	37.05838
374.165	13.87408
374.379	-5.09275
374.594	24.41204
374.809	79.21886
375.023	11.76656
375.238	1.22931
375.453	-13.52183
375.667	15.98162
375.882	24.41204
376.097	70.78603
376.311	13.87408
376.526	70.78603
376.741	-21.95051
376.955	-30.3788
377.17	45.48974
377.384	-28.27177
377.599	70.78603
377.813	11.76656
378.028	45.48974
378.242	15.98162
378.457	-13.52183
378.672	32.84284
378.886	-32.48582
379.101	37.05838
379.315	87.65205
379.53	91.86877
379.744	26.51971
379.958	-26.16471
380.173	-5.09275
380.387	49.70556
380.602	30.7351
380.816	-5.09275
381.031	-45.12736
381.245	15.98162
381.459	26.51971
381.674	-26.16471
381.888	58.13747
382.103	-89.3656
382.317	20.19678
382.531	91.86877
382.746	37.05838
382.96	22.3044
383.174	-28.27177
383.388	-24.05762
383.603	-36.69976
383.817	47.59764
384.031	34.9506
384.246	-24.05762
384.46	-11.4146
384.674	22.3044
384.888	-17.73622
385.103	37.05838
385.317	53.92147
385.531	22.3044
385.745	45.48974
385.959	98.19403
386.174	28.62739
386.388	32.84284
386.602	7.55158
386.816	-38.8067
387.03	-21.95051
387.244	56.02946
387.458	108.73657
387.672	112.95374
387.887	-30.3788
388.101	75.0024
388.315	41.27401
388.529	-26.16471
388.743	34.9506
388.957	39.16618
389.171	-51.44779
389.385	-11.4146
389.599	-13.52183
389.813	-17.73622
390.027	62.35357
390.241	83.43541
390.455	11.76656
390.669	18.08919
390.883	-13.52183
391.097	30.7351
391.311	11.76656
391.525	28.62739
391.738	20.19678
391.952	22.3044
392.166	13.87408
392.38	7.55158
392.594	-47.2342
392.808	39.16618
393.022	5.44413
393.236	15.98162
393.449	20.19678
393.663	37.05838
393.877	58.13747
394.091	56.02946
394.305	45.48974
394.518	24.41204
394.732	-32.48582
394.946	-19.84338
395.16	-91.4719
395.373	45.48974
395.587	-24.05762
395.801	-19.84338
396.015	-0.87807
396.228	24.41204
396.442	11.76656
396.656	28.62739
396.869	-38.8067
397.083	79.21886
397.297	39.16618
397.51	11.76656
397.724	-7.20006
397.938	-34.5928
398.151	24.41204
398.365	-61.98135
398.578	20.19678
398.792	45.48974
399.005	18.08919
399.219	70.78603
399.433	28.62739
399.646	7.55158
399.86	28.62739
400.073	58.13747
400.287	37.05838
400.5	56.02946
400.714	7.55158
400.927	37.05838
401.141	-26.16471
401.354	32.84284
401.567	26.51971
401.781	39.16618
401.994	37.05838
402.208	7.55158
402.421	-49.34101
402.635	-36.69976
402.848	22.3044
403.061	-5.09275
403.275	28.62739
403.488	53.92147
403.701	37.05838
403.915	13.87408
404.128	49.70556
404.341	-26.16471
404.555	7.55158
404.768	-5.09275
404.981	49.70556
405.195	-11.4146
405.408	28.62739
405.621	56.02946
405.834	47.59764
406.048	22.3044
406.261	-5.09275
406.474	34.9506
406.687	24.41204
406.9	-0.87807
407.114	96.08559
407.327	5.44413
407.54	-17.73622
407.753	-51.44779
407.966	7.55158
408.179	-15.62904
408.392	62.35357
408.605	-47.2342
408.819	62.35357
409.032	37.05838
409.245	-26.16471
409.458	11.76656
409.671	39.16618
409.884	7.55158
410.097	47.59764
410.31	37.05838
410.523	-28.27177
410.736	62.35357
410.949	5.44413
411.162	37.05838
411.375	37.05838
411.588	5.44413
411.801	-32.48582
412.014	3.33671
412.227	-11.4146
412.44	-30.3788
412.653	3.33671
412.865	-5.09275
413.078	39.16618
413.291	-24.05762
413.504	32.84284
413.717	161.45739
413.93	-47.2342
414.143	-17.73622
414.356	64.46165
414.568	20.19678
414.781	43.38186
414.994	-26.16471
415.207	-38.8067
415.42	15.98162
415.632	-5.09275
415.845	37.05838
416.058	13.87408
416.271	45.48974
416.483	81.32712
416.696	70.78603
416.909	45.48974
417.121	13.87408
417.334	-38.8067
417.547	30.7351
417.759	96.08559
417.972	-36.69976
418.185	-24.05762
418.397	47.59764
418.61	62.35357
418.823	87.65205
419.035	15.98162
419.248	3.33671
419.46	-47.2342
419.673	53.92147
419.885	30.7351
420.098	30.7351
420.311	-5.09275
420.523	-61.98135
420.736	30.7351
420.948	20.19678
421.161	26.51971
421.373	-91.4719
421.586	79.21886
421.798	24.41204
422.01	13.87408
422.223	13.87408
422.435	53.92147
422.648	81.32712
422.86	-13.52183
423.073	15.98162
423.285	24.41204
423.497	60.24551
423.71	98.19403
423.922	20.19678
424.134	70.78603
424.347	-0.87807
424.559	-0.87807
424.771	-11.4146
424.984	-26.16471
425.196	93.97717
425.408	85.54372
425.621	75.0024
425.833	106.62802
426.045	49.70556
426.257	30.7351
426.47	66.56975
426.682	96.08559
426.894	75.0024
427.106	24.41204
427.318	28.62739
427.531	53.92147
427.743	3.33671
427.955	26.51971
428.167	22.3044
428.379	45.48974
428.591	5.44413
428.804	-30.3788
429.016	-45.12736
429.228	37.05838
429.44	58.13747
429.652	-7.20006
429.864	58.13747
430.076	13.87408
430.288	34.9506
430.5	-11.4146
430.712	45.48974
430.924	7.55158
431.136	37.05838
431.348	-13.52183
431.56	24.41204
431.772	37.05838
431.984	87.65205
432.196	41.27401
432.408	-34.5928
432.62	30.7351
432.832	20.19678
433.044	-9.30734
433.256	18.08919
433.468	30.7351
433.679	58.13747
433.891	24.41204
434.103	64.46165
434.315	-43.0205
434.527	-9.30734
434.739	1.22931
434.95	125.60578
435.162	37.05838
435.374	13.87408
435.586	37.05838
435.798	11.76656
436.009	-36.69976
436.221	79.21886
436.433	32.84284
436.645	-11.4146
436.856	47.59764
437.068	32.84284
437.28	64.46165
437.491	47.59764
437.703	22.3044
437.915	49.70556
438.126	24.41204
438.338	39.16618
438.55	70.78603
438.761	98.19403
438.973	43.38186
439.184	-21.95051
439.396	-28.27177
439.608	-38.8067
439.819	49.70556
440.031	39.16618
440.242	79.21886
440.454	18.08919
440.665	-21.95051
440.877	41.27401
441.088	89.7604
441.3	68.67788
441.511	1.22931
441.723	39.16618
441.934	53.92147
442.146	144.58528
442.357	45.48974
442.569	30.7351
442.78	32.84284
442.991	-5.09275
443.203	53.92147
443.414	53.92147
443.626	-26.16471
443.837	87.65205
444.048	20.19678
444.26	134.0409
444.471	32.84284
444.682	79.21886
444.894	45.48974
445.105	64.46165
445.316	32.84284
445.528	79.21886
445.739	32.84284
445.95	-21.95051
446.161	87.65205
446.373	58.13747
446.584	-34.5928
446.795	49.70556
447.006	-5.09275
447.217	62.35357
447.429	5.44413
447.64	45.48974
447.851	56.02946
448.062	96.08559
448.273	56.02946
448.484	64.46165
448.695	77.11062
448.907	5.44413
449.118	13.87408
449.329	5.44413
449.54	28.62739
449.751	70.78603
449.962	26.51971
450.173	-13.52183
450.384	15.98162
450.595	28.62739
450.806	15.98162
451.017	83.43541
451.228	32.84284
451.439	102.41098
451.65	-26.16471
451.861	-9.30734
452.072	30.7351
452.283	37.05838
452.494	49.70556
452.705	62.35357
452.915	-26.16471
453.126	77.11062
453.337	15.98162
453.548	28.62739
453.759	39.16618
453.97	37.05838
454.181	43.38186
454.391	3.33671
454.602	28.62739
454.813	32.84284
455.024	1.22931
455.235	106.62802
455.445	56.02946
455.656	11.76656
455.867	-43.0205
456.078	53.92147
456.288	11.76656
456.499	-19.84338
456.71	-19.84338
456.921	87.65205
457.131	37.05838
457.342	37.05838
457.553	20.19678
457.763	58.13747
457.974	49.70556
458.184	89.7604
458.395	100.3025
458.606	115.06236
458.816	121.38835
459.027	117.171
459.237	91.86877
459.448	172.00315
459.659	87.65205
459.869	96.08559
460.08	1.22931
460.29	159.34831
460.501	91.86877
460.711	18.08919
460.922	15.98162
461.132	30.7351
461.343	81.32712
461.553	79.21886
461.764	28.62739
461.974	60.24551
462.184	-9.30734
462.395	70.78603
462.605	96.08559
462.816	123.49705
463.026	53.92147
463.236	24.41204
463.447	32.84284
463.657	110.84515
463.867	85.54372
464.078	70.78603
464.288	87.65205
464.498	53.92147
464.709	104.51949
464.919	15.98162
465.129	83.43541
465.339	64.46165
465.55	100.3025
465.76	83.43541
465.97	39.16618
466.18	62.35357
466.391	83.43541
466.601	83.43541
466.811	83.43541
467.021	62.35357
467.231	81.32712
467.441	190.9868
467.651	96.08559
467.862	100.3025
468.072	123.49705
468.282	110.84515
468.492	134.0409
468.702	117.171
468.912	146.69422
469.122	146.69422
469.332	108.73657
469.542	62.35357
469.752	127.71452
469.962	53.92147
470.172	81.32712
470.382	163.5665
470.592	148.80318
470.802	47.59764
471.012	75.0024
471.222	91.86877
471.432	167.78478
471.642	146.69422
471.852	134.0409
472.062	150.91217
472.272	212.08167
472.482	155.13019
472.691	161.45739
472.901	131.93208
473.111	129.82329
473.321	197.31505
473.531	172.00315
473.741	163.5665
473.95	269.04767
474.16	275.37808
474.37	239.50798
474.58	172.00315
474.79	193.0962
474.999	228.95901
475.209	292.26001
475.419	216.30089
475.628	250.05744
475.838	224.73956
476.048	214.19127
476.258	309.14312
476.467	334.46994
476.677	245.8376
476.886	359.79929
477.096	283.8189
477.306	359.79929
477.515	243.72771
477.725	307.03267
477.935	323.91679
478.144	410.46532
478.354	250.05744
478.563	456.91739
478.773	336.58062
478.982	511.82484
479.192	408.35405
479.401	399.90911
479.611	366.13202
479.82	383.02003
480.03	511.82484
480.239	501.26494
480.449	501.26494
480.658	535.05787
480.868	537.17005
481.077	526.6093
481.287	554.06798
481.496	535.05787
481.705	587.86644
481.915	625.89368
482.124	592.09148
482.333	716.75241
482.543	653.36032
482.752	729.43204
482.961	830.8822
483.171	862.58981
483.38	809.74492
483.589	767.47318
483.799	731.54534
484.008	909.09773
484.217	716.75241
484.426	729.43204
484.636	894.29933
484.845	991.55261
485.054	932.35313
485.263	915.44002
485.472	940.80986
485.682	940.80986
485.891	938.69566
486.1	843.56501
486.309	1074.01738
486.518	1059.21537
486.727	1103.62217
486.936	1171.29367
487.146	968.29503
487.355	1291.84265
487.564	1050.7572
487.773	1412.39863
487.982	1236.8542
488.191	1391.24818
488.4	1247.42876
488.609	1325.68245
488.818	1300.30255
489.027	1387.0181
489.236	1431.43407
489.445	1516.03604
489.654	1351.06259
489.863	1668.31515
490.072	1556.22162
490.281	1520.26612
490.49	1494.8856
490.698	1700.03851
490.907	1585.83175
491.116	1858.64326
491.325	1647.16589
491.534	1731.76119
491.743	1560.45166
491.952	1702.15338
492.16	1740.22044
492.369	1953.79348
492.578	1778.28634
492.787	1951.67915
492.996	1938.99308
493.204	1922.07798
493.413	1911.50586
493.622	1985.50763
493.831	1955.9078
494.039	1981.27916
494.248	2061.61567
494.457	2125.03203
494.665	2135.60076
494.874	2110.23548
495.083	2141.9419
495.291	2323.68875
495.5	2302.55884
495.709	2272.97537
495.917	2141.9419
496.126	2469.45767
496.335	2264.52261
496.543	2473.6821
496.752	2285.65422
496.96	2534.93133
497.169	2418.76107
497.377	2382.84728
497.586	2441.99778
497.794	2623.61973
498.003	2389.18523
498.211	2784.04733
498.42	2471.56989
498.628	2674.28912
498.837	2579.27817
499.045	2644.73285
499.254	2610.95126
499.462	2828.36246
499.671	2805.15053
499.879	2887.43971
500.087	2809.371
500.296	2957.05198
500.504	2765.05328
500.713	2826.25235
500.921	2925.41202
501.129	2862.12225
501.338	2876.89102
501.546	3309.07332
501.754	3170.00487
501.962	3011.88664
502.171	2950.72426
502.379	3298.5404
502.587	3020.32183
502.795	3399.63859
503.004	3081.46958
503.212	3309.07332
503.42	3376.4738
503.628	3176.32773
503.837	3144.71196
504.045	3456.48852
504.253	3193.18798
504.461	3258.51142
504.669	3372.26179
504.877	3340.66951
505.085	3359.62535
505.294	3534.37266
505.502	3504.90592
505.71	3544.89563
505.918	3551.20919
506.126	3730.02319
506.334	3685.85838
506.542	3683.75508
506.75	3572.25318
506.958	3751.05107
507.166	3660.61754
507.374	3786.79399
507.582	3711.09645
507.79	3759.46167
507.998	3702.68407
508.206	3992.72962
508.414	3542.79107
508.622	3881.38015
508.83	3713.1995
509.037	4009.53213
509.245	3608.0237
509.453	4116.6171
509.661	3912.8999
509.869	4141.80569
510.077	4047.33297
510.285	4187.97693
510.492	3984.32788
510.7	4307.5546
510.908	3917.1022
511.116	4110.31948
511.324	4181.68145
511.531	4181.68145
511.739	4078.82856
511.947	4318.04055
512.155	4351.59196
512.362	4294.97075
512.57	4282.38612
512.778	4416.58201
512.985	4315.9434
513.193	4362.07564
513.401	4404.00493
513.608	4401.90867
513.816	4341.10774
514.024	4443.82967
514.231	4315.9434
514.439	4525.55036
514.646	4374.65534
514.854	4680.51734
515.061	4368.36559
515.269	4454.30855
515.477	4561.16168
515.684	4728.65775
515.892	4552.78312
516.099	4787.24733
516.307	4577.91773
516.514	4760.04723
516.722	4709.82162
516.929	4810.25979
517.136	4734.93605
517.344	4877.18948
517.551	4688.89044
517.759	4919.00865
517.966	4810.25979
518.173	4764.23211
518.381	4971.2697
518.588	5094.54864
518.796	4916.91791
519.003	5144.67293
519.21	4829.08613
519.418	5079.92653
519.625	4996.34989
519.832	5104.9923
520.039	5180.16954
520.247	5315.8297
520.454	5056.94665
520.661	5463.89925
520.868	5123.78944
521.076	5420.11636
521.283	5415.94602
521.49	5532.67998
521.697	5282.44559
521.904	5443.05155
522.112	5294.96534
522.319	5532.67998
522.526	5351.29374
522.733	5478.49124
522.94	5307.48424
523.147	5351.29374
523.354	5370.06608
523.561	5603.51814
523.768	5636.84431
523.975	5734.70502
524.183	5488.91339
524.39	5738.86815
524.597	5665.99976
524.804	5919.8729
525.011	5738.86815
525.218	5778.41317
525.425	5655.58763
525.632	5747.19413
525.838	5859.55783
526.045	6042.52166
526.252	5930.27004
526.459	5863.71813
526.666	6044.59975
526.873	6063.30146
527.08	6052.91185
527.287	6181.7014
527.494	5890.75776
527.701	6293.79943
527.907	6013.42599
528.114	6289.64887
528.321	6019.66116
528.528	6252.28961
528.735	6262.66794
528.941	6401.68123
529.148	6138.08925
529.355	6368.49355
529.562	6021.73951
529.768	6416.19896
529.975	5996.79781
530.182	6629.68553
530.388	6555.09679
530.595	6606.8977
530.802	6252.28961
531.008	6640.04272
531.215	6553.02446
531.422	6619.32777
531.628	6517.79119
531.835	6724.94992
532.042	6486.69745
532.248	6898.78604
532.455	6488.77053
532.661	6898.78604
532.868	6538.51745
533.074	6809.8186
533.281	6882.23714
533.487	6830.51246
533.694	6770.49399
533.9	7091.061
534.107	6836.72017
534.313	7173.7003
534.52	6946.35606
534.726	7289.3357
534.933	6867.75566
535.139	7097.26018
535.345	6842.92768
535.552	7107.59171
535.758	7113.79036
535.965	7439.97134
536.171	7150.97804
536.377	7338.87259
536.584	7163.37233
536.79	7283.1427
536.996	7324.42563
537.203	7225.3318
537.409	7343.00009
537.615	7398.71286
537.821	7146.84643
538.028	7406.96525
538.234	7369.82674
538.44	7586.36918
538.646	7526.58598
538.853	7679.10071
539.059	7181.96227
539.265	7718.24114
539.471	7604.91894
539.677	7815.02962
539.883	7650.25551
540.09	7833.55832
540.296	7782.08554
540.502	7718.24114
540.708	7493.59441
540.914	7957.04016
541.12	7786.20385
541.326	8063.99808
541.532	7983.7848
541.738	7845.90986
541.944	7827.38228
542.15	8037.26375
542.356	7852.08534
542.562	8107.1771
542.768	7973.49881
542.974	8220.22314
543.18	8096.89719
543.386	8333.20931
543.592	8201.72882
543.798	8131.84685
544.004	8316.77865
544.21	8242.82514
544.415	7957.04016
544.621	8357.85297
544.827	8236.66119
545.033	8556.9541
545.239	8431.76722
545.445	8737.42828
545.651	8530.28086
545.856	8579.52128
546.062	8573.36682
546.268	8351.69232
546.474	8398.91953
546.679	8458.45234
546.885	8423.55576
547.091	8513.86497
547.297	8333.20931
547.502	8474.87235
547.708	8359.90649
547.914	8759.97749
548.119	8483.08189
548.325	8839.90691
548.531	8444.08383
548.736	8874.73934
548.942	8423.55576
549.147	8694.37363
549.353	8762.02731
549.559	8735.37825
549.764	8608.23985
549.97	8841.95602
550.175	8575.41833
550.381	8985.34929
550.586	8833.75947
550.792	9067.24946
550.997	8944.38867
551.203	9104.09545
551.408	9112.28269
551.614	9147.0754
551.819	9132.74959
552.025	9157.3076
552.23	9054.96621
552.435	9337.32532
552.641	9488.60475
552.846	9464.07898
553.052	9251.42399
553.257	9496.7795
553.462	9296.42358
553.668	9519.25872
553.873	9304.60446
554.078	9537.64938
554.283	9265.74292
554.489	9527.4325
554.694	9488.60475
554.899	9594.85656
555.105	9502.91038
555.31	9376.17586
555.515	9468.16677
555.72	9647.9665
555.925	9611.19921
556.131	9933.76572
556.336	9843.97478
556.541	9899.07715
556.746	9619.37015
556.951	9715.36018
557.156	9729.65366
557.361	10176.46948
557.567	9907.23954
557.772	9888.87382
557.977	9743.9464
558.182	9888.87382
558.387	9888.87382
558.592	10174.43078
558.797	9848.05681
559.002	10092.87149
559.207	9954.16879
559.412	9972.53031
559.617	9807.23385
559.822	10137.73186
560.027	9717.40216
560.232	9984.77067
560.437	9962.32961
560.642	10143.84866
560.847	10231.50912
561.051	10231.50912
561.256	10202.97129
561.461	10349.70901
561.666	10123.45884
561.871	10323.21985
562.076	10235.58573
562.281	10435.27418
562.485	10064.32044
562.69	10266.1586
562.895	10109.18514
563.1	10327.29525
563.305	10239.66229
563.509	10543.21672
563.714	10353.78407
563.919	10416.94072
564.123	10437.31116
564.328	10561.54304
564.533	10272.27281
564.737	10606.33646
564.942	10361.93402
565.147	10583.9405
565.351	10500.45132
565.556	10439.34813
565.761	10406.75502
565.965	10390.45721
566.17	10541.1804
566.374	10799.6946
566.579	10870.90476
566.784	10516.74356
566.988	10577.83225
567.193	10665.37317
567.397	10630.7667
567.602	10838.35331
567.806	10667.40873
568.011	10891.24791
568.215	10846.49145
568.42	10907.5216
568.624	10791.55538
568.828	11106.81617
569.033	10931.93078
569.237	11192.19612
569.442	11110.88231
569.646	10913.62405
569.85	11031.58478
570.055	11175.93472
570.259	10917.69229
570.463	11218.61948
570.668	11198.29398
570.872	11212.52194
571.076	11110.88231
571.281	10923.79457
571.485	11005.14857
571.689	11368.99631
571.893	11005.14857
572.098	11289.75059
572.302	11129.1794
572.506	11480.72754
572.71	11348.67835
572.914	11366.96456
573.119	11364.9328
573.323	11173.90199
573.527	11332.42326
573.731	11480.72754
573.935	11415.72387
574.139	11521.34985
574.343	11273.49316
574.547	11592.42984
574.751	11553.84498
574.955	11444.16419
575.159	11438.07
575.364	11606.64448
575.568	11411.66081
575.772	11541.65959
575.976	11450.2583
576.18	11760.94637
576.383	11671.61999
576.587	11708.16466
576.791	11566.03004
576.995	11665.52893
577.199	11566.03004
577.403	11817.78165
577.607	11931.43234
577.811	11935.49081
578.015	11742.67645
578.219	11919.25672
578.422	11762.97632
578.626	12107.94648
578.83	11712.22501
579.034	12081.57456
579.238	11955.78269
579.442	11972.01561
579.645	11951.72438
579.849	12333.07104
580.053	12112.00358
580.257	12241.8151
580.46	12193.13933
580.664	12138.37401
580.868	12045.05746
581.071	12059.25885
581.275	12065.34505
581.479	12207.33686
581.682	11992.30605
581.886	12016.65351
582.09	12284.40299
582.293	12393.90049
582.497	12393.90049
582.7	12596.62231
582.904	12371.59707
583.107	12596.62231
583.311	12349.29283
583.515	12523.64987
583.718	12209.36505
583.922	12547.97492
584.125	12337.12653
584.329	12608.7836
584.532	12404.03814
584.735	12675.66677
584.939	12391.87294
585.142	12641.21262
585.346	12420.25802
585.549	12612.83731
585.753	12387.81782
585.956	12967.44766
586.159	12568.2451
586.363	12750.64932
586.566	12669.58676
586.769	12900.59119
586.973	12774.96629
587.176	12712.14577
587.379	12799.28244
587.582	12967.44766
587.786	12718.22542
587.989	13109.24619
588.192	12720.25195
588.395	13151.78115
588.599	12815.49276
588.802	13093.04186
589.005	13034.29855
589.208	13194.31407
589.411	13060.63226
589.615	13269.24822
589.818	13009.98976
590.021	13052.52967
590.224	13093.04186
590.427	13275.3237
590.63	13070.76039
590.833	13305.70053
591.036	13222.66824
591.239	13259.12234
591.442	12902.61723
591.645	13228.74402
591.848	13204.44066
592.051	13579.05154
592.254	13398.85031
592.457	13502.11529
592.66	13485.91752
592.863	13589.17435
593.066	13301.65034
593.269	13747.07933
593.472	13589.17435
593.675	13631.68921
593.878	13585.12524
594.081	13734.93349
594.284	13767.32216
594.486	14002.11807
594.689	14151.88388
594.892	13710.64147
595.095	13611.44423
595.298	14016.28565
595.5	13870.55596
595.703	13868.53183
595.906	13793.63738
596.109	13846.26632
596.311	14103.31255
596.514	13862.45946
596.717	13700.51966
596.92	14038.54876
597.122	13953.54257
597.325	13821.97628
597.528	13801.73426
597.73	13931.27831
597.933	13900.91743
598.136	13915.08592
598.338	14251.04666
598.541	14291.51993
598.743	14074.97868
598.946	14184.2641
599.148	14095.2172
599.351	13888.77292
599.554	13937.35041
599.756	14133.66978
599.959	14145.81253
600.161	14081.05026
600.363	14190.33533
600.566	14665.86833
600.768	14564.69755
600.971	14512.08759
601.173	14340.08692
601.376	14678.00865
601.578	14477.6883
601.78	14601.11935
601.983	14315.80355
602.185	14724.54623
602.388	14412.93559
602.59	14412.93559
602.792	14180.2166
602.995	14516.13454
603.197	14164.02653
603.399	14570.76787
603.601	14402.81784
603.804	14443.28861
604.006	14601.11935
604.208	14493.87625
604.41	14584.93193
604.613	14560.65066
604.815	14524.22843
605.017	14605.16619
605.219	14522.20496
605.421	14435.1945
605.623	14613.25987
605.826	15090.76477
606.028	14471.61779
606.23	14728.59295
606.432	14811.55008
606.634	14912.71577
606.836	14718.47614
607.038	14823.69004
607.24	14807.50342
607.442	14595.04907
607.644	14643.61099
607.846	14783.2234
608.048	14690.14894
608.25	14706.33593
608.452	14671.9385
608.654	15117.06731
608.856	14856.06317
609.058	15062.43893
609.26	14888.43614
609.462	14890.45944
609.664	15042.20617
609.866	14767.03666
610.067	14876.29629
610.269	14963.29814
610.471	14971.39129
610.673	15005.78714
610.875	15210.13777
611.077	15147.41637
611.278	14852.01653
611.48	15017.92682
611.682	14849.99322
611.884	15503.51489
612.085	14910.69247
612.287	15236.44031
612.489	14969.36801
612.69	15084.69495
612.892	15163.60254
613.094	15456.97864
613.295	15113.02077
613.497	15082.67168
613.699	15115.04404
613.9	15384.13982
614.102	15066.48548
614.304	15414.48926
614.505	14910.69247
614.707	15426.62906
614.908	15072.55531
615.11	15361.88363
615.311	15181.81197
615.513	15363.90692
615.714	15147.41637
615.916	15491.37497
616.117	15117.06731
616.319	15357.83705
616.52	15123.13712
616.722	15525.77147
616.923	15208.1145
617.124	15137.30002
617.326	15088.7415
617.527	15222.2774
617.729	15232.39376
617.93	15202.04468
618.131	15359.86034
618.333	15268.81269
618.534	15216.20758
618.735	15402.34947
618.937	15143.36983
619.138	15151.46292
619.339	15204.06795
619.54	14985.5543
619.742	15521.72482
619.943	15537.91146
620.144	15372.00007
620.345	15705.85072
620.546	15428.65236
620.748	15766.55316
620.949	15214.18431
621.15	15560.16817
621.351	15503.51489
621.552	15562.19151
621.753	15278.92907
621.954	15762.50631
622.155	15454.95533
622.356	15408.41936
622.558	15924.38412
622.759	15643.12576
622.96	15626.93881
623.161	15612.77527
623.362	15376.04666
623.563	15570.28488
623.764	15788.81096
623.965	15790.8344
624.166	15730.13159
624.366	15711.92093
624.567	15539.93479
624.768	15580.40161
624.969	15541.95813
625.17	15894.03145
625.371	15618.84535
625.572	15780.7172
625.773	15764.52973
625.973	16051.86864
626.174	15679.5466
626.375	15651.21926
626.576	15594.56506
626.777	15962.83126
626.977	15242.51012
627.178	15849.5147
627.379	15675.49983
627.58	15570.28488
627.78	15709.89752
627.981	15774.64689
628.182	15881.89046
628.382	15774.64689
628.583	15756.43603
628.784	15960.80771
628.984	15477.21175
629.185	15792.85784
629.386	15347.72062
629.586	16149.0036
629.787	15736.20183
629.987	16201.61991
630.188	15685.61677
630.388	16118.64854
630.589	15689.66355
630.79	15730.13159
630.99	15997.23174
631.191	15624.91544
631.391	15752.38918
631.591	15681.56999
631.792	15746.31892
631.992	15974.97256
632.193	16134.83786
632.393	15997.23174
632.594	16102.45932
632.794	16098.41203
632.994	16057.93947
633.195	16183.40645
633.395	16209.71483
633.595	16205.66737
633.796	16136.86153
633.996	16399.95367
634.196	15904.14898
634.397	16578.06532
634.597	16011.39676
634.797	16191.50131
634.997	16031.63263
635.198	16310.90368
635.398	15881.89046
635.598	16450.55194
635.798	16221.85726
635.998	16100.43567
636.199	16102.45932
636.399	16082.22293
636.599	16090.31747
636.799	16325.07048
636.999	15851.53818
637.199	15989.13747
637.399	16045.79782
637.599	16114.60122
637.799	15914.26653
637.999	16187.45387
638.199	15983.06679
638.399	16426.26462
638.599	16136.86153
638.799	16426.26462
638.999	16365.54755
639.199	16535.55992
639.399	16561.87268
639.599	16359.47594
639.799	16015.44392
639.999	16274.47518
640.199	16207.6911
640.399	16462.69572
640.599	16049.84503
640.799	16610.45104
640.998	16549.72828
641.198	16606.40279
641.398	16260.3087
641.598	16569.96898
641.798	16580.08941
641.997	16766.31548
642.197	16630.6924
642.397	16833.11886
642.597	16766.31548
642.796	16932.31681
642.996	16574.01715
643.196	16782.50999
643.395	16584.1376
643.595	16869.55821
643.795	16711.66013
643.994	16571.99306
644.194	16654.98233
644.394	16812.87513
644.593	16744.04827
644.793	16786.55864
644.992	16614.49929
645.192	16768.33978
645.392	16527.46377
645.591	16750.12112
645.791	16582.11351
645.99	16859.43609
646.19	16776.43703
646.389	17047.71826
646.589	16652.95816
646.788	16857.41167
646.987	16466.74366
647.187	16859.43609
647.386	16707.61166
647.586	17262.3484
647.785	17163.1286
647.984	17229.94933
648.184	16914.09632
648.383	16966.73388
648.582	16822.99696
648.782	16922.19429
648.981	16873.60708
649.18	16883.72929
649.38	17003.17632
649.579	17248.17371
649.778	17300.82327
649.977	17223.87459
650.177	16839.19203
650.376	17142.88051
650.575	17021.39787
650.774	17142.88051
650.973	17161.10378
651.173	17029.4964
651.372	16820.97259
651.571	16903.97391
651.77	16800.72901
651.969	16865.50936
652.168	16934.34133
652.367	17084.16265
652.566	17078.08853
652.765	17327.14881
652.964	17219.82477
653.163	17061.89098
653.362	17084.16265
653.561	17114.53367
653.76	17181.35212
653.959	17223.87459
654.158	17450.6832
654.357	17146.93011
654.556	16841.21642
654.755	17225.8995
654.954	16962.68478
655.153	17308.92338
655.352	17383.8517
655.551	17033.54568
655.749	17525.61953
655.948	17359.55017
656.147	17335.24908
656.346	17361.57528
656.545	17165.15343
656.743	17278.54821
656.942	17349.42466
657.141	17468.91056
657.34	17189.45154
657.538	17375.75114
657.737	17428.40566
657.936	17495.23941
658.135	17023.4225
658.333	17268.42331
658.532	17140.85572
658.731	17308.92338
658.929	16966.73388
659.128	17244.12383
659.326	17142.88051
659.525	17304.87332
659.724	17294.74822
659.922	17017.34861
660.121	17082.13794
660.319	17373.72601
660.518	17130.7318
660.716	17122.63271
660.915	17197.55101
661.113	17592.45832
661.312	17489.16348
661.51	17507.39138
661.709	17416.25443
661.907	17511.44205
662.105	17616.76421
662.304	17661.32623
662.502	17472.96112
662.701	17817.306
662.899	17857.82352
663.097	17861.87535
663.296	17620.81524
663.494	17732.22366
663.692	17527.6449
663.891	17479.03698
664.089	17586.38192
664.287	17647.14723
664.485	17543.84794
664.684	17685.63346
664.882	17404.10331
665.08	17618.78972
665.278	17610.6877
665.476	17428.40566
665.675	17276.52323
665.873	17284.6232
666.071	17450.6832
666.269	17357.52506
666.467	17236.0241
666.665	17272.47326
666.863	17363.60039
667.061	17803.1252
667.259	17264.37336
667.457	17675.50539
667.655	17450.6832
667.853	17614.7387
668.051	17215.77497
668.249	17497.26473
668.447	16954.5866
668.645	17398.0278
668.843	17306.89835
669.041	17616.76421
669.239	17300.82327
669.437	17385.87685
669.635	17426.38044
669.833	17604.61121
670.031	17511.44205
670.229	17716.01817
670.426	17547.89874
670.624	17689.68471
670.822	17758.55803
671.02	17740.32648
671.218	17618.78972
671.415	17701.83855
671.613	17442.58223
671.811	17474.9864
672.009	17570.17834
672.206	17713.9925
672.404	17519.54345
672.602	17252.22361
672.799	17592.45832
672.997	17722.0952
673.195	17284.6232
673.392	17499.29006
673.59	17485.11287
673.788	17365.62551
673.985	17335.24908
674.183	17434.48131
674.38	17487.13817
674.578	17369.67575
674.775	17462.83474
674.973	17231.97425
675.17	17450.6832
675.368	17306.89835
675.565	17314.9985
675.763	17531.69564
675.96	17254.24856
676.158	17667.40299
676.355	17327.14881
676.553	17671.45419
676.75	17163.1286
676.947	17306.89835
677.145	17288.6732
677.342	17217.79987
677.539	17096.31098
677.737	17341.32431
677.934	16742.024
678.131	17442.58223
678.329	17497.26473
678.526	17558.02578
678.723	17539.79716
678.92	17718.04384
679.118	17709.94117
679.315	17452.70845
679.512	17157.05415
679.709	17576.25466
679.906	17039.61963
680.104	17276.52323
680.301	17252.22361
680.498	16851.33843
680.695	16881.70485
680.892	17171.22792
681.089	17146.93011
681.286	17367.65063
681.483	16934.34133
681.68	17365.62551
681.877	17173.25275
682.075	17306.89835
682.272	17094.28625
682.469	17389.92715
682.665	16851.33843
682.862	17078.08853
683.059	17100.36045
683.256	17005.20093
683.453	16970.783
683.65	17146.93011
683.847	17055.81694
684.044	17254.24856
684.241	16926.24329
684.438	17298.79825
684.635	17130.7318
684.831	17240.07396
685.028	17124.65748
685.225	17116.55842
685.422	16733.92691
685.619	17238.04903
685.815	16942.4394
686.012	16893.85157
686.209	16768.33978
686.405	17053.79227
686.602	17167.17825
686.799	16993.05333
686.996	17074.03912
687.192	16948.51299
687.389	16808.82641
687.586	16578.06532
687.782	16604.37867
687.979	17262.3484
688.175	16725.82987
688.372	16806.80206
688.568	16654.98233
688.765	17189.45154
688.962	16989.00416
689.158	17069.98973
689.355	17256.27351
689.551	17102.38519
689.748	16754.16969
689.944	16865.50936
690.14	16717.73286
690.337	16697.49051
690.533	16798.70466
690.73	16804.7777
690.926	16837.16764
691.123	16499.12748
691.319	16385.78638
691.515	16816.92385
691.712	16681.2968
691.908	16557.82454
692.104	16456.62382
692.301	16434.36036
692.497	16598.30633
692.693	16849.31403
692.889	16735.95118
693.086	17005.20093
693.282	16731.90265
693.478	16644.86148
693.674	16835.14325
693.87	16673.2
694.067	16914.09632
694.263	16776.43703
694.459	16764.29117
694.655	16766.31548
694.851	16742.024
695.047	16679.27259
695.243	16865.50936
695.439	16576.04123
695.635	16357.45208
695.831	16831.09448
696.027	16616.52342
696.224	16782.50999
696.42	16578.06532
696.615	16695.46629
696.811	16758.21828
697.007	16970.783
697.203	16723.80561
697.399	16768.33978
697.595	16563.89675
697.791	16845.26522
697.987	16470.79161
698.183	16770.36409
698.379	16671.1758
698.575	16776.43703
698.77	16517.34362
698.966	16410.07323
699.162	16351.38049
699.358	16430.31248
699.554	16333.16583
699.749	16717.73286
699.945	16118.64854
700.141	16201.61991
700.337	16476.86354
700.532	16456.62382
700.728	16108.53026
700.924	16373.64306
701.119	16292.68935
701.315	16300.78459
701.511	16408.04931
701.706	16697.49051
701.902	15962.83126
702.097	16349.35663
702.293	16007.3496
702.489	16375.66694
702.684	16078.17567
702.88	16017.4675
703.075	16039.72701
703.271	16059.96308
703.466	16195.54874
703.662	16377.69082
703.857	15940.57233
704.053	16300.78459
704.248	16134.83786
704.443	16213.7623
704.639	16233.99975
704.834	16401.97758
705.03	16128.76685
705.225	16110.55391
705.42	15811.06888
705.616	16106.50661
705.811	15877.84348
706.006	16286.61795
706.202	16181.38274
706.397	16015.44392
706.592	16134.83786
706.787	16110.55391
706.983	16138.88521
707.178	16373.64306
707.373	15894.03145
707.568	16252.21361
707.763	16185.43016
707.959	16527.46377
708.154	16064.01031
708.349	16420.19283
708.544	16308.87986
708.739	16329.11815
708.934	16195.54874
709.129	16375.66694
709.324	16009.37318
709.519	16246.14231
709.714	16159.12204
709.909	16450.55194
710.104	15940.57233
710.299	16080.1993
710.494	15740.24866
710.689	16116.62488
710.884	16033.65622
711.079	16240.07102
711.274	15742.27208
711.469	16090.31747
711.664	16333.16583
711.859	16207.6911
712.054	15835.3504
712.249	15885.93745
712.443	15687.64016
712.638	16009.37318
712.833	15513.63151
713.028	15713.94433
713.223	15693.71034
713.417	16151.02728
713.612	16098.41203
713.807	16460.67175
714.002	16229.95225
714.196	16240.07102
714.391	15606.70519
714.586	16126.74319
714.78	16025.56185
714.975	16027.58544
715.17	15649.19588
715.364	15989.13747
715.559	15940.57233
715.754	15764.52973
715.948	15926.40764
716.143	15602.65848
716.337	15610.75191
716.532	15707.87412
716.726	15527.7948
716.921	15928.43117
717.115	15404.37277
717.31	15590.51836
717.504	15792.85784
717.699	15673.47644
717.893	15560.16817
718.088	15604.68183
718.282	15754.4126
718.476	15612.77527
718.671	15256.67304
718.865	15788.81096
719.059	15426.62906
719.254	15141.34656
719.448	15100.88113
719.642	15475.18844
719.837	14939.01864
720.031	15319.39465
720.225	14787.27008
720.419	15236.44031
720.614	15220.25413
720.808	15303.20841
721.002	15032.08978
721.196	15363.90692
721.39	15102.90441
721.585	15135.27675
721.779	15376.04666
721.973	15238.46358
722.167	15125.1604
722.361	15163.60254
722.555	15155.50946
722.749	15046.25273
722.943	15068.50876
723.137	15386.16311
723.331	15068.50876
723.525	15131.23021
723.719	15270.83597
723.913	15372.00007
724.107	15013.88026
724.301	15284.9989
724.495	15197.99814
724.689	15011.85698
724.883	14963.29814
725.077	14957.22827
725.271	15108.97422
725.465	14878.3196
725.659	15058.39238
725.853	14880.34291
726.046	15028.04322
726.24	14999.71729
726.434	14570.76787
726.628	15042.20617
726.822	14953.18169
727.015	15214.18431
727.209	14856.06317
727.403	15282.97563
727.596	14898.55266
727.79	15278.92907
727.984	15234.41703
728.177	15074.57858
728.371	14955.20498
728.565	15119.09058
728.758	15066.48548
728.952	15228.34722
729.146	14973.41458
729.339	14979.48444
729.533	14916.76237
729.726	15058.39238
729.92	15284.9989
730.113	14799.41009
730.307	14924.85557
730.5	14817.62006
730.694	15050.29928
730.887	14870.22636
731.081	14815.59674
731.274	14930.92546
731.468	14584.93193
731.661	14993.64744
731.854	14269.25972
732.048	14698.24244
732.241	14728.59295
732.435	14775.13004
732.628	14805.48009
732.821	14886.41283
733.014	14979.48444
733.208	15151.46292
733.401	14951.1584
733.594	15042.20617
733.788	15104.92768
733.981	14872.24967
734.174	15054.34583
734.367	14983.53101
734.56	14762.98997
734.754	14813.57341
734.947	15090.76477
735.14	15042.20617
735.333	14916.76237
735.526	14655.75137
735.719	14744.77981
735.912	14892.48275
736.105	14785.24674
736.298	14641.58759
736.491	14775.13004
736.684	14815.59674
736.877	14920.80897
737.07	14758.94327
737.263	14694.19569
737.456	14839.87662
737.649	14886.41283
737.842	14837.8533
738.035	14888.43614
738.228	14435.1945
738.421	14771.08335
738.614	14841.89994
738.807	14941.04193
739	14548.50996
739.192	14376.51151
739.385	14665.86833
739.578	14512.08759
739.771	14657.77477
739.964	14301.63814
740.156	14720.4995
740.349	14534.34575
740.542	14791.31675
740.735	14637.54078
740.927	14560.65066
741.12	14402.81784
741.313	14374.48794
741.505	14617.3067
741.698	14514.11107
741.891	14295.56722
742.083	14487.80578
742.276	14461.50026
742.468	14406.86494
742.661	14277.35437
742.854	14350.20491
743.046	14291.51993
743.239	14186.28784
743.431	14410.91204
743.624	14249.02298
743.816	14291.51993
744.009	14376.51151
744.201	14202.47774
744.393	14186.28784
744.586	14556.60376
744.778	14506.01716
744.971	14459.47675
745.163	14744.77981
745.355	14334.0161
745.548	14329.96888
745.74	13987.95036
745.932	14532.32229
746.125	14129.62218
746.317	14552.55686
746.509	14489.82927
746.702	14760.96662
746.894	14431.14744
747.086	14176.16909
747.278	14194.38281
747.471	14097.24104
747.663	14127.59837
747.855	14046.64436
748.047	14338.06331
748.239	14394.72361
748.431	14224.73863
748.623	14439.24156
748.815	14216.64379
749.008	14427.10037
749.2	14491.85276
749.392	14325.92165
749.584	13864.48358
749.776	14014.26172
749.968	13651.93385
750.16	14271.28339
750.352	13957.59058
750.544	14228.78604
750.736	14234.85714
750.928	14311.7563
751.12	14168.07406
751.311	14022.35743
751.503	14109.38403
751.695	13726.8362
751.887	13749.10363
752.079	14022.35743
752.271	13562.85487
752.463	13668.12933
752.654	13957.59058
752.846	13801.73426
753.038	13991.99829
753.23	13892.8211
753.421	14125.57456
753.613	13821.97628
753.805	14202.47774
753.997	13826.02465
754.188	13989.97433
754.38	13902.94151
754.572	13886.74882
754.763	13787.56468
754.955	13500.09058
755.146	13536.53478
755.338	13605.37067
755.53	13575.0024
755.721	13524.38685
755.913	13376.57615
756.104	13714.69017
756.296	14174.14534
756.487	13730.88485
756.679	13819.95209
756.87	13524.38685
757.062	13477.81854
757.253	13724.81187
757.445	13765.29789
757.636	13824.00047
757.827	13682.3002
758.019	13360.37645
758.21	13512.23878
758.401	13400.87521
758.593	13396.82541
758.784	13530.46083
758.975	13358.35147
759.167	13491.99171
759.358	13627.64024
759.549	13346.2015
759.74	13311.77578
759.932	13228.74402
760.123	12967.44766
760.314	13248.99634
760.505	12955.29236
760.696	13060.63226
760.888	13228.74402
761.079	13155.83199
761.27	13188.23806
761.461	12797.25613
761.652	12787.12447
761.843	12878.30443
762.034	13188.23806
762.225	12937.05906
762.416	12805.36135
762.607	12783.07176
762.798	13172.03517
762.989	13151.78115
763.18	12888.43485
763.371	12817.51903
763.562	12914.77334
763.753	12781.0454
763.944	12851.96469
764.135	12768.88712
764.326	13034.29855
764.517	12906.66929
764.708	12712.14577
764.899	12738.49053
765.089	12679.72009
765.28	12637.15908
765.471	12588.51466
765.662	12594.5954
765.853	12550.00196
766.043	12395.92803
766.234	12550.00196
766.425	12300.62612
766.615	12547.97492
766.806	12436.47748
766.997	12620.94466
767.187	12610.81046
767.378	12404.03814
767.569	12351.32052
767.759	12645.26614
767.95	12371.59707
768.141	12539.86667
768.331	12483.10607
768.522	12637.15908
768.712	12489.1878
768.903	12612.83731
769.093	12426.34037
769.284	12527.7041
769.474	12428.36781
769.665	12260.06744
769.855	12174.88482
770.046	12535.81251
770.236	12038.97103
770.426	12028.82682
770.617	12393.90049
770.807	12174.88482
770.998	12541.89374
771.188	12369.56945
771.378	12286.4309
771.569	12320.9044
771.759	12036.9422
771.949	12276.29125
772.139	12474.997
772.33	12545.94786
772.52	12134.31711
772.71	12099.83218
772.9	11878.66919
773.09	11921.28601
773.281	11959.84097
773.471	11787.33502
773.661	11712.22501
773.851	11752.82649
774.041	12004.47992
774.231	11980.13188
774.421	11756.88645
774.611	11633.0419
774.802	11708.16466
774.992	11718.31545
775.182	11616.79752
775.372	11635.07241
775.562	11610.70572
775.752	11687.86242
775.942	11533.53581
776.131	11419.78689
776.321	11397.43979
776.511	11700.04387
776.701	11563.99922
776.891	11659.43778
777.081	11626.95032
777.271	11805.60323
777.461	11555.87585
777.651	11403.53457
777.84	11295.84696
778.03	11356.80565
778.22	11492.91463
778.41	11486.82113
778.599	11322.26351
778.789	11480.72754
778.979	11460.41496
779.169	11299.91116
779.358	11157.63983
779.548	11228.78184
779.738	11102.74999
779.927	11314.13552
780.117	11389.31328
780.307	11371.02805
780.496	11316.16753
780.686	11151.54134
780.875	11041.75206
781.065	11043.78548
781.254	10846.49145
781.444	11041.75206
781.633	11092.58434
781.823	10895.3164
782.012	10870.90476
782.202	11196.26137
782.391	11021.41723
782.581	10986.84548
782.77	10777.3113
782.96	11070.21898
783.149	10368.04635
783.338	10856.66386
783.528	11005.14857
783.717	10905.48743
783.906	10769.17157
784.096	10642.98115
784.285	10645.01685
784.474	10457.6803
784.663	10691.83456
784.853	10675.55087
785.042	10484.15826
785.231	10545.25303
785.42	10370.08377
785.61	10571.72389
785.799	10239.66229
785.988	10530.9986
786.177	10166.27585
786.366	10647.05254
786.555	10264.12051
786.744	10194.81714
786.933	10359.89655
787.122	10592.08466
787.312	10476.01143
787.501	10386.38262
787.69	10376.19594
787.879	10752.89153
788.068	10606.33646
788.257	10590.04864
788.445	10335.44589
788.634	10577.83225
788.823	10194.81714
789.012	10484.15826
789.201	10304.87988
789.39	10117.34162
789.579	10023.5284
789.768	10345.6339
789.957	10088.79294
790.145	10506.561
790.334	10386.38262
790.523	10154.04305
790.712	10039.8459
790.9	10323.21985
791.089	10001.09035
791.278	10092.87149
791.467	9841.93375
791.655	10056.16249
791.844	9815.39892
792.033	9958.24923
792.221	9848.05681
792.41	9939.88679
792.599	9815.39892
792.787	9807.23385
792.976	9790.903
793.164	9901.11777
793.353	9760.28003
793.541	9894.99586
793.73	9633.66871
793.918	9782.7372
794.107	9504.95398
794.295	9719.44411
794.484	9517.21523
794.672	9578.51291
794.861	9688.81316
795.049	9752.11334
795.238	9694.93963
795.426	9954.16879
795.614	9760.28003
795.803	9717.40216
795.991	9658.17875
796.179	9884.79238
796.368	9603.02801
796.556	9568.29762
796.744	9333.23545
796.932	9609.15643
797.121	9455.90321
797.309	9523.34564
797.497	9586.68486
797.685	9745.98815
797.874	9645.92401
798.062	9556.03875
798.25	9419.10904
798.438	9580.55592
798.626	9447.72718
798.814	9470.21064
799.002	9425.24177
799.19	9519.25872
799.378	9151.16833
799.566	9345.50488
799.755	9188.00167
799.943	9617.32744
800.131	9545.82259
800.318	9664.30591
800.506	9398.66557
800.694	9515.17173
800.882	9529.47591
801.07	9509.04113
801.258	9562.16826
801.446	9509.04113
801.634	9245.28705
801.822	9300.51406
802.01	9365.95261
802.197	9517.21523
802.385	9447.72718
802.573	9605.07083
802.761	9286.19711
802.949	9523.34564
803.136	9179.81696
803.324	9095.90794
803.512	9163.44672
803.699	9639.79643
803.887	9259.60633
804.075	9641.83897
804.262	9167.53938
804.45	9228.92115
804.638	8901.3724
804.825	9335.28039
805.013	9073.39085
805.201	9128.65635
805.388	9120.46966
805.576	9275.97022
805.763	9302.55927
805.951	9417.06477
806.138	9390.48772
806.326	9578.51291
806.513	9233.01272
806.701	9247.33271
806.888	9079.53208
807.075	9509.04113
807.263	9351.63937
807.45	9431.37435
807.638	9382.30961
807.825	9558.08194
808.012	9378.22046
808.2	9635.7113
808.387	9427.28598
808.574	9404.79878
808.761	9329.1455
808.949	9774.57117
809.136	9521.30219
809.323	9703.10803
809.51	9410.93185
809.698	9490.64846
809.885	9402.75439
810.072	9529.47591
810.259	9447.72718
810.446	9699.02386
810.633	9302.55927
810.82	9656.13633
811.008	9474.29834
811.195	9464.07898
811.382	9447.72718
811.569	9674.51753
811.756	9067.24946
811.943	9664.30591
812.13	9410.93185
812.317	9578.51291
812.504	9390.48772
812.691	9664.30591
812.878	9378.22046
813.064	9308.6948
813.251	9179.81696
813.438	9537.64938
813.625	9353.68417
813.812	9361.86319
813.999	9292.33305
814.186	9496.7795
814.372	9466.12289
814.559	9224.8295
814.746	9284.15177
814.933	9269.83389
815.12	9374.13124
815.306	9071.34373
815.493	9243.24137
815.68	9351.63937
815.866	9220.73779
816.053	9515.17173
816.24	9226.87533
816.426	9455.90321
816.613	9132.74959
816.799	9155.2612
816.986	9052.91894
817.173	9288.24244
817.359	8948.48505
817.546	9464.07898
817.732	9382.30961
817.919	9218.69191
818.105	9547.86586
818.292	9247.33271
818.478	9059.0607
818.665	9390.48772
818.851	9226.87533
819.037	9288.24244
819.224	9159.35399
819.41	9576.46989
819.597	8925.95409
819.783	9036.54017
819.969	9075.43794
820.156	9400.70999
820.342	9136.84276
820.528	9218.69191
820.714	9169.58569
820.901	9400.70999
821.087	9194.14002
821.273	9198.23217
821.459	9204.37027
821.646	9549.9091
821.832	9100.00173
822.018	9308.6948
822.204	8782.52448
822.39	8915.71203
822.576	8800.97038
822.762	8684.12133
822.948	8950.53322
823.134	8811.21747
823.32	8528.22894
823.507	9005.82695
823.693	8667.71668
823.879	8825.56263
824.065	8917.76048
824.25	8608.23985
824.436	8661.56463
824.622	8595.93234
824.808	8759.97749
824.994	8768.17665
825.18	8591.82969
825.366	8645.15835
825.552	8776.37552
825.738	8936.1957
825.923	8606.18865
826.109	8893.17793
826.295	8273.64219
826.481	8809.16809
826.667	8743.57829
826.852	8884.98318
827.038	8794.82191
827.224	8852.2013
827.409	8809.16809
827.595	8774.32583
827.781	8524.12504
827.966	8917.76048
828.152	8796.87142
828.338	8575.41833
828.523	8345.53149
828.709	8548.74729
828.894	8181.17769
829.08	8415.34399
829.266	8197.61875
829.451	8548.74729
829.637	8082.50446
829.822	8331.15555
830.008	8351.69232
830.193	8349.63873
830.378	8209.94872
830.564	8415.34399
830.749	8209.94872
830.935	8086.61677
831.12	7971.44155
831.305	8337.31678
831.491	8197.61875
831.676	8288.02197
831.861	8144.18063
832.047	8283.91356
832.232	8133.90253
832.417	8378.38722
832.602	8160.62457
832.788	7946.75284
832.973	7882.95997
833.158	8135.95819
833.343	7915.88779
833.528	8456.39976
833.714	7975.55605
833.899	8218.1683
834.084	8012.58287
834.269	8464.60999
834.454	8144.18063
834.639	7996.12732
834.824	8074.27961
835.009	7971.44155
835.194	7963.21231
835.379	8212.00364
835.564	7950.86783
835.749	8127.73542
835.934	7745.01706
836.119	7957.04016
836.304	7932.34972
836.489	7882.95997
836.674	7893.25048
836.859	7827.38228
837.044	7932.34972
837.228	7897.36654
837.413	7631.70997
837.598	8098.95321
837.783	7609.04087
837.968	8004.35526
838.152	7718.24114
838.337	7786.20385
838.522	7563.69492
838.707	7547.20291
838.891	7303.78526
839.076	7582.24678
839.261	7388.39688
839.445	7716.18131
839.63	7165.43797
839.815	7571.9404
839.999	7369.82674
840.184	7765.6115
840.368	7320.29774
840.553	7419.34318
840.737	7272.82059
840.922	7276.9495
841.106	7312.04168
841.291	7551.32604
841.475	7351.25484
841.66	7454.40976
841.844	7179.89681
842.029	7380.1437
842.213	7070.3956
842.397	7266.62706
842.582	7171.63475
842.766	7477.09656
842.951	7175.76582
843.135	6998.04904
843.319	6698.03231
843.504	6956.69578
843.688	6915.33349
843.872	7336.80881
844.056	7173.7003
844.241	7406.96525
844.425	7320.29774
844.609	7262.49793
844.793	6942.22001
844.977	7411.09131
845.161	6844.9968
845.346	7221.20179
845.53	6940.15195
845.714	7365.69981
845.898	7093.12742
846.082	7109.65795
846.266	6948.42405
846.45	7043.52723
846.634	6917.40182
846.818	6758.07398
847.002	6434.86294
847.186	6766.35408
847.37	6561.31366
847.554	6642.11408
847.738	6517.79119
847.922	6712.52689
848.106	6621.39937
848.29	6787.05273
848.473	6768.42405
848.657	6720.809
848.841	6613.11284
849.025	6782.91318
849.209	6590.32298
849.392	6447.30455
849.576	6575.81889
849.76	6513.64566
849.944	6302.10027
850.127	6807.74909
850.311	6434.86294
850.495	6617.25615
850.678	6476.33171
850.862	6735.30182
851.046	6327.00055
851.229	6710.4563
851.413	6208.69421
851.596	6383.01389
851.78	6356.04663
851.964	6360.1957
852.147	6131.8581
852.331	6540.58995
852.514	6219.075
852.698	6291.72416
852.881	6156.78144
853.065	6418.27283
853.248	6181.7014
853.431	6461.8187
853.615	5984.3257
853.798	6443.15744
853.982	6119.39516
854.165	6509.50003
854.348	6260.59232
854.532	6270.97019
854.715	6090.31168
854.898	6414.12507
855.081	5978.08932
855.265	6194.16011
855.448	6225.3032
855.631	6304.17543
855.814	6000.955
855.997	6121.47238
856.181	5828.35259
856.364	6127.70388
856.547	6119.39516
856.73	6175.47173
856.913	5674.32904
857.096	5953.14169
857.279	5849.15667
857.462	5795.06115
857.645	5749.27556
857.828	5736.7866
858.011	5882.43829
858.194	6104.854
858.377	5919.8729
858.56	5824.19149
858.743	5695.15058
858.926	5797.14205
859.109	5445.13642
859.292	5770.08861
859.475	5507.67177
859.658	5751.35697
859.841	5453.47569
860.023	5599.35194
860.206	5447.22128
860.389	5578.51954
860.572	5330.43336
860.755	5516.00821
860.937	5457.64519
861.12	5438.88173
861.303	5632.67887
861.486	5474.32222
861.668	5061.12502
861.851	5102.90362
862.034	4864.64194
862.216	5102.90362
862.399	4906.46386
862.581	5190.60844
862.764	5205.22192
862.947	5261.57748
863.129	5069.48148
863.312	5221.92164
863.494	4939.91479
863.677	5182.25737
863.859	5221.92164
864.042	5036.05341
864.224	5031.87448
864.406	5063.21417
864.589	4954.54772
864.771	5153.02568
864.954	4927.37138
865.136	5113.34682
865.318	4923.19006
865.501	5046.50032
865.683	4979.63013
865.865	5069.48148
866.048	4854.18504
866.23	4852.09359
866.412	4703.5425
866.594	4923.19006
866.777	4919.00865
866.959	5015.15786
867.141	4753.76974
867.323	4858.36787
867.505	4621.89557
867.687	4921.09936
867.869	4860.45925
868.052	5008.88875
868.234	4734.93605
868.416	4862.55061
868.598	4693.07686
868.78	4837.4528
868.962	4931.55261
869.144	4852.09359
869.326	4642.83394
869.508	4862.55061
869.69	4745.39944
869.872	4860.45925
870.054	4626.08342
870.236	4755.86226
870.417	4445.92549
870.599	4745.39944
870.781	4676.33066
870.963	4542.30943
871.145	4659.58301
871.327	4716.10053
871.508	4416.58201
871.69	4826.9944
871.872	4427.06232
872.054	4609.33148
872.235	4399.81239
872.417	4414.48589
872.599	4139.70676
872.78	4638.64644
872.962	4383.04137
873.144	4559.06708
873.325	4359.97895
873.507	4626.08342
873.689	4133.40983
873.87	4785.15515
874.052	4404.00493
874.233	4684.70394
874.415	4573.72885
874.596	4770.50926
874.778	4401.90867
874.959	4550.68843
875.141	4550.68843
875.322	4634.45886
875.503	4642.83394
875.685	4657.48946
875.866	4452.21282
876.048	4552.78312
876.229	4206.86221
876.41	4309.65183
876.592	4349.49516
876.773	4529.74026
876.954	4315.9434
877.136	4510.88501
877.317	4395.61977
877.498	4613.5196
877.679	4362.07564
877.86	4471.07362
878.042	4190.07538
878.223	4521.36037
878.404	4357.88223
878.585	4341.10774
878.766	4122.91453
878.947	4219.45145
879.128	4276.09352
879.309	4374.65534
879.49	4219.45145
879.672	4454.30855
879.853	4410.29357
880.034	4450.11707
880.215	4427.06232
880.396	4496.21859
880.576	4253.019
880.757	4533.93007
880.938	4005.33163
881.119	4464.78689
881.3	4198.46896
881.481	4531.83518
881.662	4265.60543
881.843	4443.82967
882.023	4473.16916
882.204	4494.12329
882.385	4544.40421
882.566	4584.20088
882.747	4454.30855
882.927	4544.40421
883.108	4389.33067
883.289	4556.97245
883.469	4404.00493
883.65	4575.8233
883.831	4550.68843
884.011	4525.55036
884.192	4544.40421
884.373	4741.21415
884.553	4242.52973
884.734	4552.78312
884.914	4468.97806
885.095	4592.5781
885.275	4443.82967
885.456	4661.67655
885.636	4475.26467
885.817	4977.54006
885.997	4563.25627
886.178	4824.90266
886.358	4500.4091
886.538	4808.16786
886.719	4410.29357
886.899	4588.38954
887.08	4393.52342
887.26	4688.89044
887.44	4242.52973
887.621	4787.24733
887.801	4475.26467
887.981	4594.67235
888.161	4496.21859
888.342	4801.89194
888.522	4561.16168
888.702	4935.73375
888.882	4600.95497
889.062	4919.00865
889.242	4462.69126
889.423	4598.86079
889.603	4588.38954
889.783	4829.08613
889.963	4401.90867
890.143	4586.29522
890.323	4667.95701
890.503	4711.91461
890.683	4492.02798
890.863	4680.51734
891.043	4527.64532
891.223	4515.07522
891.403	4397.71609
891.583	4684.70394
891.763	4479.45563
891.943	4508.78988
892.122	4232.03992
892.302	4536.02494
892.482	4286.58108
892.662	4525.55036
892.842	4443.82967
893.022	4494.12329
893.201	4383.04137
893.381	4657.48946
893.561	4282.38612
893.741	4475.26467
893.92	4276.09352
894.1	4504.59953
894.28	4185.87846
894.459	4265.60543
894.639	4135.50883
894.819	4404.00493
894.998	4334.81694
895.178	4552.78312
895.357	4261.41004
895.537	4349.49516
895.716	4412.38974
895.896	4311.74904
896.075	4206.86221
896.255	4276.09352
896.434	4013.73255
896.614	4416.58201
896.793	4175.38578
896.973	4399.81239
897.152	4026.33333
897.331	4173.28719
897.511	3946.51599
897.69	4183.77996
897.87	4055.73225
898.049	3954.9192
898.228	3980.12688
898.407	3967.52341
898.587	3727.9203
898.766	3931.80959
898.945	3799.40779
899.124	3635.37397
899.304	3822.53125
899.483	4017.93289
899.662	3597.50352
899.841	3885.58304
900.02	3500.69609
900.199	3734.22892
900.378	3576.46176
900.557	3687.96165
900.737	3578.56602
900.916	3542.79107
901.095	3578.56602
901.274	3694.27138
901.453	3561.73142
901.632	3715.30253
901.811	3433.329
901.989	3605.9197
902.168	3323.81869
902.347	3700.58092
902.526	3334.35058
902.705	3399.63859
902.884	3315.39287
903.063	3700.58092
903.242	3393.32113
903.42	3576.46176
903.599	3214.2618
903.778	3391.21527
903.957	3045.62593
904.135	3372.26179
904.314	3134.17257
904.493	3102.55197
904.672	3013.99546
904.85	3180.54289
905.029	2914.86463
905.207	3252.1905
905.386	2885.33
905.565	3104.66012
905.743	2944.3964
905.922	2946.5057
906.1	2868.45181
906.279	2887.43971
906.457	2642.6216
906.636	2950.72426
906.814	2819.92195
906.993	2674.28912
907.171	2638.39905
907.35	2900.09767
907.528	2634.17645
907.707	2636.28775
907.885	2471.56989
908.063	2642.6216
908.242	2448.33484
908.42	2661.62245
908.598	2625.7311
908.777	2695.39922
908.955	2429.32337
909.133	2598.28235
909.311	2425.09848
909.49	2484.24299
909.668	2281.42798
909.846	2494.8036
910.024	2300.4458
910.202	2488.46727
910.38	2471.56989
910.559	2610.95126
910.737	2393.41047
910.915	2553.93776
911.093	2429.32337
911.271	2752.38998
911.449	2378.62194
911.627	2484.24299
911.805	2355.3818
911.983	2680.62229
912.161	2353.269
912.339	2686.95534
912.517	2351.15619
912.695	2572.94323
912.872	2327.91462
913.05	2558.16128
913.228	2412.42356
913.406	2530.70756
913.584	2547.60239
913.762	2678.51125
913.939	2401.86084
914.117	2716.50803
914.295	2349.04337
914.473	2551.82598
914.65	2365.94565
914.828	2589.83617
915.006	2401.86084
915.184	2551.82598
915.361	2251.84321
915.539	2560.27302
915.716	2349.04337
915.894	2594.05928
916.072	2277.20169
916.249	2463.12093
916.427	2196.89542
916.604	2456.7841
916.782	2378.62194
916.959	2564.49647
917.137	2268.74901
917.314	2583.5014
917.492	2209.5762
917.669	2391.29786
917.847	2262.4094
918.024	2499.02776
918.201	2141.9419
918.379	2382.84728
918.556	2211.68964
918.733	2226.48343
918.911	2101.78014
919.088	2397.63568
919.265	2154.62397
919.442	2084.86911
919.62	1816.35095
919.797	2228.59679
919.974	2034.13322
920.151	2268.74901
920.328	2042.58948
920.506	2289.88043
920.683	1888.24672
920.86	2089.09691
921.037	1801.54821
921.214	1909.39142
921.391	1645.05095
921.568	2036.2473
921.745	1917.84915
921.922	2103.89399
922.099	1742.33524
922.276	2127.14579
922.453	1812.12162
922.63	2053.15966
922.807	1706.38311
922.984	1917.84915
923.161	1647.16589
923.338	2084.86911
923.514	1494.8856
923.691	1864.98694
923.868	1513.921
924.045	1719.07221
924.222	1535.07136
924.399	1668.31515
924.575	1486.42541
924.752	1653.51069
924.929	1596.40672
925.105	1738.10563
925.282	1484.31036
925.459	1801.54821
925.635	1812.12162
925.812	1818.46561
925.989	1558.33664
926.165	1647.16589
926.342	1448.35449
926.518	1685.23436
926.695	1516.03604
926.871	1611.21161
927.048	1575.25674
927.224	1452.58459
927.401	1264.34821
927.577	1458.92975
927.754	1456.8147
927.93	1655.62562
928.107	1431.43407
928.283	1541.41645
928.459	1325.68245
928.636	1480.08026
928.812	1270.69304
928.988	1380.67299
929.165	1224.16482
929.341	1344.71753
929.517	1042.29912
929.693	1296.07259
929.87	1109.96618
930.046	1384.90307
930.222	1203.0161
930.398	1253.77354
930.574	1093.04892
930.751	1279.15286
930.927	1112.08086
931.103	1101.50751
931.279	1099.39286
931.455	1071.90279
931.631	856.24813
931.807	1008.46772
931.983	879.50133
932.159	1067.67363
932.335	790.72215
932.511	1033.84112
932.687	663.92495
932.863	1025.38323
933.039	771.70018
933.215	957.72367
933.391	835.10977
933.566	917.55413
933.742	839.33737
933.918	881.6153
934.094	765.35969
934.27	902.75551
934.445	598.42915
934.621	832.99598
934.797	697.73371
934.973	720.97891
935.148	573.07919
935.324	691.39435
935.5	602.65432
935.675	676.60289
935.851	587.86644
936.027	632.23195
936.202	492.81728
936.378	676.60289
936.553	497.04108
936.729	423.13331
936.904	480.14624
937.08	429.46752
937.255	364.02109
937.431	450.58257
937.606	332.35927
937.782	433.6904
937.957	271.15779
938.133	273.26793
938.308	197.31505
938.483	319.69565
938.659	281.70867
938.834	281.70867
939.009	231.06877
939.185	245.8376
939.36	228.95901
939.535	224.73956
939.71	190.9868
939.886	241.61784
940.061	231.06877
940.236	239.50798
940.411	222.62986
940.586	212.08167
940.761	193.0962
940.937	231.06877
941.112	264.82749
941.287	163.5665
941.462	117.171
941.637	123.49705
941.812	91.86877
941.987	153.02117
942.162	153.02117
942.337	165.67563
942.512	115.06236
942.687	163.5665
942.862	110.84515
943.037	150.91217
943.212	62.35357
943.386	224.73956
943.561	129.82329
943.736	155.13019
943.911	98.19403
944.086	207.86254
944.26	83.43541
944.435	157.23924
944.61	165.67563
944.785	91.86877
944.959	176.22159
945.134	134.0409
945.309	115.06236
945.483	96.08559
945.658	98.19403
945.833	131.93208
946.007	75.0024
946.182	184.65873
946.357	83.43541
946.531	140.36746
946.706	79.21886
946.88	197.31505
947.055	62.35357
947.229	176.22159
947.404	104.51949
947.578	117.171
947.752	117.171
947.927	222.62986
948.101	161.45739
948.276	148.80318
948.45	89.7604
948.624	104.51949
948.799	115.06236
948.973	93.97717
949.147	104.51949
949.321	104.51949
949.496	98.19403
949.67	186.76807
949.844	195.20561
950.018	146.69422
950.193	176.22159
950.367	193.0962
950.541	142.47636
950.715	110.84515
950.889	197.31505
951.063	112.95374
951.237	172.00315
951.411	117.171
951.585	184.65873
951.759	167.78478
951.933	167.78478
952.107	121.38835
952.281	104.51949
952.455	138.25859
952.629	155.13019
952.803	83.43541
952.977	77.11062
953.151	180.44012
953.325	167.78478
953.499	144.58528
953.672	165.67563
953.846	226.84928
954.02	155.13019
954.194	165.67563
954.368	106.62802
954.541	188.87742
954.715	89.7604
954.889	190.9868
955.062	112.95374
955.236	180.44012
955.41	165.67563
955.583	134.0409
955.757	112.95374
955.93	201.53399
956.104	150.91217
956.278	155.13019
956.451	117.171
956.625	79.21886
956.798	182.54942
956.972	117.171
957.145	140.36746
957.319	123.49705
957.492	112.95374
957.665	165.67563
957.839	115.06236
958.012	174.11236
958.185	121.38835
958.359	180.44012
958.532	131.93208
958.705	167.78478
958.879	157.23924
959.052	100.3025
959.225	98.19403
959.398	226.84928
959.572	197.31505
959.745	138.25859
959.918	129.82329
960.091	102.41098
960.264	83.43541
960.438	112.95374
960.611	197.31505
960.784	98.19403
960.957	167.78478
961.13	176.22159
961.303	138.25859
961.476	142.47636
961.649	87.65205
961.822	165.67563
961.995	159.34831
962.168	146.69422
962.341	161.45739
962.514	51.8135
962.686	172.00315
962.859	239.50798
963.032	136.14973
963.205	218.41053
963.378	172.00315
963.551	176.22159
963.723	131.93208
963.896	121.38835
964.069	157.23924
964.242	184.65873
964.414	134.0409
964.587	214.19127
964.76	129.82329
964.932	140.36746
965.105	146.69422
965.278	150.91217
965.45	121.38835
965.623	167.78478
965.795	165.67563
965.968	104.51949
966.14	153.02117
966.313	174.11236
966.485	87.65205
966.658	112.95374
966.83	30.7351
967.003	165.67563
967.175	146.69422
967.348	96.08559
967.52	142.47636
967.692	72.8942
967.865	117.171
968.037	83.43541
968.209	89.7604
968.382	161.45739
968.554	104.51949
968.726	117.171
968.898	96.08559
969.071	91.86877
969.243	127.71452
969.415	180.44012
969.587	104.51949
969.759	72.8942
969.932	20.19678
970.104	75.0024
970.276	47.59764
970.448	87.65205
970.62	66.56975
970.792	129.82329
970.964	102.41098
971.136	81.32712
971.308	106.62802
971.48	127.71452
971.652	117.171
971.824	188.87742
971.996	98.19403
972.168	102.41098
972.339	72.8942
972.511	142.47636
972.683	115.06236
972.855	81.32712
973.027	148.80318
973.199	11.76656
973.37	45.48974
973.542	155.13019
973.714	91.86877
973.886	123.49705
974.057	66.56975
974.229	51.8135
974.401	79.21886
974.572	66.56975
974.744	98.19403
974.915	93.97717
975.087	56.02946
975.259	62.35357
975.43	87.65205
975.602	163.5665
975.773	70.78603
975.945	100.3025
976.116	115.06236
976.288	79.21886
976.459	64.46165
976.63	98.19403
976.802	163.5665
976.973	89.7604
977.145	45.48974
977.316	56.02946
977.487	148.80318
977.659	96.08559
977.83	121.38835
978.001	96.08559
978.172	87.65205
978.344	106.62802
978.515	87.65205
978.686	96.08559
978.857	100.3025
979.028	45.48974
979.2	121.38835
979.371	106.62802
979.542	123.49705
979.713	28.62739
979.884	49.70556
980.055	24.41204
980.226	108.73657
980.397	-32.48582
980.568	127.71452
980.739	100.3025
980.91	112.95374
981.081	96.08559
981.252	129.82329
981.423	87.65205
981.594	115.06236
981.765	62.35357
981.936	56.02946
982.106	70.78603
982.277	79.21886
982.448	121.38835
982.619	96.08559
982.79	28.62739
982.96	89.7604
983.131	115.06236
983.302	70.78603
983.472	121.38835
983.643	58.13747
983.814	108.73657
983.984	62.35357
984.155	58.13747
984.326	58.13747
984.496	89.7604
984.667	62.35357
984.837	79.21886
985.008	125.60578
985.178	24.41204
985.349	96.08559
985.519	49.70556
985.69	51.8135
985.86	60.24551
986.031	87.65205
986.201	87.65205
986.371	115.06236
986.542	58.13747
986.712	47.59764
986.882	64.46165
987.053	53.92147
987.223	-11.4146
987.393	70.78603
987.563	41.27401
987.734	75.0024
987.904	53.92147
988.074	45.48974
988.244	106.62802
988.414	51.8135
988.585	75.0024
988.755	47.59764
988.925	3.33671
989.095	7.55158
989.265	72.8942
989.435	56.02946
989.605	47.59764
989.775	30.7351
989.945	53.92147
990.115	49.70556
990.285	-38.8067
990.455	39.16618
990.625	70.78603
990.795	106.62802
990.965	45.48974
991.134	66.56975
991.304	70.78603
991.474	60.24551
991.644	22.3044
991.814	87.65205
991.984	28.62739
992.153	-5.09275
992.323	20.19678
992.493	62.35357
992.662	-9.30734
992.832	91.86877
993.002	-13.52183
993.171	66.56975
993.341	-15.62904
993.511	32.84284
993.68	117.171
993.85	62.35357
994.019	53.92147
994.189	62.35357
994.358	20.19678
994.528	45.48974
994.697	60.24551
994.867	45.48974
995.036	58.13747
995.206	53.92147
995.375	64.46165
995.544	70.78603
995.714	85.54372
995.883	30.7351
996.052	98.19403
996.222	70.78603
996.391	-2.98542
996.56	39.16618
996.73	87.65205
996.899	43.38186
997.068	37.05838
997.237	79.21886
997.406	-30.3788
997.576	64.46165
997.745	11.76656
997.914	79.21886
998.083	32.84284
998.252	41.27401
998.421	104.51949
998.59	72.8942
998.759	3.33671
998.928	58.13747
999.097	62.35357
999.266	62.35357
999.435	98.19403
999.604	81.32712
999.773	39.16618
999.942	72.8942
1000.111	72.8942
1000.28	58.13747
1000.448	87.65205
1000.617	28.62739
1000.786	79.21886
1000.955	39.16618
1001.124	22.3044
1001.292	45.48974
1001.461	37.05838
1001.63	3.33671
1001.798	66.56975
1001.967	81.32712
1002.136	1.22931
1002.304	22.3044
1002.473	39.16618
1002.642	13.87408
1002.81	131.93208
1002.979	32.84284
1003.147	81.32712
1003.316	79.21886
1003.484	87.65205
1003.653	104.51949
1003.821	47.59764
1003.99	45.48974
1004.158	75.0024
1004.327	96.08559
1004.495	70.78603
1004.663	70.78603
1004.832	20.19678
1005	53.92147
1005.168	18.08919
1005.337	77.11062
1005.505	58.13747
1005.673	20.19678
1005.842	22.3044
1006.01	47.59764
1006.178	121.38835
1006.346	39.16618
1006.514	41.27401
1006.683	64.46165
1006.851	-43.0205
1007.019	13.87408
1007.187	20.19678
1007.355	49.70556
1007.523	-5.09275
1007.691	30.7351
1007.859	9.65906
1008.027	53.92147
1008.195	-34.5928
1008.363	81.32712
1008.531	58.13747
1008.699	47.59764
1008.867	87.65205
1009.035	20.19678
1009.203	37.05838
1009.37	81.32712
1009.538	56.02946
1009.706	72.8942
1009.874	18.08919
1010.042	53.92147
1010.209	24.41204
1010.377	121.38835
1010.545	72.8942
1010.713	49.70556
1010.88	-26.16471
1011.048	30.7351
1011.216	34.9506
1011.383	117.171
1011.551	-47.2342
1011.718	-5.09275
1011.886	-5.09275
1012.054	148.80318
1012.221	-5.09275
1012.389	79.21886
1012.556	3.33671
1012.724	47.59764
1012.891	81.32712
1013.058	28.62739
1013.226	-5.09275
1013.393	70.78603
1013.561	32.84284
1013.728	37.05838
1013.895	9.65906
1014.063	51.8135
1014.23	70.78603
1014.397	7.55158
1014.565	13.87408
1014.732	-5.09275
1014.899	62.35357
1015.066	7.55158
1015.233	-2.98542
1015.401	15.98162
1015.568	28.62739
1015.735	20.19678
1015.902	-13.52183
1016.069	7.55158
1016.236	37.05838
1016.403	24.41204
1016.57	-17.73622
1016.737	30.7351
1016.904	3.33671
1017.071	-11.4146
1017.238	-21.95051
1017.405	62.35357
1017.572	66.56975
1017.739	41.27401
1017.906	15.98162
1018.073	22.3044
1018.24	22.3044
1018.407	47.59764
1018.573	-21.95051
1018.74	-57.768
1018.907	30.7351
1019.074	49.70556
1019.241	-43.0205
1019.407	37.05838
1019.574	49.70556
1019.741	-5.09275
1019.907	-11.4146
1020.074	89.7604
1020.241	45.48974
1020.407	22.3044
1020.574	-13.52183
1020.74	-5.09275
1020.907	20.19678
1021.073	-55.66129
1021.24	5.44413
1021.406	79.21886
1021.573	1.22931
1021.739	-13.52183
1021.906	-0.87807
1022.072	20.19678
1022.239	13.87408
1022.405	91.86877
1022.571	-15.62904
1022.738	-13.52183
1022.904	-19.84338
1023.07	-28.27177
1023.237	32.84284
1023.403	-38.8067
1023.569	9.65906
1023.735	-5.09275
1023.902	-5.09275
1024.068	47.59764
1024.234	56.02946
1024.4	-21.95051
1024.566	37.05838
1024.732	53.92147
1024.898	30.7351
1025.065	-5.09275
1025.231	56.02946
1025.397	53.92147
1025.563	41.27401
1025.729	66.56975
1025.895	15.98162
1026.061	53.92147
1026.227	62.35357
1026.392	53.92147
1026.558	51.8135
1026.724	81.32712
1026.89	11.76656
1027.056	53.92147
1027.222	129.82329
1027.388	53.92147
1027.553	39.16618
1027.719	22.3044
1027.885	-19.84338
1028.051	20.19678
1028.216	-49.34101
1028.382	-19.84338
1028.548	62.35357
1028.713	24.41204
1028.879	45.48974
1029.045	96.08559
1029.21	28.62739
1029.376	-30.3788
1029.541	96.08559
1029.707	-13.52183
1029.873	20.19678
1030.038	58.13747
1030.204	-21.95051
1030.369	37.05838
1030.534	13.87408
1030.7	-47.2342
1030.865	62.35357
1031.031	32.84284
1031.196	43.38186
1031.361	41.27401
1031.527	64.46165
1031.692	-11.4146
1031.857	-36.69976
1032.023	9.65906
1032.188	-13.52183
1032.353	26.51971
1032.518	22.3044
1032.684	-5.09275
1032.849	24.41204
1033.014	-26.16471
1033.179	49.70556
1033.344	34.9506
1033.509	96.08559
1033.674	-28.27177
1033.839	24.41204
1034.004	-26.16471
1034.17	-28.27177
1034.335	9.65906
1034.5	20.19678
1034.664	-17.73622
1034.829	37.05838
1034.994	79.21886
1035.159	11.76656
1035.324	64.46165
1035.489	39.16618
1035.654	91.86877
1035.819	-11.4146
1035.984	56.02946
1036.148	37.05838
1036.313	45.48974
1036.478	-24.05762
1036.643	11.76656
1036.807	-19.84338
1036.972	28.62739
1037.137	-45.12736
1037.301	129.82329
1037.466	20.19678
1037.631	-30.3788
1037.795	104.51949
1037.96	3.33671
1038.124	53.92147
1038.289	41.27401
1038.454	-2.98542
1038.618	60.24551
1038.783	-7.20006
1038.947	87.65205
1039.111	24.41204
1039.276	7.55158
1039.44	37.05838
1039.605	-19.84338
1039.769	51.8135
1039.933	22.3044
1040.098	64.46165
1040.262	28.62739
1040.426	24.41204
1040.591	56.02946
1040.755	24.41204
1040.919	5.44413
1041.083	-26.16471
1041.248	28.62739
1041.412	32.84284
1041.576	66.56975
1041.74	-64.08798
1041.904	-5.09275
1042.068	-5.09275
1042.232	-0.87807
1042.397	-72.51427
1042.561	20.19678
1042.725	-55.66129
1042.889	13.87408
1043.053	20.19678
1043.217	39.16618
1043.381	32.84284
1043.544	108.73657
1043.708	81.32712
1043.872	-87.25927
1044.036	75.0024
1044.2	-0.87807
1044.364	-2.98542
1044.528	-13.52183
1044.691	-28.27177
1044.855	75.0024
1045.019	26.51971
1045.183	41.27401
1045.346	43.38186
1045.51	62.35357
1045.674	5.44413
1045.837	-9.30734
1046.001	13.87408
1046.165	106.62802
1046.328	11.76656
1046.492	66.56975
1046.655	39.16618
1046.819	-21.95051
1046.983	-13.52183
1047.146	-55.66129
1047.31	34.9506
1047.473	-19.84338
1047.636	3.33671
1047.8	58.13747
1047.963	-38.8067
1048.127	22.3044
1048.29	-5.09275
