Data from mixed_try1_USB4F045381__26__00130.txt Node

Date: Thu Apr 03 20:01:40 EDT 2025
User: mmckonesweet
Spectrometer: USB4F04538
Trigger mode: 4
Integration Time (sec): 2.700000E-3
Scans to average: 1
Electric dark correction enabled: true
Nonlinearity correction enabled: true
Boxcar width: 0
XAxis mode: Wavelengths
Number of Pixels in Spectrum: 3648
>>>>>Begin Spectral Data<<<<<
345.52	42.50359
345.736	42.50359
345.952	42.50359
346.168	-10.18537
346.384	6.67348
346.6	63.58328
346.816	-14.39983
347.032	-56.53909
347.248	12.99594
347.464	76.23219
347.68	-48.11204
347.896	27.74919
348.112	53.04315
348.328	-20.72135
348.544	-31.25673
348.76	-29.1497
348.975	-33.36373
349.191	19.31862
349.407	-18.61421
349.623	29.85689
349.839	42.50359
350.055	0.35123
350.27	-5.9708
350.486	-24.93558
350.702	-81.81781
350.918	-3.86348
351.133	0.35123
351.349	-94.45578
351.565	-52.32561
351.781	-12.29261
351.996	-8.0781
352.212	-62.85911
352.428	-3.86348
352.644	29.85689
352.859	-41.79148
353.075	4.56604
353.291	-20.72135
353.506	34.07236
353.722	25.64151
353.938	-56.53909
354.153	53.04315
354.369	-16.50703
354.584	-29.1497
354.8	-62.85911
355.016	-24.93558
355.231	42.50359
355.447	-29.1497
355.662	50.93519
355.878	-10.18537
356.093	25.64151
356.309	-39.68458
356.524	0.35123
356.74	-3.86348
356.955	34.07236
357.171	-14.39983
357.386	0.35123
357.602	0.35123
357.817	-58.64579
358.033	25.64151
358.248	-14.39983
358.464	88.88192
358.679	-5.9708
358.895	-12.29261
359.11	-67.07234
359.325	21.42623
359.541	-12.29261
359.756	0.35123
359.972	-5.9708
360.187	34.07236
360.402	6.67348
360.618	-8.0781
360.833	-77.60495
361.048	42.50359
361.264	17.21104
361.479	-73.39198
361.694	27.74919
361.909	-5.9708
362.125	-56.53909
362.34	12.99594
362.555	-71.28546
362.77	-16.50703
362.986	-18.61421
363.201	72.0158
363.416	36.18013
363.631	-1.75614
363.847	34.07236
364.062	40.39575
364.277	-12.29261
364.492	44.61145
364.707	-46.00521
364.922	31.96461
365.138	-62.85911
365.353	-22.82848
365.568	61.47521
365.783	78.34042
365.998	36.18013
366.213	4.56604
366.428	-12.29261
366.643	-12.29261
366.858	-14.39983
367.073	-58.64579
367.288	36.18013
367.503	63.58328
367.718	27.74919
367.933	-3.86348
368.148	-56.53909
368.363	67.79949
368.578	-12.29261
368.793	-46.00521
369.008	-8.0781
369.223	17.21104
369.438	-27.04265
369.653	-8.0781
369.868	-39.68458
370.083	-64.96574
370.298	10.88843
370.513	-46.00521
370.728	36.18013
370.943	-16.50703
371.157	-20.72135
371.372	-8.0781
371.587	-27.04265
371.802	12.99594
372.017	-31.25673
372.232	40.39575
372.446	-5.9708
372.661	34.07236
372.876	59.36716
373.091	29.85689
373.306	42.50359
373.52	19.31862
373.735	0.35123
373.95	-33.36373
374.165	25.64151
374.379	-8.0781
374.594	61.47521
374.809	44.61145
375.023	15.10348
375.238	-24.93558
375.453	-8.0781
375.667	42.50359
375.882	-1.75614
376.097	8.78094
376.311	-12.29261
376.526	34.07236
376.741	-3.86348
376.955	-24.93558
377.17	67.79949
377.384	86.77357
377.599	19.31862
377.813	50.93519
378.028	44.61145
378.242	-54.43236
378.457	63.58328
378.672	0.35123
378.886	8.78094
379.101	-58.64579
379.315	-18.61421
379.53	-37.57766
379.744	-14.39983
379.958	-12.29261
380.173	59.36716
380.387	-35.47071
380.602	-8.0781
380.816	-58.64579
381.031	-29.1497
381.245	38.28793
381.459	-18.61421
381.674	36.18013
381.888	12.99594
382.103	17.21104
382.317	27.74919
382.531	-41.79148
382.746	8.78094
382.96	59.36716
383.174	-5.9708
383.388	61.47521
383.603	-81.81781
383.817	55.15113
384.031	67.79949
384.246	-50.21884
384.46	-12.29261
384.674	15.10348
384.888	40.39575
385.103	-14.39983
385.317	23.53386
385.531	-8.0781
385.745	21.42623
385.959	12.99594
386.174	-41.79148
386.388	29.85689
386.602	8.78094
386.816	19.31862
387.03	21.42623
387.244	-16.50703
387.458	42.50359
387.672	-50.21884
387.887	0.35123
388.101	42.50359
388.315	-24.93558
388.529	-8.0781
388.743	10.88843
388.957	42.50359
389.171	-29.1497
389.385	-16.50703
389.599	10.88843
389.813	21.42623
390.027	27.74919
390.241	44.61145
390.455	8.78094
390.669	10.88843
390.883	42.50359
391.097	0.35123
391.311	-31.25673
391.525	-22.82848
391.738	15.10348
391.952	101.53244
392.166	-1.75614
392.38	42.50359
392.594	-58.64579
392.808	-37.57766
393.022	-8.0781
393.236	-3.86348
393.449	25.64151
393.663	12.99594
393.877	-64.96574
394.091	25.64151
394.305	17.21104
394.518	25.64151
394.732	-3.86348
394.946	2.45862
395.16	-39.68458
395.373	36.18013
395.587	-3.86348
395.801	-39.68458
396.015	12.99594
396.228	-3.86348
396.442	36.18013
396.656	72.0158
396.869	-62.85911
397.083	0.35123
397.297	-39.68458
397.51	50.93519
397.724	38.28793
397.938	-3.86348
398.151	40.39575
398.365	-10.18537
398.578	-43.89836
398.792	2.45862
399.005	4.56604
399.219	59.36716
399.433	38.28793
399.646	25.64151
399.86	21.42623
400.073	25.64151
400.287	-3.86348
400.5	-8.0781
400.714	-37.57766
400.927	2.45862
401.141	42.50359
401.354	17.21104
401.567	59.36716
401.781	-22.82848
401.994	57.25913
402.208	29.85689
402.421	-8.0781
402.635	50.93519
402.848	78.34042
403.061	-12.29261
403.275	65.69137
403.488	-29.1497
403.701	34.07236
403.915	4.56604
404.128	29.85689
404.341	31.96461
404.555	112.07516
404.768	-33.36373
404.981	-5.9708
405.195	17.21104
405.408	25.64151
405.621	25.64151
405.834	-46.00521
406.048	19.31862
406.261	-5.9708
406.474	8.78094
406.687	17.21104
406.9	53.04315
407.114	-12.29261
407.327	25.64151
407.54	93.09867
407.753	55.15113
407.966	42.50359
408.179	-20.72135
408.392	-5.9708
408.605	-48.11204
408.819	17.21104
409.032	27.74919
409.245	69.90763
409.458	25.64151
409.671	15.10348
409.884	34.07236
410.097	8.78094
410.31	-50.21884
410.523	67.79949
410.736	10.88843
410.949	-20.72135
411.162	27.74919
411.375	44.61145
411.588	53.04315
411.801	-3.86348
412.014	-37.57766
412.227	-5.9708
412.44	2.45862
412.653	-16.50703
412.865	6.67348
413.078	17.21104
413.291	50.93519
413.504	-24.93558
413.717	-69.17891
413.93	-24.93558
414.143	2.45862
414.356	55.15113
414.568	0.35123
414.781	63.58328
414.994	0.35123
415.207	-22.82848
415.42	-10.18537
415.632	17.21104
415.845	50.93519
416.058	-12.29261
416.271	29.85689
416.483	38.28793
416.696	0.35123
416.909	-8.0781
417.121	19.31862
417.334	-14.39983
417.547	12.99594
417.759	-46.00521
417.972	50.93519
418.185	2.45862
418.397	55.15113
418.61	-24.93558
418.823	-29.1497
419.035	36.18013
419.248	-16.50703
419.46	17.21104
419.673	4.56604
419.885	-31.25673
420.098	15.10348
420.311	-41.79148
420.523	25.64151
420.736	-8.0781
420.948	-48.11204
421.161	29.85689
421.373	17.21104
421.586	42.50359
421.798	101.53244
422.01	27.74919
422.223	97.31551
422.435	36.18013
422.648	15.10348
422.86	-73.39198
423.073	46.71934
423.285	-24.93558
423.497	-77.60495
423.71	95.20708
423.922	46.71934
424.134	-8.0781
424.347	-8.0781
424.559	46.71934
424.771	80.44868
424.984	-18.61421
425.196	50.93519
425.408	12.99594
425.621	29.85689
425.833	8.78094
426.045	72.0158
426.257	-12.29261
426.47	10.88843
426.682	46.71934
426.894	34.07236
427.106	27.74919
427.318	19.31862
427.531	0.35123
427.743	17.21104
427.955	0.35123
428.167	19.31862
428.379	-48.11204
428.591	2.45862
428.804	8.78094
429.016	4.56604
429.228	29.85689
429.44	0.35123
429.652	10.88843
429.864	25.64151
430.076	12.99594
430.288	-24.93558
430.5	6.67348
430.712	-33.36373
430.924	46.71934
431.136	-46.00521
431.348	6.67348
431.56	-29.1497
431.772	10.88843
431.984	50.93519
432.196	76.23219
432.408	36.18013
432.62	10.88843
432.832	34.07236
433.044	21.42623
433.256	48.82725
433.468	105.74946
433.679	44.61145
433.891	50.93519
434.103	6.67348
434.315	-8.0781
434.527	10.88843
434.739	0.35123
434.95	63.58328
435.162	61.47521
435.374	65.69137
435.586	-39.68458
435.798	-3.86348
436.009	46.71934
436.221	21.42623
436.433	112.07516
436.645	27.74919
436.856	-3.86348
437.068	2.45862
437.28	-24.93558
437.491	63.58328
437.703	-24.93558
437.915	109.96657
438.126	21.42623
438.338	84.66525
438.55	48.82725
438.761	-31.25673
438.973	-16.50703
439.184	2.45862
439.396	93.09867
439.608	53.04315
439.819	-3.86348
440.031	25.64151
440.242	67.79949
440.454	59.36716
440.665	72.0158
440.877	50.93519
441.088	27.74919
441.3	0.35123
441.511	-1.75614
441.723	44.61145
441.934	63.58328
442.146	27.74919
442.357	12.99594
442.569	122.61842
442.78	-14.39983
442.991	6.67348
443.203	61.47521
443.414	2.45862
443.626	2.45862
443.837	-27.04265
444.048	21.42623
444.26	36.18013
444.471	-8.0781
444.682	31.96461
444.894	23.53386
445.105	-58.64579
445.316	-41.79148
445.528	15.10348
445.739	2.45862
445.95	-37.57766
446.161	80.44868
446.373	-14.39983
446.584	10.88843
446.795	19.31862
447.006	50.93519
447.217	-16.50703
447.429	-20.72135
447.64	34.07236
447.851	25.64151
448.062	34.07236
448.273	38.28793
448.484	105.74946
448.695	15.10348
448.907	84.66525
449.118	10.88843
449.329	-3.86348
449.54	17.21104
449.751	36.18013
449.962	19.31862
450.173	12.99594
450.384	80.44868
450.595	25.64151
450.806	59.36716
451.017	6.67348
451.228	2.45862
451.439	17.21104
451.65	53.04315
451.861	57.25913
452.072	4.56604
452.283	55.15113
452.494	-24.93558
452.705	-18.61421
452.915	17.21104
453.126	10.88843
453.337	36.18013
453.548	12.99594
453.759	53.04315
453.97	78.34042
454.181	48.82725
454.391	59.36716
454.602	-5.9708
454.813	-41.79148
455.024	25.64151
455.235	2.45862
455.445	10.88843
455.656	-20.72135
455.867	21.42623
456.078	19.31862
456.288	-35.47071
456.499	93.09867
456.71	63.58328
456.921	69.90763
457.131	17.21104
457.342	67.79949
457.553	25.64151
457.763	84.66525
457.974	4.56604
458.184	12.99594
458.395	17.21104
458.606	25.64151
458.816	93.09867
459.027	42.50359
459.237	-46.00521
459.448	67.79949
459.659	65.69137
459.869	63.58328
460.08	76.23219
460.29	74.12398
460.501	103.64094
460.711	27.74919
460.922	101.53244
461.132	42.50359
461.343	-31.25673
461.553	55.15113
461.764	59.36716
461.974	21.42623
462.184	59.36716
462.395	50.93519
462.605	34.07236
462.816	67.79949
463.026	-20.72135
463.236	19.31862
463.447	72.0158
463.657	42.50359
463.867	112.07516
464.078	50.93519
464.288	53.04315
464.498	34.07236
464.709	19.31862
464.919	17.21104
465.129	76.23219
465.339	34.07236
465.55	69.90763
465.76	53.04315
465.97	101.53244
466.18	65.69137
466.391	31.96461
466.601	53.04315
466.811	63.58328
467.021	44.61145
467.231	78.34042
467.441	118.40105
467.651	93.09867
467.862	169.01513
468.072	67.79949
468.282	67.79949
468.492	116.2924
468.702	109.96657
468.912	63.58328
469.122	38.28793
469.332	53.04315
469.542	145.81549
469.752	63.58328
469.962	105.74946
470.172	38.28793
470.382	109.96657
470.592	95.20708
470.802	164.79683
471.012	135.27105
471.222	152.14241
471.432	143.70656
471.642	147.92445
471.852	219.64116
472.062	160.57861
472.272	97.31551
472.482	103.64094
472.691	152.14241
472.901	143.70656
473.111	135.27105
473.321	185.88917
473.531	179.56125
473.741	160.57861
473.95	249.1783
474.16	76.23219
474.37	215.42188
474.58	160.57861
474.79	270.27857
474.999	240.73873
475.209	249.1783
475.419	213.31227
475.628	196.43612
475.838	219.64116
476.048	232.29947
476.258	185.88917
476.467	354.69804
476.677	206.98356
476.886	297.71172
477.096	253.3982
477.306	350.47639
477.515	329.36919
477.725	342.0333
477.935	297.71172
478.144	304.04289
478.354	308.26376
478.563	422.25357
478.773	380.02937
478.982	356.80889
479.192	348.36559
479.401	477.15454
479.611	413.80821
479.82	443.36809
480.03	411.69691
480.239	517.28093
480.449	506.72084
480.658	468.70756
480.868	487.7136
481.077	527.84137
481.287	430.69919
481.496	597.54891
481.705	540.51437
481.915	633.46441
482.124	548.96331
482.333	654.59284
482.543	650.36706
482.752	593.3238
482.961	675.72246
483.171	696.85324
483.38	650.36706
483.589	779.27365
483.799	753.91183
484.008	777.16011
484.217	830.00146
484.426	772.93306
484.636	853.25348
484.845	855.36735
485.054	954.72848
485.263	916.67325
485.472	827.8877
485.682	1024.5022
485.891	920.90149
486.1	1013.92998
486.309	1056.21976
486.518	1081.5947
486.727	1051.99068
486.936	1206.36463
487.146	1109.08506
487.355	1183.10137
487.564	1185.21619
487.773	1269.81181
487.982	1212.70922
488.191	1286.73147
488.4	1375.56166
488.609	1392.48196
488.818	1208.47949
489.027	1411.51736
489.236	1574.37549
489.445	1439.01301
489.654	1386.13684
489.863	1580.7205
490.072	1464.39363
490.281	1546.88027
490.49	1631.48003
490.698	1538.42016
490.907	1529.96003
491.116	1582.8355
491.325	1720.30586
491.534	1684.35315
491.743	1728.76519
491.952	1722.4207
492.16	1792.20828
492.369	1874.67859
492.578	1809.12583
492.787	1980.39823
492.996	1724.53553
493.204	2033.25235
493.413	1910.62485
493.622	2014.22534
493.831	1961.36976
494.039	2198.12829
494.248	1929.65458
494.457	2039.59457
494.665	2208.6956
494.874	2077.64654
495.083	2193.90131
495.291	2166.42508
495.5	2189.67429
495.709	2451.67936
495.917	2138.94748
496.126	2274.20805
496.335	2253.07594
496.543	2409.43082
496.752	2310.1305
496.96	2428.44319
497.169	2375.62896
497.377	2455.90398
497.586	2470.6898
497.794	2593.17947
498.003	2348.16302
498.211	2715.62852
498.42	2462.24082
498.628	2871.79236
498.837	2671.29842
499.045	2825.37314
499.254	2531.9395
499.462	2943.51752
499.671	2747.28935
499.879	3120.64642
500.087	2772.61586
500.296	2859.13325
500.504	2907.65703
500.713	2903.43788
500.921	2941.40819
501.129	2966.71909
501.338	2907.65703
501.546	3154.37273
501.754	2949.8454
501.962	3059.50709
502.171	3011.00796
502.379	3169.12669
502.587	2956.17314
502.795	3084.80773
503.004	3055.2901
503.212	3287.12926
503.42	3135.40218
503.628	3388.23195
503.837	3196.52478
504.045	3198.63221
504.253	3333.47294
504.461	3346.11068
504.669	3280.80902
504.877	3346.11068
505.085	3221.81285
505.294	3514.55316
505.502	3320.83458
505.71	3710.22018
505.918	3565.06336
506.126	3687.08529
506.334	3485.08401
506.542	3800.63409
506.75	3655.53399
506.958	3750.17494
507.166	3596.62682
507.374	3718.63229
507.582	3617.66679
507.79	3815.34921
507.998	3800.63409
508.206	3989.75404
508.414	3842.67474
508.622	3779.61081
508.83	3636.60115
509.037	3863.69209
509.245	3653.43041
509.453	3966.64814
509.661	3939.33799
509.869	4268.92671
510.077	4033.85844
510.285	4170.31414
510.492	4019.15798
510.7	4187.10257
510.908	3935.13612
511.116	4027.55836
511.324	4048.55789
511.531	4258.43825
511.739	4115.74244
511.947	4245.85139
512.155	4119.94076
512.362	4365.39536
512.57	4273.12195
512.778	4432.47693
512.985	4210.18445
513.193	4250.04709
513.401	4392.64994
513.608	4424.09296
513.816	4294.09684
514.024	4501.63132
514.231	4493.25025
514.439	4505.82173
514.646	4602.17657
514.854	4761.26783
515.061	4535.15208
515.269	4577.04505
515.477	4533.0572
515.684	4662.89777
515.892	4501.63132
516.099	4631.4926
516.307	4564.4781
516.514	4706.85651
516.722	4623.11704
516.929	4859.58784
517.136	4641.96155
517.344	5001.74867
517.551	4706.85651
517.759	4844.94763
517.966	4966.21842
518.173	4826.12285
518.381	4999.65884
518.588	4736.15681
518.796	4842.85607
519.003	5104.12202
519.21	4951.58639
519.418	5185.56305
519.625	4932.77212
519.832	5091.58949
520.039	4989.20934
520.247	5250.27295
520.454	5168.86008
520.661	5283.66283
520.868	5133.36133
521.076	5552.64937
521.283	5250.27295
521.49	5360.85397
521.697	5350.42461
521.904	5590.15125
522.112	5333.73641
522.319	5631.81106
522.526	5321.21928
522.733	5567.23434
522.94	5310.78769
523.147	5510.97166
523.354	5508.88752
523.561	5558.90021
523.768	5633.8938
523.975	5546.39831
524.183	5517.22391
524.39	5919.00644
524.597	5640.14188
524.804	5767.14024
525.011	5717.18415
525.218	5908.60866
525.425	5775.46493
525.632	5698.44711
525.838	5760.89647
526.045	5854.53068
526.252	5798.35589
526.459	6052.04603
526.666	5975.14429
526.873	5968.9076
527.08	6079.0579
527.287	6128.91554
527.494	5975.14429
527.701	6149.68556
527.907	5995.93172
528.114	6058.27989
528.321	5946.03792
528.528	6334.4354
528.735	6145.53174
528.941	6199.52402
529.148	6226.51421
529.355	6340.6597
529.562	6241.04575
529.768	6425.704
529.975	6029.18672
530.182	6680.60281
530.388	6241.04575
530.595	6353.10765
530.802	6245.19741
531.008	6508.63635
531.215	6425.704
531.422	6688.88634
531.628	6456.80799
531.835	6494.12587
532.042	6523.14569
532.248	6751.00111
532.455	6581.17172
532.661	6610.17794
532.868	6510.70918
533.074	6887.58121
533.281	6666.10574
533.487	6970.30889
533.694	6684.74462
533.9	6912.40332
534.107	6682.67372
534.313	7028.19678
534.52	6953.76625
534.726	7034.39801
534.933	6970.30889
535.139	7086.06706
535.345	7191.42867
535.552	7236.86095
535.758	7265.76684
535.965	7129.45827
536.171	7073.66777
536.377	7476.23726
536.584	7127.39225
536.79	7112.92945
536.996	7243.05543
537.203	7207.95074
537.409	7201.75513
537.615	7377.22062
537.821	7321.50172
538.028	7426.73519
538.234	7371.03042
538.44	7523.66507
538.646	7230.66627
538.853	7342.14021
539.059	7358.64942
539.265	7915.03036
539.471	7601.99918
539.677	7754.45644
539.883	7453.55036
540.09	7665.88051
540.296	7540.15904
540.502	7678.24228
540.708	7441.17458
540.914	7974.69887
541.12	7676.18204
541.326	8198.81753
541.532	7682.36271
541.738	8116.59991
541.944	7698.84355
542.15	7921.20377
542.356	8093.98445
542.562	8235.80508
542.768	7931.49236
542.974	8330.29981
543.18	7945.89554
543.386	8348.78306
543.592	8141.26855
543.798	8471.96473
544.004	8363.15784
544.21	8276.89485
544.415	8204.98257
544.621	8506.85364
544.827	8215.25723
545.033	8531.47781
545.239	8301.54493
545.445	8726.32369
545.651	8278.94913
545.856	8375.47832
546.062	8480.17438
546.268	8439.12306
546.474	8369.31817
546.679	8215.25723
546.885	8299.49087
547.091	8886.17827
547.297	8365.2113
547.502	8525.32202
547.708	8383.69159
547.914	8861.59241
548.119	8978.35235
548.325	8685.31745
548.531	8486.33142
548.736	8638.15113
548.942	8566.35737
549.147	8640.20205
549.353	8781.67047
549.559	8734.52406
549.764	8718.12303
549.97	8834.95482
550.175	9015.21196
550.381	9029.54473
550.586	8984.49601
550.792	9103.2426
550.997	8988.5917
551.203	9002.92606
551.408	9244.43469
551.614	9230.11453
551.819	9052.06591
552.025	9328.29342
552.23	9133.94344
552.435	8968.11256
552.641	9168.73306
552.846	9213.74763
553.052	9215.79355
553.257	9471.40289
553.462	9176.91814
553.668	9565.40322
553.873	9444.83144
554.078	9563.36009
554.283	9236.25184
554.489	9473.44674
554.694	9489.79692
554.899	9473.44674
555.105	9395.76928
555.31	9538.84132
555.515	9506.14607
555.72	9710.42536
555.925	9540.88464
556.131	9685.92006
556.336	9804.342
556.541	9763.51262
556.746	9544.97123
556.951	9877.8198
557.156	9518.40727
557.361	9941.07699
557.567	9996.16055
557.772	10073.66781
557.977	9732.88661
558.182	9947.1979
558.387	9775.76207
558.592	10073.66781
558.797	9969.64015
559.002	10051.23362
559.207	9951.27844
559.412	9985.96068
559.617	9839.04225
559.822	9792.09382
560.027	9951.27844
560.232	9855.37029
560.437	9922.71345
560.642	9918.6325
560.847	9983.92067
561.051	10102.21796
561.256	10057.3522
561.461	10138.92125
561.666	10108.33549
561.871	10448.68409
562.076	10255.11875
562.281	10387.57105
562.485	10306.06861
562.69	10385.53375
562.895	9963.51971
563.1	10503.67589
563.305	10102.21796
563.509	10426.27733
563.714	10181.73605
563.919	10418.12903
564.123	10273.46167
564.328	10605.48815
564.533	10312.18203
564.737	10509.78551
564.942	10526.07729
565.147	10800.88155
565.351	10764.25372
565.556	10524.04086
565.761	10701.16341
565.965	10790.70754
566.17	10519.96797
566.374	10487.383
566.579	10636.02575
566.784	10491.4563
566.988	11110.0352
567.193	10841.57468
567.397	10672.66722
567.602	10904.63986
567.806	10758.14871
568.011	10902.60567
568.215	10754.07864
568.42	10977.86308
568.624	10815.12468
568.828	10910.74235
569.033	10770.35862
569.237	11073.43831
569.442	10872.09147
569.646	10957.52476
569.85	10794.77718
570.055	11335.64047
570.259	11327.51275
570.463	11343.76803
570.668	11209.64251
570.872	11307.19274
571.076	10935.15132
571.281	11351.89543
571.485	10839.54013
571.689	11199.47966
571.893	11087.67085
572.098	11274.67862
572.302	10947.35518
572.506	11158.82563
572.71	11274.67862
572.914	11164.924
573.119	11116.13434
573.323	11485.9748
573.527	11164.924
573.731	11355.95907
573.935	11288.90387
574.139	11565.18386
574.343	11577.36861
574.547	11670.77401
574.751	11502.22399
574.955	11571.27628
575.159	11552.99878
575.364	11652.50055
575.568	11390.49841
575.772	11392.53004
575.976	11414.8774
576.18	11496.13062
576.383	11691.077
576.587	11684.9862
576.791	11406.75123
576.995	11743.86063
577.199	11687.01648
577.403	11778.36981
577.607	11867.67617
577.811	11670.77401
578.015	11782.42954
578.219	11896.08841
578.422	11855.49899
578.626	12157.81294
578.83	11798.66815
579.034	12107.10125
579.238	12025.95259
579.442	12007.69243
579.645	11855.49899
579.849	12214.60451
580.053	12220.68898
580.257	12149.69939
580.46	12172.01138
580.664	11967.11197
580.868	12273.41832
581.071	12001.60556
581.275	12042.18332
581.479	12334.25389
581.682	11857.52854
581.886	12184.18117
582.09	12210.54816
582.293	12407.24836
582.497	12208.51997
582.7	12652.52864
582.904	12545.10326
583.107	12419.41325
583.311	12060.44228
583.515	12401.16582
583.718	12407.24836
583.922	12441.71492
584.125	12220.68898
584.329	12508.61517
584.532	12632.26102
584.735	12790.33284
584.939	12439.68753
585.142	12735.61967
585.346	12512.66951
585.549	12658.60881
585.753	12437.66013
585.956	12541.04913
586.159	12464.0158
586.363	12772.09558
586.566	12466.04311
586.769	12772.09558
586.973	12814.64848
587.176	12763.98998
587.379	12796.41183
587.582	13027.37737
587.786	13007.11993
587.989	13213.72327
588.192	12660.63552
588.395	12836.93712
588.599	12924.05913
588.802	12992.93942
589.005	12999.01681
589.208	13282.58048
589.411	12739.67264
589.615	12757.91072
589.818	12788.3065
590.021	13272.45473
590.224	12800.46446
590.427	13292.70612
590.63	13300.80655
590.833	13333.20762
591.036	12926.08511
591.239	13319.03228
591.442	13088.14674
591.645	13134.73366
591.848	13278.53019
592.051	13691.57866
592.254	13221.82438
592.457	13545.81437
592.66	13278.53019
592.863	13665.2614
593.066	13606.55164
593.269	13725.99273
593.472	13592.37989
593.675	13813.03609
593.878	13321.05734
594.081	13721.94406
594.284	13815.06029
594.486	14102.46928
594.689	13879.83314
594.892	13817.08449
595.095	13545.81437
595.298	13701.70054
595.5	13709.79799
595.703	14043.77717
595.906	13626.7967
596.109	13800.89084
596.311	14064.01605
596.514	13952.69923
596.717	13829.2296
596.92	14134.85033
597.122	13942.57914
597.325	13950.67522
597.528	13600.47805
597.73	14116.63606
597.933	13891.97773
598.136	14122.7075
598.338	14246.15609
598.541	14234.01394
598.743	14246.15609
598.946	14254.25082
599.148	14088.3024
599.351	14189.4921
599.554	13894.00182
599.756	14003.2987
599.959	14219.848
600.161	14408.04535
600.363	14234.01394
600.566	14420.18662
600.768	14525.40878
600.971	14618.48702
601.173	14507.19752
601.376	14596.22941
601.578	14414.11599
601.78	14484.93916
601.983	14088.3024
602.185	14790.47369
602.388	14468.75116
602.59	14383.76264
602.792	14355.43253
602.995	14476.84517
603.197	14278.53484
603.399	14671.09542
603.601	14355.43253
603.804	14298.77132
604.006	14642.76791
604.208	14561.831
604.41	14229.96654
604.613	14747.98346
604.815	14406.0218
605.017	14671.09542
605.219	14274.48752
605.421	14549.69031
605.623	14531.47918
605.826	14723.70316
606.028	14612.41678
606.23	14752.03016
606.432	14495.05662
606.634	14756.07686
606.836	14537.54957
607.038	14871.40662
607.24	14658.95508
607.442	14578.01853
607.644	14403.99825
607.846	14881.52317
608.048	14766.1936
608.25	14839.03357
608.452	14788.45036
608.654	15047.43297
608.856	14580.04196
609.058	15085.87519
609.26	14855.22012
609.462	14826.89364
609.664	14810.70702
609.866	14974.59483
610.067	14950.31536
610.269	15324.62146
610.471	14928.05912
610.673	15330.69131
610.875	15063.61918
611.077	14907.82613
611.278	14705.49286
611.48	14877.47655
611.682	15085.87519
611.884	15308.43521
612.085	14869.38331
612.287	15272.01621
612.489	15225.48091
612.69	15079.80537
612.892	15011.01395
613.094	15205.2482
613.295	15120.27082
613.497	15104.08465
613.699	15035.29331
613.9	15484.46197
614.102	15251.78346
614.304	15274.03949
614.505	15209.29474
614.707	15257.85329
614.908	15336.76116
615.11	15413.64621
615.311	15225.48091
615.513	14798.56703
615.714	15093.96829
615.916	15490.53192
616.117	15201.20165
616.319	15482.43865
616.52	15405.55302
616.722	15063.61918
616.923	15348.90087
617.124	15201.20165
617.326	14938.1756
617.527	15292.24898
617.729	15354.97073
617.93	15209.29474
618.131	15314.50505
618.333	15354.97073
618.534	15328.66803
618.735	15470.29877
618.937	15213.34128
619.138	15403.52973
619.339	15033.27003
619.54	15269.99294
619.742	15269.99294
619.943	15363.06388
620.144	15346.87758
620.345	15692.86726
620.546	15387.34337
620.748	15425.78601
620.949	15286.17915
621.15	15587.65194
621.351	15367.11046
621.552	15575.51185
621.753	15213.34128
621.954	15306.41193
622.155	15381.27349
622.356	15686.79708
622.558	15547.18508
622.759	15589.67529
622.96	15421.73941
623.161	15547.18508
623.362	15559.32511
623.563	15804.15542
623.764	15743.45241
623.965	15759.63978
624.166	15399.48313
624.366	15727.26509
624.567	15563.37179
624.768	15743.45241
624.969	15591.69864
625.17	15595.74535
625.371	15842.60117
625.572	15680.72691
625.773	15743.45241
625.973	15705.00764
626.174	15476.36871
626.375	15856.7655
626.576	15682.7503
626.777	15800.10852
626.977	15707.03104
627.178	15755.59293
627.379	15520.88176
627.58	15690.84386
627.78	15899.25884
627.981	15654.42293
628.182	15666.56321
628.382	15785.94442
628.583	15741.42899
628.784	15553.25509
628.984	15387.34337
629.185	15937.70566
629.386	15448.04236
629.586	15939.72919
629.787	15792.01474
629.987	15745.47583
630.188	16002.4593
630.388	15937.70566
630.589	15632.16584
630.79	15658.46969
630.99	15925.56451
631.191	15917.47043
631.391	16004.48287
631.591	15862.83594
631.792	15609.90884
631.992	16366.72815
632.193	16051.02547
632.393	15917.47043
632.594	16125.89999
632.794	15767.7335
632.994	15964.01166
633.195	16051.02547
633.395	16063.16714
633.595	16099.59249
633.796	16119.82901
633.996	16131.97099
634.196	16049.00186
634.397	16239.22779
634.597	16008.53002
634.797	16283.7509
634.997	15838.55423
635.198	15990.31789
635.398	15818.3196
635.598	16312.08424
635.798	15986.27076
635.998	15986.27076
636.199	15868.9064
636.399	16053.04907
636.599	16227.08527
636.799	16326.25105
636.999	15889.14133
637.199	16067.21438
637.399	16032.81306
637.599	16042.93105
637.799	15945.79979
637.999	16342.44179
638.199	16176.49211
638.399	16231.13277
638.599	16275.65572
638.799	16437.56493
638.999	16374.82366
639.199	16346.4895
639.399	16512.45223
639.599	16330.29872
639.799	16172.4447
639.999	16350.53721
640.199	16142.08936
640.399	16326.25105
640.599	15798.08507
640.799	16528.64445
640.998	16528.64445
641.198	16690.57443
641.398	16463.87636
641.598	16700.69553
641.798	16692.59864
641.997	16700.69553
642.197	16627.82486
642.397	16609.60765
642.597	16461.8524
642.796	16536.74062
642.996	16520.54832
643.196	16710.8167
643.395	16678.42918
643.595	16884.91022
643.795	16595.43884
643.994	16812.03164
644.194	16644.01808
644.394	16552.93305
644.593	16660.21146
644.793	16718.91367
644.992	16735.10774
645.192	16844.42172
645.392	16696.64708
645.591	16688.55021
645.791	16824.17785
645.99	16876.81244
646.19	16476.02022
646.389	16917.30176
646.589	16690.57443
646.788	16959.81667
646.987	16324.22721
647.187	17010.43117
647.386	16670.33239
647.586	16951.7185
647.785	17038.77603
647.984	17297.9545
648.184	16973.98856
648.383	16884.91022
648.582	16949.69396
648.782	17061.04736
648.981	16690.57443
649.18	16727.01068
649.38	17172.40907
649.579	17338.45545
649.778	17034.72673
649.977	17087.36845
650.177	17150.13605
650.376	17255.42978
650.575	16868.7147
650.774	17243.2801
650.973	17289.85445
651.173	16747.25338
651.372	16828.2266
651.571	16992.20976
651.77	16733.08347
651.969	17050.92398
652.168	16573.17378
652.367	16937.54681
652.566	17204.80682
652.765	17441.73838
652.964	17065.09673
653.163	17285.80444
653.362	17480.2184
653.561	17142.03685
653.76	17071.1708
653.959	17168.3594
654.158	17366.80683
654.357	17063.07204
654.556	16866.69027
654.755	17123.81382
654.954	17277.70447
655.153	17320.22987
655.352	17451.86459
655.551	17123.81382
655.749	17524.77563
655.948	17208.85659
656.147	17273.6545
656.346	17492.37022
656.545	17370.85708
656.743	17158.23529
656.942	17399.20915
657.141	17383.00789
657.34	17613.89474
657.538	17822.53944
657.737	17332.38023
657.936	17624.02231
658.135	17115.71477
658.333	17040.80068
658.532	17364.78171
658.731	17249.35493
658.929	17152.16085
659.128	17496.42085
659.326	17484.26899
659.525	17599.71628
659.724	17263.52963
659.922	17358.70637
660.121	16856.56816
660.319	17241.25517
660.518	17022.5789
660.716	17348.58087
660.915	17216.95616
661.113	17648.32881
661.312	17498.44617
661.51	17668.58459
661.709	17245.30504
661.907	17498.44617
662.105	17431.61225
662.304	17295.92948
662.502	17435.66269
662.701	17682.76383
662.899	17638.20105
663.097	17628.07336
663.296	17599.71628
663.494	17555.15644
663.692	17510.59816
663.891	17496.42085
664.089	16988.16058
664.287	17871.16084
664.485	17524.77563
664.684	17986.6447
664.882	17464.01615
665.08	17245.30504
665.278	17601.74177
665.476	17362.7566
665.675	17216.95616
665.873	17198.73218
666.071	17376.93247
666.269	17607.81824
666.467	17334.4053
666.665	17666.559
666.863	17431.61225
667.061	17510.59816
667.259	17364.78171
667.457	17328.3301
667.655	17457.94036
667.853	17431.61225
668.051	17253.40483
668.249	17449.83934
668.447	17423.5114
668.645	17638.20105
668.843	17233.15545
669.041	17383.00789
669.239	17431.61225
669.437	17674.66139
669.635	17158.23529
669.833	17551.10563
670.031	17308.07962
670.229	17380.98275
670.426	17721.25117
670.624	17725.30254
670.822	17374.90734
671.02	17784.0489
671.218	17443.76362
671.415	17733.40532
671.613	17678.7126
671.811	17545.02943
672.009	17777.97156
672.206	17605.79275
672.404	17297.9545
672.602	17194.68244
672.799	17383.00789
672.997	17593.63985
673.195	17251.37988
673.392	17597.6908
673.59	17360.73148
673.788	17263.52963
673.985	17261.50466
674.183	17518.69955
674.38	17437.68792
674.578	17445.78886
674.775	17630.09889
674.973	17486.29429
675.17	17277.70447
675.368	17520.72491
675.565	17595.66532
675.763	17516.6742
675.96	17160.26011
676.158	17648.32881
676.355	16905.15486
676.553	17686.81507
676.75	17261.50466
676.947	17536.92787
677.145	17160.26011
677.342	17178.48359
677.539	16976.01313
677.737	17018.52965
677.934	16998.28354
678.131	17269.60454
678.329	17383.00789
678.526	17605.79275
678.723	17461.99088
678.92	17690.86633
679.118	17567.30897
679.315	17401.23432
679.512	17231.13053
679.709	17451.86459
679.906	17059.02268
680.104	17063.07204
680.301	17089.39317
680.498	17356.68127
680.695	17135.96248
680.892	17283.77945
681.089	17334.4053
681.286	17289.85445
681.483	17137.98727
681.68	17346.55578
681.877	17085.34374
682.075	17496.42085
682.272	17040.80068
682.469	17182.53329
682.665	17206.8317
682.862	17202.78194
683.059	17067.12142
683.256	16982.08684
683.453	17016.50502
683.65	16785.71517
683.847	17127.86336
684.044	17174.43391
684.241	17032.70208
684.438	17125.83859
684.635	16967.91487
684.831	17263.52963
685.028	17389.08334
685.225	17099.51681
685.422	16971.964
685.619	17281.75445
685.815	17113.69002
686.012	16973.98856
686.209	16907.17933
686.405	17034.72673
686.602	16884.91022
686.799	16729.03494
686.996	16864.66584
687.192	16751.30195
687.389	16670.33239
687.586	16704.74399
687.782	16994.23435
687.979	17022.5789
688.175	16909.20382
688.372	16959.81667
688.568	17016.50502
688.765	17063.07204
688.962	17111.66527
689.158	17277.70447
689.355	17075.2202
689.551	17002.33274
689.748	16613.6559
689.944	16901.10591
690.14	16451.73258
690.337	16575.19786
690.533	16858.59258
690.73	16716.88943
690.926	16876.81244
691.123	16611.63178
691.319	16494.23614
691.515	16686.526
691.712	16803.93422
691.908	16840.37293
692.104	16597.46295
692.301	16925.39975
692.497	16601.51117
692.693	16704.74399
692.889	16714.86518
693.086	16793.8125
693.282	16473.99624
693.478	17038.77603
693.674	16763.44771
693.87	16731.05921
694.067	16787.7395
694.263	17109.64052
694.459	16765.47202
694.655	16741.18055
694.851	16795.83684
695.047	16961.84121
695.243	16957.79212
695.439	16856.56816
695.635	16783.69085
695.831	16814.056
696.027	16662.23564
696.224	16603.53529
696.42	16662.23564
696.615	16421.37345
696.811	16674.38078
697.007	17004.35734
697.203	16692.59864
697.399	16844.42172
697.595	16674.38078
697.791	16743.20482
697.987	16565.07746
698.183	16854.54375
698.379	16386.96698
698.575	16583.29423
698.77	16504.35617
698.966	16415.30168
699.162	16520.54832
699.358	16338.3941
699.554	16115.78169
699.749	16694.62286
699.945	16235.18028
700.141	16403.15819
700.337	16202.80042
700.532	16743.20482
700.728	16156.25514
700.924	16417.3256
701.119	16053.04907
701.315	16480.06819
701.511	16133.99466
701.706	16524.59639
701.902	16231.13277
702.097	16144.11304
702.293	16103.63978
702.489	16182.56324
702.684	16210.89534
702.88	16310.06042
703.075	15945.79979
703.271	16010.5536
703.466	15964.01166
703.662	16057.0963
703.857	16111.73438
704.053	16380.89531
704.248	16293.86991
704.443	16334.34641
704.639	16391.01477
704.834	16488.16415
705.03	16006.50645
705.225	16091.49792
705.42	16174.46841
705.616	15775.82723
705.811	16006.50645
706.006	16237.20403
706.202	15917.47043
706.397	16212.91908
706.592	16018.64793
706.787	16384.94309
706.983	16115.78169
707.178	16480.06819
707.373	16101.61613
707.568	16117.80535
707.763	16326.25105
707.959	16552.93305
708.154	16131.97099
708.349	16184.58695
708.544	16310.06042
708.739	16318.15572
708.934	16057.0963
709.129	16127.92366
709.324	16208.87161
709.519	16409.22993
709.714	15953.89394
709.909	16277.67951
710.104	16225.06152
710.299	16097.56884
710.494	16014.60076
710.689	16150.18408
710.884	15812.24923
711.079	15820.34305
711.274	15468.27545
711.469	16089.47428
711.664	15862.83594
711.859	16051.02547
712.054	15858.78898
712.249	15883.07083
712.443	15589.67529
712.638	15743.45241
712.833	15512.78846
713.028	15723.21827
713.223	15407.57632
713.417	15911.39989
713.612	15872.95337
713.807	16105.66343
714.002	15763.68664
714.196	16194.70553
714.391	15713.10125
714.586	16184.58695
714.78	15694.89065
714.975	16010.5536
715.17	15789.9913
715.364	15939.72919
715.559	15848.67159
715.754	15609.90884
715.948	15478.39202
716.143	15858.78898
716.337	15577.5352
716.532	15897.23533
716.726	15741.42899
716.921	15787.96786
717.115	15448.04236
717.31	15650.37618
717.504	15452.08897
717.699	15615.97892
717.893	15923.54099
718.088	15796.06163
718.282	15391.38996
718.476	15599.79206
718.671	15545.16174
718.865	15306.41193
719.059	15387.34337
719.254	15454.11228
719.448	15128.36391
719.642	15156.6897
719.837	15043.38642
720.031	15102.06138
720.225	15189.06203
720.419	15035.29331
720.614	15136.45699
720.808	15411.62292
721.002	15274.03949
721.196	15553.25509
721.39	15383.29678
721.585	15350.92416
721.779	15298.31882
721.973	15484.46197
722.167	15126.34064
722.361	15211.31801
722.555	15187.03876
722.749	15229.52746
722.943	15013.03723
723.137	15413.64621
723.331	14905.80283
723.525	15199.17838
723.719	15075.75883
723.913	15280.10932
724.107	15071.71228
724.301	15039.33986
724.495	15017.08379
724.689	15180.96894
724.883	14948.29207
725.077	14968.52497
725.271	15098.01483
725.465	15063.61918
725.659	15006.96739
725.853	14784.40368
726.046	14865.33669
726.24	14798.56703
726.434	14770.24029
726.628	15081.82865
726.822	14715.6097
727.015	15053.5028
727.209	14907.82613
727.403	15223.45764
727.596	15083.85192
727.79	15203.22492
727.984	14958.40852
728.177	15213.34128
728.371	14919.96593
728.565	15274.03949
728.758	14958.40852
728.952	14932.10571
729.146	15249.76019
729.339	15547.18508
729.533	15045.40969
729.726	14964.47839
729.92	14861.29006
730.113	15083.85192
730.307	14660.97847
730.5	14756.07686
730.694	14928.05912
730.887	15128.36391
731.081	14984.71126
731.274	15053.5028
731.468	14691.32924
731.661	14567.90133
731.854	14628.60408
732.048	14754.05351
732.241	14834.98693
732.435	14559.80755
732.628	14715.6097
732.821	14865.33669
733.014	14816.77701
733.208	14808.68369
733.401	15336.76116
733.594	14924.01253
733.788	14958.40852
733.981	14992.8044
734.174	15140.50353
734.367	14756.07686
734.56	15057.54935
734.754	15142.5268
734.947	15112.17774
735.14	14877.47655
735.333	14681.21234
735.526	14839.03357
735.719	14632.65089
735.912	14950.31536
736.105	14727.74989
736.298	14654.90829
736.491	14911.87273
736.684	14638.7211
736.877	14901.75622
737.07	14921.98923
737.263	14612.41678
737.456	14944.24548
737.649	14681.21234
737.842	15130.38718
738.035	14806.66036
738.228	14699.42274
738.421	14529.45572
738.614	14715.6097
738.807	14766.1936
739	14719.65643
739.192	14545.6434
739.385	14725.72652
739.578	14644.79131
739.771	14660.97847
739.964	14298.77132
740.156	14454.58659
740.349	14614.44019
740.542	14345.31455
740.735	14654.90829
740.927	14491.00964
741.12	14466.72766
741.313	14584.08883
741.505	14555.76066
741.698	14357.45612
741.891	14414.11599
742.083	14361.50329
742.276	14458.63362
742.468	14426.25723
742.661	14197.58705
742.854	14321.03124
743.046	14059.96829
743.239	14468.75116
743.431	14618.48702
743.624	14325.07848
743.816	14258.29818
744.009	14329.1257
744.201	14252.22714
744.393	14236.03763
744.586	14213.77686
744.778	14545.6434
744.971	14545.6434
745.163	14634.67429
745.355	14385.78621
745.548	14440.42195
745.74	14278.53484
745.932	14296.74768
746.125	14375.66836
746.317	14460.65713
746.509	14537.54957
746.702	14788.45036
746.894	14537.54957
747.086	14080.20698
747.278	14118.65987
747.471	14284.6058
747.663	14102.46928
747.855	14357.45612
748.047	14238.06133
748.239	14418.16308
748.431	14272.46386
748.623	14377.69193
748.815	14112.58842
749.008	14452.56307
749.2	14215.80057
749.392	14488.98615
749.584	13970.91522
749.776	14088.3024
749.968	13792.79395
750.16	13924.36283
750.352	14191.51584
750.544	14209.72942
750.736	14015.44234
750.928	14335.19654
751.12	14110.5646
751.311	14070.08767
751.503	14114.61224
751.695	13742.18727
751.887	13736.11434
752.079	14057.94441
752.271	13697.6518
752.463	13808.98769
752.654	13784.697
752.846	13823.15706
753.038	13875.78492
753.23	13995.20289
753.421	14039.72937
753.613	14017.46628
753.805	13889.95364
753.997	14031.63373
754.188	14005.32265
754.38	13891.97773
754.572	13970.91522
754.763	14039.72937
754.955	13495.19752
755.146	13746.23587
755.338	13485.07388
755.53	13365.60763
755.721	13466.85108
755.913	13657.16367
756.104	13511.39516
756.296	13964.84325
756.487	13887.92954
756.679	13811.01189
756.87	13515.44453
757.062	13665.2614
757.253	13786.72124
757.445	14080.20698
757.636	13774.57576
757.827	13889.95364
758.019	13596.42898
758.21	13515.44453
758.401	13252.20292
758.593	13367.63259
758.784	13284.60561
758.975	13233.97591
759.167	13395.9817
759.358	13638.94358
759.549	13171.19126
759.74	13163.0897
759.932	13171.19126
760.123	13096.24899
760.314	13041.55728
760.505	13108.40223
760.696	13146.88636
760.888	13284.60561
761.079	13047.63431
761.27	12966.60354
761.461	13025.35165
761.652	13063.83951
761.843	12810.59593
762.034	13055.73695
762.225	12609.96593
762.416	13017.24871
762.607	12938.24086
762.798	13128.65724
762.989	12893.66886
763.18	13025.35165
763.371	12755.88429
763.562	12798.43814
763.753	12526.85947
763.944	12885.56458
764.135	12674.82233
764.326	12913.92917
764.517	12820.72727
764.708	12924.05913
764.899	12707.24824
765.089	12729.54018
765.28	12889.61673
765.471	13031.4288
765.662	12399.1383
765.853	12654.55537
766.043	12334.25389
766.234	12439.68753
766.425	12153.75618
766.615	12541.04913
766.806	12585.64317
766.997	12723.46063
767.187	12494.4248
767.378	12565.37353
767.569	12257.19442
767.759	12618.07332
767.95	12439.68753
768.141	12545.10326
768.331	12820.72727
768.522	12476.17957
768.712	12332.22614
768.903	12648.47516
769.093	12573.48146
769.284	12419.41325
769.474	12263.27844
769.665	12238.94199
769.855	12251.11034
770.046	12403.19334
770.236	11914.35257
770.426	12030.01032
770.617	12084.7866
770.807	12208.51997
770.998	12232.85772
771.188	12374.80746
771.378	12040.1545
771.569	12279.50216
771.759	11954.93721
771.949	12198.37893
772.139	12358.58637
772.33	12133.47192
772.52	12040.1545
772.71	11979.28644
772.9	12009.72136
773.09	11879.85304
773.281	12013.77922
773.471	11867.67617
773.661	11879.85304
773.851	11745.89065
774.041	11898.11779
774.231	11963.05375
774.421	11778.36981
774.611	11650.47012
774.802	11682.95591
774.992	11745.89065
775.182	11443.31778
775.372	11613.92085
775.562	11522.53461
775.752	11841.2919
775.942	11398.6249
776.131	11666.71331
776.321	11427.06637
776.511	11687.01648
776.701	11376.27667
776.891	11514.41048
777.081	11743.86063
777.271	11628.1348
777.461	11640.31784
777.651	11550.9679
777.84	11404.71966
778.03	11240.12951
778.22	11012.43566
778.41	11502.22399
778.599	11258.42058
778.789	11429.09783
778.979	11425.0349
779.169	11225.90253
779.358	11152.72716
779.548	11138.49703
779.738	11130.36529
779.927	11323.44883
780.117	11221.83759
780.307	11091.73719
780.496	11303.12862
780.686	11295.00025
780.875	10859.88507
781.065	11130.36529
781.254	10941.2533
781.444	11087.67085
781.633	10876.16018
781.823	10951.42305
782.012	11061.23857
782.202	11128.33233
782.391	10778.49833
782.581	11061.23857
782.77	10857.85063
782.96	10908.7082
783.149	10682.8447
783.338	10847.67825
783.528	10929.04923
783.717	10829.36723
783.906	10843.60921
784.096	10546.44087
784.285	10497.56615
784.474	10458.86846
784.663	10599.3803
784.853	10532.18649
785.042	10572.91164
785.231	10646.20433
785.42	10401.83181
785.61	10493.49293
785.799	10289.76557
785.988	10493.49293
786.177	10259.19505
786.366	10287.72763
786.555	10375.34703
786.744	10151.15467
786.933	10385.53375
787.122	10743.90326
787.312	10762.21873
787.501	10530.15011
787.69	10271.42362
787.879	10859.88507
788.068	10554.58595
788.257	10540.33193
788.445	10583.09214
788.634	10416.09193
788.823	10387.57105
789.012	10475.16279
789.201	10051.23362
789.39	10322.3708
789.579	10073.66781
789.768	10587.16426
789.957	10216.3912
790.145	10354.97262
790.334	10210.27587
790.523	10314.21981
790.712	10352.9351
790.9	10138.92125
791.089	10155.23237
791.278	10130.76535
791.467	9928.83476
791.655	10075.7072
791.844	9904.34872
792.033	10045.1149
792.221	9845.16538
792.41	10010.43975
792.599	9653.24288
792.787	9977.80053
792.976	10065.51012
793.164	9904.34872
793.353	9783.92806
793.541	9843.12435
793.73	9790.0524
793.918	9771.67898
794.107	9734.92845
794.295	9694.08874
794.484	9657.32774
794.672	9647.11547
794.861	9677.75113
795.049	9634.86022
795.238	9622.60442
795.426	9837.00118
795.614	9824.75444
795.803	9606.26247
795.991	9542.92794
796.179	9685.92006
796.368	9651.20042
796.556	9722.67718
796.744	9516.36378
796.932	9520.45075
797.121	9506.14607
797.309	9716.55134
797.497	9524.53765
797.685	9745.13742
797.874	9432.56678
798.062	9598.09112
798.25	9420.30153
798.438	9506.14607
798.626	9426.43423
798.814	9732.88661
799.002	9379.41313
799.19	9426.43423
799.378	9299.66188
799.566	9457.09553
799.755	9223.97707
799.943	9567.44633
800.131	9408.0357
800.318	9477.53438
800.506	9365.10065
800.694	9628.73239
800.882	9481.62196
801.07	9653.24288
801.258	9354.87696
801.446	9577.66165
801.634	9240.3433
801.822	9350.78736
802.01	9324.2034
802.197	9928.83476
802.385	9542.92794
802.573	9518.40727
802.761	9322.15837
802.949	9506.14607
803.136	9023.40222
803.324	9477.53438
803.512	9506.14607
803.699	9299.66188
803.887	9436.65507
804.075	9481.62196
804.262	9307.84265
804.45	9430.52261
804.638	9191.24137
804.825	9430.52261
805.013	8923.05222
805.201	9156.45494
805.388	9258.75402
805.576	9258.75402
805.763	9395.76928
805.951	9747.17917
806.138	9258.75402
806.326	9350.78736
806.513	9338.51819
806.701	9279.20878
806.888	9164.64042
807.075	9528.62449
807.263	9367.14534
807.45	9734.92845
807.638	9534.75464
807.825	9493.8843
808.012	9436.65507
808.2	9624.64709
808.387	9293.52613
808.574	9567.44633
808.761	9530.66789
808.949	9812.50716
809.136	9536.79799
809.323	9806.38331
809.51	9598.09112
809.698	9779.8451
809.885	9555.18742
810.072	9865.57483
810.259	9428.47843
810.446	9514.32027
810.633	9512.27674
810.82	9618.51902
811.008	9405.99133
811.195	9561.31695
811.382	9428.47843
811.569	9567.44633
811.756	9170.77936
811.943	9591.96245
812.13	9250.57164
812.317	9585.83363
812.504	9322.15837
812.691	9497.97162
812.878	9581.74767
813.064	9344.65285
813.251	9117.57014
813.438	9289.43554
813.625	9262.84511
813.812	9375.32394
813.999	9201.47174
814.186	9432.56678
814.372	9395.76928
814.559	9311.93294
814.746	9256.70845
814.933	9240.3433
815.12	9262.84511
815.306	9346.69771
815.493	9281.25417
815.68	9455.05156
815.866	9097.10197
816.053	9469.35903
816.24	9387.59134
816.426	9164.64042
816.613	8906.66451
816.799	9262.84511
816.986	9113.47664
817.173	9332.38338
817.359	9215.79355
817.546	9379.41313
817.732	9183.05677
817.919	9283.29954
818.105	9144.1762
818.292	9187.14911
818.478	9035.68708
818.665	9440.74329
818.851	9072.53788
819.037	9334.42833
819.224	9072.53788
819.41	8998.83062
819.597	9088.91422
819.783	9125.75693
819.969	9144.1762
820.156	9264.89062
820.342	9127.80358
820.528	9105.28944
820.714	8941.48703
820.901	8927.14897
821.087	9064.3493
821.273	9301.7071
821.459	9160.54771
821.646	9450.96356
821.832	9258.75402
822.018	9332.38338
822.204	8894.37298
822.39	9043.87663
822.576	8701.72083
822.762	8871.83683
822.948	8830.85646
823.134	8910.76154
823.32	8668.91289
823.507	8906.66451
823.693	8730.42391
823.879	8839.05311
824.065	8832.90565
824.25	8646.35468
824.436	8527.37397
824.622	8910.76154
824.808	8771.42207
824.994	8732.47399
825.18	8404.2234
825.366	8941.48703
825.552	8603.28274
825.738	8800.11644
825.923	8580.71796
826.109	8837.00397
826.295	8387.79811
826.481	8767.32258
826.667	8798.06696
826.852	8882.0808
827.038	8779.62083
827.224	8804.21534
827.409	8613.53871
827.595	9035.68708
827.781	8646.35468
827.966	8953.77611
828.152	8519.16607
828.338	8763.22302
828.523	8488.38373
828.709	8412.43559
828.894	8478.122
829.08	8091.92838
829.266	8087.81618
829.451	8264.56874
829.637	8184.43175
829.822	8223.47661
830.008	8050.80272
830.193	8379.58499
830.378	8178.26612
830.564	8488.38373
830.749	8178.26612
830.935	8317.97676
831.12	8096.04051
831.305	8379.58499
831.491	8215.25723
831.676	8334.40733
831.861	8052.85919
832.047	8383.69159
832.232	8145.37971
832.417	8133.046
832.602	7902.683
832.788	8200.87256
832.973	8026.12344
833.158	8151.5463
833.343	8005.55514
833.528	8272.78622
833.714	8202.92758
833.899	8299.49087
834.084	8081.64772
834.269	8157.71271
834.454	8005.55514
834.639	8040.52004
834.824	7849.16916
835.009	8198.81753
835.194	7865.63645
835.379	8283.05763
835.564	7943.838
835.749	8227.58618
835.934	7982.92766
836.119	8071.36656
836.304	7910.91466
836.489	7952.06802
836.674	7737.98014
836.859	7820.34822
837.044	7729.74149
837.228	7927.37699
837.413	7676.18204
837.598	7737.98014
837.783	7682.36271
837.968	7764.75344
838.152	7698.84355
838.337	7772.99066
838.522	7517.47948
838.707	7711.20329
838.891	7410.23173
839.076	7639.09405
839.261	7296.73264
839.445	7606.12117
839.63	7276.08932
839.815	7437.04915
839.999	7362.77651
840.184	7608.18214
840.368	7187.29794
840.553	7420.54655
840.737	7426.73519
840.922	7538.09736
841.106	7100.53189
841.291	7393.72687
841.475	7519.54137
841.66	7410.23173
841.844	7259.57308
842.029	7360.71298
842.213	7121.19404
842.397	7408.16869
842.582	7210.0159
842.766	7106.73077
842.951	6957.90204
843.135	7106.73077
843.319	7073.66777
843.504	6980.64731
843.688	6922.7449
843.872	7164.57729
844.056	7073.66777
844.241	7383.41063
844.425	7276.08932
844.609	7011.65918
844.793	7057.13412
844.977	7158.38028
845.161	6953.76625
845.346	7358.64942
845.53	7017.86095
845.714	7261.63769
845.898	7079.86752
846.082	7106.73077
846.266	6746.86076
846.45	7143.91982
846.634	6986.85009
846.818	6858.61796
847.002	6574.95552
847.186	6823.44231
847.37	6674.38992
847.554	6808.95631
847.738	6483.76055
847.922	6854.47999
848.106	6485.83366
848.29	6763.42159
848.473	6982.71492
848.657	6722.01678
848.841	6684.74462
849.025	6666.10574
849.209	6151.76243
849.392	6473.39464
849.576	6566.66692
849.76	6722.01678
849.944	6456.80799
850.127	6581.17172
850.311	6286.70883
850.495	6378.00104
850.678	6409.11306
850.862	6753.07124
851.046	6305.38592
851.229	6384.22387
851.413	6290.85946
851.596	6382.14962
851.78	6211.98153
851.964	6398.74297
852.147	6220.28606
852.331	6479.61425
852.514	6230.6662
852.698	6324.06111
852.881	6220.28606
853.065	6398.74297
853.248	6116.4524
853.431	6440.21984
853.615	6000.08893
853.798	6261.8031
853.982	6045.81195
854.165	6282.55811
854.348	6363.48031
854.532	6336.51019
854.715	6168.37657
854.898	6211.98153
855.081	6103.98841
855.265	6382.14962
855.448	6060.3578
855.631	6257.65182
855.814	5935.64167
855.997	6128.91554
856.181	5802.51757
856.364	6058.27989
856.547	6120.60687
856.73	6037.49952
856.913	5810.84066
857.096	6120.60687
857.279	5829.56623
857.462	5985.5383
857.645	5785.87027
857.828	6234.81809
858.011	5833.72721
858.194	5931.48301
858.377	5767.14024
858.56	5821.24399
858.743	5717.18415
858.926	5792.11318
859.109	5681.79036
859.292	5688.03682
859.475	5575.5681
859.658	5494.29793
859.841	5477.6227
860.023	5602.65019
860.206	5327.47795
860.389	5492.21361
860.572	5492.21361
860.755	5552.64937
860.937	5606.81631
861.12	5554.73301
861.303	5306.61489
861.486	5317.04672
861.668	5024.73527
861.851	5014.28716
862.034	5001.74867
862.216	5141.71458
862.399	4757.08289
862.581	5254.44701
862.764	5041.45105
862.947	5350.42461
863.129	5177.21175
863.312	5064.43283
863.494	4949.49601
863.677	5223.13927
863.859	5154.24376
864.042	5296.18249
864.224	5187.65081
864.406	5241.92454
864.589	4924.40962
864.771	5099.9446
864.954	4750.8053
865.136	5131.27296
865.318	4721.50721
865.501	5033.09335
865.683	4949.49601
865.865	5024.73527
866.048	4928.59091
866.23	4911.86519
866.412	4796.83619
866.594	4874.22694
866.777	4750.8053
866.959	4853.3136
867.141	4608.45894
867.323	4959.94769
867.505	4696.39104
867.687	4778.0067
867.869	4836.58128
868.052	4932.77212
868.234	4725.69292
868.416	4778.0067
868.598	4606.36484
868.78	4750.8053
868.962	4882.59164
869.144	4861.67921
869.326	4748.71273
869.508	4853.3136
869.69	4681.73844
869.872	4759.17537
870.054	4614.74112
870.236	4824.03109
870.417	4623.11704
870.599	4784.2834
870.781	4633.58643
870.963	4449.24383
871.145	4591.70549
871.327	4698.48418
871.508	4373.78177
871.69	4520.48745
871.872	4336.04017
872.054	4623.11704
872.235	4367.49199
872.417	4510.01204
872.599	4336.04017
872.78	4600.0824
872.962	4474.39154
873.144	4589.61121
873.325	4401.03522
873.507	4696.39104
873.689	4119.94076
873.87	4606.36484
874.052	4250.04709
874.233	4767.54508
874.415	4530.9623
874.596	4775.91442
874.778	4424.09296
874.959	4503.72654
875.141	4438.76468
875.322	4723.60008
875.503	4436.66879
875.685	4631.4926
875.866	4417.80474
876.048	4432.47693
876.229	4365.39536
876.41	4491.15492
876.592	4222.77348
876.773	4505.82173
876.954	4010.75726
877.136	4778.0067
877.317	4354.91185
877.498	4577.04505
877.679	4203.88964
877.86	4367.49199
878.042	4214.38088
878.223	4333.94321
878.404	4080.05329
878.585	4336.04017
878.766	4115.74244
878.947	4241.6556
879.128	4516.29735
879.309	4229.06771
879.49	4023.35821
879.672	4484.86882
879.853	4241.6556
880.034	4480.67798
880.215	4235.36175
880.396	4493.25025
880.576	4287.8046
880.757	4377.97485
880.938	4090.55073
881.119	4304.58348
881.3	4396.84262
881.481	4449.24383
881.662	4124.13901
881.843	4612.64708
882.023	4562.38352
882.204	4740.34221
882.385	4382.16784
882.566	4407.32396
882.747	4484.86882
882.927	4637.77404
883.108	4323.45808
883.289	4350.71829
883.469	4449.24383
883.65	4558.19432
883.831	4614.74112
884.011	4742.43487
884.192	4413.6125
884.373	4424.09296
884.553	4277.3171
884.734	4380.07136
884.914	4468.10491
885.095	4778.0067
885.275	4421.99691
885.456	4715.22847
885.636	4558.19432
885.817	4840.7645
885.997	4658.7107
886.178	4683.83174
886.358	4516.29735
886.538	4698.48418
886.719	4524.67745
886.899	4539.34178
887.08	4357.00859
887.26	4683.83174
887.44	4365.39536
887.621	4694.29788
887.801	4388.45716
887.981	4957.8574
888.161	4497.44083
888.342	4543.53139
888.522	4432.47693
888.702	4826.12285
888.882	4815.66384
889.062	4796.83619
889.242	4683.83174
889.423	4572.85616
889.603	4616.83513
889.783	4918.13751
889.963	4537.24694
890.143	4855.40504
890.323	4574.95062
890.503	4664.99126
890.683	4447.14804
890.863	4572.85616
891.043	4338.13711
891.223	4911.86519
891.403	4325.55515
891.583	4706.85651
891.763	4405.22773
891.943	4639.8678
892.122	4354.91185
892.302	4480.67798
892.482	4300.38889
892.662	4457.62675
892.842	4348.62148
893.022	4394.74629
893.201	4365.39536
893.381	4646.14897
893.561	4459.72243
893.741	4438.76468
893.92	4203.88964
894.1	4449.24383
894.28	4138.8322
894.459	4424.09296
894.639	4140.93114
894.819	4394.74629
894.998	4151.42554
895.178	4579.13947
895.357	4306.68074
895.537	4157.72193
895.716	4113.64324
895.896	4421.99691
896.075	4338.13711
896.255	4275.21954
896.434	4147.22784
896.614	4279.41464
896.793	4172.41277
896.973	4296.19421
897.152	3993.95485
897.331	4254.24272
897.511	4149.3267
897.69	4231.16575
897.87	4006.55678
898.049	3899.41701
898.228	3825.85943
898.407	4019.15798
898.587	3733.35274
898.766	3964.54748
898.945	3598.7309
899.124	3710.22018
899.304	3674.46528
899.483	3800.63409
899.662	3649.22321
899.841	3813.24711
900.02	3657.63754
900.199	3480.87384
900.378	3489.29411
900.557	3701.80776
900.737	3678.67203
900.916	3642.91227
901.095	3575.58498
901.274	3872.09847
901.453	3438.76818
901.632	3554.54128
901.811	3459.82191
901.989	3628.18607
902.168	3320.83458
902.347	3682.8787
902.526	3217.59834
902.705	3590.31446
902.884	3348.21691
903.063	3480.87384
903.242	3346.11068
903.42	3600.83496
903.599	3169.12669
903.778	3177.55716
903.957	3029.98685
904.135	3426.13508
904.314	2840.14363
904.493	3110.1061
904.672	3126.97041
904.85	3084.80773
905.029	2996.24574
905.207	3133.29426
905.386	3177.55716
905.565	3204.9544
905.743	2873.90216
905.922	2909.76659
906.1	2724.0717
906.279	2937.1895
906.457	2707.18513
906.636	2928.75195
906.814	2747.28935
906.993	2658.63165
907.171	2696.6306
907.35	2884.45095
907.528	2582.62157
907.707	2732.51466
907.885	2519.26793
908.063	2582.62157
908.242	2512.93199
908.42	2565.7283
908.598	2504.48391
908.777	2762.06338
908.955	2403.09317
909.133	2584.73317
909.311	2333.37297
909.49	2582.62157
909.668	2318.58244
909.846	2591.06791
910.024	2324.9213
910.202	2593.17947
910.38	2369.29081
910.559	2335.48587
910.737	2253.07594
910.915	2557.28138
911.093	2426.33075
911.271	2453.79168
911.449	2453.79168
911.627	2485.47507
911.805	2386.19232
911.983	2620.6286
912.161	2470.6898
912.339	2645.96441
912.517	2588.95635
912.695	2641.7419
912.872	2244.62285
913.05	2546.72247
913.228	2392.53022
913.406	2620.6286
913.584	2527.71569
913.762	2838.0336
913.939	2282.66064
914.117	2675.52058
914.295	2417.88087
914.473	2664.96509
914.65	2432.66805
914.828	2426.33075
915.006	2231.94293
915.184	2445.34235
915.361	2240.39624
915.539	2477.02641
915.716	2274.20805
915.894	2434.78046
916.072	2234.05627
916.249	2426.33075
916.427	2308.01749
916.604	2441.11763
916.782	2236.16961
916.959	2561.50486
917.137	2398.86802
917.314	2555.16962
917.492	2198.12829
917.669	2329.14716
917.847	2145.28859
918.024	2316.46947
918.201	2079.76047
918.379	2248.84941
918.556	2134.72004
918.733	2293.22616
918.911	2083.98831
919.088	2202.35524
919.265	2062.84883
919.442	2269.9817
919.62	1819.69916
919.797	1986.74094
919.974	1762.60193
920.151	2160.08422
920.328	2045.93672
920.506	2208.6956
920.683	1986.74094
920.86	1868.33498
921.037	1881.02216
921.214	2138.94748
921.391	1732.99483
921.568	1908.5104
921.745	1768.94621
921.922	2193.90131
922.099	1834.50163
922.276	1986.74094
922.453	1938.11209
922.63	1986.74094
922.807	1830.27237
922.984	1832.387
923.161	1606.10041
923.338	2033.25235
923.514	1597.64047
923.691	1745.68368
923.868	1686.46804
924.045	1707.61677
924.222	1669.54884
924.399	1699.15732
924.575	1504.57956
924.752	1690.69781
924.929	1548.9953
925.105	1766.83146
925.282	1538.42016
925.459	1777.4052
925.635	1656.85933
925.812	1813.35517
925.989	1441.12806
926.165	1568.03046
926.342	1555.34036
926.518	1574.37549
926.695	1491.88929
926.871	1639.93984
927.048	1377.67669
927.224	1534.1901
927.401	1301.53629
927.577	1559.5704
927.754	1301.53629
927.93	1574.37549
928.107	1360.75644
928.283	1458.04848
928.459	1453.81837
928.636	1555.34036
928.812	1233.85809
928.988	1356.52639
929.165	1324.8012
929.341	1411.51736
929.517	1068.90714
929.693	1318.4562
929.87	1295.19135
930.046	1202.13491
930.222	1075.2509
930.398	1409.40231
930.574	1278.27162
930.751	1314.22621
930.927	1064.67799
931.103	1307.88124
931.279	1016.04441
931.455	1060.44886
931.631	937.81475
931.807	1119.6585
931.983	910.33095
932.159	948.38578
932.335	903.98872
932.511	950.5
932.687	734.89144
932.863	954.72848
933.039	751.79841
933.215	916.67325
933.391	967.41407
933.566	916.67325
933.742	937.81475
933.918	897.64656
934.094	692.62699
934.27	802.52322
934.445	692.62699
934.621	751.79841
934.797	627.12612
934.973	620.78794
935.148	665.1575
935.324	644.02847
935.5	608.11191
935.675	734.89144
935.851	527.84137
936.027	563.74948
936.202	508.83283
936.378	582.76124
936.553	464.48416
936.729	532.06565
936.904	342.0333
937.08	415.91952
937.255	316.70572
937.431	384.25149
937.606	399.02945
937.782	346.25481
937.957	310.37423
938.133	329.36919
938.308	308.26376
938.483	285.04988
938.659	261.83823
938.834	247.06838
939.009	185.88917
939.185	253.3982
939.36	206.98356
939.535	249.1783
939.71	169.01513
939.886	156.36047
940.061	215.42188
940.236	263.94829
940.411	240.73873
940.586	76.23219
940.761	139.48876
940.937	185.88917
941.112	185.88917
941.287	107.85801
941.462	137.37989
941.637	154.25143
941.812	143.70656
941.987	69.90763
942.162	190.10789
942.337	135.27105
942.512	139.48876
942.687	196.43612
942.862	143.70656
943.037	145.81549
943.212	135.27105
943.386	78.34042
943.561	141.59765
943.736	118.40105
943.911	120.50972
944.086	114.18377
944.26	175.34274
944.435	177.45199
944.61	145.81549
944.785	120.50972
944.959	137.37989
945.134	171.12431
945.309	183.77985
945.483	187.99852
945.658	154.25143
945.833	122.61842
946.007	152.14241
946.182	171.12431
946.357	105.74946
946.531	86.77357
946.706	53.04315
946.88	36.18013
947.055	152.14241
947.229	120.50972
947.404	173.23352
947.578	128.94464
947.752	112.07516
947.927	97.31551
948.101	156.36047
948.276	160.57861
948.45	139.48876
948.624	154.25143
948.799	160.57861
948.973	145.81549
949.147	133.16222
949.321	194.32669
949.496	80.44868
949.67	53.04315
949.844	244.95848
950.018	101.53244
950.193	93.09867
950.367	112.07516
950.541	84.66525
950.715	145.81549
950.889	215.42188
951.063	80.44868
951.237	109.96657
951.411	183.77985
951.585	185.88917
951.759	126.83588
951.933	105.74946
952.107	143.70656
952.281	156.36047
952.455	171.12431
952.629	251.28824
952.803	211.20268
952.977	137.37989
953.151	133.16222
953.325	122.61842
953.499	116.2924
953.672	99.42397
953.846	116.2924
954.02	143.70656
954.194	103.64094
954.368	107.85801
954.541	156.36047
954.715	103.64094
954.889	192.21728
955.062	101.53244
955.236	109.96657
955.41	118.40105
955.583	185.88917
955.757	177.45199
955.93	200.65503
956.104	171.12431
956.278	194.32669
956.451	141.59765
956.625	185.88917
956.798	162.68771
956.972	154.25143
957.145	202.76452
957.319	185.88917
957.492	126.83588
957.665	141.59765
957.839	143.70656
958.012	120.50972
958.185	122.61842
958.359	181.67054
958.532	34.07236
958.705	126.83588
958.879	80.44868
959.052	145.81549
959.225	156.36047
959.398	181.67054
959.572	169.01513
959.745	143.70656
959.918	198.54556
960.091	116.2924
960.264	118.40105
960.438	190.10789
960.611	152.14241
960.784	48.82725
960.957	86.77357
961.13	124.72714
961.303	154.25143
961.476	88.88192
961.649	95.20708
961.822	196.43612
961.995	112.07516
962.168	78.34042
962.341	179.56125
962.514	135.27105
962.686	118.40105
962.859	171.12431
963.032	84.66525
963.205	112.07516
963.378	67.79949
963.551	112.07516
963.723	78.34042
963.896	169.01513
964.069	120.50972
964.242	179.56125
964.414	141.59765
964.587	152.14241
964.76	122.61842
964.932	122.61842
965.105	177.45199
965.278	107.85801
965.45	154.25143
965.623	67.79949
965.795	63.58328
965.968	95.20708
966.14	120.50972
966.313	118.40105
966.485	105.74946
966.658	145.81549
966.83	55.15113
967.003	145.81549
967.175	152.14241
967.348	177.45199
967.52	80.44868
967.692	84.66525
967.865	160.57861
968.037	147.92445
968.209	101.53244
968.382	112.07516
968.554	59.36716
968.726	177.45199
968.898	145.81549
969.071	122.61842
969.243	78.34042
969.415	145.81549
969.587	118.40105
969.759	143.70656
969.932	90.99028
970.104	31.96461
970.276	84.66525
970.448	118.40105
970.62	179.56125
970.792	133.16222
970.964	101.53244
971.136	69.90763
971.308	67.79949
971.48	135.27105
971.652	152.14241
971.824	88.88192
971.996	122.61842
972.168	145.81549
972.339	69.90763
972.511	135.27105
972.683	135.27105
972.855	152.14241
973.027	95.20708
973.199	97.31551
973.37	57.25913
973.542	128.94464
973.714	57.25913
973.886	93.09867
974.057	46.71934
974.229	21.42623
974.401	128.94464
974.572	61.47521
974.744	50.93519
974.915	21.42623
975.087	84.66525
975.259	72.0158
975.43	69.90763
975.602	93.09867
975.773	114.18377
975.945	147.92445
976.116	93.09867
976.288	55.15113
976.459	103.64094
976.63	152.14241
976.802	40.39575
976.973	19.31862
977.145	67.79949
977.316	82.55695
977.487	48.82725
977.659	55.15113
977.83	40.39575
978.001	-16.50703
978.172	46.71934
978.344	76.23219
978.515	67.79949
978.686	0.35123
978.857	34.07236
979.028	69.90763
979.2	72.0158
979.371	42.50359
979.542	61.47521
979.713	97.31551
979.884	21.42623
980.055	44.61145
980.226	42.50359
980.397	15.10348
980.568	74.12398
980.739	12.99594
980.91	103.64094
981.081	42.50359
981.252	95.20708
981.423	42.50359
981.594	126.83588
981.765	27.74919
981.936	72.0158
982.106	29.85689
982.277	6.67348
982.448	55.15113
982.619	126.83588
982.79	46.71934
982.96	67.79949
983.131	101.53244
983.302	101.53244
983.472	61.47521
983.643	27.74919
983.814	80.44868
983.984	21.42623
984.155	84.66525
984.326	72.0158
984.496	34.07236
984.667	4.56604
984.837	74.12398
985.008	36.18013
985.178	59.36716
985.349	152.14241
985.519	0.35123
985.69	34.07236
985.86	69.90763
986.031	38.28793
986.201	76.23219
986.371	38.28793
986.542	57.25913
986.712	74.12398
986.882	-29.1497
987.053	34.07236
987.223	86.77357
987.393	25.64151
987.563	10.88843
987.734	-24.93558
987.904	36.18013
988.074	69.90763
988.244	36.18013
988.414	-41.79148
988.585	76.23219
988.755	34.07236
988.925	25.64151
989.095	27.74919
989.265	25.64151
989.435	50.93519
989.605	-8.0781
989.775	74.12398
989.945	86.77357
990.115	-43.89836
990.285	118.40105
990.455	109.96657
990.625	12.99594
990.795	8.78094
990.965	38.28793
991.134	34.07236
991.304	-5.9708
991.474	12.99594
991.644	86.77357
991.814	27.74919
991.984	40.39575
992.153	-12.29261
992.323	36.18013
992.493	10.88843
992.662	21.42623
992.832	21.42623
993.002	27.74919
993.171	63.58328
993.341	95.20708
993.511	93.09867
993.68	25.64151
993.85	4.56604
994.019	27.74919
994.189	55.15113
994.358	-8.0781
994.528	25.64151
994.697	53.04315
994.867	42.50359
995.036	50.93519
995.206	84.66525
995.375	82.55695
995.544	44.61145
995.714	27.74919
995.883	-22.82848
996.052	55.15113
996.222	12.99594
996.391	42.50359
996.56	19.31862
996.73	-48.11204
996.899	61.47521
997.068	-41.79148
997.237	67.79949
997.406	29.85689
997.576	-5.9708
997.745	23.53386
997.914	19.31862
998.083	105.74946
998.252	76.23219
998.421	34.07236
998.59	38.28793
998.759	17.21104
998.928	84.66525
999.097	-14.39983
999.266	76.23219
999.435	17.21104
999.604	-12.29261
999.773	78.34042
999.942	19.31862
1000.111	42.50359
1000.28	53.04315
1000.448	8.78094
1000.617	38.28793
1000.786	29.85689
1000.955	6.67348
1001.124	19.31862
1001.292	-10.18537
1001.461	99.42397
1001.63	0.35123
1001.798	118.40105
1001.967	40.39575
1002.136	-5.9708
1002.304	-14.39983
1002.473	-12.29261
1002.642	53.04315
1002.81	-1.75614
1002.979	61.47521
1003.147	4.56604
1003.316	55.15113
1003.484	0.35123
1003.653	17.21104
1003.821	17.21104
1003.99	12.99594
1004.158	-27.04265
1004.327	-3.86348
1004.495	25.64151
1004.663	-50.21884
1004.832	38.28793
1005	27.74919
1005.168	53.04315
1005.337	-8.0781
1005.505	25.64151
1005.673	105.74946
1005.842	-22.82848
1006.01	12.99594
1006.178	10.88843
1006.346	4.56604
1006.514	34.07236
1006.683	-16.50703
1006.851	21.42623
1007.019	-41.79148
1007.187	12.99594
1007.355	-27.04265
1007.523	59.36716
1007.691	-12.29261
1007.859	25.64151
1008.027	69.90763
1008.195	-1.75614
1008.363	50.93519
1008.531	-48.11204
1008.699	78.34042
1008.867	63.58328
1009.035	76.23219
1009.203	8.78094
1009.37	17.21104
1009.538	55.15113
1009.706	17.21104
1009.874	10.88843
1010.042	31.96461
1010.209	8.78094
1010.377	25.64151
1010.545	48.82725
1010.713	-16.50703
1010.88	-52.32561
1011.048	12.99594
1011.216	50.93519
1011.383	-1.75614
1011.551	34.07236
1011.718	15.10348
1011.886	-67.07234
1012.054	19.31862
1012.221	15.10348
1012.389	133.16222
1012.556	12.99594
1012.724	-8.0781
1012.891	-75.49848
1013.058	2.45862
1013.226	-81.81781
1013.393	21.42623
1013.561	50.93519
1013.728	50.93519
1013.895	67.79949
1014.063	0.35123
1014.23	-29.1497
1014.397	50.93519
1014.565	6.67348
1014.732	76.23219
1014.899	4.56604
1015.066	36.18013
1015.233	-29.1497
1015.401	53.04315
1015.568	-35.47071
1015.735	29.85689
1015.902	-1.75614
1016.069	-10.18537
1016.236	36.18013
1016.403	38.28793
1016.57	34.07236
1016.737	72.0158
1016.904	17.21104
1017.071	6.67348
1017.238	63.58328
1017.405	10.88843
1017.572	12.99594
1017.739	-3.86348
1017.906	8.78094
1018.073	25.64151
1018.24	36.18013
1018.407	-71.28546
1018.573	53.04315
1018.74	0.35123
1018.907	-22.82848
1019.074	36.18013
1019.241	-69.17891
1019.407	27.74919
1019.574	50.93519
1019.741	8.78094
1019.907	10.88843
1020.074	-10.18537
1020.241	90.99028
1020.407	17.21104
1020.574	63.58328
1020.74	34.07236
1020.907	38.28793
1021.073	-12.29261
1021.24	-41.79148
1021.406	50.93519
1021.573	-46.00521
1021.739	0.35123
1021.906	-29.1497
1022.072	-10.18537
1022.239	-16.50703
1022.405	0.35123
1022.571	4.56604
1022.738	-16.50703
1022.904	21.42623
1023.07	-24.93558
1023.237	53.04315
1023.403	46.71934
1023.569	25.64151
1023.735	44.61145
1023.902	-3.86348
1024.068	-8.0781
1024.234	6.67348
1024.4	-50.21884
1024.566	10.88843
1024.732	-5.9708
1024.898	17.21104
1025.065	86.77357
1025.231	34.07236
1025.397	-75.49848
1025.563	29.85689
1025.729	19.31862
1025.895	-22.82848
1026.061	-8.0781
1026.227	19.31862
1026.392	21.42623
1026.558	-10.18537
1026.724	21.42623
1026.89	46.71934
1027.056	46.71934
1027.222	21.42623
1027.388	78.34042
1027.553	69.90763
1027.719	25.64151
1027.885	118.40105
1028.051	-29.1497
1028.216	-29.1497
1028.382	-8.0781
1028.548	0.35123
1028.713	-35.47071
1028.879	55.15113
1029.045	12.99594
1029.21	46.71934
1029.376	-54.43236
1029.541	38.28793
1029.707	23.53386
1029.873	19.31862
1030.038	-41.79148
1030.204	17.21104
1030.369	90.99028
1030.534	-24.93558
1030.7	23.53386
1030.865	-8.0781
1031.031	2.45862
1031.196	12.99594
1031.361	0.35123
1031.527	19.31862
1031.692	8.78094
1031.857	59.36716
1032.023	-8.0781
1032.188	25.64151
1032.353	25.64151
1032.518	8.78094
1032.684	-22.82848
1032.849	-39.68458
1033.014	0.35123
1033.179	-33.36373
1033.344	34.07236
1033.509	34.07236
1033.674	-3.86348
1033.839	-20.72135
1034.004	-16.50703
1034.17	0.35123
1034.335	69.90763
1034.5	4.56604
1034.664	21.42623
1034.829	-8.0781
1034.994	-16.50703
1035.159	10.88843
1035.324	12.99594
1035.489	53.04315
1035.654	12.99594
1035.819	55.15113
1035.984	-16.50703
1036.148	-8.0781
1036.313	19.31862
1036.478	17.21104
1036.643	-69.17891
1036.807	6.67348
1036.972	-31.25673
1037.137	42.50359
1037.301	25.64151
1037.466	-22.82848
1037.631	69.90763
1037.795	36.18013
1037.96	-48.11204
1038.124	-24.93558
1038.289	-3.86348
1038.454	-20.72135
1038.618	-16.50703
1038.783	-24.93558
1038.947	103.64094
1039.111	-31.25673
1039.276	-8.0781
1039.44	-71.28546
1039.605	21.42623
1039.769	46.71934
1039.933	-8.0781
1040.098	-29.1497
1040.262	38.28793
1040.426	17.21104
1040.591	-5.9708
1040.755	34.07236
1040.919	-41.79148
1041.083	40.39575
1041.248	8.78094
1041.412	-24.93558
1041.576	-14.39983
1041.74	-39.68458
1041.904	67.79949
1042.068	-22.82848
1042.232	0.35123
1042.397	-14.39983
1042.561	2.45862
1042.725	-12.29261
1042.889	23.53386
1043.053	-12.29261
1043.217	67.79949
1043.381	34.07236
1043.544	27.74919
1043.708	50.93519
1043.872	-3.86348
1044.036	-41.79148
1044.2	-8.0781
1044.364	-8.0781
1044.528	46.71934
1044.691	-16.50703
1044.855	-8.0781
1045.019	65.69137
1045.183	42.50359
1045.346	10.88843
1045.51	-20.72135
1045.674	59.36716
1045.837	17.21104
1046.001	34.07236
1046.165	69.90763
1046.328	-16.50703
1046.492	82.55695
1046.655	59.36716
1046.819	34.07236
1046.983	72.0158
1047.146	76.23219
1047.31	17.21104
1047.473	-100.77442
1047.636	67.79949
1047.8	67.79949
1047.963	29.85689
1048.127	42.50359
1048.29	46.71934
