Data from mixed_try1_USB4F045381__41__00145.txt Node

Date: Thu Apr 03 20:06:09 EDT 2025
User: mmckonesweet
Spectrometer: USB4F04538
Trigger mode: 4
Integration Time (sec): 2.700000E-3
Scans to average: 1
Electric dark correction enabled: true
Nonlinearity correction enabled: true
Boxcar width: 0
XAxis mode: Wavelengths
Number of Pixels in Spectrum: 3648
>>>>>Begin Spectral Data<<<<<
345.52	-13.87303
345.736	-13.87303
345.952	-13.87303
346.168	-51.79892
346.384	-32.83698
346.6	-26.51589
346.816	-3.33665
347.032	-58.11912
347.248	-9.65855
347.464	-3.33665
347.68	76.75925
347.896	24.06077
348.112	17.73793
348.328	-22.3017
348.544	24.06077
348.76	-64.43909
348.975	45.13842
349.191	-5.44397
349.407	-5.44397
349.623	-81.29121
349.839	40.92271
350.055	-7.55127
350.27	-9.65855
350.486	-68.65227
350.702	36.70708
350.918	-74.97185
351.133	13.52282
351.349	11.4153
351.565	66.2184
351.781	-15.98024
351.996	34.5993
352.212	34.5993
352.428	-74.97185
352.644	5.09289
352.859	34.5993
353.075	-5.44397
353.291	36.70708
353.506	-53.90568
353.722	43.03055
353.938	-39.15785
354.153	-13.87303
354.369	-30.72997
354.584	2.98547
354.8	-7.55127
355.016	15.63036
355.231	-1.2293
355.447	-13.87303
355.662	17.73793
355.878	15.63036
356.093	24.06077
356.309	59.89417
356.524	0.87808
356.74	17.73793
356.955	15.63036
357.171	34.5993
357.386	0.87808
357.602	32.49155
357.817	-5.44397
358.033	-5.44397
358.248	-22.3017
358.464	30.38382
358.679	-43.37164
358.895	-34.94396
359.11	-15.98024
359.325	-9.65855
359.541	24.06077
359.756	-26.51589
359.972	11.4153
360.187	-24.40881
360.402	26.16843
360.618	-39.15785
360.833	15.63036
361.048	15.63036
361.264	-68.65227
361.479	11.4153
361.694	17.73793
361.909	40.92271
362.125	-1.2293
362.34	19.84552
362.555	-68.65227
362.77	0.87808
362.986	38.81488
363.201	15.63036
363.416	-43.37164
363.631	-13.87303
363.847	11.4153
364.062	0.87808
364.277	-15.98024
364.492	36.70708
364.707	24.06077
364.922	-34.94396
365.138	-1.2293
365.353	30.38382
365.568	2.98547
365.783	-18.08741
365.998	43.03055
366.213	24.06077
366.428	129.47183
366.643	-37.05092
366.858	57.78613
367.073	7.20034
367.288	7.20034
367.503	53.57014
367.718	36.70708
367.933	34.5993
368.148	-43.37164
368.363	62.00222
368.578	-121.30834
368.793	5.09289
369.008	28.27611
369.223	2.98547
369.438	11.4153
369.653	83.08402
369.868	15.63036
370.083	-39.15785
370.298	-7.55127
370.513	-49.69214
370.728	0.87808
370.943	40.92271
371.157	-20.19457
371.372	-47.58533
371.587	17.73793
371.802	7.20034
372.017	74.65103
372.232	-64.43909
372.446	24.06077
372.661	57.78613
372.876	-53.90568
373.091	53.57014
373.306	-24.40881
373.52	11.4153
373.735	-5.44397
373.95	74.65103
374.165	-5.44397
374.379	-13.87303
374.594	15.63036
374.809	-85.50398
375.023	51.46218
375.238	-11.7658
375.453	47.24632
375.667	59.89417
375.882	-9.65855
376.097	11.4153
376.311	11.4153
376.526	93.62577
376.741	87.30066
376.955	9.30781
377.17	-64.43909
377.384	7.20034
377.599	-51.79892
377.813	74.65103
378.028	15.63036
378.242	21.95313
378.457	68.32652
378.672	-30.72997
378.886	13.52282
379.101	15.63036
379.315	36.70708
379.53	-26.51589
379.744	-18.08741
379.958	-1.2293
380.173	43.03055
380.387	-37.05092
380.602	15.63036
380.816	49.35423
381.031	40.92271
381.245	-32.83698
381.459	59.89417
381.674	45.13842
381.888	68.32652
382.103	-7.55127
382.317	-32.83698
382.531	-1.2293
382.746	24.06077
382.96	-1.2293
383.174	-74.97185
383.388	-43.37164
383.603	-13.87303
383.817	53.57014
384.031	32.49155
384.246	-64.43909
384.46	19.84552
384.674	11.4153
384.888	-41.26476
385.103	19.84552
385.317	-13.87303
385.531	34.5993
385.745	-18.08741
385.959	83.08402
386.174	2.98547
386.388	-7.55127
386.602	-43.37164
386.816	9.30781
387.03	36.70708
387.244	-18.08741
387.458	15.63036
387.672	-9.65855
387.887	17.73793
388.101	21.95313
388.315	28.27611
388.529	0.87808
388.743	-18.08741
388.957	28.27611
389.171	7.20034
389.385	45.13842
389.599	-13.87303
389.813	-64.43909
390.027	-1.2293
390.241	57.78613
390.455	-22.3017
390.669	17.73793
390.883	-37.05092
391.097	-3.33665
391.311	5.09289
391.525	43.03055
391.738	53.57014
391.952	-22.3017
392.166	0.87808
392.38	17.73793
392.594	-1.2293
392.808	40.92271
393.022	26.16843
393.236	49.35423
393.449	24.06077
393.663	-49.69214
393.877	-32.83698
394.091	59.89417
394.305	17.73793
394.518	53.57014
394.732	45.13842
394.946	28.27611
395.16	-18.08741
395.373	-20.19457
395.587	53.57014
395.801	-60.2258
396.015	-18.08741
396.228	26.16843
396.442	7.20034
396.656	24.06077
396.869	-5.44397
397.083	15.63036
397.297	28.27611
397.51	-60.2258
397.724	5.09289
397.938	-15.98024
398.151	89.40901
398.365	-7.55127
398.578	15.63036
398.792	0.87808
399.005	-22.3017
399.219	66.2184
399.433	-20.19457
399.646	45.13842
399.86	9.30781
400.073	-51.79892
400.287	-15.98024
400.5	49.35423
400.714	-5.44397
400.927	85.19233
401.141	-13.87303
401.354	9.30781
401.567	17.73793
401.781	68.32652
401.994	2.98547
402.208	-43.37164
402.421	59.89417
402.635	34.5993
402.848	-106.56629
403.061	26.16843
403.275	62.00222
403.488	11.4153
403.701	-26.51589
403.915	-39.15785
404.128	-24.40881
404.341	57.78613
404.555	93.62577
404.768	26.16843
404.981	-22.3017
405.195	5.09289
405.408	19.84552
405.621	53.57014
405.834	-9.65855
406.048	7.20034
406.261	40.92271
406.474	-15.98024
406.687	11.4153
406.9	74.65103
407.114	142.12488
407.327	-9.65855
407.54	-51.79892
407.753	-51.79892
407.966	19.84552
408.179	19.84552
408.392	17.73793
408.605	-9.65855
408.819	13.52282
409.032	7.20034
409.245	-1.2293
409.458	59.89417
409.671	110.49372
409.884	66.2184
410.097	83.08402
410.31	7.20034
410.523	13.52282
410.736	7.20034
410.949	74.65103
411.162	13.52282
411.375	34.5993
411.588	-15.98024
411.801	59.89417
412.014	-7.55127
412.227	19.84552
412.44	2.98547
412.653	80.97574
412.865	26.16843
413.078	66.2184
413.291	24.06077
413.504	66.2184
413.717	-11.7658
413.93	17.73793
414.143	-1.2293
414.356	-7.55127
414.568	-1.2293
414.781	87.30066
414.994	32.49155
415.207	-13.87303
415.42	9.30781
415.632	-39.15785
415.845	-7.55127
416.058	89.40901
416.271	15.63036
416.483	57.78613
416.696	17.73793
416.909	9.30781
417.121	-1.2293
417.334	43.03055
417.547	55.67812
417.759	-9.65855
417.972	91.51738
418.185	68.32652
418.397	57.78613
418.61	-24.40881
418.823	-13.87303
419.035	9.30781
419.248	36.70708
419.46	78.86748
419.673	-13.87303
419.885	85.19233
420.098	-43.37164
420.311	-32.83698
420.523	17.73793
420.736	40.92271
420.948	-39.15785
421.161	-1.2293
421.373	49.35423
421.586	-30.72997
421.798	91.51738
422.01	19.84552
422.223	57.78613
422.435	-13.87303
422.648	17.73793
422.86	57.78613
423.073	59.89417
423.285	-3.33665
423.497	-15.98024
423.71	-72.86535
423.922	34.5993
424.134	30.38382
424.347	-9.65855
424.559	11.4153
424.771	36.70708
424.984	40.92271
425.196	-9.65855
425.408	40.92271
425.621	49.35423
425.833	-18.08741
426.045	70.43467
426.257	34.5993
426.47	45.13842
426.682	74.65103
426.894	-30.72997
427.106	74.65103
427.318	66.2184
427.531	53.57014
427.743	0.87808
427.955	32.49155
428.167	26.16843
428.379	43.03055
428.591	51.46218
428.804	0.87808
429.016	78.86748
429.228	78.86748
429.44	40.92271
429.652	43.03055
429.864	59.89417
430.076	-64.43909
430.288	-15.98024
430.5	-39.15785
430.712	99.95108
430.924	34.5993
431.136	72.54284
431.348	-34.94396
431.56	62.00222
431.772	32.49155
431.984	13.52282
432.196	40.92271
432.408	19.84552
432.62	49.35423
432.832	36.70708
433.044	59.89417
433.256	19.84552
433.468	-3.33665
433.679	59.89417
433.891	11.4153
434.103	40.92271
434.315	32.49155
434.527	19.84552
434.739	68.32652
434.95	26.16843
435.162	66.2184
435.374	45.13842
435.586	99.95108
435.798	24.06077
436.009	51.46218
436.221	87.30066
436.433	9.30781
436.645	118.92822
436.856	40.92271
437.068	24.06077
437.28	57.78613
437.491	108.38515
437.703	26.16843
437.915	9.30781
438.126	32.49155
438.338	57.78613
438.55	0.87808
438.761	66.2184
438.973	72.54284
439.184	26.16843
439.396	87.30066
439.608	74.65103
439.819	15.63036
440.031	68.32652
440.242	-3.33665
440.454	125.25432
440.665	66.2184
440.877	57.78613
441.088	51.46218
441.3	49.35423
441.511	142.12488
441.723	28.27611
441.934	-5.44397
442.146	36.70708
442.357	19.84552
442.569	121.0369
442.78	34.5993
442.991	62.00222
443.203	91.51738
443.414	112.60231
443.626	62.00222
443.837	30.38382
444.048	91.51738
444.26	49.35423
444.471	87.30066
444.682	24.06077
444.894	85.19233
445.105	19.84552
445.316	40.92271
445.528	110.49372
445.739	87.30066
445.95	146.34273
446.161	72.54284
446.373	116.81956
446.584	140.01598
446.795	129.47183
447.006	28.27611
447.217	70.43467
447.429	93.62577
447.64	24.06077
447.851	99.95108
448.062	95.73419
448.273	99.95108
448.484	68.32652
448.695	161.10588
448.907	108.38515
449.118	135.79826
449.329	116.81956
449.54	74.65103
449.751	125.25432
449.962	83.08402
450.173	95.73419
450.384	104.16807
450.595	112.60231
450.806	95.73419
451.017	83.08402
451.228	116.81956
451.439	99.95108
451.65	40.92271
451.861	80.97574
452.072	150.56067
452.283	97.84262
452.494	83.08402
452.705	102.05957
452.915	169.54242
453.126	66.2184
453.337	51.46218
453.548	93.62577
453.759	66.2184
453.97	51.46218
454.181	131.58062
454.391	123.1456
454.602	51.46218
454.813	209.6205
455.024	163.21498
455.235	104.16807
455.445	133.68943
455.656	167.43326
455.867	125.25432
456.078	167.43326
456.288	180.08857
456.499	68.32652
456.71	121.0369
456.921	135.79826
457.131	222.27825
457.342	135.79826
457.553	158.99679
457.763	150.56067
457.974	104.16807
458.184	163.21498
458.395	167.43326
458.606	237.04651
458.816	110.49372
459.027	137.90711
459.237	112.60231
459.448	169.54242
459.659	180.08857
459.869	184.30718
460.08	163.21498
460.29	146.34273
460.501	213.83967
460.711	218.05892
460.922	196.96348
461.132	196.96348
461.343	184.30718
461.553	213.83967
461.764	209.6205
461.974	152.66967
462.184	199.07293
462.395	234.9367
462.605	213.83967
462.816	260.25571
463.026	218.05892
463.236	251.81573
463.447	196.96348
463.657	306.68093
463.867	313.01233
464.078	243.37606
464.288	260.25571
464.498	344.67174
464.709	399.55725
464.919	329.89685
465.129	310.90184
465.339	357.33661
465.55	355.22575
465.76	228.60739
465.97	429.11561
466.18	412.22473
466.391	462.9004
466.601	348.89329
466.811	420.67004
467.021	437.56144
467.231	437.56144
467.441	306.68093
467.651	553.71593
467.862	496.6891
468.072	549.49137
468.282	509.36083
468.492	570.61472
468.702	589.62687
468.912	625.54156
469.122	574.83955
469.332	640.33102
469.542	547.37911
469.752	657.23398
469.962	644.55668
470.172	665.68575
470.382	667.79872
470.592	830.52991
470.802	792.48349
471.012	813.62002
471.222	915.08767
471.432	834.75747
471.642	860.12359
471.852	826.30238
472.062	929.8866
472.272	1008.11532
472.482	929.8866
472.691	1088.46722
472.901	1054.63385
473.111	1137.10491
473.321	1130.76072
473.531	1276.68541
473.741	1092.69648
473.95	1297.83507
474.16	1198.43392
474.37	1354.94013
474.58	1295.7201
474.79	1490.303
474.999	1302.06503
475.209	1386.6656
475.419	1386.6656
475.628	1598.16922
475.838	1477.6127
476.048	1549.52405
476.258	1655.27313
476.467	1847.71793
476.677	1731.40872
476.886	2018.98215
477.096	1815.99851
477.306	1974.58403
477.515	1837.1449
477.725	1968.24121
477.935	1995.72634
478.144	2122.56596
478.354	2042.23714
478.563	2188.08915
478.773	2236.69794
478.982	2331.7883
479.192	2492.33948
479.401	2344.46555
479.611	2416.2965
479.82	2452.20744
480.03	2412.07148
480.239	2661.2706
480.449	2635.93587
480.658	2587.37266
480.868	2728.82089
481.077	2798.468
481.287	2619.04505
481.496	2870.21
481.705	3007.31747
481.915	2973.57375
482.124	3079.00987
482.333	3108.52502
482.543	3015.7528
482.752	3384.54662
482.961	3243.41119
483.171	3234.98278
483.38	3186.51426
483.589	3506.65999
483.799	3525.60317
484.008	3502.45019
484.217	3698.12723
484.426	3618.19276
484.636	3731.77559
484.845	3874.7254
485.054	3803.26186
485.263	3891.53701
485.472	3986.07827
485.682	4028.08338
485.891	4162.4441
486.1	3996.58031
486.309	4177.1346
486.518	4313.4967
486.727	4179.23316
486.936	4361.72619
487.146	4273.64635
487.355	4294.62119
487.564	4202.31591
487.773	4516.82112
487.982	4659.23409
488.191	4671.79498
488.4	4705.28672
488.609	4722.03043
488.818	4663.42114
489.027	4770.16054
489.236	4768.06817
489.445	5090.02287
489.654	4910.29708
489.863	5265.40348
490.072	5161.03005
490.281	5156.8539
490.49	5238.272
490.698	5037.7946
490.907	5209.04907
491.116	5459.38245
491.325	5284.1845
491.534	5632.33174
491.743	5542.75177
491.952	5528.16486
492.16	5800.95695
492.369	5590.67206
492.578	5574.00555
492.787	5852.9705
492.996	5384.31789
493.204	5832.16685
493.413	5861.2913
493.622	5859.21113
493.831	5763.49807
494.039	5998.52999
494.248	5900.80994
494.457	6156.43531
494.665	6337.02888
494.874	6393.03918
495.083	6291.37828
495.291	6214.57673
495.5	6395.1133
495.709	6218.72899
495.917	6320.42997
496.126	6594.12149
496.335	6424.14866
496.543	6755.65888
496.752	6625.19724
496.96	6739.09737
497.169	6446.95896
497.377	6662.4813
497.586	6708.04059
497.794	6757.72897
498.003	6788.77751
498.211	6794.9866
498.42	7001.8393
498.628	7160.96239
498.837	7041.11578
499.045	7053.51719
499.254	7152.69952
499.462	7367.41937
499.671	7039.0488
499.879	7441.69026
500.087	7202.27144
500.296	7427.2509
500.504	7272.47651
500.713	7509.74722
500.921	7452.00343
501.129	7499.43707
501.338	7369.48284
501.546	7579.84201
501.754	7468.50338
501.962	7794.09703
502.171	7746.73334
502.379	7859.97597
502.587	7561.28992
502.795	7824.98043
503.004	7719.95765
503.212	7913.48698
503.42	8032.8077
503.628	8065.71171
503.837	7923.77597
504.045	8141.78245
504.253	7938.17968
504.461	8094.49847
504.669	8106.83445
504.877	8304.11249
505.085	8248.64648
505.294	8478.63509
505.502	8213.71606
505.71	8486.8445
505.918	8156.17113
506.126	8421.16069
506.334	8258.91904
506.542	8667.3749
506.75	8137.67122
506.958	8577.1279
507.166	8415.00183
507.374	8534.04267
507.582	8560.71546
507.79	8837.51626
507.998	8632.51103
508.206	8794.48033
508.414	8767.83502
508.622	8732.98651
508.83	8858.00676
509.037	8833.41794
509.245	8798.57933
509.453	8845.71268
509.661	8941.99909
509.869	8976.81641
510.077	8739.13663
510.285	9046.43581
510.492	9009.581
510.7	9060.76671
510.908	9118.08182
511.116	9257.21984
511.324	9032.10406
511.531	9173.3372
511.739	9216.30503
511.947	9148.7808
512.155	9459.65047
512.362	9439.21021
512.57	9066.90826
512.778	9443.29839
512.985	9400.36925
513.193	9651.71104
513.401	9478.04533
513.608	9478.04533
513.816	9473.9577
514.024	9523.00507
514.231	9328.80467
514.439	9606.77317
514.646	9735.43891
514.854	9878.32999
515.061	9567.95711
515.269	9894.65575
515.477	9631.28567
515.684	9949.74825
515.892	9845.67563
516.099	9917.10213
516.307	10047.66438
516.514	10090.49234
516.722	10114.96267
516.929	10088.45306
517.136	9939.54674
517.344	9868.12591
517.551	10090.49234
517.759	10345.29431
517.966	9945.66769
518.173	10194.47738
518.381	10163.89729
518.588	10280.08523
518.796	10292.31298
519.003	10630.4274
519.21	10208.74702
519.418	10449.19332
519.625	10204.67005
519.832	10504.18503
520.039	10522.51353
520.247	10709.81357
520.454	10646.71326
520.661	10921.42148
520.868	10831.91048
521.076	11106.47732
521.283	10811.56395
521.49	10872.60006
521.697	10789.18141
521.904	10939.72781
522.112	10748.48222
522.319	11019.04476
522.526	10829.87588
522.733	11238.60521
522.94	10929.55774
523.147	11108.5104
523.354	11126.8076
523.561	11246.73471
523.768	11057.68024
523.975	11321.92485
524.183	11374.75289
524.39	11301.60456
524.597	11352.40338
524.804	11141.03816
525.011	11537.25923
525.218	11393.03795
525.425	11709.85648
525.632	11508.82504
525.838	11437.73143
526.045	11521.01135
526.252	11585.99927
526.459	11782.93701
526.666	11799.1756
526.873	11555.53737
527.08	11557.56823
527.287	11809.32444
527.494	11581.9378
527.701	11925.00635
527.907	11983.8518
528.114	12012.25753
528.321	11801.20539
528.528	12046.74812
528.735	12038.63289
528.941	12054.86322
529.148	11908.77192
529.355	12150.20649
529.562	12121.80812
529.768	12176.57508
529.975	12030.51753
530.182	12397.61765
530.388	12125.86512
530.595	12596.28449
530.802	12097.46549
531.008	12563.85328
531.215	12517.2306
531.422	12468.57724
531.628	12600.33828
531.835	12638.84806
532.042	12918.48767
532.248	12604.39205
532.455	12322.59423
532.661	12827.31256
532.868	12511.14913
533.074	12750.31158
533.281	12766.52299
533.487	12877.96674
533.694	12942.79921
533.9	13044.08938
534.107	12954.95471
534.313	13402.56263
534.52	13139.29094
534.726	13181.82445
534.933	13098.78093
535.139	13013.70365
535.345	13058.26901
535.552	13386.36334
535.758	13293.2124
535.965	13297.26262
536.171	13050.1664
536.377	13426.86108
536.584	13380.28854
536.79	13313.46335
536.996	13572.64039
537.203	13358.01397
537.409	13315.48842
537.615	13501.77784
537.821	13232.45698
538.028	13781.15458
538.234	13475.45633
538.44	13779.13033
538.646	13501.77784
538.853	13639.4497
539.059	13669.81635
539.265	13955.22924
539.471	13920.82074
539.677	13821.63892
539.883	14060.47426
540.09	14167.73676
540.296	13807.46953
540.502	14629.10993
540.708	14056.4265
540.914	14289.15901
541.12	14250.70938
541.326	14281.06441
541.532	14248.6857
541.738	14406.52769
541.944	14355.93843
542.15	14544.12581
542.356	14398.43347
542.562	14592.68841
542.768	14463.18652
542.974	14570.43063
543.18	14489.49202
543.386	14588.64155
543.592	14582.57126
543.798	14768.72278
544.004	14546.14926
544.21	14938.68142
544.415	14807.1662
544.621	14780.86284
544.827	14509.72687
545.033	15159.21879
545.239	14997.35679
545.445	15076.26464
545.651	14770.74613
545.856	15349.40669
546.062	15128.86973
546.268	15205.75401
546.474	15094.47411
546.679	14819.30617
546.885	14948.79789
547.091	15072.2181
547.297	15082.33447
547.502	15236.10309
547.708	15003.42664
547.914	15418.19864
548.119	15104.59047
548.325	15612.43804
548.531	15163.26533
548.736	15438.43166
548.942	15353.45326
549.147	15450.57149
549.353	15367.61628
549.559	15541.62091
549.764	15638.74179
549.97	15418.19864
550.175	15460.68804
550.381	15766.21593
550.586	15652.9054
550.792	16041.41335
550.997	15909.88226
551.203	15776.33309
551.408	15721.70072
551.614	15679.20937
551.819	15669.09244
552.025	16037.36615
552.23	16049.50776
552.435	16195.21146
552.641	16094.02747
552.846	16140.5716
553.052	16130.45324
553.257	16197.23518
553.462	16304.49492
553.668	16614.16194
553.873	16304.49492
554.078	16377.35351
554.283	16385.44906
554.489	16685.00784
554.694	16539.27068
554.899	16195.21146
555.105	16399.61635
555.31	16591.89665
555.515	16642.49996
555.72	16982.59299
555.925	16403.66417
556.131	16838.85463
556.336	16383.42517
556.541	16816.58646
556.746	16547.36688
556.951	16765.97809
557.156	16749.78374
557.361	16705.25005
557.567	16703.22582
557.772	17146.59264
557.977	16929.95489
558.182	16765.97809
558.387	16921.85687
558.592	16934.00391
558.797	17033.20824
559.002	17170.89044
559.207	17102.04773
559.412	17014.98656
559.617	17041.30684
559.822	17215.43749
560.027	16976.51927
560.232	17227.58693
560.437	17102.04773
560.642	17199.2384
560.847	17087.87463
561.051	17083.8252
561.256	16998.78969
561.461	17389.58963
561.666	17132.41911
561.871	17440.21946
562.076	17448.32041
562.281	17640.73298
562.485	17215.43749
562.69	17357.18754
562.895	17276.18573
563.1	17770.37492
563.305	17134.44389
563.509	17482.75002
563.714	17393.63994
563.919	17569.84076
564.123	17586.04435
564.328	17669.09099
564.533	17452.3709
564.737	17592.12074
564.942	17456.42141
565.147	17833.1752
565.351	17505.02848
565.556	17458.44667
565.761	17681.24462
565.965	17831.14934
566.17	17748.09174
566.374	17920.29074
566.579	17952.70747
566.784	17825.07176
566.988	17863.56362
567.193	17940.55109
567.397	17766.3234
567.602	18212.07422
567.806	17654.9119
568.011	18041.85815
568.215	18047.93685
568.42	18439.06956
568.624	18195.86206
568.828	18244.49926
569.033	17999.3081
569.237	18530.28642
569.442	18256.65889
569.646	18157.35911
569.85	18139.12133
570.055	18666.11269
570.259	18672.19487
570.463	18607.32007
570.668	18268.81866
570.872	18522.17794
571.076	18177.62365
571.281	18524.20506
571.485	18475.55537
571.689	18507.98825
571.893	18372.1821
572.098	18449.20438
572.302	18475.55537
572.506	18597.18374
572.71	18605.2928
572.914	18899.28846
573.119	18585.02028
573.323	18781.68021
573.527	18838.45493
573.731	18850.62135
573.935	18984.46146
574.139	19217.70984
574.343	18864.81569
574.547	19181.19783
574.751	18787.76307
574.955	18911.4556
575.159	18660.03054
575.364	19132.51723
575.568	18895.23278
575.772	19051.3881
575.976	18767.48702
576.18	18962.15356
576.383	19248.13752
576.587	18895.23278
576.791	18933.76239
576.995	19162.94233
577.199	18854.67685
577.403	19027.05063
577.607	19526.08671
577.811	19649.87021
578.015	19087.8954
578.219	19408.4053
578.422	19102.09304
578.626	19446.95457
578.83	19179.16943
579.034	19353.62734
579.238	19197.42523
579.442	19444.92562
579.645	19430.72311
579.849	19493.62147
580.053	19597.10813
580.257	19783.81742
580.46	19651.89957
580.664	19250.16607
580.868	19741.19587
581.071	19804.11404
581.275	19522.0285
581.479	19753.37327
581.682	19850.79788
581.886	19771.63965
582.09	20094.40176
582.293	20181.70789
582.497	19862.97663
582.7	20175.61651
582.904	20179.67742
583.107	20143.1298
583.311	20029.4348
583.515	19771.63965
583.718	20051.7667
583.922	20124.8565
584.125	20120.79581
584.329	20258.86861
584.532	20275.11375
584.735	20453.82799
584.939	20126.88685
585.142	19980.71241
585.346	20181.70789
585.549	20212.16534
585.753	20528.9789
585.956	20311.66629
586.159	20398.99176
586.363	20506.63614
586.566	20577.72849
586.769	20533.04127
586.973	20746.33936
587.176	20663.04607
587.379	20723.99169
587.582	20644.76311
587.786	20374.62108
587.989	20663.04607
588.192	20482.26279
588.395	20429.45595
588.599	20423.36304
588.802	20644.76311
589.005	20433.51792
589.208	21162.90993
589.411	21183.23484
589.615	21152.74762
589.818	21175.10483
590.021	21000.32526
590.224	20736.18126
590.427	20951.55497
590.63	21187.29987
590.833	21065.35599
591.036	21034.87231
591.239	21301.12735
591.442	21156.81253
591.645	21000.32526
591.848	21057.22692
592.051	21585.75106
592.254	21358.04583
592.457	21419.0334
592.66	21341.78308
592.863	21648.7854
593.066	21211.69041
593.269	21553.2187
593.472	21565.41822
593.675	21591.851
593.878	21362.11155
594.081	21630.48472
594.284	21559.31844
594.486	21984.3536
594.689	21833.84335
594.892	21921.29946
595.095	21675.22027
595.298	21612.18436
595.5	21475.95838
595.703	22023.0015
595.906	22224.39934
596.109	22071.82184
596.311	21829.7758
596.514	21730.12558
596.717	22197.95107
596.92	22153.19389
597.122	21744.36076
597.325	22322.05989
597.528	21947.74107
597.73	22600.84545
597.933	21933.5032
598.136	22254.91735
598.338	22049.44558
598.541	21990.45581
598.743	21931.46924
598.946	21919.26552
599.148	22045.37722
599.351	21841.9785
599.554	22029.10392
599.756	22204.05446
599.959	22374.96289
600.161	22694.46728
600.363	22283.40158
600.566	22258.98648
600.768	22562.17774
600.971	22177.60668
601.173	22543.86191
601.376	22722.96235
601.578	22415.65917
601.78	22724.99774
601.983	22366.82381
602.185	22438.04275
602.388	22686.32596
602.59	22843.05619
602.792	22712.78546
602.995	22529.61645
603.197	22737.21015
603.399	22877.66172
603.601	22948.91149
603.804	22779.95454
604.006	22779.95454
604.208	22608.98618
604.41	22657.83177
604.613	23018.12951
604.815	22619.16218
605.017	23270.60408
605.219	22987.59167
605.421	22916.33966
605.623	22684.29064
605.826	23034.41667
606.028	22700.57331
606.23	23097.5314
606.432	22981.4842
606.634	23172.86603
606.836	22627.30304
607.038	22983.52002
607.24	22619.16218
607.442	22602.88063
607.644	22543.86191
607.846	23095.49539
608.048	22578.45873
608.25	22781.99003
608.452	22706.67937
608.654	22763.67078
608.856	22914.30394
609.058	23121.96376
609.26	23162.68541
609.462	23254.31389
609.664	23382.60467
609.866	23091.42338
610.067	23248.20512
610.269	23274.67666
610.471	22967.23353
610.673	23435.55374
610.875	23046.63217
611.077	23156.57708
611.278	22883.76868
611.48	23280.78555
611.682	22779.95454
611.884	23588.30319
612.085	23144.3605
612.287	23276.71295
612.489	23337.80328
612.69	23506.83466
612.892	23421.29801
613.094	23457.9559
613.295	23005.91429
613.497	23468.13883
613.699	23470.17543
613.9	23352.0581
614.102	23411.11545
614.304	23466.10224
614.505	22830.84271
614.707	23710.5151
614.908	23087.35139
615.11	23645.33407
615.311	23525.16465
615.513	23250.24137
615.714	23649.40779
615.916	23457.9559
616.117	23327.62136
616.319	23684.03493
616.52	23734.95877
616.722	23629.03929
616.923	23545.5316
617.124	23708.47814
617.326	23396.85998
617.527	23659.59215
617.729	23146.39659
617.93	23600.52389
618.131	23331.69412
618.333	23726.81083
618.534	23745.14376
618.735	23946.82164
618.937	23405.00594
619.138	23618.85515
619.339	23439.62683
619.54	23498.68808
619.742	23317.43952
619.943	23254.31389
620.144	23535.34809
620.345	23561.82538
620.546	23494.6148
620.748	23657.55527
620.949	23557.75192
621.15	23618.85515
621.351	23722.73688
621.552	23592.37675
621.753	23810.32945
621.954	23889.77855
622.155	23042.56032
622.356	23622.9288
622.558	23531.2747
622.759	23938.67249
622.96	23747.18077
623.161	24122.03928
623.362	23398.89647
623.563	24054.80215
623.764	23657.55527
623.965	23897.92743
624.166	24058.87704
624.366	23948.85893
624.567	23315.40316
624.768	23512.94463
624.969	23360.20379
625.17	23681.99802
625.371	23887.74134
625.572	23627.00245
625.773	23767.551
625.973	23337.80328
626.174	23826.62634
626.375	23857.18351
626.576	23816.44076
626.777	24238.18318
626.977	23498.68808
627.178	23806.25526
627.379	23728.84781
627.58	24181.12893
627.78	24073.13925
627.981	24117.96422
628.182	24058.87704
628.382	23893.85298
628.583	23969.23204
628.784	24016.09125
628.984	23352.0581
629.185	23730.8848
629.386	23421.29801
629.586	23602.56069
629.787	23967.19471
629.987	23671.81349
630.188	24103.70158
630.388	24036.46528
630.589	23712.55205
630.79	23957.00814
630.99	23822.5521
631.191	24056.8396
631.391	24160.75293
631.591	24272.82429
631.792	23661.62904
631.992	24276.89977
632.193	24199.46756
632.393	24007.94171
632.594	23608.67109
632.794	23773.66213
632.994	23995.71749
633.195	24278.93751
633.395	24164.8281
633.595	24120.00175
633.796	24297.27731
633.996	24427.69982
634.196	24179.09132
634.397	24056.8396
634.597	24160.75293
634.797	24509.21929
634.997	24492.91507
635.198	24635.58251
635.398	23965.15739
635.598	23977.38136
635.798	24425.66188
635.998	24517.37147
636.199	24444.00338
636.399	24252.44707
636.599	24120.00175
636.799	24580.55218
636.999	24156.67776
637.199	24099.62657
637.399	23838.84913
637.599	24221.88175
637.799	23582.19288
637.999	24175.0161
638.199	24230.03244
638.399	24350.26015
638.599	24338.03318
638.799	24423.62395
638.999	24721.18883
639.199	24588.70471
639.399	24295.23954
639.599	24664.11747
639.799	24217.80642
639.999	24307.46618
640.199	24040.54012
640.399	24297.27731
640.599	24230.03244
640.799	24988.22624
640.998	24925.03054
641.198	24376.75224
641.398	24203.54284
641.598	24554.05675
641.798	24680.42338
641.997	24401.20687
642.197	24507.18126
642.397	24517.37147
642.597	24841.45256
642.796	24763.99361
642.996	24468.45904
643.196	24509.21929
643.395	24278.93751
643.595	24458.26914
643.795	24670.23217
643.994	24649.84993
644.194	24715.07395
644.394	25100.35305
644.593	24975.99464
644.793	24880.18333
644.992	25004.53517
645.192	24988.22624
645.392	24631.50613
645.591	24823.10671
645.791	25004.53517
645.99	24869.99094
646.19	24645.77351
646.389	24886.29879
646.589	24790.49234
646.788	24884.2603
646.987	25098.31432
647.187	25438.8124
647.386	25263.4586
647.586	25159.47719
647.785	25126.85674
647.984	25271.61424
648.184	24941.33889
648.383	24717.11224
648.582	25041.23079
648.782	25334.82164
648.981	24723.22713
649.18	24633.54432
649.38	24804.76105
649.579	24837.37569
649.778	24743.61025
649.977	24900.56828
650.177	24920.95347
650.376	25573.39663
650.575	25018.8056
650.774	25247.14742
650.973	24908.72233
651.173	24843.491
651.372	24780.30047
651.571	24941.33889
651.77	25084.04327
651.969	25222.6809
652.168	25404.14821
652.367	25426.57791
652.566	24839.41413
652.765	25279.76992
652.964	25326.66573
653.163	25528.53424
653.362	25255.30299
653.561	24782.33884
653.76	25024.92153
653.959	24790.49234
654.158	25020.84424
654.357	24994.34207
654.556	24684.49988
654.755	25139.08934
654.954	25130.93426
655.153	24874.06789
655.352	25420.4607
655.551	25601.94592
655.749	25777.32859
655.948	25526.49506
656.147	25467.35983
656.346	25616.22072
656.545	25349.09456
656.743	25155.3996
656.942	25612.1422
657.141	25648.84918
657.34	25306.27611
657.538	25261.41969
657.737	25487.7511
657.936	25636.61345
658.135	25473.47719
658.333	25728.38315
658.532	25514.26005
658.731	25481.6337
658.929	25308.31506
659.128	25273.65316
659.326	25412.30444
659.525	25767.13153
659.724	25312.39297
659.922	25522.41672
660.121	25220.64204
660.319	25106.46925
660.518	25051.42414
660.716	25336.86062
660.915	25145.20567
661.113	25381.71876
661.312	25585.63199
661.51	25701.8715
661.709	25430.65607
661.907	25679.43882
662.105	25446.96877
662.304	26028.19082
662.502	25446.96877
662.701	26050.62699
662.899	25822.1962
663.097	25761.01332
663.296	25583.59276
663.494	25579.5143
663.692	25332.78266
663.891	25569.31819
664.089	25575.43585
664.287	25726.34378
664.485	25536.69097
664.684	25583.59276
664.882	25522.41672
665.08	25300.15926
665.278	25459.20338
665.476	25328.7047
665.675	25243.06964
665.873	25485.71196
666.071	25243.06964
666.269	25098.31432
666.467	25037.15346
666.665	25130.93426
666.863	24682.46163
667.061	25045.30812
667.259	25332.78266
667.457	25479.59457
667.655	25555.04372
667.853	25620.29925
668.051	25324.62676
668.249	25289.96457
668.447	25179.86525
668.645	25104.43051
668.843	25118.70172
669.041	25206.37006
669.239	25082.00456
669.437	25222.6809
669.635	25471.43807
669.833	25444.92968
670.031	25035.1148
670.229	25314.43193
670.426	25296.08138
670.624	25891.53883
670.822	25285.8867
671.02	25644.7706
671.218	25477.55544
671.415	25320.54882
671.613	25410.26538
671.811	24941.33889
672.009	25279.76992
672.206	25263.4586
672.404	25147.24445
672.602	25506.10341
672.799	25355.21156
672.997	25312.39297
673.195	25082.00456
673.392	25092.19814
673.59	25055.5015
673.788	25465.32072
673.985	25175.78762
674.183	25361.32857
674.38	25701.8715
674.578	25285.8867
674.775	25287.92563
674.973	25208.40891
675.17	25393.95298
675.368	25357.25056
675.565	25369.48462
675.763	24998.4193
675.96	25067.73363
676.158	25149.28324
676.355	24953.57026
676.553	25506.10341
676.75	25161.51598
676.947	25404.14821
677.145	24951.53169
677.342	25031.03748
677.539	24747.6869
677.737	25010.65105
677.934	25026.96018
678.131	25453.08607
678.329	25536.69097
678.526	25324.62676
678.723	25202.29238
678.92	25418.42163
679.118	25002.49654
679.315	25261.41969
679.512	25016.76696
679.709	24982.11043
679.906	24788.45396
680.104	25151.32202
680.301	24951.53169
680.498	25161.51598
680.695	24280.97525
680.892	24590.74285
681.089	24576.47593
681.286	24796.60748
681.483	24352.29799
681.68	24674.30864
681.877	24507.18126
682.075	24808.83785
682.272	24484.76302
682.469	24998.4193
682.665	24166.8657
682.862	23981.45603
683.059	24303.39062
683.256	24301.35285
683.453	24012.01647
683.65	24354.33583
683.847	24195.39229
684.044	24024.24083
684.241	24403.24478
684.438	24382.86587
684.635	24543.86631
684.831	24700.80598
685.028	24480.68701
685.225	23922.37433
685.422	23934.59793
685.619	24278.93751
685.815	24825.14513
686.012	24710.99738
686.209	24315.61732
686.405	24262.63565
686.602	23932.56066
686.799	24016.09125
686.996	23834.77486
687.192	23814.40366
687.389	23916.26256
687.586	24120.00175
687.782	23753.29181
687.979	24089.43908
688.175	23580.15612
688.372	23751.25479
688.568	23553.67847
688.765	23806.25526
688.962	23932.56066
689.158	24020.16603
689.355	24164.8281
689.551	24124.07681
689.748	24197.42993
689.944	23844.96057
690.14	23918.29981
690.337	23840.88627
690.533	24007.94171
690.73	23983.49338
690.926	23857.18351
691.123	23820.51498
691.319	23771.62508
691.515	23757.36585
691.712	23908.11358
691.908	24069.06432
692.104	23673.85039
692.301	23726.81083
692.497	23706.44119
692.693	23710.5151
692.889	23618.85515
693.086	24007.94171
693.282	23838.84913
693.478	23808.29235
693.674	23893.85298
693.87	23647.37093
694.067	23830.70059
694.263	23739.03276
694.459	23948.85893
694.655	24270.78656
694.851	23991.64278
695.047	23885.70413
695.243	24060.91449
695.439	23908.11358
695.635	23350.02169
695.831	23633.11296
696.027	23543.49489
696.224	23643.29721
696.42	23264.49523
696.615	23551.64174
696.811	23643.29721
697.007	23627.00245
697.203	23926.44885
697.399	23967.19471
697.595	23846.99772
697.791	23413.15195
697.987	23201.37219
698.183	23588.30319
698.379	23154.54097
698.575	23437.59028
698.77	23455.91933
698.966	23254.31389
699.162	23319.47588
699.358	23248.20512
699.554	23121.96376
699.749	22841.02061
699.945	22753.49355
700.141	23103.63944
700.337	23075.13548
700.532	23315.40316
700.728	23185.08287
700.924	23205.44455
701.119	23026.27306
701.315	23128.07192
701.511	22812.52272
701.706	22977.41256
701.902	22572.35333
702.097	22727.03313
702.293	22959.09037
702.489	22635.44396
702.684	22623.2326
702.88	23081.24342
703.075	23050.70403
703.271	22773.84811
703.466	23038.48849
703.662	23064.95565
703.857	22948.91149
704.053	23386.6776
704.248	23211.55311
704.443	23433.5172
704.639	22828.80715
704.834	22869.51916
705.03	22853.23419
705.225	23040.5244
705.42	23199.33601
705.616	22900.05406
705.811	22843.05619
706.006	22912.26824
706.202	22893.94702
706.397	23121.96376
706.592	22910.23253
706.787	22879.69737
706.983	22663.93761
707.178	22883.76868
707.373	22588.63446
707.568	22543.86191
707.763	22332.23336
707.959	22680.22
708.154	22781.99003
708.349	22655.79649
708.544	22900.05406
708.739	22841.02061
708.934	22657.83177
709.129	22908.19683
709.324	22497.05608
709.519	22838.98502
709.714	22826.77158
709.909	23150.46878
710.104	22855.2698
710.299	22499.09108
710.494	22230.50288
710.689	22704.64401
710.884	22816.59381
711.079	22731.10393
711.274	22354.61529
711.469	22362.75429
711.664	22676.14938
711.859	22922.44681
712.054	22552.00224
712.249	22580.49386
712.443	22157.26265
712.638	22478.74128
712.833	21878.58745
713.028	22311.88653
713.223	22029.10392
713.417	22126.74732
713.612	21957.9111
713.807	22267.12479
714.002	22452.28707
714.196	22358.68478
714.391	22358.68478
714.586	22407.5198
714.78	22116.57573
714.975	22132.85032
715.17	21715.8906
715.364	21884.68906
715.559	22167.43462
715.754	21681.32072
715.948	21705.72287
716.143	21951.80907
716.337	21860.28282
716.532	22338.33748
716.726	22572.35333
716.921	22366.82381
717.115	21846.0461
717.31	22547.93207
717.504	22069.78762
717.699	22360.71953
717.893	22106.40423
718.088	22112.50712
718.282	21839.94471
718.476	21663.01948
718.671	21374.30883
718.865	21577.61788
719.059	21116.16416
719.254	21634.55151
719.448	21488.157
719.642	22126.74732
719.837	21677.25375
720.031	21778.93269
720.225	21622.35118
720.419	21789.10112
720.614	21177.13733
720.808	21573.55131
721.002	21051.13016
721.196	20965.7794
721.39	21077.54972
721.585	21189.3324
721.779	21321.45502
721.973	21347.88158
722.167	20728.05486
722.361	20799.16311
722.555	20912.94684
722.749	20998.29312
722.943	20975.93982
723.137	21197.46253
723.331	21301.12735
723.525	21386.50625
723.719	21347.88158
723.913	21604.05097
724.107	21248.2773
724.301	21610.151
724.495	21445.46247
724.689	21494.25636
724.883	21110.06705
725.077	21032.8401
725.271	20803.22659
725.465	20896.69123
725.659	20949.52293
725.853	20813.38536
726.046	20827.60782
726.24	20620.38636
726.434	20504.605
726.628	20831.67142
726.822	20277.14441
727.015	20931.23472
727.209	20520.8542
727.403	20975.93982
727.596	20937.33075
727.79	21124.2937
727.984	21158.84499
728.177	21191.36492
728.371	20567.57213
728.565	20622.41773
728.758	21258.44056
728.952	20784.94105
729.146	20752.43426
729.339	21026.74349
729.533	21061.29145
729.726	21073.48513
729.92	21071.45284
730.113	20919.04276
730.307	20760.56086
730.5	20721.96011
730.694	20526.94772
730.887	20726.02328
731.081	20925.13872
731.274	20825.57603
731.468	20297.45125
731.661	20508.66728
731.854	20319.78926
732.048	20476.16955
732.241	20145.16019
732.435	20709.77071
732.628	20667.10899
732.821	20587.88496
733.014	20250.74615
733.208	20518.82303
733.401	20612.26091
733.594	20880.43588
733.788	20522.88537
733.981	20813.38536
734.174	20766.65585
734.367	21016.58255
734.56	20831.67142
734.754	20963.74732
734.947	20789.00447
735.14	20825.57603
735.333	20528.9789
735.526	20484.29388
735.719	19917.78291
735.912	19958.38212
736.105	20072.06888
736.298	19990.86271
736.491	20374.62108
736.684	20461.95214
736.877	20541.16607
737.07	20510.69842
737.263	20466.01423
737.456	20498.51162
737.649	20378.68282
737.842	20411.17732
738.035	20463.98318
738.228	20155.31219
738.421	21073.48513
738.614	20411.17732
738.807	20055.82711
739	20145.16019
739.192	20167.49473
739.385	20124.8565
739.578	20130.94756
739.771	20441.6419
739.964	20354.31264
740.156	20159.37302
740.349	20045.67613
740.542	20098.46233
740.735	19907.63337
740.927	20250.74615
741.12	19950.26215
741.313	20260.89924
741.505	19972.59225
741.698	20047.70632
741.891	19761.49162
742.083	19938.0823
742.276	19962.44214
742.468	20059.88752
742.661	20070.03864
742.854	19871.09589
743.046	19940.11227
743.239	19625.51813
743.431	20092.37147
743.624	19503.76675
743.816	19507.82488
744.009	19781.78778
744.201	19599.13739
744.393	19522.0285
744.586	19519.9994
744.778	19524.0576
744.971	19566.66975
745.163	19929.9625
745.355	19755.40285
745.548	19554.49466
745.74	19724.95958
745.932	19716.84153
746.125	19996.95294
746.317	19940.11227
746.509	19787.87671
746.702	19737.13677
746.894	19104.12129
747.086	18952.01377
747.278	18935.79031
747.471	18749.23891
747.663	19627.54744
747.855	19205.53902
748.047	19420.57859
748.239	19300.88104
748.431	18968.23749
748.623	19233.93782
748.815	18978.37744
749.008	19475.36025
749.2	19329.28254
749.392	19412.46305
749.584	19158.8856
749.776	19625.51813
749.968	19367.82874
750.16	19049.35996
750.352	19347.54108
750.544	19286.68059
750.736	19179.16943
750.928	19138.60217
751.12	18954.04172
751.311	18925.65077
751.503	19051.3881
751.695	18933.76239
751.887	19225.8238
752.079	19242.05191
752.271	18897.26062
752.463	19351.59858
752.654	19057.47256
752.846	18905.37201
753.038	18649.89371
753.23	19077.75435
753.421	18966.20951
753.613	19041.24742
753.805	18927.67867
753.997	18881.03802
754.188	18868.87125
754.38	18741.12874
754.572	18337.72654
754.763	18487.71759
754.955	18388.39687
755.146	18526.23217
755.338	18779.6526
755.53	18613.40191
755.721	18840.48266
755.913	18532.31355
756.104	18455.28532
756.296	18658.00317
756.487	18643.81165
756.679	18990.54552
756.87	18619.48379
757.062	18745.18382
757.253	19016.91019
757.445	18739.10121
757.636	18633.67498
757.827	18591.102
758.019	18876.98241
758.21	18801.95654
758.401	18613.40191
758.593	18297.19197
758.784	18333.67301
758.975	18100.62032
759.167	18258.68551
759.358	18137.09493
759.549	17991.20351
759.74	18017.54364
759.932	17922.31676
760.123	17798.73593
760.314	17918.26473
760.505	17891.92684
760.696	18031.72704
760.888	18074.27828
761.079	18064.14689
761.27	17893.95281
761.461	17900.03074
761.652	18240.44608
761.843	17987.15124
762.034	18062.12062
762.225	17855.45996
762.416	17742.01458
762.607	17721.75759
762.798	17776.45223
762.989	17883.82299
763.18	17774.42645
763.371	17750.11746
763.562	17689.34711
763.753	17821.02005
763.944	17855.45996
764.135	17537.43421
764.326	17618.45214
764.517	17594.14622
764.708	17553.63739
764.899	17172.91528
765.089	17193.16379
765.28	17229.61184
765.471	17055.47949
765.662	16844.92782
765.853	16956.27371
766.043	16964.3719
766.234	16992.7159
766.425	16976.51927
766.615	17257.96098
766.806	17035.23289
766.997	16612.13781
767.187	16901.61203
767.378	17219.48729
767.569	16923.88137
767.759	17266.06084
767.95	17255.93602
768.141	17345.03697
768.331	17148.61744
768.522	17357.18754
768.712	17019.0358
768.903	17073.70167
769.093	17023.08506
769.284	17079.77578
769.474	16851.00103
769.665	16820.6352
769.855	16996.76509
770.046	16680.95943
770.236	16638.45165
770.426	16292.35205
770.617	16828.7327
770.807	16737.63807
770.998	16763.95379
771.188	16630.35504
771.378	16436.04698
771.569	16529.15046
771.759	16599.99309
771.949	16476.52621
772.139	16650.59662
772.33	15970.5882
772.52	16041.41335
772.71	16286.28065
772.9	16004.98877
773.09	16413.78374
773.281	16142.59528
773.471	16320.6855
773.661	16320.6855
773.851	16403.66417
774.041	16197.23518
774.231	16021.17741
774.421	15861.31833
774.611	15681.23276
774.802	15543.64424
774.992	15723.72413
775.182	15895.7177
775.372	15739.91143
775.562	15735.8646
775.752	15531.50424
775.942	15654.92878
776.131	15687.30293
776.321	15539.59757
776.511	15863.34181
776.701	15586.13443
776.891	15980.70597
777.081	15462.71135
777.271	15650.88203
777.461	15699.44329
777.651	15839.0601
777.84	15717.65391
778.03	15727.77095
778.22	15675.1626
778.41	15513.29429
778.599	15266.4522
778.789	15782.4034
778.979	15531.50424
779.169	15466.75797
779.358	15153.14897
779.548	15576.01769
779.738	15294.77808
779.927	15341.31355
780.117	15375.70944
780.307	15329.17385
780.496	15225.98673
780.686	15284.66169
780.875	14845.60936
781.065	15270.49875
781.254	15047.93879
781.444	14938.68142
781.633	14675.64804
781.823	15033.77585
782.012	15003.42664
782.202	15387.84919
782.391	14997.35679
782.581	15147.07916
782.77	15045.91551
782.96	15242.17291
783.149	14855.72595
783.338	15219.91691
783.528	15242.17291
783.717	15236.10309
783.906	15114.70683
784.096	15043.89224
784.285	14964.98421
784.474	14995.33351
784.663	14780.86284
784.853	14924.51835
785.042	14513.77382
785.231	14778.83949
785.42	14475.32755
785.61	14566.38375
785.799	14546.14926
785.988	14412.59833
786.177	14161.66546
786.366	14155.59414
786.555	14054.40261
786.744	14143.45145
786.933	14521.86771
787.122	14455.09247
787.312	14677.67142
787.501	14376.17425
787.69	14054.40261
787.879	14224.40135
788.068	14135.35628
788.257	13752.81483
788.445	13766.98478
788.634	14254.75674
788.823	13874.26684
789.012	13890.45966
789.201	13849.97727
789.39	14117.14201
789.579	13789.25154
789.768	14058.45038
789.957	14028.09188
790.145	14017.97226
790.334	13791.27577
790.523	13762.93624
790.712	13860.09797
790.9	13572.64039
791.089	13702.20663
791.278	13584.78781
791.467	13469.38204
791.655	13773.05757
791.844	13823.6631
792.033	13266.88553
792.221	13050.1664
792.41	13347.889
792.599	13106.88308
792.787	13673.86518
792.976	13730.54746
793.164	13716.37713
793.353	13430.91077
793.541	13686.01159
793.73	13291.18728
793.918	13714.35278
794.107	13509.87664
794.295	13588.83693
794.484	13277.01133
794.672	13159.54525
794.861	13248.65881
795.049	13386.36334
795.238	13088.65313
795.426	13033.96093
795.614	12924.56563
795.803	12973.18759
795.991	12926.5916
796.179	13252.70922
796.368	12973.18759
796.556	13098.78093
796.744	12845.54846
796.932	12835.41746
797.121	12867.83618
797.309	13058.26901
797.497	13005.6006
797.685	13179.79909
797.874	12750.31158
798.062	12884.04502
798.25	12584.12297
798.438	13155.49442
798.626	12912.40967
798.814	13086.62755
799.002	12831.36502
799.19	12973.18759
799.378	12752.33803
799.566	12701.67514
799.755	12571.96123
799.943	12614.52635
800.131	12655.06205
800.318	12620.60686
800.506	12653.03532
800.694	12511.14913
800.882	12403.70022
801.07	12717.88766
801.258	12707.75488
801.446	12586.14991
801.634	12543.58296
801.822	12513.1763
802.01	12778.68131
802.197	12821.23383
802.385	12511.14913
802.573	12843.52227
802.761	12981.29097
802.949	12746.25867
803.136	12381.39716
803.324	12762.47017
803.512	12565.88028
803.699	12543.58296
803.887	12837.44367
804.075	12823.26008
804.262	12677.35566
804.45	12969.13588
804.638	12340.84404
804.825	12537.50174
805.013	12196.85776
805.201	12689.51551
805.388	12373.28676
805.576	12640.87483
805.763	12381.39716
805.951	12679.38232
806.138	12634.7945
806.326	12584.12297
806.513	12490.87716
806.701	12586.14991
806.888	12620.60686
807.075	12693.56874
807.263	12432.08475
807.45	12687.48888
807.638	12401.6727
807.825	12584.12297
808.012	12490.87716
808.2	12519.25774
808.387	12691.54213
808.574	12819.20758
808.761	12717.88766
808.949	13198.02717
809.136	12551.69116
809.323	12468.57724
809.51	12531.42047
809.698	12802.99734
809.885	12839.46988
810.072	12845.54846
810.259	12563.85328
810.446	12657.08877
810.633	12604.39205
810.82	12705.72831
811.008	12529.39336
811.195	12373.28676
811.382	12206.99883
811.569	12675.329
811.756	12369.23151
811.943	12604.39205
812.13	12756.3909
812.317	12730.0468
812.504	12529.39336
812.691	12930.64354
812.878	13046.11506
813.064	13135.24002
813.251	12914.43567
813.438	12798.94472
813.625	12543.58296
813.812	12567.90727
813.999	12391.53502
814.186	12523.31201
814.372	12515.20345
814.559	12770.57579
814.746	12448.3039
814.933	12553.7182
815.12	12407.75523
815.306	12355.03794
815.493	12474.65912
815.68	12610.47265
815.866	12367.20388
816.053	12340.84404
816.24	12259.72943
816.426	12298.26027
816.613	12330.70532
816.799	12594.25759
816.986	11902.68388
817.173	12071.09306
817.359	12166.43346
817.546	12111.66549
817.732	12121.80812
817.919	12377.34197
818.105	12056.89198
818.292	11935.1526
818.478	11866.15403
818.665	12233.36474
818.851	12211.0552
819.037	12328.67756
819.224	12121.80812
819.41	12107.60839
819.597	12099.49408
819.783	12263.78543
819.969	12127.89361
820.156	12269.86938
820.342	12308.39954
820.528	12215.11155
820.714	11993.99688
820.901	12211.0552
821.087	11742.33811
821.273	12225.25228
821.459	12154.26328
821.646	12259.72943
821.832	12056.89198
822.018	12087.3224
822.204	11496.6384
822.39	11699.7055
822.576	11476.32656
822.762	11638.79498
822.948	11545.38294
823.134	11791.05637
823.32	11565.69157
823.507	11768.72779
823.693	11750.45817
823.879	11699.7055
824.065	11693.61481
824.25	11862.095
824.436	11529.13536
824.622	11823.53246
824.808	11500.70065
824.994	11703.76592
825.18	11456.01377
825.366	11987.90985
825.552	11813.38392
825.738	11987.90985
825.923	11472.26408
826.109	11961.53191
826.295	11585.99927
826.481	11642.85593
826.667	11687.52404
826.852	11681.43319
827.038	11671.2816
827.224	11581.9378
827.409	11516.94928
827.595	11878.33095
827.781	11187.79206
827.966	11384.91136
828.152	11187.79206
828.338	11754.51815
828.523	11100.37803
828.709	11344.27599
828.894	11130.87353
829.08	11514.91824
829.266	11100.37803
829.451	11114.60956
829.637	10872.60006
829.822	10827.84127
830.008	10831.91048
830.193	10758.65746
830.378	10322.88023
830.564	10935.65982
830.749	10618.21249
830.935	10974.30396
831.12	10762.72748
831.305	11049.54678
831.491	10880.73742
831.676	11118.67562
831.861	10654.85589
832.047	10888.8746
832.232	10921.42148
832.417	11102.41114
832.602	10968.20252
832.788	10846.15236
832.973	11067.84681
833.158	10972.27016
833.343	10622.28418
833.528	10943.79576
833.714	10504.18503
833.899	10992.60766
834.084	11023.11184
834.269	10945.82972
834.454	10750.51729
834.639	10738.30668
834.824	10907.18258
835.009	10605.99713
835.194	10724.06042
835.379	10831.91048
835.564	10479.74542
835.749	10876.66877
835.934	10677.24713
836.119	10675.21162
836.304	10585.63722
836.489	10467.52493
836.674	10599.88929
836.859	10569.34839
837.044	10406.41549
837.228	10524.54997
837.413	10218.93922
837.598	10422.71248
837.783	10402.34111
837.968	10280.08523
838.152	10229.13107
838.337	10355.48199
838.522	9992.59063
838.707	10259.70458
838.891	10010.94971
839.076	10090.49234
839.261	10125.15804
839.445	10186.32299
839.63	10008.90987
839.815	9943.62738
839.999	9990.55066
840.184	10167.97482
840.368	9935.46603
840.553	10373.819
840.737	9925.26401
840.922	10002.79026
841.106	9737.48073
841.291	9888.5337
841.475	9886.49299
841.66	9998.71046
841.844	9631.28567
842.029	10161.85851
842.213	9757.89811
842.397	9625.15776
842.582	9357.43292
842.766	9692.55713
842.951	9302.2184
843.135	9794.64557
843.319	9459.65047
843.504	9484.17666
843.688	9398.32483
843.872	9476.00152
844.056	9655.79592
844.241	10119.04086
844.425	9443.29839
844.609	9439.21021
844.793	9459.65047
844.977	9535.26548
845.161	9259.26541
845.346	9655.79592
845.53	9424.90107
845.714	9541.39547
845.898	9298.12796
846.082	9238.80901
846.266	9142.64131
846.45	9179.47592
846.634	8995.24705
846.818	9257.21984
847.002	9050.53044
847.186	9320.62458
847.37	8962.48048
847.554	9032.10406
847.738	8892.83649
847.922	8896.93376
848.106	9118.08182
848.29	9050.53044
848.473	9152.8737
848.657	9030.05659
848.841	8788.33168
849.025	9025.96162
849.209	8771.9345
849.392	9009.581
849.576	8892.83649
849.76	8735.03657
849.944	8708.38437
850.127	8864.15356
850.311	8601.74431
850.495	8894.88514
850.678	8607.89799
850.862	8812.92528
851.046	8646.86739
851.229	8749.38647
851.413	8478.63509
851.596	8907.17664
851.78	8538.14638
851.964	8825.22109
852.147	8476.58269
852.331	8724.78609
852.514	8256.86457
852.698	8273.2998
852.881	8041.03419
853.065	8511.47088
853.248	8388.31141
853.431	8700.18307
853.615	8548.40534
853.798	8577.1279
853.982	8375.99166
854.165	8353.40363
854.348	8110.94628
854.532	8417.0548
854.715	8223.99031
854.898	8433.4779
855.081	8160.282
855.265	8443.74171
855.448	8271.24547
855.631	8345.18922
855.814	8380.09832
855.997	8484.79218
856.181	8172.61413
856.364	8094.49847
856.547	8086.27408
856.73	7977.2704
856.913	7839.39109
857.096	8230.15462
857.279	8020.46736
857.462	7781.74235
857.645	7550.98245
857.828	7886.73322
858.011	7872.3259
858.194	8018.41056
858.377	7746.73334
858.56	7966.98408
858.743	7654.0331
858.926	7577.78075
859.109	7452.00343
859.292	7357.10174
859.475	7288.99165
859.658	7439.62756
859.841	7251.83061
860.023	7425.18805
860.206	7237.37717
860.389	7616.941
860.572	7262.15384
860.755	7340.59239
860.937	7072.1178
861.12	7301.37708
861.303	7414.87347
861.486	7447.87823
861.668	7084.5172
861.851	7123.77665
862.034	7047.31659
862.216	7194.01034
862.399	6904.64676
862.581	7012.176
862.764	6852.92823
862.947	6956.35113
863.129	6935.67108
863.312	7041.11578
863.494	6935.67108
863.677	7307.5695
863.859	7057.65082
864.042	6921.1937
864.224	6883.96105
864.406	6972.89355
864.589	6813.61265
864.771	7030.78065
864.954	6637.62609
865.136	6797.05625
865.318	6409.63155
865.501	6623.12569
865.683	6515.37297
865.865	6720.46392
866.048	6276.85072
866.23	6718.39342
866.412	6641.76886
866.594	6695.61643
866.777	6724.60485
866.959	6886.02972
867.141	6705.96995
867.323	6871.54854
867.505	6679.0496
867.687	6838.4445
867.869	6299.67923
868.052	6679.0496
868.234	6405.4836
868.416	6720.46392
868.598	6502.93594
868.78	6670.76564
868.962	6318.355
869.144	6941.87533
869.326	6598.26522
869.508	6471.83971
869.69	6413.77942
869.872	6363.99892
870.054	6432.44364
870.236	6264.39761
870.417	6281.00157
870.599	6390.96502
870.781	6065.033
870.963	6237.41298
871.145	6133.589
871.327	6002.68713
871.508	5840.48859
871.69	5954.87427
871.872	6044.2534
872.054	5907.04894
872.235	6106.58515
872.417	6216.65287
872.599	5828.00584
872.78	6152.28164
872.962	5956.95335
873.144	6058.79937
873.325	6006.84418
873.507	6363.99892
873.689	5956.95335
873.87	6310.0549
874.052	6021.39312
874.233	6366.07338
874.415	6089.96542
874.596	6457.32634
874.778	6092.04297
874.959	6247.79215
875.141	6143.97404
875.322	6245.71636
875.503	6002.68713
875.685	6457.32634
875.866	6044.2534
876.048	6079.57732
876.229	5819.68353
876.41	5898.73022
876.592	5701.04959
876.773	5904.9693
876.954	5963.19045
877.136	6181.35531
877.317	5817.60289
877.498	6116.97171
877.679	5861.2913
877.86	6251.94365
878.042	5965.26943
878.223	6102.43036
878.404	5828.00584
878.585	6002.68713
878.766	5544.83552
878.947	5965.26943
879.128	5940.32006
879.309	5765.57932
879.49	5857.13095
879.672	6337.02888
879.853	6050.48753
880.034	6123.20337
880.215	6019.31477
880.396	6324.57984
880.576	6148.12789
880.757	6457.32634
880.938	6116.97171
881.119	6289.30299
881.3	6202.1194
881.481	6150.20478
881.662	6042.17531
881.843	6405.4836
882.023	6071.26642
882.204	6291.37828
882.385	6062.95515
882.566	6017.2364
882.747	5769.74174
882.927	6189.66123
883.108	5865.45156
883.289	6110.73984
883.469	5956.95335
883.65	6162.66563
883.831	6056.72144
884.011	6343.25309
884.192	6312.12996
884.373	6413.77942
884.553	6017.2364
884.734	6183.43183
884.914	5875.85179
885.095	6231.18519
885.275	6089.96542
885.456	6372.29661
885.636	6224.95719
885.817	6480.13255
885.997	6158.5121
886.178	6281.00157
886.358	6137.74308
886.538	6310.0549
886.719	5983.97924
886.899	6056.72144
887.08	6108.66251
887.26	6227.03322
887.44	5813.44155
887.621	6289.30299
887.801	5942.3993
887.981	6040.0972
888.161	6106.58515
888.342	6100.35293
888.522	5894.57072
888.702	6206.27194
888.882	6013.07958
889.062	6081.65499
889.242	5961.11144
889.423	6210.42438
889.603	5965.26943
889.783	6569.25714
889.963	5892.49093
890.143	6197.96677
890.323	6044.2534
890.503	6310.0549
890.683	6050.48753
890.863	6212.50057
891.043	6050.48753
891.223	6040.0972
891.403	5981.90046
891.583	6060.87727
891.763	5719.78637
891.943	5981.90046
892.122	5615.669
892.302	6031.78451
892.482	5721.86811
892.662	5907.04894
892.842	5948.63689
893.022	5969.42733
893.201	5684.39308
893.381	6208.34817
893.561	6015.158
893.741	6231.18519
893.92	5751.01007
894.1	6044.2534
894.28	5782.22847
894.459	6256.09507
894.639	5807.19936
894.819	5821.76414
894.998	5613.58605
895.178	5857.13095
895.357	5386.40342
895.537	5555.25391
895.716	5509.40856
895.896	5676.06426
896.075	5369.71847
896.255	5642.74519
896.434	5567.75521
896.614	5867.53165
896.793	5521.91297
896.973	5830.08636
897.152	5565.67172
897.331	5736.43967
897.511	5875.85179
897.69	5669.81739
897.87	5315.48198
898.049	5540.66799
898.228	5340.51617
898.407	5590.67206
898.587	5181.9094
898.766	5426.02418
898.945	5060.77682
899.124	5292.53101
899.304	5142.23665
899.483	5209.04907
899.662	4952.10898
899.841	5298.79064
900.02	5012.7199
900.199	5135.97176
900.378	4910.29708
900.557	5033.61571
900.737	4788.99079
900.916	5092.1117
901.095	4795.26713
901.274	4981.37184
901.453	4604.79425
901.632	4797.3592
901.811	4742.95803
901.989	4642.48498
902.168	4652.95334
902.347	4611.07654
902.526	4388.98127
902.705	4761.79094
902.884	4596.41754
903.063	4765.97578
903.242	4606.88837
903.42	4525.2012
903.599	4305.1078
903.778	4334.46745
903.957	4233.78826
904.135	4531.48603
904.314	4311.39951
904.493	4502.15513
904.672	4235.88625
904.85	4525.2012
905.029	4256.86493
905.207	4497.96465
905.386	4135.159
905.565	4395.27038
905.743	4030.18342
905.922	4336.56441
906.1	4072.17988
906.279	4172.93742
906.457	3803.26186
906.636	4057.48206
906.814	4011.28232
906.993	3801.15965
907.171	3748.59792
907.35	3710.74594
907.528	3525.60317
907.707	3794.85289
907.885	3529.81257
908.063	3609.77702
908.242	3531.91724
908.42	3689.71437
908.598	3230.76847
908.777	3515.07937
908.955	3277.12215
909.133	3521.39371
909.311	3329.78681
909.49	3620.29665
909.668	3262.37414
909.846	3504.5551
910.024	3150.68411
910.202	3445.61084
910.38	3315.04179
910.559	3281.33571
910.737	3270.80167
910.915	3620.29665
911.093	3355.06203
911.271	3613.98493
911.449	3262.37414
911.627	3531.91724
911.805	3188.62177
911.983	3523.49845
912.161	3395.07599
912.339	3601.36097
912.517	3374.0168
912.695	3613.98493
912.872	3382.44069
913.05	3601.36097
913.228	3472.97958
913.406	3607.67303
913.584	3395.07599
913.762	3336.10585
913.939	3407.71066
914.117	3706.53978
914.295	3420.34469
914.473	3428.76703
914.65	3437.18907
914.828	3380.33474
915.006	3239.19702
915.184	3435.08359
915.361	3319.25474
915.539	3329.78681
915.716	3260.26721
915.894	3441.39999
916.072	3289.76264
916.249	3498.24032
916.427	3173.86886
916.604	3470.8744
916.782	3100.09244
916.959	3357.16819
917.137	3264.48105
917.314	3626.6082
917.492	2982.01004
917.669	3226.5541
917.847	3220.23242
918.024	3230.76847
918.201	3144.36066
918.379	3279.22894
918.556	3222.33966
918.733	3239.19702
918.911	2952.48197
919.088	3277.12215
919.265	3184.40673
919.442	3108.52502
919.62	2665.49287
919.797	3110.63313
919.974	2878.64916
920.151	3374.0168
920.328	3068.46799
920.506	3152.7919
920.683	2960.91886
920.86	3074.79317
921.037	2842.78114
921.214	2876.53939
921.391	2779.47479
921.568	2948.26344
921.745	2912.40352
921.922	3007.31747
922.099	2830.12087
922.276	3133.82125
922.453	2716.15622
922.63	2844.89114
922.807	2804.79882
922.984	2804.79882
923.161	2663.38174
923.338	2806.90907
923.514	2399.39617
923.691	2606.37643
923.868	2591.5958
924.045	2720.37783
924.222	2409.95895
924.399	2686.6035
924.575	2393.05837
924.752	2559.92106
924.929	2519.79592
925.105	2591.5958
925.282	2333.9012
925.459	2669.7151
925.635	2559.92106
925.812	2688.7145
925.989	2179.63498
926.165	2433.19615
926.342	2200.77014
926.518	2426.85886
926.695	2046.46523
926.871	2213.45083
927.048	2035.89495
927.224	2031.66679
927.401	1820.22782
927.577	2090.85849
927.754	1879.43627
927.93	2088.7446
928.107	1940.75504
928.283	2175.40785
928.459	2128.90725
928.636	2196.54317
928.812	1885.7798
928.988	2054.92133
929.165	1748.32717
929.341	2023.21039
929.517	1921.72558
929.693	1970.35549
929.87	1648.92834
930.046	2046.46523
930.222	1862.51996
930.398	1830.80103
930.574	1486.0729
930.751	1818.11317
930.927	1623.54893
931.103	1921.72558
931.279	1638.35363
931.455	1902.69566
931.631	1625.66389
931.807	1828.6864
931.983	1570.67422
932.159	1911.15346
932.335	1456.46219
932.511	1541.06395
932.687	1369.74532
932.863	1581.24925
933.039	1261.88078
933.215	1409.93107
933.391	1350.71008
933.566	1327.44495
933.742	1149.7934
933.918	1272.4555
934.094	1111.72841
934.27	1183.63007
934.445	1122.30187
934.621	1276.68541
934.797	974.28554
934.973	1033.48871
935.148	1037.71769
935.324	1141.33439
935.5	1016.57302
935.675	1099.04041
935.851	860.12359
936.027	997.54333
936.202	828.41614
936.378	970.05694
936.553	758.66706
936.729	726.96652
936.904	691.04216
937.08	633.9926
937.255	598.07705
937.431	674.1377
937.606	606.52744
937.782	665.68575
937.957	532.59368
938.133	595.96448
938.308	450.23064
938.483	376.33506
938.659	441.78444
938.834	509.36083
939.009	462.9004
939.185	412.22473
939.36	372.11307
939.535	353.11491
939.71	327.78622
939.886	338.33954
940.061	313.01233
940.236	378.44609
940.411	211.73008
940.586	279.24676
940.761	313.01233
940.937	232.82691
941.112	245.48595
941.287	175.87005
941.462	279.24676
941.637	289.79799
941.812	209.6205
941.987	152.66967
942.162	228.60739
942.337	177.9793
942.512	239.15634
942.687	218.05892
942.862	175.87005
943.037	230.71714
943.212	203.2919
943.386	222.27825
943.561	85.19233
943.736	188.52586
943.911	196.96348
944.086	180.08857
944.26	186.41651
944.435	125.25432
944.61	133.68943
944.785	150.56067
944.959	192.74463
945.134	85.19233
945.309	203.2919
945.483	192.74463
945.658	222.27825
945.833	137.90711
946.007	156.88773
946.182	158.99679
946.357	152.66967
946.531	251.81573
946.706	228.60739
946.88	129.47183
947.055	256.03568
947.229	272.91624
947.404	201.1824
947.578	194.85404
947.752	184.30718
947.927	99.95108
948.101	239.15634
948.276	228.60739
948.45	192.74463
948.624	230.71714
948.799	213.83967
948.973	175.87005
949.147	158.99679
949.321	144.23379
949.496	201.1824
949.67	218.05892
949.844	167.43326
950.018	226.49765
950.193	313.01233
950.367	228.60739
950.541	169.54242
950.715	182.19786
950.889	203.2919
951.063	264.47581
951.237	230.71714
951.411	148.45169
951.585	232.82691
951.759	319.34389
951.933	247.59586
952.107	239.15634
952.281	272.91624
952.455	209.6205
952.629	243.37606
952.803	262.36575
952.977	163.21498
953.151	177.9793
953.325	260.25571
953.499	222.27825
953.672	175.87005
953.846	228.60739
954.02	222.27825
954.194	211.73008
954.368	165.32411
954.541	184.30718
954.715	256.03568
954.889	213.83967
955.062	253.9257
955.236	211.73008
955.41	175.87005
955.583	247.59586
955.757	218.05892
955.93	262.36575
956.104	184.30718
956.278	344.67174
956.451	272.91624
956.625	234.9367
956.798	209.6205
956.972	218.05892
957.145	188.52586
957.319	190.63523
957.492	186.41651
957.665	256.03568
957.839	218.05892
958.012	194.85404
958.185	184.30718
958.359	213.83967
958.532	237.04651
958.705	289.79799
958.879	180.08857
959.052	285.57744
959.225	161.10588
959.398	251.81573
959.572	237.04651
959.745	169.54242
959.918	156.88773
960.091	237.04651
960.264	118.92822
960.438	199.07293
960.611	203.2919
960.784	245.48595
960.957	188.52586
961.13	260.25571
961.303	169.54242
961.476	209.6205
961.649	144.23379
961.822	294.01862
961.995	177.9793
962.168	205.40141
962.341	182.19786
962.514	161.10588
962.686	158.99679
962.859	133.68943
963.032	152.66967
963.205	116.81956
963.378	180.08857
963.551	196.96348
963.723	175.87005
963.896	135.79826
964.069	99.95108
964.242	152.66967
964.414	150.56067
964.587	186.41651
964.76	226.49765
964.932	158.99679
965.105	171.65161
965.278	222.27825
965.45	218.05892
965.623	192.74463
965.795	177.9793
965.968	167.43326
966.14	180.08857
966.313	180.08857
966.485	226.49765
966.658	167.43326
966.83	209.6205
967.003	218.05892
967.175	150.56067
967.348	194.85404
967.52	57.78613
967.692	201.1824
967.865	209.6205
968.037	146.34273
968.209	144.23379
968.382	158.99679
968.554	133.68943
968.726	201.1824
968.898	220.16857
969.071	116.81956
969.243	228.60739
969.415	180.08857
969.587	137.90711
969.759	152.66967
969.932	171.65161
970.104	194.85404
970.276	163.21498
970.448	226.49765
970.62	175.87005
970.792	154.77869
970.964	154.77869
971.136	152.66967
971.308	91.51738
971.48	91.51738
971.652	131.58062
971.824	99.95108
971.996	146.34273
972.168	152.66967
972.339	125.25432
972.511	175.87005
972.683	95.73419
972.855	167.43326
973.027	142.12488
973.199	148.45169
973.37	163.21498
973.542	165.32411
973.714	112.60231
973.886	76.75925
974.057	131.58062
974.229	99.95108
974.401	171.65161
974.572	108.38515
974.744	135.79826
974.915	104.16807
975.087	194.85404
975.259	133.68943
975.43	175.87005
975.602	112.60231
975.773	169.54242
975.945	108.38515
976.116	78.86748
976.288	169.54242
976.459	68.32652
976.63	102.05957
976.802	93.62577
976.973	83.08402
977.145	99.95108
977.316	167.43326
977.487	158.99679
977.659	40.92271
977.83	118.92822
978.001	43.03055
978.172	102.05957
978.344	173.76082
978.515	97.84262
978.686	146.34273
978.857	91.51738
979.028	80.97574
979.2	78.86748
979.371	116.81956
979.542	97.84262
979.713	93.62577
979.884	99.95108
980.055	76.75925
980.226	59.89417
980.397	152.66967
980.568	99.95108
980.739	66.2184
980.91	173.76082
981.081	91.51738
981.252	91.51738
981.423	78.86748
981.594	66.2184
981.765	76.75925
981.936	24.06077
982.106	91.51738
982.277	66.2184
982.448	91.51738
982.619	26.16843
982.79	78.86748
982.96	49.35423
983.131	85.19233
983.302	133.68943
983.472	-26.51589
983.643	24.06077
983.814	83.08402
983.984	66.2184
984.155	68.32652
984.326	24.06077
984.496	17.73793
984.667	131.58062
984.837	102.05957
985.008	83.08402
985.178	102.05957
985.349	66.2184
985.519	59.89417
985.69	40.92271
985.86	135.79826
986.031	87.30066
986.201	112.60231
986.371	66.2184
986.542	74.65103
986.712	51.46218
986.882	55.67812
987.053	32.49155
987.223	32.49155
987.393	68.32652
987.563	80.97574
987.734	40.92271
987.904	110.49372
988.074	62.00222
988.244	19.84552
988.414	30.38382
988.585	32.49155
988.755	32.49155
988.925	99.95108
989.095	15.63036
989.265	108.38515
989.435	102.05957
989.605	34.5993
989.775	30.38382
989.945	64.1103
990.115	7.20034
990.285	66.2184
990.455	43.03055
990.625	19.84552
990.795	-5.44397
990.965	-47.58533
991.134	89.40901
991.304	70.43467
991.474	-9.65855
991.644	47.24632
991.814	49.35423
991.984	26.16843
992.153	-39.15785
992.323	45.13842
992.493	78.86748
992.662	11.4153
992.832	76.75925
993.002	-56.01241
993.171	24.06077
993.341	32.49155
993.511	-18.08741
993.68	24.06077
993.85	74.65103
994.019	95.73419
994.189	108.38515
994.358	34.5993
994.528	-1.2293
994.697	68.32652
994.867	-1.2293
995.036	11.4153
995.206	57.78613
995.375	32.49155
995.544	127.36306
995.714	40.92271
995.883	-5.44397
996.052	26.16843
996.222	21.95313
996.391	17.73793
996.56	125.25432
996.73	91.51738
996.899	57.78613
997.068	59.89417
997.237	24.06077
997.406	0.87808
997.576	66.2184
997.745	66.2184
997.914	24.06077
998.083	51.46218
998.252	7.20034
998.421	59.89417
998.59	17.73793
998.759	93.62577
998.928	17.73793
999.097	-85.50398
999.266	7.20034
999.435	28.27611
999.604	19.84552
999.773	102.05957
999.942	2.98547
1000.111	5.09289
1000.28	32.49155
1000.448	-5.44397
1000.617	87.30066
1000.786	40.92271
1000.955	13.52282
1001.124	15.63036
1001.292	49.35423
1001.461	-1.2293
1001.63	62.00222
1001.798	30.38382
1001.967	26.16843
1002.136	-13.87303
1002.304	11.4153
1002.473	43.03055
1002.642	99.95108
1002.81	78.86748
1002.979	17.73793
1003.147	32.49155
1003.316	24.06077
1003.484	-1.2293
1003.653	-32.83698
1003.821	108.38515
1003.99	32.49155
1004.158	83.08402
1004.327	-9.65855
1004.495	-18.08741
1004.663	24.06077
1004.832	57.78613
1005	142.12488
1005.168	51.46218
1005.337	24.06077
1005.505	125.25432
1005.673	62.00222
1005.842	11.4153
1006.01	45.13842
1006.178	34.5993
1006.346	91.51738
1006.514	7.20034
1006.683	-26.51589
1006.851	49.35423
1007.019	-87.61033
1007.187	36.70708
1007.355	-24.40881
1007.523	-9.65855
1007.691	32.49155
1007.859	-47.58533
1008.027	-43.37164
1008.195	21.95313
1008.363	9.30781
1008.531	24.06077
1008.699	-11.7658
1008.867	85.19233
1009.035	53.57014
1009.203	70.43467
1009.37	43.03055
1009.538	15.63036
1009.706	40.92271
1009.874	30.38382
1010.042	45.13842
1010.209	-49.69214
1010.377	7.20034
1010.545	26.16843
1010.713	24.06077
1010.88	19.84552
1011.048	30.38382
1011.216	-5.44397
1011.383	-13.87303
1011.551	-26.51589
1011.718	9.30781
1011.886	2.98547
1012.054	-87.61033
1012.221	-32.83698
1012.389	129.47183
1012.556	-22.3017
1012.724	-37.05092
1012.891	17.73793
1013.058	59.89417
1013.226	38.81488
1013.393	95.73419
1013.561	-1.2293
1013.728	40.92271
1013.895	-30.72997
1014.063	32.49155
1014.23	19.84552
1014.397	17.73793
1014.565	68.32652
1014.732	30.38382
1014.899	19.84552
1015.066	45.13842
1015.233	34.5993
1015.401	21.95313
1015.568	7.20034
1015.735	26.16843
1015.902	-34.94396
1016.069	-15.98024
1016.236	-93.92922
1016.403	49.35423
1016.57	-89.71665
1016.737	38.81488
1016.904	-15.98024
1017.071	51.46218
1017.238	-18.08741
1017.405	-51.79892
1017.572	30.38382
1017.739	91.51738
1017.906	19.84552
1018.073	51.46218
1018.24	-15.98024
1018.407	26.16843
1018.573	-7.55127
1018.74	-26.51589
1018.907	68.32652
1019.074	32.49155
1019.241	32.49155
1019.407	-7.55127
1019.574	53.57014
1019.741	51.46218
1019.907	5.09289
1020.074	-47.58533
1020.241	24.06077
1020.407	-26.51589
1020.574	9.30781
1020.74	40.92271
1020.907	2.98547
1021.073	-7.55127
1021.24	45.13842
1021.406	43.03055
1021.573	7.20034
1021.739	91.51738
1021.906	32.49155
1022.072	40.92271
1022.239	59.89417
1022.405	-28.62294
1022.571	-37.05092
1022.738	7.20034
1022.904	95.73419
1023.07	32.49155
1023.237	-56.01241
1023.403	-1.2293
1023.569	7.20034
1023.735	-13.87303
1023.902	-7.55127
1024.068	5.09289
1024.234	-9.65855
1024.4	74.65103
1024.566	17.73793
1024.732	-37.05092
1024.898	-28.62294
1025.065	32.49155
1025.231	0.87808
1025.397	15.63036
1025.563	19.84552
1025.729	-1.2293
1025.895	-9.65855
1026.061	-1.2293
1026.227	15.63036
1026.392	57.78613
1026.558	-37.05092
1026.724	53.57014
1026.89	-26.51589
1027.056	7.20034
1027.222	57.78613
1027.388	34.5993
1027.553	32.49155
1027.719	57.78613
1027.885	7.20034
1028.051	80.97574
1028.216	-9.65855
1028.382	11.4153
1028.548	-102.35404
1028.713	15.63036
1028.879	32.49155
1029.045	17.73793
1029.21	7.20034
1029.376	-24.40881
1029.541	-1.2293
1029.707	9.30781
1029.873	-13.87303
1030.038	104.16807
1030.204	45.13842
1030.369	-13.87303
1030.534	64.1103
1030.7	0.87808
1030.865	-1.2293
1031.031	-5.44397
1031.196	-1.2293
1031.361	83.08402
1031.527	-13.87303
1031.692	-41.26476
1031.857	-32.83698
1032.023	-47.58533
1032.188	-51.79892
1032.353	0.87808
1032.518	-20.19457
1032.684	45.13842
1032.849	-7.55127
1033.014	-39.15785
1033.179	-15.98024
1033.344	-18.08741
1033.509	11.4153
1033.674	-15.98024
1033.839	-5.44397
1034.004	45.13842
1034.17	-47.58533
1034.335	-15.98024
1034.5	15.63036
1034.664	11.4153
1034.829	15.63036
1034.994	7.20034
1035.159	-7.55127
1035.324	-64.43909
1035.489	26.16843
1035.654	-22.3017
1035.819	-26.51589
1035.984	-43.37164
1036.148	9.30781
1036.313	38.81488
1036.478	0.87808
1036.643	7.20034
1036.807	45.13842
1036.972	19.84552
1037.137	-37.05092
1037.301	34.5993
1037.466	-26.51589
1037.631	15.63036
1037.795	-43.37164
1037.96	-13.87303
1038.124	34.5993
1038.289	-68.65227
1038.454	7.20034
1038.618	-24.40881
1038.783	-39.15785
1038.947	49.35423
1039.111	36.70708
1039.276	66.2184
1039.44	32.49155
1039.605	-39.15785
1039.769	40.92271
1039.933	28.27611
1040.098	28.27611
1040.262	-24.40881
1040.426	59.89417
1040.591	11.4153
1040.755	59.89417
1040.919	19.84552
1041.083	-26.51589
1041.248	15.63036
1041.412	-34.94396
1041.576	-9.65855
1041.74	-58.11912
1041.904	2.98547
1042.068	9.30781
1042.232	-18.08741
1042.397	-32.83698
1042.561	28.27611
1042.725	-15.98024
1042.889	15.63036
1043.053	17.73793
1043.217	57.78613
1043.381	28.27611
1043.544	28.27611
1043.708	57.78613
1043.872	53.57014
1044.036	-26.51589
1044.2	-60.2258
1044.364	-22.3017
1044.528	-43.37164
1044.691	-1.2293
1044.855	-5.44397
1045.019	-22.3017
1045.183	30.38382
1045.346	24.06077
1045.51	-45.4785
1045.674	-1.2293
1045.837	43.03055
1046.001	-39.15785
1046.165	-1.2293
1046.328	-9.65855
1046.492	-43.37164
1046.655	11.4153
1046.819	-47.58533
1046.983	-18.08741
1047.146	74.65103
1047.31	-85.50398
1047.473	68.32652
1047.636	-30.72997
1047.8	57.78613
1047.963	49.35423
1048.127	9.30781
1048.29	-47.58533
