Data from mixed_try1_USB4F045381__6__00110.txt Node

Date: Thu Apr 03 19:59:08 EDT 2025
User: mmckonesweet
Spectrometer: USB4F04538
Trigger mode: 4
Integration Time (sec): 2.700000E-3
Scans to average: 1
Electric dark correction enabled: true
Nonlinearity correction enabled: true
Boxcar width: 0
XAxis mode: Wavelengths
Number of Pixels in Spectrum: 3648
>>>>>Begin Spectral Data<<<<<
345.52	-3.51226
345.736	-3.51226
345.952	-3.51226
346.168	-26.69148
346.384	17.5623
346.6	-41.44034
346.816	28.10047
347.032	-20.37016
347.248	30.20817
347.464	-3.51226
347.68	-30.90556
347.896	44.96277
348.112	21.7775
348.328	9.13219
348.544	-20.37016
348.76	-5.61958
348.975	-11.94141
349.191	-68.82782
349.407	-16.15583
349.623	-16.15583
349.839	-3.51226
350.055	-24.5844
350.27	-11.94141
350.486	-3.51226
350.702	42.8549
350.918	-37.2265
351.133	-37.2265
351.349	-22.47729
351.565	36.53143
351.781	-68.82782
351.996	25.99279
352.212	-26.69148
352.428	-28.79853
352.644	-16.15583
352.859	-54.08124
353.075	-28.79853
353.291	-79.36032
353.506	-104.63569
353.722	4.91728
353.938	-41.44034
354.153	-24.5844
354.369	-9.83416
354.584	-20.37016
354.8	-22.47729
355.016	-49.86771
355.231	-49.86771
355.447	-11.94141
355.662	-33.01256
355.878	66.04272
356.093	-45.65407
356.309	-60.40135
356.524	13.34719
356.74	32.3159
356.955	51.28651
357.171	-18.26301
357.386	-37.2265
357.602	-30.90556
357.817	-20.37016
358.033	25.99279
358.248	-24.5844
358.464	49.17857
358.679	59.7185
358.895	-16.15583
359.11	-9.83416
359.325	-28.79853
359.541	-18.26301
359.756	21.7775
359.972	-26.69148
360.187	11.23968
360.402	-49.86771
360.618	23.88513
360.833	-20.37016
361.048	-1.40491
361.264	30.20817
361.479	-20.37016
361.694	-54.08124
361.909	-41.44034
362.125	-62.50801
362.34	-96.21098
362.555	-11.94141
362.77	-28.79853
362.986	32.3159
363.201	23.88513
363.416	13.34719
363.631	9.13219
363.847	66.04272
364.062	87.12496
364.277	-1.40491
364.492	-3.51226
364.707	-77.25387
364.922	-104.63569
365.138	-54.08124
365.353	0.70246
365.568	-37.2265
365.783	-20.37016
365.998	-79.36032
366.213	55.50246
366.428	-3.51226
366.643	-3.51226
366.858	-24.5844
367.073	-43.54722
367.288	-62.50801
367.503	-9.83416
367.718	-60.40135
367.933	-33.01256
368.148	-14.04863
368.363	-14.04863
368.578	-26.69148
368.793	-28.79853
369.008	-1.40491
369.223	-28.79853
369.438	-30.90556
369.653	-30.90556
369.868	-3.51226
370.083	55.50246
370.298	-20.37016
370.513	32.3159
370.728	30.20817
370.943	-14.04863
371.157	19.66988
371.372	-1.40491
371.587	-104.63569
371.802	57.61047
372.017	-45.65407
372.232	57.61047
372.446	-70.93437
372.661	-11.94141
372.876	57.61047
373.091	-54.08124
373.306	9.13219
373.52	-113.05997
373.735	57.61047
373.95	59.7185
374.165	11.23968
374.379	7.02472
374.594	-11.94141
374.809	-41.44034
375.023	21.7775
375.238	-26.69148
375.453	4.91728
375.667	-45.65407
375.882	-16.15583
376.097	-11.94141
376.311	-35.11954
376.526	49.17857
376.741	-45.65407
376.955	-28.79853
377.17	-11.94141
377.384	-1.40491
377.599	-77.25387
377.813	-68.82782
378.028	-24.5844
378.242	-9.83416
378.457	-54.08124
378.672	-41.44034
378.886	-43.54722
379.101	15.45473
379.315	42.8549
379.53	25.99279
379.744	-9.83416
379.958	-20.37016
380.173	19.66988
380.387	-3.51226
380.602	-75.1474
380.816	25.99279
381.031	-5.61958
381.245	21.7775
381.459	2.80986
381.674	-11.94141
381.888	-37.2265
382.103	-18.26301
382.317	13.34719
382.531	11.23968
382.746	15.45473
382.96	-3.51226
383.174	-28.79853
383.388	53.39447
383.603	4.91728
383.817	25.99279
384.031	36.53143
384.246	15.45473
384.46	-28.79853
384.674	-51.97449
384.888	-7.72688
385.103	-11.94141
385.317	-35.11954
385.531	13.34719
385.745	-35.11954
385.959	15.45473
386.174	-24.5844
386.388	-3.51226
386.602	9.13219
386.816	34.42366
387.03	0.70246
387.244	-3.51226
387.458	-20.37016
387.672	-7.72688
387.887	-33.01256
388.101	9.13219
388.315	13.34719
388.529	-33.01256
388.743	-3.51226
388.957	-51.97449
389.171	11.23968
389.385	-113.05997
389.599	21.7775
389.813	-18.26301
390.027	-20.37016
390.241	80.80005
390.455	72.36716
390.669	-9.83416
390.883	-26.69148
391.097	-9.83416
391.311	17.5623
391.525	-45.65407
391.738	15.45473
391.952	-16.15583
392.166	-9.83416
392.38	-7.72688
392.594	-37.2265
392.808	9.13219
393.022	4.91728
393.236	-18.26301
393.449	-11.94141
393.663	13.34719
393.877	38.63923
394.091	-41.44034
394.305	-26.69148
394.518	-7.72688
394.732	36.53143
394.946	7.02472
395.16	-85.67951
395.373	49.17857
395.587	-62.50801
395.801	66.04272
396.015	-51.97449
396.228	-58.29468
396.442	30.20817
396.656	13.34719
396.869	49.17857
397.083	40.74705
397.297	-58.29468
397.51	-62.50801
397.724	25.99279
397.938	-26.69148
398.151	-70.93437
398.365	40.74705
398.578	-20.37016
398.792	0.70246
399.005	-9.83416
399.219	-22.47729
399.433	-3.51226
399.646	-7.72688
399.86	-89.89218
400.073	-9.83416
400.287	-16.15583
400.5	-33.01256
400.714	-41.44034
400.927	59.7185
401.141	21.7775
401.354	4.91728
401.567	-37.2265
401.781	2.80986
401.994	-62.50801
402.208	-54.08124
402.421	34.42366
402.635	40.74705
402.848	-28.79853
403.061	-37.2265
403.275	4.91728
403.488	-11.94141
403.701	-43.54722
403.915	-9.83416
404.128	23.88513
404.341	-58.29468
404.555	13.34719
404.768	-45.65407
404.981	13.34719
405.195	-58.29468
405.408	-7.72688
405.621	72.36716
405.834	4.91728
406.048	47.07066
406.261	-79.36032
406.474	-18.26301
406.687	38.63923
406.9	30.20817
407.114	-7.72688
407.327	13.34719
407.54	-3.51226
407.753	30.20817
407.966	-60.40135
408.179	15.45473
408.392	-16.15583
408.605	32.3159
408.819	30.20817
409.032	7.02472
409.245	7.02472
409.458	25.99279
409.671	-54.08124
409.884	49.17857
410.097	4.91728
410.31	0.70246
410.523	-18.26301
410.736	-35.11954
410.949	-41.44034
411.162	-33.01256
411.375	-24.5844
411.588	-11.94141
411.801	13.34719
412.014	9.13219
412.227	-35.11954
412.44	15.45473
412.653	-20.37016
412.865	-60.40135
413.078	-41.44034
413.291	21.7775
413.504	-43.54722
413.717	-66.72124
413.93	-1.40491
414.143	49.17857
414.356	-3.51226
414.568	32.3159
414.781	-20.37016
414.994	-54.08124
415.207	-58.29468
415.42	4.91728
415.632	47.07066
415.845	4.91728
416.058	-121.48383
416.271	13.34719
416.483	13.34719
416.696	13.34719
416.909	-41.44034
417.121	-41.44034
417.334	55.50246
417.547	-33.01256
417.759	32.3159
417.972	34.42366
418.185	-20.37016
418.397	-11.94141
418.61	23.88513
418.823	30.20817
419.035	13.34719
419.248	59.7185
419.46	-1.40491
419.673	15.45473
419.885	-43.54722
420.098	4.91728
420.311	-1.40491
420.523	-37.2265
420.736	21.7775
420.948	-45.65407
421.161	44.96277
421.373	-20.37016
421.586	4.91728
421.798	17.5623
422.01	-18.26301
422.223	34.42366
422.435	28.10047
422.648	-18.26301
422.86	78.6918
423.073	-94.10474
423.285	2.80986
423.497	-35.11954
423.71	-7.72688
423.922	-7.72688
424.134	-33.01256
424.347	-58.29468
424.559	-1.40491
424.771	63.93463
424.984	-11.94141
425.196	-11.94141
425.408	-3.51226
425.621	-16.15583
425.833	-45.65407
426.045	47.07066
426.257	-28.79853
426.47	-5.61958
426.682	17.5623
426.894	-70.93437
427.106	-33.01256
427.318	-26.69148
427.531	-9.83416
427.743	0.70246
427.955	-11.94141
428.167	34.42366
428.379	-28.79853
428.591	74.47535
428.804	-7.72688
429.016	-49.86771
429.228	-20.37016
429.44	21.7775
429.652	-11.94141
429.864	-35.11954
430.076	2.80986
430.288	-41.44034
430.5	7.02472
430.712	53.39447
430.924	-66.72124
431.136	-45.65407
431.348	-28.79853
431.56	40.74705
431.772	17.5623
431.984	-16.15583
432.196	-64.61464
432.408	72.36716
432.62	-39.33343
432.832	4.91728
433.044	-51.97449
433.256	7.02472
433.468	13.34719
433.679	-28.79853
433.891	15.45473
434.103	-11.94141
434.315	-1.40491
434.527	-1.40491
434.739	-45.65407
434.95	4.91728
435.162	-62.50801
435.374	-16.15583
435.586	-125.6956
435.798	-1.40491
436.009	42.8549
436.221	-54.08124
436.433	-30.90556
436.645	0.70246
436.856	13.34719
437.068	7.02472
437.28	-26.69148
437.491	-16.15583
437.703	7.02472
437.915	47.07066
438.126	85.01664
438.338	25.99279
438.55	23.88513
438.761	-9.83416
438.973	-28.79853
439.184	55.50246
439.396	-1.40491
439.608	21.7775
439.819	-66.72124
440.031	-26.69148
440.242	-70.93437
440.454	-11.94141
440.665	-35.11954
440.877	17.5623
441.088	-26.69148
441.3	-47.7609
441.511	-11.94141
441.723	-30.90556
441.934	9.13219
442.146	-1.40491
442.357	-28.79853
442.569	42.8549
442.78	-54.08124
442.991	40.74705
443.203	13.34719
443.414	42.8549
443.626	-16.15583
443.837	-11.94141
444.048	-9.83416
444.26	21.7775
444.471	-11.94141
444.682	-1.40491
444.894	-7.72688
445.105	-66.72124
445.316	25.99279
445.528	-24.5844
445.739	-41.44034
445.95	40.74705
446.161	68.15085
446.373	-7.72688
446.584	17.5623
446.795	72.36716
447.006	-41.44034
447.217	9.13219
447.429	25.99279
447.64	-24.5844
447.851	28.10047
448.062	-28.79853
448.273	-41.44034
448.484	-26.69148
448.695	-18.26301
448.907	-33.01256
449.118	-11.94141
449.329	13.34719
449.54	-70.93437
449.751	-16.15583
449.962	-26.69148
450.173	-45.65407
450.384	36.53143
450.595	7.02472
450.806	-43.54722
451.017	-1.40491
451.228	-16.15583
451.439	38.63923
451.65	9.13219
451.861	-3.51226
452.072	47.07066
452.283	-3.51226
452.494	4.91728
452.705	-37.2265
452.915	-16.15583
453.126	-62.50801
453.337	19.66988
453.548	-30.90556
453.759	-37.2265
453.97	-41.44034
454.181	40.74705
454.391	-5.61958
454.602	-47.7609
454.813	-11.94141
455.024	2.80986
455.235	68.15085
455.445	38.63923
455.656	-79.36032
455.867	30.20817
456.078	9.13219
456.288	9.13219
456.499	-1.40491
456.71	-45.65407
456.921	-11.94141
457.131	9.13219
457.342	-43.54722
457.553	4.91728
457.763	-18.26301
457.974	-14.04863
458.184	13.34719
458.395	38.63923
458.606	17.5623
458.816	-77.25387
459.027	-9.83416
459.237	4.91728
459.448	-54.08124
459.659	21.7775
459.869	-28.79853
460.08	-24.5844
460.29	-37.2265
460.501	38.63923
460.711	-35.11954
460.922	38.63923
461.132	-3.51226
461.343	42.8549
461.553	34.42366
461.764	17.5623
461.974	-49.86771
462.184	4.91728
462.395	-49.86771
462.605	-28.79853
462.816	-20.37016
463.026	-24.5844
463.236	78.6918
463.447	-3.51226
463.657	23.88513
463.867	-41.44034
464.078	-39.33343
464.288	2.80986
464.498	2.80986
464.709	-37.2265
464.919	-68.82782
465.129	28.10047
465.339	28.10047
465.55	25.99279
465.76	15.45473
465.97	-28.79853
466.18	-18.26301
466.391	-16.15583
466.601	-3.51226
466.811	23.88513
467.021	-35.11954
467.231	-1.40491
467.441	-75.1474
467.651	17.5623
467.862	49.17857
468.072	-20.37016
468.282	40.74705
468.492	-51.97449
468.702	55.50246
468.912	-20.37016
469.122	-16.15583
469.332	0.70246
469.542	66.04272
469.752	30.20817
469.962	7.02472
470.172	-66.72124
470.382	59.7185
470.592	-5.61958
470.802	-33.01256
471.012	-11.94141
471.222	-39.33343
471.432	30.20817
471.642	7.02472
471.852	19.66988
472.062	-14.04863
472.272	-20.37016
472.482	53.39447
472.691	-35.11954
472.901	15.45473
473.111	-9.83416
473.321	-3.51226
473.531	-26.69148
473.741	-3.51226
473.95	-3.51226
474.16	68.15085
474.37	32.3159
474.58	-56.18797
474.79	-16.15583
474.999	34.42366
475.209	-28.79853
475.419	-39.33343
475.628	-30.90556
475.838	40.74705
476.048	-41.44034
476.258	21.7775
476.467	15.45473
476.677	-54.08124
476.886	-33.01256
477.096	38.63923
477.306	-18.26301
477.515	89.23331
477.725	-41.44034
477.935	-56.18797
478.144	-11.94141
478.354	44.96277
478.563	-26.69148
478.773	15.45473
478.982	51.28651
479.192	-39.33343
479.401	38.63923
479.611	-28.79853
479.82	-35.11954
480.03	-49.86771
480.239	4.91728
480.449	-41.44034
480.658	-7.72688
480.868	13.34719
481.077	-20.37016
481.287	-35.11954
481.496	30.20817
481.705	-18.26301
481.915	17.5623
482.124	47.07066
482.333	-49.86771
482.543	38.63923
482.752	-35.11954
482.961	-28.79853
483.171	-3.51226
483.38	68.15085
483.589	40.74705
483.799	21.7775
484.008	-20.37016
484.217	-28.79853
484.426	59.7185
484.636	-45.65407
484.845	-26.69148
485.054	15.45473
485.263	-70.93437
485.472	-37.2265
485.682	21.7775
485.891	-7.72688
486.1	-14.04863
486.309	-3.51226
486.518	-51.97449
486.727	108.20943
486.936	17.5623
487.146	13.34719
487.355	-16.15583
487.564	-37.2265
487.773	13.34719
487.982	2.80986
488.191	-24.5844
488.4	-11.94141
488.609	-26.69148
488.818	-28.79853
489.027	47.07066
489.236	59.7185
489.445	19.66988
489.654	42.8549
489.863	0.70246
490.072	-35.11954
490.281	-45.65407
490.49	-49.86771
490.698	-20.37016
490.907	-37.2265
491.116	-3.51226
491.325	-24.5844
491.534	9.13219
491.743	-26.69148
491.952	32.3159
492.16	-1.40491
492.369	34.42366
492.578	19.66988
492.787	-16.15583
492.996	42.8549
493.204	49.17857
493.413	-70.93437
493.622	40.74705
493.831	-45.65407
494.039	-83.57314
494.248	38.63923
494.457	47.07066
494.665	-62.50801
494.874	-79.36032
495.083	80.80005
495.291	-20.37016
495.5	9.13219
495.709	-70.93437
495.917	-62.50801
496.126	-11.94141
496.335	11.23968
496.543	7.02472
496.752	-75.1474
496.96	49.17857
497.169	-35.11954
497.377	42.8549
497.586	-49.86771
497.794	42.8549
498.003	-75.1474
498.211	7.02472
498.42	32.3159
498.628	-35.11954
498.837	9.13219
499.045	13.34719
499.254	-20.37016
499.462	-35.11954
499.671	-3.51226
499.879	-33.01256
500.087	42.8549
500.296	-20.37016
500.504	4.91728
500.713	-20.37016
500.921	30.20817
501.129	-5.61958
501.338	76.58356
501.546	51.28651
501.754	4.91728
501.962	-20.37016
502.171	32.3159
502.379	82.90833
502.587	-11.94141
502.795	30.20817
503.004	-45.65407
503.212	4.91728
503.42	-39.33343
503.628	63.93463
503.837	42.8549
504.045	-28.79853
504.253	-28.79853
504.461	80.80005
504.669	23.88513
504.877	-20.37016
505.085	-5.61958
505.294	25.99279
505.502	-3.51226
505.71	-26.69148
505.918	-35.11954
506.126	-87.78586
506.334	-20.37016
506.542	-1.40491
506.75	7.02472
506.958	-35.11954
507.166	57.61047
507.374	-16.15583
507.582	-14.04863
507.79	-28.79853
507.998	-9.83416
508.206	19.66988
508.414	-20.37016
508.622	-43.54722
508.83	53.39447
509.037	38.63923
509.245	4.91728
509.453	32.3159
509.661	-43.54722
509.869	-37.2265
510.077	-11.94141
510.285	-37.2265
510.492	-9.83416
510.7	-28.79853
510.908	-3.51226
511.116	19.66988
511.324	34.42366
511.531	-73.04089
511.739	21.7775
511.947	4.91728
512.155	9.13219
512.362	-79.36032
512.57	34.42366
512.778	-18.26301
512.985	-3.51226
513.193	-1.40491
513.401	30.20817
513.608	51.28651
513.816	-51.97449
514.024	76.58356
514.231	23.88513
514.439	21.7775
514.646	-41.44034
514.854	-41.44034
515.061	74.47535
515.269	25.99279
515.477	-11.94141
515.684	-41.44034
515.892	15.45473
516.099	23.88513
516.307	72.36716
516.514	-11.94141
516.722	93.45007
516.929	40.74705
517.136	19.66988
517.344	-7.72688
517.551	2.80986
517.759	13.34719
517.966	0.70246
518.173	-37.2265
518.381	85.01664
518.588	51.28651
518.796	7.02472
519.003	21.7775
519.21	-1.40491
519.418	-3.51226
519.625	-30.90556
519.832	32.3159
520.039	42.8549
520.247	42.8549
520.454	63.93463
520.661	-20.37016
520.868	2.80986
521.076	38.63923
521.283	-35.11954
521.49	-26.69148
521.697	-54.08124
521.904	38.63923
522.112	-24.5844
522.319	51.28651
522.526	-41.44034
522.733	36.53143
522.94	9.13219
523.147	-94.10474
523.354	-11.94141
523.561	30.20817
523.768	-35.11954
523.975	-45.65407
524.183	-18.26301
524.39	57.61047
524.597	-45.65407
524.804	47.07066
525.011	-49.86771
525.218	36.53143
525.425	7.02472
525.632	49.17857
525.838	15.45473
526.045	85.01664
526.252	-14.04863
526.459	-20.37016
526.666	-35.11954
526.873	21.7775
527.08	21.7775
527.287	47.07066
527.494	76.58356
527.701	38.63923
527.907	55.50246
528.114	76.58356
528.321	13.34719
528.528	-7.72688
528.735	34.42366
528.941	-1.40491
529.148	-5.61958
529.355	-11.94141
529.562	-77.25387
529.768	4.91728
529.975	30.20817
530.182	42.8549
530.388	30.20817
530.595	-3.51226
530.802	21.7775
531.008	2.80986
531.215	47.07066
531.422	47.07066
531.628	9.13219
531.835	89.23331
532.042	57.61047
532.248	-62.50801
532.455	-18.26301
532.661	99.77538
532.868	4.91728
533.074	23.88513
533.281	-20.37016
533.487	36.53143
533.694	99.77538
533.9	13.34719
534.107	25.99279
534.313	-47.7609
534.52	30.20817
534.726	-41.44034
534.933	78.6918
535.139	49.17857
535.345	-16.15583
535.552	40.74705
535.758	30.20817
535.965	13.34719
536.171	32.3159
536.377	76.58356
536.584	74.47535
536.79	80.80005
536.996	-35.11954
537.203	40.74705
537.409	106.10089
537.615	55.50246
537.821	23.88513
538.028	-28.79853
538.234	89.23331
538.44	97.66692
538.646	-1.40491
538.853	2.80986
539.059	40.74705
539.265	93.45007
539.471	80.80005
539.677	-3.51226
539.883	4.91728
540.09	2.80986
540.296	93.45007
540.502	21.7775
540.708	63.93463
540.914	-1.40491
541.12	0.70246
541.326	40.74705
541.532	97.66692
541.738	91.34168
541.944	0.70246
542.15	30.20817
542.356	68.15085
542.562	74.47535
542.768	87.12496
542.974	74.47535
543.18	59.7185
543.386	38.63923
543.592	7.02472
543.798	49.17857
544.004	23.88513
544.21	42.8549
544.415	47.07066
544.621	63.93463
544.827	-28.79853
545.033	25.99279
545.239	59.7185
545.445	70.25899
545.651	68.15085
545.856	17.5623
546.062	38.63923
546.268	106.10089
546.474	-3.51226
546.679	66.04272
546.885	68.15085
547.091	38.63923
547.297	23.88513
547.502	97.66692
547.708	23.88513
547.914	-35.11954
548.119	116.64384
548.325	59.7185
548.531	-56.18797
548.736	97.66692
548.942	76.58356
549.147	49.17857
549.353	57.61047
549.559	89.23331
549.764	74.47535
549.97	38.63923
550.175	85.01664
550.381	74.47535
550.586	139.84024
550.792	-16.15583
550.997	30.20817
551.203	63.93463
551.408	57.61047
551.614	57.61047
551.819	-16.15583
552.025	80.80005
552.23	59.7185
552.435	82.90833
552.641	55.50246
552.846	25.99279
553.052	70.25899
553.257	25.99279
553.462	51.28651
553.668	99.77538
553.873	68.15085
554.078	135.62252
554.283	95.55848
554.489	103.99236
554.694	55.50246
554.899	61.82655
555.105	55.50246
555.31	99.77538
555.515	23.88513
555.72	89.23331
555.925	116.64384
556.131	114.5352
556.336	51.28651
556.541	114.5352
556.746	93.45007
556.951	108.20943
557.156	38.63923
557.361	15.45473
557.567	89.23331
557.772	17.5623
557.977	55.50246
558.182	95.55848
558.387	66.04272
558.592	110.318
558.797	76.58356
559.002	49.17857
559.207	17.5623
559.412	80.80005
559.617	72.36716
559.822	74.47535
560.027	72.36716
560.232	9.13219
560.437	158.82104
560.642	4.91728
560.847	55.50246
561.051	47.07066
561.256	66.04272
561.461	108.20943
561.666	66.04272
561.871	85.01664
562.076	59.7185
562.281	99.77538
562.485	34.42366
562.69	139.84024
562.895	23.88513
563.1	108.20943
563.305	80.80005
563.509	38.63923
563.714	59.7185
563.919	133.51369
564.123	34.42366
564.328	108.20943
564.533	82.90833
564.737	68.15085
564.942	9.13219
565.147	196.78769
565.351	38.63923
565.556	148.27594
565.761	57.61047
565.965	85.01664
566.17	114.5352
566.374	171.47585
566.579	160.93012
566.784	74.47535
566.988	108.20943
567.193	139.84024
567.397	158.82104
567.602	135.62252
567.806	97.66692
568.011	133.51369
568.215	201.00661
568.42	150.38492
568.624	97.66692
568.828	106.10089
569.033	160.93012
569.237	141.94913
569.442	80.80005
569.646	110.318
569.85	139.84024
570.055	122.96987
570.259	207.33515
570.463	163.03922
570.668	114.5352
570.872	158.82104
571.076	196.78769
571.281	95.55848
571.485	82.90833
571.689	165.14835
571.893	186.24073
572.098	66.04272
572.302	203.11611
572.506	139.84024
572.71	118.75249
572.914	154.60294
573.119	68.15085
573.323	146.16698
573.527	122.96987
573.731	89.23331
573.935	122.96987
574.139	108.20943
574.343	146.16698
574.547	78.6918
574.751	165.14835
574.955	131.40488
575.159	116.64384
575.364	131.40488
575.568	144.05805
575.772	127.18734
575.976	97.66692
576.18	131.40488
576.383	139.84024
576.587	150.38492
576.791	160.93012
576.995	190.45945
577.199	194.67826
577.403	169.36666
577.607	122.96987
577.811	165.14835
578.015	150.38492
578.219	112.42659
578.422	125.07859
578.626	148.27594
578.83	184.1314
579.034	148.27594
579.238	116.64384
579.442	182.02209
579.645	215.77348
579.849	158.82104
580.053	173.58505
580.257	118.75249
580.46	190.45945
580.664	108.20943
580.868	190.45945
581.071	232.6511
581.275	125.07859
581.479	194.67826
581.682	175.69428
581.886	232.6511
582.09	243.20024
582.293	198.89714
582.497	158.82104
582.7	224.21213
582.904	207.33515
583.107	184.1314
583.311	226.32184
583.515	209.44471
583.718	209.44471
583.922	207.33515
584.125	224.21213
584.329	186.24073
584.532	190.45945
584.735	177.80353
584.939	175.69428
585.142	247.42003
585.346	190.45945
585.549	243.20024
585.753	184.1314
585.956	177.80353
586.159	173.58505
586.363	222.10244
586.566	192.56884
586.769	131.40488
586.973	215.77348
587.176	198.89714
587.379	253.74986
587.582	291.73244
587.786	251.6399
587.989	274.85054
588.192	226.32184
588.395	215.77348
588.599	266.41005
588.802	266.41005
589.005	182.02209
589.208	245.31013
589.411	268.52014
589.615	192.56884
589.818	234.76089
590.021	194.67826
590.224	209.44471
590.427	249.52996
590.63	198.89714
590.833	251.6399
591.036	253.74986
591.239	268.52014
591.442	253.74986
591.645	300.17382
591.848	207.33515
592.051	291.73244
592.254	304.39463
592.457	249.52996
592.66	285.40159
592.863	388.82553
593.066	310.72597
593.269	272.74039
593.472	300.17382
593.675	317.05747
593.878	319.16801
594.081	247.42003
594.284	376.15915
594.486	293.84276
594.689	344.49584
594.892	251.6399
595.095	283.29134
595.298	293.84276
595.5	300.17382
595.703	310.72597
595.906	312.83645
596.109	283.29134
596.311	300.17382
596.514	321.27857
596.717	327.61034
596.92	336.05295
597.122	276.96072
597.325	317.05747
597.528	274.85054
597.73	266.41005
597.933	325.49973
598.136	344.49584
598.338	209.44471
598.541	276.96072
598.743	321.27857
598.946	395.15895
599.148	319.16801
599.351	350.82819
599.554	435.274
599.756	342.38509
599.959	295.95309
600.161	401.49252
600.363	253.74986
600.566	422.60547
600.768	361.38246
600.971	395.15895
601.173	260.07987
601.376	460.61277
601.578	317.05747
601.78	378.27017
601.983	369.82618
602.185	452.16626
602.388	350.82819
602.59	393.0478
602.792	428.93966
602.995	401.49252
603.197	407.82623
603.399	469.05951
603.601	403.60374
603.804	418.38275
604.006	361.38246
604.208	403.60374
604.41	359.27157
604.613	513.40885
604.815	327.61034
605.017	412.04879
605.219	327.61034
605.421	450.05468
605.623	395.15895
605.826	462.72443
606.028	393.0478
606.23	477.5065
606.432	342.38509
606.634	460.61277
606.836	325.49973
607.038	521.85708
607.24	403.60374
607.442	496.5131
607.644	426.82825
607.846	439.49697
608.048	393.0478
608.25	477.5065
608.452	460.61277
608.654	456.38949
608.856	435.274
609.058	534.52983
609.26	369.82618
609.462	437.38548
609.664	407.82623
609.866	399.38131
610.067	435.274
610.269	502.8489
610.471	502.8489
610.673	464.83611
610.875	555.65221
611.077	511.29683
611.278	390.93666
611.48	494.4012
611.682	447.94311
611.884	488.06558
612.085	409.9375
612.287	523.96917
612.489	540.8664
612.69	511.29683
612.892	462.72443
613.094	437.38548
613.295	481.73009
613.497	559.87685
613.699	494.4012
613.9	576.77594
614.102	519.745
614.304	530.30552
614.505	542.97862
614.707	564.10154
614.908	460.61277
615.11	492.28931
615.311	460.61277
615.513	464.83611
615.714	504.96086
615.916	494.4012
616.117	386.71443
616.319	545.09085
616.52	469.05951
616.722	502.8489
616.923	452.16626
617.124	534.52983
617.326	475.39473
617.527	640.15495
617.729	488.06558
617.93	542.97862
618.131	561.98919
618.333	604.23877
618.534	568.32629
618.735	595.78844
618.937	532.41767
619.138	631.70376
619.339	578.88839
619.54	722.56386
619.742	536.64201
619.943	619.02735
620.144	536.64201
620.345	692.97918
620.546	511.29683
620.748	625.3655
620.949	564.10154
621.15	545.09085
621.351	414.16009
621.552	549.31535
621.753	578.88839
621.954	614.80198
622.155	623.25277
622.356	616.91466
622.558	528.19339
622.759	576.77594
622.96	528.19339
623.161	604.23877
623.362	528.19339
623.563	697.20543
623.764	557.76452
623.965	764.83132
624.166	640.15495
624.366	597.901
624.567	640.15495
624.768	574.66351
624.969	663.39671
625.17	616.91466
625.371	659.17083
625.572	692.97918
625.773	587.33831
625.973	650.7192
626.174	705.65806
626.375	817.67129
626.576	608.46402
626.777	764.83132
626.977	583.11332
627.178	834.58132
627.379	519.745
627.58	697.20543
627.78	640.15495
627.981	692.97918
628.182	673.96162
628.382	716.2241
628.583	667.62264
628.784	680.3007
628.984	690.86607
629.185	735.24366
629.386	638.04213
629.586	711.99765
629.787	574.66351
629.987	792.30735
630.188	587.33831
630.388	771.1718
630.589	604.23877
630.79	769.0583
630.99	775.39883
631.191	788.08017
631.391	722.56386
631.591	673.96162
631.792	682.41375
631.992	845.15038
632.193	682.41375
632.393	790.19376
632.594	747.92384
632.794	728.90371
632.994	752.15065
633.195	834.58132
633.395	726.79042
633.595	826.12623
633.796	714.11087
633.996	747.92384
634.196	688.75297
634.397	811.33018
634.597	697.20543
634.797	826.12623
634.997	777.51236
635.198	781.73945
635.398	785.96659
635.598	809.21649
635.798	802.8755
635.998	857.83355
636.199	862.06134
636.399	906.45513
636.599	652.83209
636.799	917.0256
636.999	718.33734
637.199	807.10282
637.399	859.94744
637.599	752.15065
637.799	688.75297
637.999	819.78501
638.199	849.37807
638.399	815.55758
638.599	766.94481
638.799	910.6833
638.999	747.92384
639.199	792.30735
639.399	807.10282
639.599	857.83355
639.799	747.92384
639.999	938.16712
640.199	781.73945
640.399	902.227
640.599	733.13033
640.799	923.36798
640.998	952.96661
641.198	955.08085
641.398	832.46754
641.598	887.42878
641.798	878.97283
641.997	980.4523
642.197	750.03724
642.397	984.68097
642.597	938.16712
642.796	1012.16795
642.996	874.74491
643.196	919.13972
643.395	961.42362
643.595	982.56663
643.795	933.93875
643.994	961.42362
644.194	847.26422
644.394	917.0256
644.593	917.0256
644.793	933.93875
644.992	912.79739
645.192	955.08085
645.392	836.69512
645.591	1026.96908
645.791	910.6833
645.99	980.4523
646.19	933.93875
646.389	1128.46978
646.589	917.0256
646.788	978.33798
646.987	1026.96908
647.187	1126.35506
647.386	874.74491
647.586	984.68097
647.785	1001.59591
647.984	982.56663
648.184	980.4523
648.383	1081.94714
648.582	925.48212
648.782	1223.6361
648.981	997.36714
649.18	971.99504
649.38	1120.01095
649.579	1090.40563
649.778	1039.65598
649.977	1164.42059
650.177	991.02402
650.376	1132.69922
650.575	938.16712
650.774	1145.38765
650.973	1073.48874
651.173	1105.20817
651.372	1060.80129
651.571	1261.70453
651.77	1075.60333
651.969	1257.47466
652.168	1029.08355
652.367	1181.33902
652.566	1043.885
652.765	1128.46978
652.964	955.08085
653.163	1162.3058
653.362	1113.66687
653.561	1166.53538
653.76	986.79532
653.959	1206.7171
654.158	1136.92868
654.357	1238.44038
654.556	1240.55529
654.755	1342.07376
654.954	1024.85461
655.153	1297.65883
655.352	1018.51126
655.551	1166.53538
655.749	1120.01095
655.948	1145.38765
656.147	1134.81395
656.346	1208.83197
656.545	1120.01095
656.743	1310.34873
656.942	1050.22857
657.141	1255.35973
657.34	1103.0935
657.538	1236.32547
657.737	1136.92868
657.936	1208.83197
658.135	1073.48874
658.333	1234.21057
658.532	1065.03042
658.731	1170.76497
658.929	1075.60333
659.128	1225.75098
659.326	1200.37253
659.525	1297.65883
659.724	1162.3058
659.922	1297.65883
660.121	1136.92868
660.319	1213.0617
660.518	1113.66687
660.716	1308.23374
660.915	1255.35973
661.113	1405.52473
661.312	1158.07624
661.51	1310.34873
661.709	1170.76497
661.907	1289.19893
662.105	1291.3139
662.304	1397.06455
662.502	1196.14284
662.701	1350.53383
662.899	1206.7171
663.097	1191.91316
663.296	1310.34873
663.494	1553.57785
663.692	1323.03869
663.891	1405.52473
664.089	1242.6702
664.287	1365.339
664.485	1249.01495
664.684	1401.29464
664.882	1312.46372
665.08	1350.53383
665.278	1208.83197
665.476	1291.3139
665.675	1090.40563
665.873	1409.75482
666.071	1369.56906
666.269	1373.79913
666.467	1202.48739
666.665	1464.74614
666.863	1232.09567
667.061	1339.95875
667.259	1215.17657
667.457	1403.40968
667.655	1263.81947
667.853	1519.73736
668.051	1272.27926
668.249	1314.57871
668.447	1217.29145
668.645	1348.41881
668.843	1204.60224
669.041	1407.63977
669.239	1278.62412
669.437	1477.43645
669.635	1354.76387
669.833	1528.19751
670.031	1289.19893
670.229	1488.0117
670.426	1242.6702
670.624	1418.21501
670.822	1460.51604
671.02	1498.58693
671.218	1306.11875
671.415	1547.23278
671.613	1308.23374
671.811	1384.37431
672.009	1276.50916
672.206	1479.5515
672.404	1299.7738
672.602	1420.33006
672.799	1382.25927
672.997	1445.71067
673.195	1238.44038
673.392	1392.83446
673.59	1255.35973
673.788	1384.37431
673.985	1278.62412
674.183	1517.62232
674.38	1242.6702
674.578	1492.24179
674.775	1475.3214
674.973	1441.48057
675.17	1424.56016
675.368	1456.28593
675.565	1445.71067
675.763	1526.08247
675.96	1333.61372
676.158	1498.58693
676.355	1380.14423
676.553	1559.9229
676.75	1306.11875
676.947	1655.09689
677.145	1238.44038
677.342	1585.303
677.539	1384.37431
677.737	1490.12675
677.934	1394.94951
678.131	1496.47189
678.329	1348.41881
678.526	1564.15294
678.723	1342.07376
678.92	1509.16216
679.118	1382.25927
679.315	1500.70198
679.512	1208.83197
679.709	1475.3214
679.906	1333.61372
680.104	1526.08247
680.301	1356.8789
680.498	1365.339
680.695	1268.04936
680.892	1509.16216
681.089	1462.63109
681.286	1517.62232
681.483	1314.57871
681.68	1365.339
681.877	1344.18878
682.075	1490.12675
682.272	1274.39421
682.469	1540.8877
682.665	1365.339
682.862	1458.40099
683.059	1333.61372
683.256	1424.56016
683.453	1282.85404
683.65	1378.0292
683.847	1424.56016
684.044	1433.02036
684.241	1183.45384
684.438	1392.83446
684.635	1318.8087
684.831	1600.10795
685.028	1280.73908
685.225	1504.93207
685.422	1265.93442
685.619	1405.52473
685.815	1291.3139
686.012	1568.38296
686.209	1428.79026
686.405	1519.73736
686.602	1483.7816
686.799	1462.63109
686.996	1365.339
687.192	1500.70198
687.389	1304.00377
687.586	1490.12675
687.782	1426.67521
687.979	1458.40099
688.175	1265.93442
688.372	1517.62232
688.568	1265.93442
688.765	1513.39224
688.962	1274.39421
689.158	1543.00272
689.355	1352.64885
689.551	1604.33792
689.748	1375.91416
689.944	1475.3214
690.14	1371.68409
690.337	1517.62232
690.533	1426.67521
690.73	1390.71942
690.926	1327.2687
691.123	1458.40099
691.319	1433.02036
691.515	1441.48057
691.712	1369.56906
691.908	1384.37431
692.104	1306.11875
692.301	1399.17959
692.497	1265.93442
692.693	1488.0117
692.889	1424.56016
693.086	1433.02036
693.282	1331.49871
693.478	1585.303
693.674	1458.40099
693.87	1422.44511
694.067	1426.67521
694.263	1589.533
694.459	1513.39224
694.655	1536.65764
694.851	1424.56016
695.047	1617.02778
695.243	1428.79026
695.439	1614.91281
695.635	1407.63977
695.831	1585.303
696.027	1407.63977
696.224	1528.19751
696.42	1268.04936
696.615	1536.65764
696.811	1449.94078
697.007	1452.05583
697.203	1339.95875
697.399	1367.45403
697.595	1365.339
697.791	1496.47189
697.987	1339.95875
698.183	1485.89665
698.379	1407.63977
698.575	1517.62232
698.77	1521.8524
698.966	1471.0913
699.162	1348.41881
699.358	1572.61298
699.554	1399.17959
699.749	1564.15294
699.945	1449.94078
700.141	1697.39492
700.337	1538.77267
700.532	1428.79026
700.728	1555.69287
700.924	1576.843
701.119	1299.7738
701.315	1519.73736
701.511	1350.53383
701.706	1606.4529
701.902	1570.49797
702.097	1464.74614
702.293	1373.79913
702.489	1413.98491
702.684	1284.969
702.88	1551.46282
703.075	1329.3837
703.271	1394.94951
703.466	1553.57785
703.662	1468.97625
703.857	1405.52473
704.053	1712.19896
704.248	1513.39224
704.443	1667.78642
704.639	1418.21501
704.834	1532.42757
705.03	1426.67521
705.225	1564.15294
705.42	1401.29464
705.616	1433.02036
705.811	1564.15294
706.006	1443.59562
706.202	1454.17088
706.397	1481.66655
706.592	1384.37431
706.787	1504.93207
706.983	1441.48057
707.178	1631.83252
707.373	1293.42888
707.568	1475.3214
707.763	1378.0292
707.959	1608.56788
708.154	1358.99392
708.349	1433.02036
708.544	1304.00377
708.739	1498.58693
708.934	1356.8789
709.129	1602.22294
709.324	1331.49871
709.519	1564.15294
709.714	1308.23374
709.909	1555.69287
710.104	1373.79913
710.299	1621.25772
710.494	1378.0292
710.689	1583.188
710.884	1394.94951
711.079	1627.60261
711.274	1369.56906
711.469	1591.64799
711.664	1424.56016
711.859	1627.60261
712.054	1475.3214
712.249	1545.11775
712.443	1458.40099
712.638	1532.42757
712.833	1342.07376
713.028	1496.47189
713.223	1219.40633
713.417	1490.12675
713.612	1297.65883
713.807	1521.8524
714.002	1593.76299
714.196	1564.15294
714.391	1369.56906
714.586	1496.47189
714.78	1473.20635
714.975	1570.49797
715.17	1373.79913
715.364	1602.22294
715.559	1375.91416
715.754	1496.47189
715.948	1331.49871
716.143	1509.16216
716.337	1481.66655
716.532	1500.70198
716.726	1382.25927
716.921	1568.38296
717.115	1488.0117
717.31	1644.52221
717.504	1498.58693
717.699	1581.073
717.893	1291.3139
718.088	1507.04711
718.282	1342.07376
718.476	1443.59562
718.671	1323.03869
718.865	1606.4529
719.059	1306.11875
719.254	1534.54261
719.448	1240.55529
719.642	1452.05583
719.837	1416.09996
720.031	1712.19896
720.225	1323.03869
720.419	1437.25046
720.614	1363.22397
720.808	1483.7816
721.002	1242.6702
721.196	1445.71067
721.39	1323.03869
721.585	1500.70198
721.779	1198.25768
721.973	1428.79026
722.167	1325.1537
722.361	1466.86119
722.555	1375.91416
722.749	1323.03869
722.943	1318.8087
723.137	1441.48057
723.331	1229.98077
723.525	1526.08247
723.719	1511.2772
723.913	1458.40099
724.107	1344.18878
724.301	1479.5515
724.495	1392.83446
724.689	1555.69287
724.883	1481.66655
725.077	1399.17959
725.271	1492.24179
725.465	1564.15294
725.659	1382.25927
725.853	1652.98196
726.046	1411.86987
726.24	1504.93207
726.434	1174.99458
726.628	1517.62232
726.822	1363.22397
727.015	1500.70198
727.209	1399.17959
727.403	1612.79784
727.596	1293.42888
727.79	1433.02036
727.984	1310.34873
728.177	1424.56016
728.371	1399.17959
728.565	1530.31254
728.758	1384.37431
728.952	1562.03792
729.146	1462.63109
729.339	1619.14275
729.533	1473.20635
729.726	1500.70198
729.92	1356.8789
730.113	1661.44167
730.307	1335.72873
730.5	1536.65764
730.694	1348.41881
730.887	1555.69287
731.081	1439.36552
731.274	1426.67521
731.468	1232.09567
731.661	1323.03869
731.854	1213.0617
732.048	1403.40968
732.241	1388.60438
732.435	1492.24179
732.628	1411.86987
732.821	1477.43645
733.014	1346.30379
733.208	1424.56016
733.401	1375.91416
733.594	1519.73736
733.788	1445.71067
733.981	1443.59562
734.174	1494.35684
734.367	1536.65764
734.56	1502.81702
734.754	1468.97625
734.947	1504.93207
735.14	1403.40968
735.333	1526.08247
735.526	1511.2772
735.719	1475.3214
735.912	1517.62232
736.105	1426.67521
736.298	1517.62232
736.491	1488.0117
736.684	1399.17959
736.877	1365.339
737.07	1526.08247
737.263	1460.51604
737.456	1392.83446
737.649	1485.89665
737.842	1578.958
738.035	1604.33792
738.228	1559.9229
738.421	1494.35684
738.614	1490.12675
738.807	1449.94078
739	1418.21501
739.192	1517.62232
739.385	1420.33006
739.578	1475.3214
739.771	1521.8524
739.964	1430.90531
740.156	1570.49797
740.349	1390.71942
740.542	1536.65764
740.735	1411.86987
740.927	1490.12675
741.12	1483.7816
741.313	1466.86119
741.505	1399.17959
741.698	1468.97625
741.891	1420.33006
742.083	1354.76387
742.276	1416.09996
742.468	1464.74614
742.661	1468.97625
742.854	1411.86987
743.046	1356.8789
743.239	1483.7816
743.431	1386.48934
743.624	1433.02036
743.816	1559.9229
744.009	1502.81702
744.201	1327.2687
744.393	1458.40099
744.586	1306.11875
744.778	1595.87798
744.971	1445.71067
745.163	1409.75482
745.355	1413.98491
745.548	1468.97625
745.74	1304.00377
745.932	1268.04936
746.125	1358.99392
746.317	1526.08247
746.509	1477.43645
746.702	1545.11775
746.894	1496.47189
747.086	1581.073
747.278	1449.94078
747.471	1479.5515
747.663	1426.67521
747.855	1581.073
748.047	1485.89665
748.239	1460.51604
748.431	1375.91416
748.623	1468.97625
748.815	1354.76387
749.008	1466.86119
749.2	1382.25927
749.392	1530.31254
749.584	1251.12988
749.776	1471.0913
749.968	1435.13541
750.16	1378.0292
750.352	1301.88878
750.544	1564.15294
750.736	1439.36552
750.928	1504.93207
751.12	1293.42888
751.311	1494.35684
751.503	1308.23374
751.695	1475.3214
751.887	1483.7816
752.079	1314.57871
752.271	1365.339
752.463	1441.48057
752.654	1331.49871
752.846	1447.82572
753.038	1399.17959
753.23	1517.62232
753.421	1430.90531
753.613	1411.86987
753.805	1608.56788
753.997	1390.71942
754.188	1445.71067
754.38	1513.39224
754.572	1411.86987
754.763	1342.07376
754.955	1394.94951
755.146	1416.09996
755.338	1365.339
755.53	1375.91416
755.721	1255.35973
755.913	1386.48934
756.104	1299.7738
756.296	1449.94078
756.487	1416.09996
756.679	1401.29464
756.87	1403.40968
757.062	1354.76387
757.253	1458.40099
757.445	1418.21501
757.636	1289.19893
757.827	1485.89665
758.019	1331.49871
758.21	1234.21057
758.401	1196.14284
758.593	1306.11875
758.784	1196.14284
758.975	1153.84669
759.167	1172.87977
759.358	1251.12988
759.549	1358.99392
759.74	1373.79913
759.932	1158.07624
760.123	1217.29145
760.314	1060.80129
760.505	1249.01495
760.696	1251.12988
760.888	1259.5896
761.079	1282.85404
761.27	1310.34873
761.461	1187.68349
761.652	1401.29464
761.843	1310.34873
762.034	1371.68409
762.225	1240.55529
762.416	1445.71067
762.607	1361.10895
762.798	1280.73908
762.989	1200.37253
763.18	1198.25768
763.371	1162.3058
763.562	1196.14284
763.753	1189.79832
763.944	1270.16431
764.135	1191.91316
764.326	1441.48057
764.517	1390.71942
764.708	1352.64885
764.899	1215.17657
765.089	1232.09567
765.28	1213.0617
765.471	1323.03869
765.662	1018.51126
765.853	1198.25768
766.043	1183.45384
766.234	1052.3431
766.425	1081.94714
766.615	1115.78156
766.806	942.39551
766.997	1229.98077
767.187	1145.38765
767.378	1255.35973
767.569	1134.81395
767.759	1232.09567
767.95	1130.5845
768.141	1120.01095
768.331	1062.91585
768.522	1208.83197
768.712	1139.04342
768.903	1172.87977
769.093	1086.17637
769.284	1122.12565
769.474	1060.80129
769.665	1208.83197
769.855	1107.32284
770.046	1139.04342
770.236	1181.33902
770.426	1185.56866
770.617	1079.83253
770.807	1039.65598
770.998	1014.28238
771.188	1187.68349
771.378	1001.59591
771.569	1246.90003
771.759	974.10935
771.949	1168.65017
772.139	1054.45764
772.33	1132.69922
772.52	1105.20817
772.71	1109.43751
772.9	1155.96146
773.09	1111.55219
773.281	1107.32284
773.471	1096.74954
773.661	1115.78156
773.851	1016.39682
774.041	1043.885
774.231	1092.52026
774.421	974.10935
774.611	946.62393
774.802	1026.96908
774.992	1071.37415
775.182	997.36714
775.372	986.79532
775.562	1005.82471
775.752	910.6833
775.942	967.76645
776.131	1136.92868
776.321	887.42878
776.511	1003.71031
776.701	1113.66687
776.891	1069.25957
777.081	1043.885
777.271	1145.38765
777.461	957.1951
777.651	1136.92868
777.84	980.4523
778.03	933.93875
778.22	938.16712
778.41	1088.291
778.599	978.33798
778.789	1088.291
778.979	955.08085
779.169	1039.65598
779.358	826.12623
779.548	1069.25957
779.738	891.6568
779.927	1069.25957
780.117	984.68097
780.307	955.08085
780.496	912.79739
780.686	895.88486
780.875	815.55758
781.065	967.76645
781.254	891.6568
781.444	927.59627
781.633	851.49193
781.823	946.62393
782.012	942.39551
782.202	933.93875
782.391	845.15038
782.581	952.96661
782.77	840.92273
782.96	1071.37415
783.149	804.98915
783.338	952.96661
783.528	929.71042
783.717	1010.05353
783.906	967.76645
784.096	904.34106
784.285	686.63989
784.474	963.53789
784.663	794.42096
784.853	887.42878
785.042	741.5837
785.231	739.47034
785.42	851.49193
785.61	885.31478
785.799	836.69512
785.988	912.79739
786.177	781.73945
786.366	980.4523
786.555	701.43172
786.744	851.49193
786.933	811.33018
787.122	851.49193
787.312	891.6568
787.501	919.13972
787.69	845.15038
787.879	843.03655
788.068	815.55758
788.257	819.78501
788.445	695.0923
788.634	895.88486
788.823	752.15065
789.012	912.79739
789.201	849.37807
789.39	828.23999
789.579	743.69707
789.768	889.54279
789.957	811.33018
790.145	800.76185
790.334	781.73945
790.523	849.37807
790.712	705.65806
790.9	832.46754
791.089	764.83132
791.278	794.42096
791.467	785.96659
791.655	802.8755
791.844	764.83132
792.033	891.6568
792.221	747.92384
792.41	821.89874
792.599	758.49094
792.787	720.4506
792.976	642.26777
793.164	800.76185
793.353	709.88445
793.541	836.69512
793.73	673.96162
793.918	686.63989
794.107	728.90371
794.295	883.20079
794.484	690.86607
794.672	728.90371
794.861	722.56386
795.049	783.85301
795.238	800.76185
795.426	796.53458
795.614	794.42096
795.803	705.65806
795.991	650.7192
796.179	638.04213
796.368	724.67713
796.556	773.28531
796.744	703.54489
796.932	705.65806
797.121	667.62264
797.309	760.60439
797.497	612.68931
797.685	733.13033
797.874	623.25277
798.062	739.47034
798.25	671.84861
798.438	739.47034
798.626	714.11087
798.814	826.12623
799.002	758.49094
799.19	756.3775
799.378	775.39883
799.566	771.1718
799.755	676.07463
799.943	817.67129
800.131	684.52681
800.318	785.96659
800.506	741.5837
800.694	752.15065
800.882	606.35139
801.07	697.20543
801.258	538.7542
801.446	692.97918
801.634	692.97918
801.822	604.23877
802.01	581.00085
802.197	703.54489
802.385	657.0579
802.573	659.17083
802.761	684.52681
802.949	855.71966
803.136	678.18766
803.324	697.20543
803.512	726.79042
803.699	807.10282
803.887	764.83132
804.075	741.5837
804.262	667.62264
804.45	794.42096
804.638	714.11087
804.825	682.41375
805.013	654.94499
805.201	766.94481
805.388	671.84861
805.576	644.38061
805.763	638.04213
805.951	629.59099
806.138	667.62264
806.326	735.24366
806.513	657.0579
806.701	747.92384
806.888	667.62264
807.075	766.94481
807.263	642.26777
807.45	756.3775
807.638	648.60633
807.825	798.64821
808.012	629.59099
808.2	739.47034
808.387	737.357
808.574	777.51236
808.761	623.25277
808.949	663.39671
809.136	802.8755
809.323	752.15065
809.51	671.84861
809.698	697.20543
809.885	777.51236
810.072	828.23999
810.259	621.14005
810.446	868.40308
810.633	612.68931
810.82	737.357
811.008	600.01358
811.195	741.5837
811.382	741.5837
811.569	775.39883
811.756	752.15065
811.943	868.40308
812.13	697.20543
812.317	684.52681
812.504	663.39671
812.691	747.92384
812.878	638.04213
813.064	910.6833
813.251	747.92384
813.438	840.92273
813.625	781.73945
813.812	697.20543
813.999	800.76185
814.186	781.73945
814.372	553.53991
814.559	792.30735
814.746	688.75297
814.933	756.3775
815.12	722.56386
815.306	807.10282
815.493	625.3655
815.68	733.13033
815.866	638.04213
816.053	648.60633
816.24	667.62264
816.426	762.71785
816.613	616.91466
816.799	745.81045
816.986	612.68931
817.173	836.69512
817.359	661.28376
817.546	743.69707
817.732	665.50967
817.919	758.49094
818.105	671.84861
818.292	796.53458
818.478	557.76452
818.665	794.42096
818.851	739.47034
819.037	731.01702
819.224	733.13033
819.41	692.97918
819.597	642.26777
819.783	724.67713
819.969	766.94481
820.156	785.96659
820.342	686.63989
820.528	809.21649
820.714	726.79042
820.901	773.28531
821.087	551.42762
821.273	731.01702
821.459	735.24366
821.646	714.11087
821.832	650.7192
822.018	868.40308
822.204	741.5837
822.39	764.83132
822.576	688.75297
822.762	718.33734
822.948	591.56335
823.134	726.79042
823.32	602.12617
823.507	654.94499
823.693	589.45082
823.879	796.53458
824.065	587.33831
824.25	549.31535
824.436	646.49347
824.622	646.49347
824.808	551.42762
824.994	688.75297
825.18	587.33831
825.366	673.96162
825.552	671.84861
825.738	663.39671
825.923	654.94499
826.109	705.65806
826.295	680.3007
826.481	750.03724
826.667	623.25277
826.852	695.0923
827.038	572.55109
827.224	739.47034
827.409	676.07463
827.595	758.49094
827.781	671.84861
827.966	699.31857
828.152	638.04213
828.338	642.26777
828.523	667.62264
828.709	644.38061
828.894	665.50967
829.08	595.78844
829.266	559.87685
829.451	737.357
829.637	515.52089
829.822	623.25277
830.008	523.96917
830.193	663.39671
830.378	614.80198
830.564	564.10154
830.749	513.40885
830.935	557.76452
831.12	597.901
831.305	731.01702
831.491	530.30552
831.676	678.18766
831.861	561.98919
832.047	549.31535
832.232	443.72001
832.417	574.66351
832.602	536.64201
832.788	629.59099
832.973	542.97862
833.158	523.96917
833.343	538.7542
833.528	587.33831
833.714	530.30552
833.899	638.04213
834.084	502.8489
834.269	595.78844
834.454	462.72443
834.639	561.98919
834.824	542.97862
835.009	661.28376
835.194	570.43868
835.379	642.26777
835.564	494.4012
835.749	612.68931
835.934	542.97862
836.119	545.09085
836.304	528.19339
836.489	530.30552
836.674	498.62502
836.859	477.5065
837.044	536.64201
837.228	519.745
837.413	496.5131
837.598	540.8664
837.783	507.07284
837.968	638.04213
838.152	614.80198
838.337	572.55109
838.522	583.11332
838.707	604.23877
838.891	479.61829
839.076	521.85708
839.261	409.9375
839.445	561.98919
839.63	460.61277
839.815	513.40885
839.999	485.95373
840.184	530.30552
840.368	395.15895
840.553	496.5131
840.737	412.04879
840.922	511.29683
841.106	431.05109
841.291	494.4012
841.475	435.274
841.66	460.61277
841.844	333.94227
842.029	528.19339
842.213	534.52983
842.397	456.38949
842.582	424.71685
842.766	502.8489
842.951	494.4012
843.135	426.82825
843.319	447.94311
843.504	380.38121
843.688	437.38548
843.872	631.70376
844.056	428.93966
844.241	490.17744
844.425	500.73695
844.609	462.72443
844.793	378.27017
844.977	485.95373
845.161	435.274
845.346	443.72001
845.53	473.28298
845.714	469.05951
845.898	437.38548
846.082	456.38949
846.266	386.71443
846.45	443.72001
846.634	386.71443
846.818	371.93715
847.002	420.4941
847.186	384.60334
847.37	376.15915
847.554	418.38275
847.738	371.93715
847.922	412.04879
848.106	329.72097
848.29	390.93666
848.473	363.49336
848.657	388.82553
848.841	333.94227
849.025	367.71522
849.209	376.15915
849.392	452.16626
849.576	431.05109
849.76	317.05747
849.944	418.38275
850.127	340.27436
850.311	403.60374
850.495	300.17382
850.678	376.15915
850.862	401.49252
851.046	359.27157
851.229	325.49973
851.413	359.27157
851.596	329.72097
851.78	333.94227
851.964	386.71443
852.147	359.27157
852.331	340.27436
852.514	298.06345
852.698	348.71739
852.881	336.05295
853.065	226.32184
853.248	327.61034
853.431	336.05295
853.615	293.84276
853.798	378.27017
853.982	302.28422
854.165	272.74039
854.348	291.73244
854.532	393.0478
854.715	165.14835
854.898	397.27012
855.081	314.94696
855.265	384.60334
855.448	374.04814
855.631	338.16365
855.814	350.82819
855.997	384.60334
856.181	344.49584
856.364	388.82553
856.547	376.15915
856.73	319.16801
856.913	291.73244
857.096	376.15915
857.279	270.63026
857.462	317.05747
857.645	241.09037
857.828	312.83645
858.011	268.52014
858.194	302.28422
858.377	268.52014
858.56	344.49584
858.743	241.09037
858.926	257.96985
859.109	236.87069
859.292	329.72097
859.475	251.6399
859.658	266.41005
859.841	274.85054
860.023	228.43158
860.206	287.51185
860.389	283.29134
860.572	266.41005
860.755	346.60661
860.937	344.49584
861.12	291.73244
861.303	338.16365
861.486	257.96985
861.668	211.55428
861.851	238.98052
862.034	230.54133
862.216	293.84276
862.399	215.77348
862.581	251.6399
862.764	241.09037
862.947	236.87069
863.129	236.87069
863.312	260.07987
863.494	241.09037
863.677	325.49973
863.859	198.89714
864.042	211.55428
864.224	283.29134
864.406	251.6399
864.589	201.00661
864.771	274.85054
864.954	203.11611
865.136	319.16801
865.318	177.80353
865.501	293.84276
865.683	141.94913
865.865	198.89714
866.048	165.14835
866.23	207.33515
866.412	137.73137
866.594	177.80353
866.777	243.20024
866.959	219.99277
867.141	232.6511
867.323	300.17382
867.505	302.28422
867.687	247.42003
867.869	188.35008
868.052	194.67826
868.234	167.25749
868.416	190.45945
868.598	186.24073
868.78	245.31013
868.962	283.29134
869.144	226.32184
869.326	165.14835
869.508	228.43158
869.69	190.45945
869.872	173.58505
870.054	171.47585
870.236	241.09037
870.417	106.10089
870.599	205.22562
870.781	152.49392
870.963	260.07987
871.145	118.75249
871.327	139.84024
871.508	253.74986
871.69	262.18991
871.872	245.31013
872.054	209.44471
872.235	213.66387
872.417	165.14835
872.599	173.58505
872.78	184.1314
872.962	139.84024
873.144	103.99236
873.325	156.71198
873.507	171.47585
873.689	122.96987
873.87	169.36666
874.052	122.96987
874.233	91.34168
874.415	230.54133
874.596	207.33515
874.778	215.77348
874.959	196.78769
875.141	190.45945
875.322	154.60294
875.503	173.58505
875.685	125.07859
875.866	241.09037
876.048	224.21213
876.229	53.39447
876.41	230.54133
876.592	131.40488
876.773	234.76089
876.954	127.18734
877.136	249.52996
877.317	106.10089
877.498	249.52996
877.679	139.84024
877.86	232.6511
878.042	167.25749
878.223	251.6399
878.404	150.38492
878.585	207.33515
878.766	165.14835
878.947	165.14835
879.128	291.73244
879.309	243.20024
879.49	108.20943
879.672	283.29134
879.853	175.69428
880.034	245.31013
880.215	249.52996
880.396	224.21213
880.576	219.99277
880.757	211.55428
880.938	182.02209
881.119	201.00661
881.3	207.33515
881.481	150.38492
881.662	167.25749
881.843	154.60294
882.023	133.51369
882.204	241.09037
882.385	251.6399
882.566	192.56884
882.747	236.87069
882.927	118.75249
883.108	160.93012
883.289	156.71198
883.469	167.25749
883.65	173.58505
883.831	198.89714
884.011	158.82104
884.192	243.20024
884.373	300.17382
884.553	228.43158
884.734	179.9128
884.914	245.31013
885.095	213.66387
885.275	122.96987
885.456	314.94696
885.636	251.6399
885.817	262.18991
885.997	226.32184
886.178	291.73244
886.358	226.32184
886.538	222.10244
886.719	169.36666
886.899	207.33515
887.08	139.84024
887.26	207.33515
887.44	232.6511
887.621	232.6511
887.801	173.58505
887.981	99.77538
888.161	226.32184
888.342	156.71198
888.522	215.77348
888.702	165.14835
888.882	122.96987
889.062	276.96072
889.242	150.38492
889.423	190.45945
889.603	106.10089
889.783	160.93012
889.963	158.82104
890.143	150.38492
890.323	224.21213
890.503	279.07091
890.683	175.69428
890.863	125.07859
891.043	156.71198
891.223	224.21213
891.403	173.58505
891.583	238.98052
891.763	179.9128
891.943	141.94913
892.122	255.85985
892.302	207.33515
892.482	141.94913
892.662	257.96985
892.842	165.14835
893.022	175.69428
893.201	135.62252
893.381	173.58505
893.561	215.77348
893.741	182.02209
893.92	154.60294
894.1	268.52014
894.28	160.93012
894.459	167.25749
894.639	165.14835
894.819	219.99277
894.998	224.21213
895.178	211.55428
895.357	203.11611
895.537	266.41005
895.716	177.80353
895.896	232.6511
896.075	156.71198
896.255	152.49392
896.434	260.07987
896.614	249.52996
896.793	184.1314
896.973	186.24073
897.152	243.20024
897.331	165.14835
897.511	125.07859
897.69	129.2961
897.87	167.25749
898.049	184.1314
898.228	135.62252
898.407	203.11611
898.587	160.93012
898.766	120.86117
898.945	116.64384
899.124	165.14835
899.304	215.77348
899.483	152.49392
899.662	89.23331
899.841	125.07859
900.02	114.5352
900.199	194.67826
900.378	93.45007
900.557	148.27594
900.737	179.9128
900.916	224.21213
901.095	116.64384
901.274	135.62252
901.453	154.60294
901.632	103.99236
901.811	108.20943
901.989	87.12496
902.168	125.07859
902.347	192.56884
902.526	158.82104
902.705	156.71198
902.884	135.62252
903.063	139.84024
903.242	108.20943
903.42	156.71198
903.599	34.42366
903.778	156.71198
903.957	116.64384
904.135	97.66692
904.314	158.82104
904.493	116.64384
904.672	167.25749
904.85	85.01664
905.029	167.25749
905.207	118.75249
905.386	116.64384
905.565	74.47535
905.743	76.58356
905.922	57.61047
906.1	135.62252
906.279	165.14835
906.457	91.34168
906.636	160.93012
906.814	110.318
906.993	47.07066
907.171	97.66692
907.35	30.20817
907.528	139.84024
907.707	99.77538
907.885	108.20943
908.063	129.2961
908.242	116.64384
908.42	76.58356
908.598	51.28651
908.777	85.01664
908.955	59.7185
909.133	53.39447
909.311	30.20817
909.49	135.62252
909.668	131.40488
909.846	127.18734
910.024	55.50246
910.202	82.90833
910.38	150.38492
910.559	122.96987
910.737	156.71198
910.915	101.88386
911.093	139.84024
911.271	55.50246
911.449	177.80353
911.627	-11.94141
911.805	80.80005
911.983	89.23331
912.161	182.02209
912.339	114.5352
912.517	116.64384
912.695	184.1314
912.872	55.50246
913.05	179.9128
913.228	97.66692
913.406	103.99236
913.584	114.5352
913.762	135.62252
913.939	91.34168
914.117	80.80005
914.295	63.93463
914.473	15.45473
914.65	40.74705
914.828	137.73137
915.006	63.93463
915.184	72.36716
915.361	101.88386
915.539	80.80005
915.716	0.70246
915.894	173.58505
916.072	89.23331
916.249	144.05805
916.427	97.66692
916.604	72.36716
916.782	93.45007
916.959	131.40488
917.137	160.93012
917.314	101.88386
917.492	129.2961
917.669	47.07066
917.847	114.5352
918.024	63.93463
918.201	125.07859
918.379	89.23331
918.556	47.07066
918.733	59.7185
918.911	106.10089
919.088	63.93463
919.265	91.34168
919.442	163.03922
919.62	91.34168
919.797	101.88386
919.974	133.51369
920.151	125.07859
920.328	72.36716
920.506	74.47535
920.683	63.93463
920.86	89.23331
921.037	122.96987
921.214	76.58356
921.391	63.93463
921.568	17.5623
921.745	49.17857
921.922	30.20817
922.099	40.74705
922.276	101.88386
922.453	17.5623
922.63	80.80005
922.807	127.18734
922.984	76.58356
923.161	47.07066
923.338	59.7185
923.514	108.20943
923.691	80.80005
923.868	21.7775
924.045	103.99236
924.222	-3.51226
924.399	34.42366
924.575	139.84024
924.752	76.58356
924.929	74.47535
925.105	55.50246
925.282	4.91728
925.459	101.88386
925.635	28.10047
925.812	32.3159
925.989	55.50246
926.165	72.36716
926.342	87.12496
926.518	116.64384
926.695	116.64384
926.871	30.20817
927.048	122.96987
927.224	80.80005
927.401	34.42366
927.577	15.45473
927.754	89.23331
927.93	9.13219
928.107	17.5623
928.283	42.8549
928.459	93.45007
928.636	97.66692
928.812	122.96987
928.988	36.53143
929.165	28.10047
929.341	-3.51226
929.517	21.7775
929.693	99.77538
929.87	21.7775
930.046	13.34719
930.222	80.80005
930.398	201.00661
930.574	-26.69148
930.751	30.20817
930.927	42.8549
931.103	21.7775
931.279	55.50246
931.455	-1.40491
931.631	80.80005
931.807	34.42366
931.983	72.36716
932.159	38.63923
932.335	97.66692
932.511	106.10089
932.687	135.62252
932.863	59.7185
933.039	-11.94141
933.215	15.45473
933.391	93.45007
933.566	47.07066
933.742	42.8549
933.918	61.82655
934.094	76.58356
934.27	34.42366
934.445	72.36716
934.621	47.07066
934.797	89.23331
934.973	53.39447
935.148	47.07066
935.324	55.50246
935.5	89.23331
935.675	-20.37016
935.851	59.7185
936.027	40.74705
936.202	55.50246
936.378	13.34719
936.553	21.7775
936.729	133.51369
936.904	47.07066
937.08	49.17857
937.255	25.99279
937.431	63.93463
937.606	-18.26301
937.782	-60.40135
937.957	51.28651
938.133	25.99279
938.308	-20.37016
938.483	-60.40135
938.659	57.61047
938.834	-24.5844
939.009	-11.94141
939.185	13.34719
939.36	-16.15583
939.535	-37.2265
939.71	40.74705
939.886	30.20817
940.061	-22.47729
940.236	-24.5844
940.411	-3.51226
940.586	-30.90556
940.761	-35.11954
940.937	-35.11954
941.112	13.34719
941.287	-7.72688
941.462	21.7775
941.637	9.13219
941.812	51.28651
941.987	4.91728
942.162	-3.51226
942.337	-60.40135
942.512	-75.1474
942.687	30.20817
942.862	25.99279
943.037	-35.11954
943.212	-20.37016
943.386	-3.51226
943.561	40.74705
943.736	38.63923
943.911	25.99279
944.086	4.91728
944.26	-45.65407
944.435	-79.36032
944.61	9.13219
944.785	36.53143
944.959	-35.11954
945.134	-18.26301
945.309	9.13219
945.483	17.5623
945.658	97.66692
945.833	-62.50801
946.007	4.91728
946.182	-11.94141
946.357	25.99279
946.531	21.7775
946.706	-20.37016
946.88	44.96277
947.055	-56.18797
947.229	42.8549
947.404	63.93463
947.578	-20.37016
947.752	-16.15583
947.927	68.15085
948.101	4.91728
948.276	34.42366
948.45	-3.51226
948.624	13.34719
948.799	-22.47729
948.973	-35.11954
949.147	19.66988
949.321	-28.79853
949.496	-87.78586
949.67	9.13219
949.844	-14.04863
950.018	57.61047
950.193	-9.83416
950.367	-3.51226
950.541	25.99279
950.715	49.17857
950.889	2.80986
951.063	36.53143
951.237	42.8549
951.411	32.3159
951.585	38.63923
951.759	-20.37016
951.933	13.34719
952.107	-68.82782
952.281	40.74705
952.455	-30.90556
952.629	13.34719
952.803	9.13219
952.977	32.3159
953.151	15.45473
953.325	42.8549
953.499	21.7775
953.672	120.86117
953.846	85.01664
954.02	-24.5844
954.194	-5.61958
954.368	38.63923
954.541	28.10047
954.715	4.91728
954.889	25.99279
955.062	28.10047
955.236	-1.40491
955.41	-16.15583
955.583	-24.5844
955.757	-45.65407
955.93	66.04272
956.104	13.34719
956.278	-18.26301
956.451	55.50246
956.625	51.28651
956.798	9.13219
956.972	15.45473
957.145	-35.11954
957.319	30.20817
957.492	21.7775
957.665	-16.15583
957.839	-20.37016
958.012	15.45473
958.185	-3.51226
958.359	40.74705
958.532	32.3159
958.705	36.53143
958.879	-11.94141
959.052	57.61047
959.225	0.70246
959.398	-18.26301
959.572	32.3159
959.745	-24.5844
959.918	57.61047
960.091	23.88513
960.264	68.15085
960.438	21.7775
960.611	-41.44034
960.784	-56.18797
960.957	-37.2265
961.13	38.63923
961.303	0.70246
961.476	4.91728
961.649	-11.94141
961.822	-62.50801
961.995	55.50246
962.168	-24.5844
962.341	0.70246
962.514	4.91728
962.686	-45.65407
962.859	13.34719
963.032	-37.2265
963.205	42.8549
963.378	17.5623
963.551	32.3159
963.723	40.74705
963.896	15.45473
964.069	23.88513
964.242	2.80986
964.414	21.7775
964.587	-18.26301
964.76	-33.01256
964.932	17.5623
965.105	40.74705
965.278	-41.44034
965.45	93.45007
965.623	-3.51226
965.795	-18.26301
965.968	-62.50801
966.14	7.02472
966.313	13.34719
966.485	-35.11954
966.658	-56.18797
966.83	30.20817
967.003	55.50246
967.175	11.23968
967.348	-9.83416
967.52	19.66988
967.692	-14.04863
967.865	-51.97449
968.037	4.91728
968.209	74.47535
968.382	-11.94141
968.554	51.28651
968.726	-45.65407
968.898	40.74705
969.071	55.50246
969.243	25.99279
969.415	72.36716
969.587	34.42366
969.759	118.75249
969.932	-11.94141
970.104	21.7775
970.276	76.58356
970.448	0.70246
970.62	-3.51226
970.792	51.28651
970.964	9.13219
971.136	-3.51226
971.308	13.34719
971.48	-79.36032
971.652	-26.69148
971.824	21.7775
971.996	-9.83416
972.168	25.99279
972.339	38.63923
972.511	-9.83416
972.683	-26.69148
972.855	-9.83416
973.027	85.01664
973.199	-39.33343
973.37	-54.08124
973.542	80.80005
973.714	51.28651
973.886	13.34719
974.057	-54.08124
974.229	-39.33343
974.401	-3.51226
974.572	4.91728
974.744	-28.79853
974.915	-18.26301
975.087	80.80005
975.259	-1.40491
975.43	-45.65407
975.602	4.91728
975.773	-18.26301
975.945	13.34719
976.116	19.66988
976.288	-35.11954
976.459	38.63923
976.63	13.34719
976.802	23.88513
976.973	2.80986
977.145	-30.90556
977.316	21.7775
977.487	21.7775
977.659	-30.90556
977.83	4.91728
978.001	0.70246
978.172	55.50246
978.344	25.99279
978.515	21.7775
978.686	21.7775
978.857	-37.2265
979.028	-24.5844
979.2	-45.65407
979.371	34.42366
979.542	-3.51226
979.713	-37.2265
979.884	-20.37016
980.055	42.8549
980.226	21.7775
980.397	-26.69148
980.568	36.53143
980.739	34.42366
980.91	91.34168
981.081	-35.11954
981.252	21.7775
981.423	13.34719
981.594	-5.61958
981.765	4.91728
981.936	47.07066
982.106	-28.79853
982.277	-54.08124
982.448	-16.15583
982.619	-60.40135
982.79	21.7775
982.96	-51.97449
983.131	-11.94141
983.302	0.70246
983.472	-1.40491
983.643	-45.65407
983.814	4.91728
983.984	42.8549
984.155	-24.5844
984.326	13.34719
984.496	-28.79853
984.667	38.63923
984.837	-16.15583
985.008	-33.01256
985.178	11.23968
985.349	63.93463
985.519	49.17857
985.69	40.74705
985.86	7.02472
986.031	42.8549
986.201	-35.11954
986.371	11.23968
986.542	-18.26301
986.712	9.13219
986.882	-28.79853
987.053	-58.29468
987.223	49.17857
987.393	42.8549
987.563	38.63923
987.734	-20.37016
987.904	30.20817
988.074	-37.2265
988.244	-11.94141
988.414	40.74705
988.585	-41.44034
988.755	49.17857
988.925	36.53143
989.095	-7.72688
989.265	15.45473
989.435	-43.54722
989.605	-3.51226
989.775	-20.37016
989.945	-35.11954
990.115	-28.79853
990.285	17.5623
990.455	-28.79853
990.625	-30.90556
990.795	-26.69148
990.965	13.34719
991.134	-54.08124
991.304	-1.40491
991.474	-11.94141
991.644	76.58356
991.814	-35.11954
991.984	-20.37016
992.153	25.99279
992.323	-3.51226
992.493	-1.40491
992.662	-35.11954
992.832	66.04272
993.002	76.58356
993.171	-62.50801
993.341	-54.08124
993.511	7.02472
993.68	59.7185
993.85	30.20817
994.019	-51.97449
994.189	78.6918
994.358	-9.83416
994.528	7.02472
994.697	17.5623
994.867	-28.79853
995.036	-64.61464
995.206	-11.94141
995.375	-45.65407
995.544	-16.15583
995.714	-66.72124
995.883	-1.40491
996.052	-30.90556
996.222	-3.51226
996.391	-20.37016
996.56	-45.65407
996.73	7.02472
996.899	-33.01256
997.068	-60.40135
997.237	15.45473
997.406	13.34719
997.576	49.17857
997.745	-1.40491
997.914	0.70246
998.083	47.07066
998.252	-7.72688
998.421	-45.65407
998.59	-18.26301
998.759	40.74705
998.928	-33.01256
999.097	-20.37016
999.266	-20.37016
999.435	-9.83416
999.604	34.42366
999.773	34.42366
999.942	13.34719
1000.111	9.13219
1000.28	-54.08124
1000.448	-77.25387
1000.617	-43.54722
1000.786	15.45473
1000.955	-41.44034
1001.124	-79.36032
1001.292	9.13219
1001.461	-26.69148
1001.63	21.7775
1001.798	11.23968
1001.967	0.70246
1002.136	25.99279
1002.304	-39.33343
1002.473	-87.78586
1002.642	30.20817
1002.81	-20.37016
1002.979	-35.11954
1003.147	-7.72688
1003.316	13.34719
1003.484	-43.54722
1003.653	13.34719
1003.821	23.88513
1003.99	85.01664
1004.158	-24.5844
1004.327	-54.08124
1004.495	-16.15583
1004.663	-33.01256
1004.832	-43.54722
1005	21.7775
1005.168	0.70246
1005.337	-37.2265
1005.505	-7.72688
1005.673	-41.44034
1005.842	30.20817
1006.01	61.82655
1006.178	15.45473
1006.346	30.20817
1006.514	-35.11954
1006.683	34.42366
1006.851	-11.94141
1007.019	-37.2265
1007.187	-3.51226
1007.355	-70.93437
1007.523	-20.37016
1007.691	40.74705
1007.859	-58.29468
1008.027	-3.51226
1008.195	-119.37791
1008.363	-7.72688
1008.531	-85.67951
1008.699	-35.11954
1008.867	-28.79853
1009.035	15.45473
1009.203	-60.40135
1009.37	34.42366
1009.538	0.70246
1009.706	-37.2265
1009.874	-1.40491
1010.042	-20.37016
1010.209	-70.93437
1010.377	-24.5844
1010.545	4.91728
1010.713	-37.2265
1010.88	-33.01256
1011.048	-11.94141
1011.216	-37.2265
1011.383	-28.79853
1011.551	-28.79853
1011.718	-41.44034
1011.886	47.07066
1012.054	7.02472
1012.221	-11.94141
1012.389	-28.79853
1012.556	72.36716
1012.724	7.02472
1012.891	40.74705
1013.058	17.5623
1013.226	-9.83416
1013.393	-77.25387
1013.561	32.3159
1013.728	-43.54722
1013.895	-28.79853
1014.063	-41.44034
1014.23	-9.83416
1014.397	-3.51226
1014.565	-41.44034
1014.732	-28.79853
1014.899	-9.83416
1015.066	-41.44034
1015.233	-54.08124
1015.401	-7.72688
1015.568	47.07066
1015.735	38.63923
1015.902	-33.01256
1016.069	-62.50801
1016.236	-20.37016
1016.403	-14.04863
1016.57	89.23331
1016.737	-70.93437
1016.904	-14.04863
1017.071	-28.79853
1017.238	34.42366
1017.405	-77.25387
1017.572	-11.94141
1017.739	13.34719
1017.906	7.02472
1018.073	9.13219
1018.24	-11.94141
1018.407	59.7185
1018.573	-7.72688
1018.74	-66.72124
1018.907	13.34719
1019.074	17.5623
1019.241	42.8549
1019.407	9.13219
1019.574	21.7775
1019.741	66.04272
1019.907	-121.48383
1020.074	-43.54722
1020.241	-37.2265
1020.407	19.66988
1020.574	15.45473
1020.74	30.20817
1020.907	-26.69148
1021.073	93.45007
1021.24	-28.79853
1021.406	15.45473
1021.573	-54.08124
1021.739	-20.37016
1021.906	-1.40491
1022.072	7.02472
1022.239	63.93463
1022.405	55.50246
1022.571	-64.61464
1022.738	-41.44034
1022.904	-87.78586
1023.07	23.88513
1023.237	-16.15583
1023.403	-11.94141
1023.569	-81.46674
1023.735	82.90833
1023.902	-54.08124
1024.068	28.10047
1024.234	30.20817
1024.4	23.88513
1024.566	59.7185
1024.732	4.91728
1024.898	-37.2265
1025.065	34.42366
1025.231	-30.90556
1025.397	-11.94141
1025.563	0.70246
1025.729	23.88513
1025.895	-1.40491
1026.061	-1.40491
1026.227	-35.11954
1026.392	-20.37016
1026.558	-33.01256
1026.724	4.91728
1026.89	-18.26301
1027.056	9.13219
1027.222	-7.72688
1027.388	30.20817
1027.553	-7.72688
1027.719	-60.40135
1027.885	32.3159
1028.051	51.28651
1028.216	-11.94141
1028.382	-35.11954
1028.548	-20.37016
1028.713	-7.72688
1028.879	-22.47729
1029.045	-43.54722
1029.21	-18.26301
1029.376	32.3159
1029.541	-51.97449
1029.707	-20.37016
1029.873	-79.36032
1030.038	-14.04863
1030.204	-1.40491
1030.369	-39.33343
1030.534	15.45473
1030.7	-26.69148
1030.865	-16.15583
1031.031	36.53143
1031.196	-11.94141
1031.361	38.63923
1031.527	13.34719
1031.692	47.07066
1031.857	-20.37016
1032.023	9.13219
1032.188	-1.40491
1032.353	-3.51226
1032.518	-20.37016
1032.684	47.07066
1032.849	-22.47729
1033.014	-41.44034
1033.179	0.70246
1033.344	4.91728
1033.509	13.34719
1033.674	-58.29468
1033.839	21.7775
1034.004	-18.26301
1034.17	63.93463
1034.335	89.23331
1034.5	-51.97449
1034.664	-28.79853
1034.829	32.3159
1034.994	-35.11954
1035.159	57.61047
1035.324	-33.01256
1035.489	-104.63569
1035.654	-5.61958
1035.819	-41.44034
1035.984	-16.15583
1036.148	-41.44034
1036.313	59.7185
1036.478	0.70246
1036.643	19.66988
1036.807	13.34719
1036.972	36.53143
1037.137	-70.93437
1037.301	-24.5844
1037.466	15.45473
1037.631	80.80005
1037.795	-26.69148
1037.96	91.34168
1038.124	9.13219
1038.289	-7.72688
1038.454	-75.1474
1038.618	-14.04863
1038.783	-26.69148
1038.947	-45.65407
1039.111	-26.69148
1039.276	106.10089
1039.44	-28.79853
1039.605	38.63923
1039.769	21.7775
1039.933	-18.26301
1040.098	-1.40491
1040.262	42.8549
1040.426	-9.83416
1040.591	21.7775
1040.755	23.88513
1040.919	15.45473
1041.083	-35.11954
1041.248	-3.51226
1041.412	-11.94141
1041.576	-35.11954
1041.74	-16.15583
1041.904	-43.54722
1042.068	-11.94141
1042.232	-18.26301
1042.397	38.63923
1042.561	4.91728
1042.725	-37.2265
1042.889	-60.40135
1043.053	-18.26301
1043.217	-47.7609
1043.381	-54.08124
1043.544	89.23331
1043.708	-100.42339
1043.872	-43.54722
1044.036	53.39447
1044.2	4.91728
1044.364	63.93463
1044.528	-62.50801
1044.691	-18.26301
1044.855	30.20817
1045.019	-16.15583
1045.183	-30.90556
1045.346	17.5623
1045.51	2.80986
1045.674	21.7775
1045.837	34.42366
1046.001	-73.04089
1046.165	-9.83416
1046.328	21.7775
1046.492	-20.37016
1046.655	-33.01256
1046.819	51.28651
1046.983	7.02472
1047.146	9.13219
1047.31	21.7775
1047.473	-1.40491
1047.636	15.45473
1047.8	-70.93437
1047.963	7.02472
1048.127	-41.44034
1048.29	-26.69148
