Data from mixed_try1_USB4F045381__40__00144.txt Node

Date: Thu Apr 03 20:05:39 EDT 2025
User: mmckonesweet
Spectrometer: USB4F04538
Trigger mode: 4
Integration Time (sec): 2.700000E-3
Scans to average: 1
Electric dark correction enabled: true
Nonlinearity correction enabled: true
Boxcar width: 0
XAxis mode: Wavelengths
Number of Pixels in Spectrum: 3648
>>>>>Begin Spectral Data<<<<<
345.52	-37.57766
345.736	-37.57766
345.952	-37.57766
346.168	-12.29261
346.384	-29.1497
346.6	-35.47071
346.816	-12.29261
347.032	-1.75614
347.248	15.10348
347.464	-27.04265
347.68	0.35123
347.896	-24.93558
348.112	12.99594
348.328	-5.9708
348.544	57.25913
348.76	-3.86348
348.975	25.64151
349.191	42.50359
349.407	-58.64579
349.623	23.53386
349.839	29.85689
350.055	-12.29261
350.27	-39.68458
350.486	-64.96574
350.702	25.64151
350.918	36.18013
351.133	15.10348
351.349	15.10348
351.565	48.82725
351.781	-79.71139
351.996	15.10348
352.212	15.10348
352.428	-22.82848
352.644	-48.11204
352.859	21.42623
353.075	6.67348
353.291	15.10348
353.506	31.96461
353.722	21.42623
353.938	-10.18537
354.153	21.42623
354.369	21.42623
354.584	10.88843
354.8	-24.93558
355.016	-27.04265
355.231	-71.28546
355.447	105.74946
355.662	-22.82848
355.878	-16.50703
356.093	-37.57766
356.309	4.56604
356.524	21.42623
356.74	29.85689
356.955	-54.43236
357.171	34.07236
357.386	4.56604
357.602	-50.21884
357.817	-29.1497
358.033	-37.57766
358.248	4.56604
358.464	12.99594
358.679	-58.64579
358.895	25.64151
359.11	-33.36373
359.325	-94.45578
359.541	-73.39198
359.756	63.58328
359.972	40.39575
360.187	-71.28546
360.402	-43.89836
360.618	-43.89836
360.833	-18.61421
361.048	36.18013
361.264	-58.64579
361.479	-14.39983
361.694	-5.9708
361.909	17.21104
362.125	-64.96574
362.34	0.35123
362.555	-46.00521
362.77	31.96461
362.986	-50.21884
363.201	8.78094
363.416	-39.68458
363.631	17.21104
363.847	-39.68458
364.062	-86.03057
364.277	-50.21884
364.492	-48.11204
364.707	12.99594
364.922	23.53386
365.138	-24.93558
365.353	8.78094
365.568	15.10348
365.783	34.07236
365.998	-107.09281
366.213	-18.61421
366.428	-29.1497
366.643	82.55695
366.858	4.56604
367.073	6.67348
367.288	8.78094
367.503	-20.72135
367.718	-43.89836
367.933	-54.43236
368.148	-24.93558
368.363	-37.57766
368.578	15.10348
368.793	-20.72135
369.008	-50.21884
369.223	42.50359
369.438	6.67348
369.653	-3.86348
369.868	-54.43236
370.083	57.25913
370.298	-16.50703
370.513	21.42623
370.728	-29.1497
370.943	-81.81781
371.157	-8.0781
371.372	-10.18537
371.587	17.21104
371.802	4.56604
372.017	-24.93558
372.232	-12.29261
372.446	27.74919
372.661	48.82725
372.876	-35.47071
373.091	-18.61421
373.306	6.67348
373.52	-12.29261
373.735	-24.93558
373.95	80.44868
374.165	-8.0781
374.379	48.82725
374.594	-16.50703
374.809	82.55695
375.023	8.78094
375.238	17.21104
375.453	48.82725
375.667	-52.32561
375.882	-1.75614
376.097	40.39575
376.311	-12.29261
376.526	-8.0781
376.741	-18.61421
376.955	0.35123
377.17	135.27105
377.384	59.36716
377.599	-1.75614
377.813	-18.61421
378.028	-24.93558
378.242	6.67348
378.457	57.25913
378.672	-58.64579
378.886	21.42623
379.101	29.85689
379.315	-33.36373
379.53	-79.71139
379.744	-79.71139
379.958	4.56604
380.173	-3.86348
380.387	6.67348
380.602	27.74919
380.816	-20.72135
381.031	-52.32561
381.245	50.93519
381.459	48.82725
381.674	-8.0781
381.888	-33.36373
382.103	4.56604
382.317	74.12398
382.531	19.31862
382.746	-43.89836
382.96	12.99594
383.174	-1.75614
383.388	0.35123
383.603	31.96461
383.817	-54.43236
384.031	-86.03057
384.246	-5.9708
384.46	-12.29261
384.674	-1.75614
384.888	-46.00521
385.103	38.28793
385.317	29.85689
385.531	-1.75614
385.745	-12.29261
385.959	21.42623
386.174	17.21104
386.388	-54.43236
386.602	17.21104
386.816	53.04315
387.03	61.47521
387.244	44.61145
387.458	-3.86348
387.672	82.55695
387.887	29.85689
388.101	15.10348
388.315	29.85689
388.529	-29.1497
388.743	69.90763
388.957	63.58328
389.171	-3.86348
389.385	-12.29261
389.599	97.31551
389.813	17.21104
390.027	34.07236
390.241	-92.34952
390.455	34.07236
390.669	17.21104
390.883	-29.1497
391.097	-33.36373
391.311	-86.03057
391.525	55.15113
391.738	-43.89836
391.952	-14.39983
392.166	21.42623
392.38	40.39575
392.594	4.56604
392.808	-79.71139
393.022	4.56604
393.236	-58.64579
393.449	-41.79148
393.663	31.96461
393.877	-113.41097
394.091	-27.04265
394.305	29.85689
394.518	-20.72135
394.732	23.53386
394.946	21.42623
395.16	63.58328
395.373	-16.50703
395.587	27.74919
395.801	-12.29261
396.015	-58.64579
396.228	-37.57766
396.442	-35.47071
396.656	34.07236
396.869	17.21104
397.083	-29.1497
397.297	63.58328
397.51	82.55695
397.724	-29.1497
397.938	29.85689
398.151	31.96461
398.365	-1.75614
398.578	-1.75614
398.792	0.35123
399.005	46.71934
399.219	57.25913
399.433	-8.0781
399.646	21.42623
399.86	6.67348
400.073	17.21104
400.287	48.82725
400.5	-14.39983
400.714	-37.57766
400.927	8.78094
401.141	-37.57766
401.354	-16.50703
401.567	-144.99818
401.781	55.15113
401.994	59.36716
402.208	-5.9708
402.421	67.79949
402.635	57.25913
402.848	-3.86348
403.061	50.93519
403.275	-33.36373
403.488	-43.89836
403.701	-37.57766
403.915	27.74919
404.128	-35.47071
404.341	-52.32561
404.555	-10.18537
404.768	74.12398
404.981	-1.75614
405.195	-16.50703
405.408	-12.29261
405.621	17.21104
405.834	76.23219
406.048	-20.72135
406.261	25.64151
406.474	4.56604
406.687	-33.36373
406.9	65.69137
407.114	69.90763
407.327	29.85689
407.54	69.90763
407.753	27.74919
407.966	2.45862
408.179	15.10348
408.392	46.71934
408.605	57.25913
408.819	-16.50703
409.032	-20.72135
409.245	27.74919
409.458	63.58328
409.671	12.99594
409.884	-29.1497
410.097	6.67348
410.31	74.12398
410.523	-46.00521
410.736	23.53386
410.949	40.39575
411.162	65.69137
411.375	29.85689
411.588	65.69137
411.801	69.90763
412.014	15.10348
412.227	21.42623
412.44	-12.29261
412.653	84.66525
412.865	-24.93558
413.078	-27.04265
413.291	-16.50703
413.504	80.44868
413.717	23.53386
413.93	46.71934
414.143	6.67348
414.356	55.15113
414.568	63.58328
414.781	-3.86348
414.994	-16.50703
415.207	21.42623
415.42	-12.29261
415.632	-1.75614
415.845	29.85689
416.058	-8.0781
416.271	46.71934
416.483	25.64151
416.696	55.15113
416.909	76.23219
417.121	-20.72135
417.334	29.85689
417.547	8.78094
417.759	-12.29261
417.972	4.56604
418.185	48.82725
418.397	23.53386
418.61	-8.0781
418.823	29.85689
419.035	-12.29261
419.248	-16.50703
419.46	27.74919
419.673	12.99594
419.885	-35.47071
420.098	65.69137
420.311	72.0158
420.523	65.69137
420.736	25.64151
420.948	8.78094
421.161	8.78094
421.373	29.85689
421.586	21.42623
421.798	29.85689
422.01	12.99594
422.223	-3.86348
422.435	50.93519
422.648	-27.04265
422.86	-22.82848
423.073	23.53386
423.285	-8.0781
423.497	4.56604
423.71	29.85689
423.922	34.07236
424.134	34.07236
424.347	-37.57766
424.559	59.36716
424.771	-29.1497
424.984	-33.36373
425.196	44.61145
425.408	25.64151
425.621	84.66525
425.833	25.64151
426.045	40.39575
426.257	8.78094
426.47	17.21104
426.682	4.56604
426.894	21.42623
427.106	17.21104
427.318	25.64151
427.531	6.67348
427.743	42.50359
427.955	-3.86348
428.167	-12.29261
428.379	10.88843
428.591	12.99594
428.804	57.25913
429.016	36.18013
429.228	10.88843
429.44	23.53386
429.652	21.42623
429.864	-16.50703
430.076	48.82725
430.288	12.99594
430.5	17.21104
430.712	69.90763
430.924	-10.18537
431.136	29.85689
431.348	-20.72135
431.56	-5.9708
431.772	31.96461
431.984	34.07236
432.196	50.93519
432.408	55.15113
432.62	-8.0781
432.832	-8.0781
433.044	59.36716
433.256	-1.75614
433.468	40.39575
433.679	80.44868
433.891	10.88843
434.103	82.55695
434.315	-3.86348
434.527	4.56604
434.739	40.39575
434.95	55.15113
435.162	-20.72135
435.374	74.12398
435.586	4.56604
435.798	44.61145
436.009	8.78094
436.221	29.85689
436.433	-35.47071
436.645	109.96657
436.856	29.85689
437.068	63.58328
437.28	21.42623
437.491	103.64094
437.703	124.72714
437.915	0.35123
438.126	105.74946
438.338	93.09867
438.55	63.58328
438.761	74.12398
438.973	86.77357
439.184	42.50359
439.396	97.31551
439.608	17.21104
439.819	65.69137
440.031	124.72714
440.242	63.58328
440.454	88.88192
440.665	74.12398
440.877	72.0158
441.088	65.69137
441.3	48.82725
441.511	65.69137
441.723	10.88843
441.934	27.74919
442.146	48.82725
442.357	44.61145
442.569	57.25913
442.78	124.72714
442.991	29.85689
443.203	116.2924
443.414	12.99594
443.626	46.71934
443.837	99.42397
444.048	97.31551
444.26	48.82725
444.471	80.44868
444.682	63.58328
444.894	72.0158
445.105	80.44868
445.316	42.50359
445.528	63.58328
445.739	0.35123
445.95	65.69137
446.161	17.21104
446.373	118.40105
446.584	128.94464
446.795	122.61842
447.006	97.31551
447.217	99.42397
447.429	109.96657
447.64	122.61842
447.851	65.69137
448.062	72.0158
448.273	42.50359
448.484	55.15113
448.695	34.07236
448.907	48.82725
449.118	57.25913
449.329	21.42623
449.54	12.99594
449.751	46.71934
449.962	105.74946
450.173	74.12398
450.384	126.83588
450.595	135.27105
450.806	150.03342
451.017	126.83588
451.228	105.74946
451.439	80.44868
451.65	126.83588
451.861	105.74946
452.072	50.93519
452.283	147.92445
452.494	101.53244
452.705	93.09867
452.915	194.32669
453.126	118.40105
453.337	109.96657
453.548	156.36047
453.759	202.76452
453.97	147.92445
454.181	160.57861
454.391	147.92445
454.602	80.44868
454.813	12.99594
455.024	116.2924
455.235	152.14241
455.445	164.79683
455.656	147.92445
455.867	139.48876
456.078	177.45199
456.288	131.05342
456.499	173.23352
456.71	194.32669
456.921	69.90763
457.131	101.53244
457.342	190.10789
457.553	158.46953
457.763	164.79683
457.974	198.54556
458.184	236.51906
458.395	116.2924
458.606	175.34274
458.816	228.07995
459.027	244.95848
459.237	169.01513
459.448	190.10789
459.659	126.83588
459.869	135.27105
460.08	211.20268
460.29	251.28824
460.501	190.10789
460.711	223.86052
460.922	169.01513
461.132	217.53151
461.343	263.94829
461.553	278.71921
461.764	289.27042
461.974	263.94829
462.184	272.3887
462.395	297.71172
462.605	346.25481
462.816	278.71921
463.026	278.71921
463.236	358.91976
463.447	323.03738
463.657	259.7282
463.867	390.5848
464.078	443.36809
464.288	363.14154
464.498	426.47635
464.709	358.91976
464.919	377.91833
465.129	428.58776
465.339	361.03064
465.55	434.92209
465.76	434.92209
465.97	405.3631
466.18	477.15454
466.391	578.53632
466.601	388.47368
466.811	523.61715
467.021	487.7136
467.231	565.86185
467.441	498.27303
467.651	572.19902
467.862	557.41247
468.072	692.62699
468.282	673.60945
468.492	684.17464
468.702	682.06158
468.912	762.36561
469.122	756.02526
469.332	808.86421
469.542	760.25215
469.752	876.50654
469.962	893.41849
470.172	994.90036
470.382	918.78737
470.592	891.30447
470.802	825.77394
471.012	986.44292
471.222	994.90036
471.432	1161.95334
471.642	1056.21976
471.852	1145.0352
472.062	1001.24351
472.272	1161.95334
472.482	1128.11733
472.691	1261.35204
472.901	1180.98655
473.111	1187.33102
473.321	1345.95129
473.531	1500.34947
473.741	1314.22621
473.95	1570.14547
474.16	1303.65127
474.37	1570.14547
474.58	1534.1901
474.79	1758.37239
474.999	1491.88929
475.209	1574.37549
475.419	1631.48003
475.628	1948.68385
475.838	1798.55239
476.048	1798.55239
476.258	1908.5104
476.467	1965.59835
476.677	1942.34081
476.886	2327.03423
477.096	2274.20805
477.306	2185.44723
477.515	2210.80904
477.725	2352.38866
477.935	2174.87946
478.144	2417.88087
478.354	2272.09488
478.563	2677.63164
478.773	2664.96509
478.982	2675.52058
479.192	2785.27839
479.401	2838.0336
479.611	2751.51057
479.82	2768.39491
480.03	2814.82237
480.239	3084.80773
480.449	2876.01195
480.658	3192.30987
480.868	3038.42151
481.077	3316.62165
481.287	2975.15557
481.496	3310.30213
481.705	3417.71266
481.915	3544.01873
482.124	3544.01873
482.333	3558.75016
482.543	3468.2429
482.752	3825.85943
482.961	3626.08225
483.171	3912.02442
483.38	3655.53399
483.589	4088.45128
483.799	4006.55678
484.008	4132.53524
484.217	4151.42554
484.426	4094.74955
484.636	3970.8494
484.845	4449.24383
485.054	4191.29946
485.263	4602.17657
485.472	4283.60966
485.682	4581.23386
485.891	4396.84262
486.1	4750.8053
486.309	4809.38816
486.518	4648.24265
486.727	4633.58643
486.936	4805.20426
487.146	4794.74411
487.355	4932.77212
487.564	4805.20426
487.773	5156.33188
487.982	5181.38744
488.191	5283.66283
488.4	5183.47526
488.609	5383.7965
488.818	5396.30941
489.027	5387.96756
489.236	5608.89933
489.445	5769.22145
489.654	5327.47795
489.863	5796.27501
490.072	5692.20101
490.281	5713.02053
490.49	5706.77492
490.698	5979.30196
490.907	5854.53068
491.116	6064.51354
491.325	5908.60866
491.534	5929.40364
491.743	5960.59168
491.952	5991.77442
492.16	6313.68624
492.369	6261.8031
492.578	6236.894
492.787	6348.95843
492.996	6589.45968
493.204	6568.7391
493.413	6404.9651
493.622	6664.03464
493.831	6543.87136
494.039	6589.45968
494.248	6529.36364
494.457	7015.79372
494.665	6850.34193
494.874	6933.08591
495.083	6974.44432
495.291	6831.71953
495.5	7179.03619
495.709	7166.64291
495.917	6868.96249
496.126	7139.78806
496.335	7127.39225
496.543	7199.68989
496.752	7185.23253
496.96	7430.86084
497.169	7271.96039
497.377	7587.57154
497.586	7404.04257
497.794	7692.66339
498.003	7420.54655
498.211	7737.98014
498.42	7387.53719
498.628	7849.16916
498.837	7622.60829
499.045	7906.79887
499.254	7581.38794
499.462	7941.78045
499.671	8030.23685
499.879	8011.72584
500.087	8005.55514
500.296	8330.29981
500.504	8141.26855
500.713	8367.26475
500.921	8198.81753
501.129	8145.37971
501.338	8176.21087
501.546	8379.58499
501.754	8291.27441
501.962	8311.81497
502.171	8449.38661
502.379	8307.70701
502.587	8291.27441
502.795	8613.53871
503.004	8326.1922
503.212	8740.67414
503.42	8699.67048
503.628	9047.9713
503.837	8660.71016
504.045	8707.8718
504.253	8925.1006
504.461	9066.39647
504.669	8818.56094
504.877	8966.06455
505.085	9150.31564
505.294	9013.16436
505.502	9252.61726
505.71	9391.68034
505.918	8843.15133
506.126	9473.44674
506.334	9334.42833
506.542	9551.10099
506.75	9375.32394
506.958	9338.51819
507.166	9336.47327
507.374	9252.61726
507.582	9465.27126
507.79	9547.0145
507.998	9518.40727
508.206	9851.28837
508.414	9653.24288
508.622	9759.42935
508.83	9843.12435
509.037	9794.13522
509.245	9559.27379
509.453	10183.7747
509.661	9977.80053
509.869	9794.13522
510.077	9751.26262
510.285	10232.69813
510.492	9975.76046
510.7	10202.12191
510.908	10016.55919
511.116	10016.55919
511.324	10020.63875
511.531	10085.90393
511.739	10077.74658
511.947	10163.3876
512.155	10265.3094
512.362	10218.42961
512.57	10279.57573
512.778	10322.3708
512.985	10664.52501
513.193	10450.72099
513.401	10615.66766
513.608	10762.21873
513.816	10458.86846
514.024	10631.95423
514.231	10680.80923
514.439	10430.35141
514.646	10811.05527
514.854	10729.65723
515.061	10715.41062
515.269	10804.95108
515.477	10916.84475
515.684	11024.63698
515.892	10780.53323
516.099	10929.04923
516.307	10874.12583
516.514	11087.67085
516.722	11203.54483
516.929	11234.03229
517.136	10924.98111
517.344	11059.20524
517.551	11040.90479
517.759	11270.61417
517.966	11195.41445
518.173	11136.46411
518.381	11136.46411
518.588	11390.49841
518.796	11390.49841
519.003	11762.13051
519.21	11534.72053
519.418	11463.63118
519.625	11731.68032
519.832	11666.71331
520.039	11658.59179
520.247	11867.67617
520.454	11652.50055
520.661	11788.51909
520.868	11595.6451
521.076	12050.29849
521.283	12032.03917
521.49	11958.9955
521.697	11898.11779
521.904	12137.52883
522.112	11615.95144
522.319	12151.72779
522.526	12001.60556
522.733	12301.80904
522.94	12232.85772
523.147	12249.0823
523.354	12303.83689
523.561	12261.25044
523.768	12202.43537
523.975	12453.87913
524.183	12198.37893
524.39	12768.04279
524.597	12368.7246
524.804	12405.22085
525.011	12397.11076
525.218	12701.16849
525.425	12715.35448
525.632	12662.66223
525.838	12717.38102
526.045	12719.40756
526.252	12853.14662
526.459	12899.74701
526.666	12755.88429
526.873	13118.52979
527.08	13061.81388
527.287	13242.07685
527.494	12816.67475
527.701	13278.53019
527.907	13027.37737
528.114	13233.97591
528.321	13142.83548
528.528	13191.44485
528.735	13343.33273
528.941	13519.49389
529.148	13217.77383
529.355	13327.1325
529.562	13244.10207
529.768	13517.46922
529.975	13240.05162
530.182	13768.50298
530.388	13031.4288
530.595	13839.35045
530.802	13513.41985
531.008	13993.17893
531.215	13687.52989
531.422	13926.38687
531.628	13952.69923
531.835	14082.23084
532.042	13687.52989
532.248	14029.60982
532.455	14055.92053
532.661	14383.76264
532.868	14104.49311
533.074	14440.42195
533.281	14104.49311
533.487	14395.90402
533.694	14448.51604
533.9	14321.03124
534.107	14157.11198
534.313	14567.90133
534.52	14476.84517
534.726	14612.41678
534.933	14654.90829
535.139	14642.76791
535.345	14525.40878
535.552	14652.8849
535.758	14703.46949
535.965	14863.31338
536.171	14685.2591
536.377	15089.92174
536.584	14826.89364
536.79	14788.45036
536.996	14776.31032
537.203	15019.10707
537.409	14857.24343
537.615	14921.98923
537.821	14980.66469
538.028	15458.1589
538.234	15162.75951
538.44	15373.18033
538.646	15174.89913
538.853	15219.4111
539.059	15207.27147
539.265	15452.08897
539.471	15415.66951
539.677	15316.52833
539.883	15456.13559
540.09	15571.46516
540.296	15541.11507
540.502	15399.48313
540.708	15480.41534
540.914	15822.36651
541.12	15785.94442
541.326	15897.23533
541.532	15974.12941
541.738	15870.92988
541.944	15893.18833
542.15	16156.25514
542.356	15986.27076
542.562	16069.238
542.768	16103.63978
542.974	16131.97099
543.18	16291.8461
543.386	16522.57235
543.592	16492.21214
543.798	16275.65572
544.004	15879.02385
544.21	16322.20338
544.415	16247.32284
544.621	16512.45223
544.827	16484.11616
545.033	16674.38078
545.239	16793.8125
545.445	16826.20222
545.651	16629.849
545.856	16921.35075
546.062	16727.01068
546.268	16656.1631
546.474	16538.76466
546.679	16271.60815
546.885	16733.08347
547.091	16690.57443
547.297	16500.30815
547.502	16648.06641
547.708	17018.52965
547.914	16923.37525
548.119	16996.25894
548.325	17142.03685
548.531	16907.17933
548.736	17166.33457
548.942	17020.55427
549.147	17016.50502
549.353	17310.10466
549.559	17372.88221
549.764	17162.28493
549.97	17164.30975
550.175	17275.67948
550.381	17632.12443
550.586	17393.13365
550.792	17678.7126
550.997	17739.48243
551.203	17674.66139
551.408	17518.69955
551.614	17506.54749
551.819	17516.6742
552.025	17696.94324
552.23	17555.15644
552.435	17816.4619
552.641	17907.6282
552.846	17887.36842
553.052	17938.01853
553.257	18057.56154
553.462	18389.91701
553.668	18203.46148
553.873	17842.79812
554.078	18325.05932
554.283	18053.50903
554.489	18434.50892
554.694	17962.33136
554.899	18185.22295
555.105	18621.00427
555.31	18274.39193
555.515	18235.88626
555.72	18592.62243
555.925	18112.27181
556.131	18416.26655
556.336	18385.86329
556.541	18592.62243
556.746	18562.21416
556.951	18525.72539
557.156	18651.41423
557.361	18627.08619
557.567	18704.12691
557.772	18939.33917
557.977	18635.19547
558.182	18691.96221
558.387	18647.35951
558.592	18696.01709
558.797	18683.85249
559.002	18764.95254
559.207	18726.42923
559.412	19010.31896
559.617	18947.45089
559.822	19099.55773
560.027	19050.88106
560.232	19030.59981
560.437	18904.86505
560.642	19069.13454
560.847	19008.2909
561.051	19113.75554
561.256	18704.12691
561.461	19444.41839
561.666	19089.41657
561.871	19257.77315
562.076	19168.52037
562.281	19462.67904
562.485	18990.03851
562.69	19399.78264
562.895	18953.53473
563.1	19312.54584
563.305	18906.8929
563.509	19440.36051
563.714	19434.27372
563.919	19495.14326
564.123	19489.05614
564.328	19738.65893
564.533	19527.60854
564.737	19659.50974
564.942	19377.46552
565.147	19639.2161
565.351	19509.34669
565.556	19635.15742
565.761	19696.03934
565.965	19813.75509
566.17	19428.18697
566.374	19570.22085
566.579	19738.65893
566.784	19671.68612
566.988	19825.93338
567.193	20020.8067
567.397	19702.12774
567.602	20039.07806
567.806	19771.13224
568.011	20240.08551
568.215	20199.47462
568.42	20215.71877
568.624	19856.37979
568.828	20156.835
569.033	20083.74282
569.237	20390.36041
569.442	20453.32023
569.646	20004.56578
569.85	20284.75943
570.055	20587.37713
570.259	20181.20027
570.463	20162.92626
570.668	20311.15861
570.872	20416.76242
571.076	20130.43997
571.281	20682.85298
571.485	20554.87682
571.689	20420.82434
571.893	20660.50675
572.098	20621.90989
572.302	20266.48349
572.506	20784.43312
572.71	20772.24296
572.914	20723.48379
573.119	21024.20325
573.323	20841.32253
573.527	20847.41802
573.731	21068.91248
573.935	20816.94096
574.139	21044.52538
574.343	20705.19972
574.547	21091.26784
574.751	21266.06307
574.955	21196.95439
575.159	21125.818
575.364	21119.72083
575.568	20790.52826
575.772	20705.19972
575.976	20971.36762
576.18	20877.896
576.383	20833.19527
576.587	21290.45548
576.791	20812.87742
576.995	21564.9099
577.199	21499.84747
577.403	21613.70937
577.607	21644.2102
577.811	21884.18059
578.015	21591.34267
578.219	21562.87664
578.422	21483.5825
578.626	21943.16459
578.83	21540.51102
579.034	21473.41702
579.238	21632.00976
579.442	21871.97741
579.645	21853.67289
579.849	21871.97741
580.053	22093.68999
580.257	21754.02045
580.46	21733.68436
580.664	22111.99854
580.868	22016.39058
581.071	21906.55346
581.275	21937.06265
581.479	22065.21063
581.682	21894.35002
581.886	22114.03284
582.09	22093.68999
582.293	22010.28822
582.497	21987.91322
582.7	22219.82171
582.904	22201.51138
583.107	22632.89991
583.311	22276.7891
583.515	22466.02283
583.718	22242.20141
583.922	22675.64056
584.125	22380.55854
584.329	22687.85245
584.532	22738.73671
584.735	23054.26692
584.939	22323.58591
585.142	22252.37415
585.346	22492.47735
585.549	22930.08079
585.753	23092.95038
585.956	23141.8154
586.159	22799.80067
586.363	23058.33881
586.566	23015.58466
586.769	22775.37471
586.973	22649.18188
587.176	22995.22606
587.379	22818.12047
587.582	23172.35699
587.786	22897.50946
587.989	23263.98616
588.192	22974.8678
588.395	23143.85148
588.599	23141.8154
588.802	23227.33371
589.005	23107.20248
589.208	23512.43546
589.411	23875.00883
589.615	23371.91329
589.818	23398.38735
590.021	23430.97153
590.224	23394.31438
590.427	23402.46033
590.63	23233.44238
590.833	23321.00316
591.036	23290.45803
591.239	23917.7905
591.442	23378.02264
591.645	23477.81268
591.848	23573.53666
592.051	24033.91851
592.254	23380.0591
592.457	23610.19869
592.66	23475.77608
592.863	23726.30159
593.066	23817.96859
593.269	23705.93196
593.472	23710.00586
593.675	23891.30646
593.878	23726.30159
594.081	24070.59242
594.284	24170.43149
594.486	24357.90206
594.689	24612.65299
594.892	24280.46582
595.095	24182.65714
595.298	24333.44809
595.5	24590.23331
595.703	24598.38588
595.906	24427.19033
596.109	24125.60497
596.311	24211.18403
596.514	24115.41731
596.717	24439.41799
596.92	24504.63371
597.122	24443.49389
597.325	24447.56981
597.528	24867.44285
597.73	24608.57666
597.933	24423.11447
598.136	24926.55944
598.338	24547.43295
598.541	24331.41028
598.743	25085.5723
598.946	24612.65299
599.148	24794.0595
599.351	24421.07654
599.554	24812.40505
599.756	24838.90452
599.959	25114.11453
600.161	24961.2149
600.363	24902.09717
600.566	25114.11453
600.768	25130.42457
600.971	25405.6775
601.173	25303.72742
601.376	25332.27291
601.578	25152.85111
601.78	25185.47201
601.983	25189.54966
602.185	24812.40505
602.388	24989.75519
602.59	25132.46334
602.792	25256.83216
602.995	25216.05461
603.197	25097.80463
603.399	25505.59362
603.601	25146.73476
603.804	25120.23078
604.006	25442.38081
604.208	25342.46783
604.41	25187.51083
604.613	25189.54966
604.815	25189.54966
605.017	25320.03908
605.219	25203.82151
605.421	25403.63845
605.623	25264.98778
605.826	25623.86797
606.028	25285.37697
606.23	25336.35087
606.432	25330.23394
606.634	25933.85928
606.836	25411.79467
607.038	25778.85815
607.24	25540.25954
607.442	25311.88323
607.644	25291.49377
607.846	25617.75017
608.048	25544.33793
608.25	25882.87089
608.452	25872.67335
608.654	26237.77329
608.856	25548.41632
609.058	26150.06258
609.26	25607.55387
609.462	25721.75521
609.664	25893.06847
609.866	25764.58227
610.067	26078.6725
610.269	25831.88364
610.471	25583.08295
610.673	25766.62168
610.875	26343.84621
611.077	25893.06847
611.278	25976.69042
611.48	26103.14886
611.682	25844.12048
611.884	26031.76019
612.085	25958.33412
612.287	26068.47409
612.489	25729.91268
612.69	25952.21539
612.892	25795.17355
613.094	25852.2784
613.295	25838.00205
613.497	26411.16403
613.699	26068.47409
613.9	25972.61123
614.102	25964.45287
614.304	25982.80922
614.505	25601.43611
614.707	26017.48272
614.908	25993.00725
615.11	25797.21298
615.311	25823.72579
615.513	25891.02895
615.714	25793.13412
615.916	26064.39474
616.117	26268.37078
616.319	26611.08781
616.52	26431.56372
616.722	26454.00356
616.923	26033.79984
617.124	26270.41063
617.326	25946.09667
617.527	26184.73853
617.729	26196.97722
617.93	25803.3313
618.131	26027.68091
618.333	26290.80918
618.534	26068.47409
618.735	26709.01509
618.937	26315.28767
619.138	26594.76694
619.339	26080.71219
619.54	26278.57003
619.742	26476.4436
619.943	25952.21539
620.144	25893.06847
620.345	26370.36514
620.546	26272.45048
620.748	26570.28582
620.949	26278.57003
621.15	26156.18183
621.351	25942.01753
621.552	26570.28582
621.753	26268.37078
621.954	26296.92878
622.155	26225.53439
622.356	26396.88434
622.558	26386.68462
622.759	26509.08399
622.96	26378.52486
623.161	26464.20355
623.362	26156.18183
623.563	26808.98609
623.764	26072.55345
623.965	26449.92357
624.166	26454.00356
624.366	26529.48444
624.567	26088.87095
624.768	26115.38713
624.969	25872.67335
625.17	26329.5669
625.371	26274.49033
625.572	26229.61402
625.773	26013.40346
625.973	26439.72364
626.174	26349.96594
626.375	26439.72364
626.576	26325.48711
626.777	26702.89454
626.977	26823.26795
627.178	26560.08542
627.379	26111.3077
627.58	26853.87217
627.78	26568.24573
627.981	26994.65575
628.182	26433.60369
628.382	26888.55735
628.583	26770.2214
628.784	26492.76374
628.984	26143.94335
629.185	26747.77894
629.386	26052.15673
629.586	27174.21544
629.787	26776.34211
629.987	26772.26164
630.188	26764.10071
630.388	26841.63044
630.589	26666.17148
630.79	26839.59016
630.99	26959.96932
631.191	26631.48904
631.391	26531.5245
631.591	26821.22768
631.792	26245.93258
631.992	26968.13079
632.193	26966.09042
632.393	26937.52537
632.594	26576.40608
632.794	26580.48626
632.994	26619.24829
633.195	26955.88859
633.395	27166.05341
633.595	27176.25595
633.796	26945.68678
633.996	27288.48612
634.196	27182.3775
634.397	27215.02592
634.597	27272.16149
634.797	27608.8736
634.997	27215.02592
635.198	27123.20309
635.398	26790.6238
635.598	27263.9992
635.798	27343.58238
635.998	26906.92026
636.199	27394.59827
636.399	27210.94485
636.599	27292.56729
636.799	27043.62552
636.999	26853.87217
637.199	27088.51518
637.399	26531.5245
637.599	27078.31293
637.799	26790.6238
637.999	27233.39081
638.199	27302.77025
638.399	27143.60793
638.599	27074.23203
638.799	27443.57428
638.999	27739.48613
639.199	27727.241
639.399	27341.54176
639.599	27361.94801
639.799	27468.06255
639.999	27288.48612
640.199	27266.03977
640.399	27310.93263
640.599	26990.57497
640.799	28115.02379
640.998	27421.12685
641.198	27694.58752
641.398	27741.52699
641.598	27549.69143
641.798	27723.15929
641.997	27306.85144
642.197	27351.74487
642.397	27749.69044
642.597	27723.15929
642.796	27588.46584
642.996	27282.36437
643.196	27749.69044
643.395	27574.18048
643.595	28002.76664
643.795	27678.26089
643.994	28051.75116
644.194	27749.69044
644.394	28000.72563
644.593	27578.262
644.793	28341.58932
644.992	27851.73515
645.192	27766.01739
645.392	27378.2731
645.591	27970.11065
645.791	27917.04529
645.99	27898.6767
646.19	27592.54738
646.389	27927.25011
646.589	27955.82375
646.788	27972.15164
646.987	27766.01739
647.187	28243.61338
647.386	27645.60788
647.586	28157.8865
647.785	28170.13308
647.984	28149.72214
648.184	27768.05827
648.383	27735.40441
648.582	27761.93565
648.782	28161.96869
648.981	27529.28402
649.18	27868.06258
649.38	27996.64362
649.579	28159.9276
649.778	28021.13576
649.977	28531.42475
650.177	28247.69567
650.376	28308.9304
650.575	27757.85391
650.774	28059.91531
650.973	28131.35239
651.173	28508.97062
651.372	28119.10593
651.571	28133.39346
651.77	28135.43454
651.969	28151.76323
652.168	28441.60899
652.367	28351.79529
652.566	27906.84051
652.765	28382.41336
652.964	28227.28431
653.163	28335.46575
653.362	28053.7922
653.561	27931.33205
653.76	27959.90572
653.959	28015.01271
654.158	28770.26296
654.357	28551.83771
654.556	28133.39346
654.755	28357.91889
654.954	28562.04423
655.153	28127.27023
655.352	28419.15537
655.551	29007.07392
655.749	28968.28496
655.948	28986.65863
656.147	28104.81846
656.346	28655.94544
656.545	28086.44892
656.743	28560.00292
656.942	28390.57822
657.141	28611.03589
657.34	28429.36154
657.538	28000.72563
657.737	28357.91889
657.936	28778.42862
658.135	28337.50694
658.333	28474.26903
658.532	28535.50733
658.731	28374.24852
658.929	28443.65023
659.128	28286.47755
659.326	28170.13308
659.525	28657.9868
659.724	28513.05318
659.922	28408.94922
660.121	28560.00292
660.319	28702.89688
660.518	28625.32524
660.716	29080.56982
660.915	28864.16908
661.113	28929.49638
661.312	28435.48526
661.51	28594.70527
661.709	28680.44178
661.907	28394.66066
662.105	28464.06274
662.304	28672.27632
662.502	28886.62522
662.701	29047.90481
662.899	28502.84678
663.097	28278.31291
663.296	28835.58873
663.494	29082.61139
663.692	29074.44511
663.891	28874.3764
664.089	28378.33094
664.287	28435.48526
664.485	28615.11856
664.684	29207.14924
664.882	28809.05001
665.08	28735.55908
665.278	28480.39281
665.476	28504.88806
665.675	28435.48526
665.873	28206.87306
666.071	28398.7431
666.269	28341.58932
666.467	28210.9553
666.665	28457.93897
666.863	28196.66747
667.061	28315.05393
667.259	28288.51871
667.457	28478.35155
667.655	28292.60104
667.853	28143.59888
668.051	27953.78277
668.249	28351.79529
668.447	28164.00979
668.645	28431.40278
668.843	27976.23363
669.041	28547.75511
669.239	28425.27907
669.437	28651.86274
669.635	28570.20946
669.833	28968.28496
670.031	28404.86677
670.229	28655.94544
670.426	28913.16445
670.624	28531.42475
670.822	28284.43639
671.02	28804.96714
671.218	28641.65599
671.415	28562.04423
671.613	28531.42475
671.811	28625.32524
672.009	28604.9119
672.206	28253.81909
672.404	28172.17418
672.602	28555.92031
672.799	28717.18656
672.997	29237.77389
673.195	28611.03589
673.392	28909.08148
673.59	28045.62806
673.788	27988.47961
673.985	27925.20915
674.183	28353.83649
674.38	28137.47563
674.578	28000.72563
674.775	28178.29749
674.973	28100.73633
675.17	27910.92242
675.368	28074.20262
675.565	28239.53111
675.763	28306.88922
675.96	28327.30101
676.158	28406.908
676.355	28063.99739
676.553	28831.50583
676.75	28533.46604
676.947	28637.57329
677.145	28274.2306
677.342	27600.71048
677.539	27602.75126
677.737	28288.51871
677.934	27641.52627
678.131	28317.0951
678.329	28537.54863
678.526	28351.79529
678.723	28400.78432
678.92	28372.20731
679.118	27923.16818
679.315	27753.77217
679.512	27957.86473
679.709	28068.07948
679.906	27725.20014
680.104	28019.09474
680.301	27755.81304
680.498	27392.55762
680.695	27331.33869
680.892	27951.74179
681.089	27925.20915
681.286	28041.546
681.483	27186.45853
681.68	27855.817
681.877	27906.84051
682.075	27659.89353
682.272	27406.84221
682.469	27680.30172
682.665	27164.0129
682.862	27394.59827
683.059	27563.97669
683.256	27380.31374
683.453	27302.77025
683.65	27351.74487
683.847	27378.2731
684.044	27266.03977
684.241	27357.86675
684.438	27976.23363
684.635	27676.22007
684.831	28219.11979
685.028	27451.73701
685.225	27484.38817
685.422	27284.40496
685.619	27680.30172
685.815	27451.73701
686.012	27733.36356
686.209	26658.01087
686.405	27098.71747
686.602	27039.54468
686.799	26802.86531
686.996	27006.89812
687.192	27072.19159
687.389	27102.79839
687.586	26931.40432
687.782	27337.46053
687.979	26972.21154
688.175	26786.54331
688.372	27045.66595
688.568	26774.30187
688.765	26919.16227
688.962	26790.6238
689.158	27106.87932
689.355	27176.25595
689.551	27066.07027
689.748	27149.72941
689.944	26811.02635
690.14	27247.67469
690.337	27184.41801
690.533	27421.12685
690.73	26749.81915
690.926	26962.00968
691.123	26535.60461
691.319	26398.92429
691.515	26745.73872
691.712	26723.29645
691.908	26517.24415
692.104	26398.92429
692.301	26413.20399
692.497	26186.77831
692.693	26792.66405
692.889	26588.64664
693.086	26553.96519
693.282	26592.72684
693.478	26806.94583
693.674	26400.96424
693.87	26658.01087
694.067	26388.72456
694.263	26505.00392
694.459	26847.7513
694.655	27025.26176
694.851	26321.40733
695.047	26507.04395
695.243	26396.88434
695.439	26456.04355
695.635	26551.92512
695.831	26970.17117
696.027	26517.24415
696.224	26725.33665
696.42	26449.92357
696.615	26762.06049
696.811	26292.84905
697.007	26576.40608
697.203	26250.01224
697.399	26127.62547
697.595	26005.24495
697.791	26372.40507
697.987	25921.62196
698.183	26339.7664
698.379	26317.32756
698.575	26709.01509
698.77	26270.41063
698.966	26268.37078
699.162	26631.48904
699.358	26676.37228
699.554	26170.46014
699.749	26472.36357
699.945	25905.30564
700.141	26441.76362
700.337	25784.97641
700.532	26225.53439
700.728	26303.0484
700.924	26245.93258
701.119	25952.21539
701.315	25313.92219
701.511	25258.87107
701.706	26129.6652
701.902	25742.14894
702.097	25966.49246
702.293	25479.08478
702.489	25888.98943
702.684	25226.24891
702.88	25954.25496
703.075	25850.23892
703.271	26084.79157
703.466	25733.99143
703.662	25652.41795
703.857	25399.56035
704.053	26092.95035
704.248	26052.15673
704.443	26133.74466
704.639	25789.05526
704.834	26158.22158
705.03	25803.3313
705.225	25413.83374
705.42	25277.22127
705.616	25587.16142
705.811	25326.15599
706.006	25568.80839
706.202	25395.48226
706.397	25485.20218
706.592	25236.44328
706.787	25542.29873
706.983	25199.74383
707.178	25899.18705
707.373	25772.73991
707.568	25609.59312
707.763	25305.76637
707.959	25509.67194
708.154	25421.99
708.349	25291.49377
708.544	25318.00012
708.739	25611.63238
708.934	25693.2043
709.129	25685.04697
709.324	25163.04508
709.519	25813.52852
709.714	25297.61059
709.909	25791.09469
710.104	25326.15599
710.299	24959.17633
710.494	25415.8728
710.689	25691.16496
710.884	25107.9983
711.079	25462.77183
711.274	25054.99183
711.469	25911.42425
711.664	25576.96527
711.859	25401.5994
712.054	25148.77354
712.249	25324.11702
712.443	24961.2149
712.638	25440.34172
712.833	24906.17419
713.028	25130.42457
713.223	24718.64096
713.417	24810.36665
713.612	24649.34038
713.807	25346.54581
714.002	25114.11453
714.196	25428.10722
714.391	25004.02551
714.586	25054.99183
714.78	24845.01984
714.975	25026.45052
715.17	24333.44809
715.364	24722.71756
715.559	24565.77583
715.754	24688.06683
715.948	24143.94293
716.143	24510.74782
716.337	24219.33466
716.532	24408.84902
716.726	24152.09321
716.921	24272.31486
717.115	24064.48004
717.31	25065.18527
717.504	24906.17419
717.699	24657.49324
717.893	24347.71286
718.088	24842.98139
718.282	24580.04265
718.476	24412.92485
718.671	24288.61682
718.865	24525.01416
719.059	24158.20595
719.254	24178.58191
719.448	23724.26461
719.642	24559.66151
719.837	23838.33985
720.031	24630.99658
720.225	24251.93764
720.419	24292.69234
720.614	23655.00918
720.808	24021.69408
721.002	23614.27231
721.196	23801.6718
721.39	23848.52558
721.585	23899.45534
721.779	23597.9779
721.973	24078.7423
722.167	23422.82541
722.361	23640.75114
722.555	23807.78308
722.749	23577.61017
722.943	23530.76553
723.137	23565.38967
723.331	23638.71429
723.525	23681.48879
723.719	23632.60375
723.913	23726.30159
724.107	23540.94901
724.301	23783.33814
724.495	23355.62183
724.689	23885.19483
724.883	24062.44258
725.077	24194.88288
725.271	23921.86501
725.465	24011.50713
725.659	23797.59763
725.853	23679.45188
726.046	23697.78419
726.24	23610.19869
726.434	23282.31278
726.628	24278.42807
726.822	23714.07977
727.015	23824.07994
727.209	23514.47212
727.403	23728.33857
727.596	23799.63472
727.79	23805.74598
727.984	23940.20045
728.177	24031.8811
728.371	23815.93148
728.565	23532.80222
728.758	23420.78888
728.952	23620.38277
729.146	23636.67744
729.339	23671.30426
729.533	24007.43237
729.726	24086.89222
729.92	23624.45642
730.113	23746.67152
730.307	23860.74856
730.5	23632.60375
730.694	23414.67934
730.887	23304.71233
731.081	23261.94989
731.274	23237.51484
731.468	22978.93942
731.661	23211.04407
731.854	23213.08026
732.048	23239.55108
732.241	23060.37476
732.435	23029.83588
732.628	23072.59052
732.821	22985.04689
733.014	22989.11855
733.208	22950.43832
733.401	23253.80482
733.594	23046.12319
733.788	23076.66246
733.981	23467.62968
734.174	23787.41226
734.367	23547.05913
734.56	23724.26461
734.754	23636.67744
734.947	23496.14228
735.14	23213.08026
735.333	23198.82697
735.526	23127.56291
735.719	23066.48262
735.912	23200.86314
736.105	23296.56699
736.298	22864.93899
736.491	22435.49914
736.684	22693.95845
736.877	22712.27662
737.07	22824.22713
737.263	22502.65233
737.456	22759.09102
737.649	23066.48262
737.842	23117.38265
738.035	23516.50879
738.228	23263.98616
738.421	23390.24143
738.614	23219.18886
738.807	23048.15912
739	23166.24862
739.192	22736.70129
739.385	22987.08272
739.578	22864.93899
739.771	23046.12319
739.964	22926.00933
740.156	23054.26692
740.349	23160.14027
740.542	23094.98639
740.735	22636.97038
740.927	22807.94277
741.12	22932.11653
741.313	22930.08079
741.505	22942.29527
741.698	22854.76089
741.891	22797.76516
742.083	22732.63048
742.276	22767.23284
742.468	22738.73671
742.661	22610.51258
742.854	22136.41042
743.046	22132.34173
743.239	22177.09807
743.431	22232.02877
743.624	22356.14135
743.816	22038.76616
744.009	22217.78722
744.201	22315.44719
744.393	22592.19598
744.586	22164.89162
744.778	22610.51258
744.971	22213.71823
745.163	22409.04593
745.355	22288.99678
745.548	22026.56124
745.74	22124.20441
745.932	22488.40739
746.125	22138.44476
746.317	22651.21714
746.509	22415.15046
746.702	22407.01109
746.894	22183.20135
747.086	22020.45883
747.278	22270.68532
747.471	22081.48446
747.663	22317.48187
747.855	21963.50465
748.047	21928.92678
748.239	21806.8961
748.431	22032.66368
748.623	22321.55122
748.815	22132.34173
749.008	22468.05777
749.2	22370.38465
749.392	22048.93703
749.584	21666.57803
749.776	21721.48289
749.968	21715.38221
750.16	21629.97637
750.352	21835.36869
750.544	22126.23874
750.736	22207.61479
750.928	22307.30854
751.12	22077.41598
751.311	21552.71039
751.503	21725.55003
751.695	21357.53761
751.887	21552.71039
752.079	21916.72309
752.271	21170.53172
752.463	21495.78121
752.654	21327.04519
752.846	21764.18864
753.038	21388.03094
753.23	21449.02028
753.421	21373.80061
753.613	21268.09575
753.805	21451.05332
753.997	21546.61068
754.188	21774.35693
754.38	21493.74808
754.572	21701.14743
754.763	21595.40931
754.955	21349.40621
755.146	21286.39004
755.338	21426.6571
755.53	21190.85679
755.721	21593.37598
755.913	21351.43906
756.104	20993.72081
756.296	21335.17642
756.487	21117.68844
756.679	21213.21484
756.87	21355.50476
757.062	21038.4287
757.253	21282.32462
757.445	21030.29984
757.636	21207.11714
757.827	21249.80178
758.019	21072.97705
758.21	21020.13887
758.401	20810.84566
758.593	20711.29438
758.784	20110.13659
758.975	20729.57856
759.167	20465.50647
759.358	20512.22178
759.549	20394.42221
759.74	20398.48403
759.932	20439.10315
760.123	20483.78611
760.314	20187.29168
760.505	20357.86659
760.696	19996.44542
760.888	20548.78313
761.079	20502.06609
761.27	20361.92826
761.461	20493.94161
761.652	20477.69286
761.843	20420.82434
762.034	20351.77412
762.225	20104.04566
762.416	20426.91724
762.607	20124.34891
762.798	20481.75502
762.989	20114.19723
763.18	20465.50647
763.371	19903.06611
763.562	20215.71877
763.753	19998.4755
763.944	20321.31233
764.135	19880.73759
764.326	20095.92447
764.517	19990.35519
764.708	19726.48172
764.899	19728.51124
765.089	19750.8363
765.28	19509.34669
765.471	19399.78264
765.662	19241.54478
765.853	19276.03038
766.043	19227.34517
766.234	19241.54478
766.425	19513.40485
766.615	19338.91895
766.806	19247.63039
766.997	19527.60854
767.187	19320.66057
767.378	19590.51307
767.569	19625.0108
767.759	19976.14481
767.95	19472.82399
768.141	19213.14577
768.331	19491.08517
768.522	19436.30265
768.712	19393.69611
768.903	19704.15722
769.093	19109.699
769.284	19105.64248
769.474	19052.90921
769.665	18898.7815
769.855	19008.2909
770.046	19170.54875
770.236	19111.72727
770.426	19420.07137
770.617	19030.59981
770.807	19095.50126
770.998	18931.2275
771.188	18533.8339
771.378	18436.53587
771.569	18278.44523
771.759	18381.80959
771.949	18582.48624
772.139	18704.12691
772.33	18274.39193
772.52	18548.02394
772.71	18641.27748
772.9	18590.59518
773.09	18639.25014
773.281	18393.97075
773.471	18655.46895
773.661	18702.09945
773.851	18473.0216
774.041	18280.47189
774.231	18363.56811
774.421	17925.86231
774.611	18243.99261
774.802	18179.14351
774.992	18055.53528
775.182	18049.45653
775.372	17767.84272
775.562	17579.46162
775.752	17755.68823
775.942	17520.72491
776.131	17948.14882
776.321	17553.13103
776.511	17581.48707
776.701	17607.81824
776.891	17638.20105
777.081	17492.37022
777.271	17915.73221
777.461	17757.71397
777.651	17956.25311
777.84	17696.94324
778.03	17484.26899
778.22	17767.84272
778.41	17626.04783
778.599	17561.23269
778.789	17486.29429
778.979	17441.73838
779.169	17421.48619
779.358	17235.18038
779.548	17403.25949
779.738	17198.73218
779.927	17644.27769
780.117	17302.00454
780.307	17287.82945
780.496	17111.66527
780.686	17237.2053
780.875	16793.8125
781.065	17320.22987
781.254	17054.97333
781.444	17014.4804
781.633	16935.52229
781.823	16795.83684
782.012	17148.11124
782.202	16923.37525
782.391	16548.88493
782.581	16613.6559
782.77	16698.67131
782.96	16982.08684
783.149	16382.9192
783.338	16662.23564
783.528	16951.7185
783.717	17004.35734
783.906	16810.00728
784.096	16816.08037
784.285	16714.86518
784.474	16759.39912
784.663	16605.55941
784.853	16518.5243
785.042	16583.29423
785.231	16832.27537
785.42	16595.43884
785.61	16789.76383
785.799	16380.89531
785.988	16631.87315
786.177	16210.89534
786.366	16378.87142
786.555	16119.82901
786.744	16178.51582
786.933	16044.95465
787.122	16293.86991
787.312	16322.20338
787.501	15901.28234
787.69	15921.51747
787.879	15992.34145
788.068	16180.53953
788.257	16028.76587
788.445	15889.14133
788.634	16322.20338
788.823	16129.94732
789.012	15921.51747
789.201	15828.4369
789.39	15804.15542
789.579	15814.27268
789.768	15951.8704
789.957	15533.02174
790.145	15789.9913
790.334	15767.7335
790.523	15957.94103
790.712	15755.59293
790.9	15646.32943
791.089	15498.6252
791.278	15733.33533
791.467	15367.11046
791.655	15824.38997
791.844	15652.39956
792.033	15565.39513
792.221	15356.99402
792.41	15510.76513
792.599	15389.36666
792.787	15425.78601
792.976	15243.69037
793.164	15563.37179
793.353	15561.34845
793.541	15425.78601
793.73	15359.0173
793.918	15618.00228
794.107	15379.2502
794.295	15391.38996
794.484	15150.61989
794.672	15561.34845
794.861	15059.57263
795.049	15261.89983
795.238	14897.70962
795.426	15310.45849
795.614	14800.59037
795.803	14731.79661
795.991	14839.03357
796.179	15067.66573
796.368	14701.44612
796.556	15049.45625
796.744	14707.51623
796.932	14932.10571
797.121	15006.96739
797.309	14754.05351
797.497	14780.357
797.685	14972.57154
797.874	14377.69193
798.062	14369.59762
798.25	14185.44462
798.438	14610.39336
798.626	14695.37599
798.814	14839.03357
799.002	14851.17349
799.19	14784.40368
799.378	14697.39937
799.566	14584.08883
799.755	14068.0638
799.943	14739.89004
800.131	14782.38034
800.318	15004.9441
800.506	14719.65643
800.694	14644.79131
800.882	14254.25082
801.07	14640.74451
801.258	14482.91567
801.446	14683.23572
801.634	14082.23084
801.822	14252.22714
802.01	14385.78621
802.197	14501.12707
802.385	14203.65825
802.573	14509.221
802.761	14266.39286
802.949	14436.37489
803.136	14321.03124
803.324	14258.29818
803.512	14191.51584
803.699	14375.66836
803.887	14495.05662
804.075	14729.77325
804.262	14563.85445
804.45	14561.831
804.638	14618.48702
804.825	14891.6397
805.013	14622.53385
805.201	14715.6097
805.388	14509.221
805.576	14535.52611
805.763	14391.8569
805.951	14575.99509
806.138	14462.68064
806.326	14383.76264
806.513	14428.28077
806.701	14507.19752
806.888	14393.88046
807.075	14525.40878
807.263	14537.54957
807.45	14509.221
807.638	14276.51118
807.825	14349.36175
808.012	14225.91913
808.2	14252.22714
808.387	14217.82429
808.574	14393.88046
808.761	14529.45572
808.949	14592.18255
809.136	14262.34552
809.323	14731.79661
809.51	14205.68197
809.698	14729.77325
809.885	14488.98615
810.072	14667.04864
810.259	14792.49703
810.446	14393.88046
810.633	14446.49252
810.82	14484.93916
811.008	14618.48702
811.195	14565.87789
811.382	14377.69193
811.569	14403.99825
811.756	14357.45612
811.943	14578.01853
812.13	14756.07686
812.317	14654.90829
812.504	14608.36994
812.691	14731.79661
812.878	14800.59037
813.064	14737.86668
813.251	14644.79131
813.438	14960.43181
813.625	14565.87789
813.812	14820.82366
813.999	14760.12356
814.186	14707.51623
814.372	14377.69193
814.559	14881.52317
814.746	14246.15609
814.933	14104.49311
815.12	14482.91567
815.306	14367.57404
815.493	14495.05662
815.68	14675.14219
815.866	14282.58215
816.053	14343.29095
816.24	14284.6058
816.426	14430.3043
816.613	14223.89542
816.799	14493.03313
816.986	14278.53484
817.173	14841.05689
817.359	14454.58659
817.546	14464.70415
817.732	14011.39447
817.919	14422.21016
818.105	13968.89123
818.292	14118.65987
818.478	13813.03609
818.665	14395.90402
818.851	14132.82653
819.037	14331.14932
819.224	14076.15926
819.41	13956.74725
819.597	13742.18727
819.783	14185.44462
819.969	14041.75327
820.156	14193.53958
820.342	14181.39712
820.528	14343.29095
820.714	14015.44234
820.901	13968.89123
821.087	14007.34659
821.273	14306.86586
821.459	14266.39286
821.646	14011.39447
821.832	13869.71257
822.018	14082.23084
822.204	13756.35733
822.39	13788.74548
822.576	13673.35908
822.762	13750.28447
822.948	13693.60304
823.134	13885.90545
823.32	13600.47805
823.507	14207.7057
823.693	13669.31024
823.879	13730.04138
824.065	13474.95014
824.25	13501.27166
824.436	13693.60304
824.622	13806.96348
824.808	13574.15882
824.994	13651.09033
825.18	13501.27166
825.366	13630.84567
825.552	13580.23254
825.738	13857.5678
825.923	13655.13923
826.109	13894.00182
826.295	13669.31024
826.481	13699.67617
826.667	13634.89463
826.852	13432.4294
827.038	13481.02439
827.224	14029.60982
827.409	13821.13287
827.595	13578.20797
827.781	13521.51857
827.966	13341.30772
828.152	13057.7626
828.338	13057.7626
828.523	13094.22343
828.709	13466.85108
828.894	13236.00116
829.08	13341.30772
829.266	13047.63431
829.451	12960.52591
829.637	12881.51241
829.822	12709.27481
830.008	12674.82233
830.193	12603.88533
830.378	12654.55537
830.564	12877.46022
830.749	12579.56235
830.935	12804.51706
831.12	12524.83235
831.305	12731.56668
831.491	12636.31459
831.676	12607.93907
831.861	12545.10326
832.047	12743.72559
832.232	12652.52864
832.417	12668.7423
832.602	12656.58209
832.788	12577.53539
832.973	12585.64317
833.158	12575.50843
833.343	12616.04648
833.528	12707.24824
833.714	12697.1153
833.899	12745.75206
834.084	12464.0158
834.269	12741.69912
834.454	12563.34653
834.639	12502.53362
834.824	12342.36483
835.009	12583.61624
835.194	12301.80904
835.379	12362.64168
835.564	12366.69697
835.749	12512.66951
835.934	12423.46816
836.119	12455.90648
836.304	12305.86474
836.489	12240.97007
836.674	11857.52854
836.859	12234.88582
837.044	12030.01032
837.228	12094.92973
837.413	12135.50038
837.598	12303.83689
837.783	11952.90806
837.968	12224.74525
838.152	11869.70567
838.337	12121.301
838.522	11818.96564
838.707	11977.25739
838.891	11687.01648
839.076	12038.12568
839.261	11530.6586
839.445	12003.63452
839.63	11879.85304
839.815	11725.59005
839.999	11473.78752
840.184	11571.27628
840.368	11402.68808
840.553	11575.33784
840.737	11528.62762
840.922	11796.63836
841.106	11595.6451
841.291	11796.63836
841.475	11485.9748
841.66	11309.22479
841.844	11250.29132
842.029	11258.42058
842.213	11266.54969
842.397	11156.79282
842.582	11028.704
842.766	11307.19274
842.951	11020.56992
843.135	10809.02055
843.319	10723.55161
843.504	10815.12468
843.688	10908.7082
843.872	11071.40505
844.056	11004.30123
844.241	10996.16661
844.425	10898.53726
844.609	11128.33233
844.793	11146.6286
844.977	11380.34008
845.161	11089.70403
845.346	11284.83956
845.53	10782.56811
845.714	11323.44883
845.898	10857.85063
846.082	11016.50281
846.266	10914.81063
846.45	10941.2533
846.634	10811.05527
846.818	10813.08998
847.002	10979.89685
847.186	10918.87886
847.37	10519.96797
847.554	10593.27233
847.738	10572.91164
847.922	10428.31438
848.106	10762.21873
848.29	10308.10643
848.473	10373.30965
848.657	10346.82248
848.841	10369.23485
849.025	10477.19952
849.209	10122.60923
849.392	10517.9315
849.576	10383.49643
849.76	10330.52157
849.944	10175.62002
850.127	10422.20321
850.311	10034.91675
850.495	10352.9351
850.678	10379.42176
850.862	10593.27233
851.046	10277.53773
851.229	10130.76535
851.413	9753.30433
851.596	10167.46513
851.78	10094.06106
851.964	10226.58314
852.147	9796.17661
852.331	9961.47954
852.514	9743.09566
852.698	9824.75444
852.881	9810.46589
853.065	9832.91899
853.248	9457.09553
853.431	9943.11731
853.615	9489.79692
853.798	9775.76207
853.982	9422.34578
854.165	9716.55134
854.348	9401.90256
854.532	9837.00118
854.715	9510.2332
854.898	9475.49057
855.081	9248.52601
855.265	9504.10249
855.448	9442.78737
855.631	9495.92797
855.814	9847.20639
855.997	9812.50716
856.181	9843.12435
856.364	9571.53251
856.547	9620.56173
856.73	9469.35903
856.913	9244.43469
857.096	9436.65507
857.279	9183.05677
857.462	9246.48036
857.645	9240.3433
857.828	9399.85815
858.011	9297.61665
858.194	9354.87696
858.377	9058.20768
858.56	9365.10065
858.743	9115.5234
858.926	8937.39053
859.109	9004.97375
859.292	9168.73306
859.475	8968.11256
859.658	8939.43879
859.841	8689.41841
860.023	8953.77611
860.206	8687.36794
860.389	8966.06455
860.572	8787.81929
860.755	8941.48703
860.937	8607.38519
861.12	8877.98327
861.303	8818.56094
861.486	8837.00397
861.668	8781.67047
861.851	8603.28274
862.034	8467.85979
862.216	8525.32202
862.399	8406.27648
862.581	8615.58985
862.764	8437.07029
862.947	8498.64498
863.129	8311.81497
863.312	8352.89024
863.494	8260.45988
863.677	8474.01717
863.859	8356.99734
864.042	8342.62215
864.224	8441.17581
864.406	8457.5971
864.589	8116.59991
864.771	8276.89485
864.954	8034.35019
865.136	8223.47661
865.318	7904.74094
865.501	8096.04051
865.683	8013.7827
865.865	7859.46137
866.048	7836.81783
866.23	7766.81278
866.412	7717.38288
866.594	7818.28943
866.777	7834.7592
866.959	8194.70741
867.141	7964.41242
867.323	8161.82356
867.505	7964.41242
867.687	7958.24031
867.869	7803.87728
868.052	7956.1829
868.234	7709.14339
868.416	7933.55002
868.598	7647.33642
868.78	7952.06802
868.962	7816.23061
869.144	7840.93502
869.326	7585.51036
869.508	7692.66339
869.69	7585.51036
869.872	7770.93139
870.054	7637.03341
870.236	7851.22765
870.417	7554.59013
870.599	7643.21528
870.781	7585.51036
870.963	7430.86084
871.145	7486.54862
871.327	7917.08819
871.508	7552.52861
871.69	7902.683
871.872	7214.14615
872.054	7707.08346
872.235	7348.33133
872.417	7342.14021
872.599	7309.11757
872.78	7583.44916
872.962	7614.3649
873.144	7569.02017
873.325	7302.9252
873.507	7569.02017
873.689	7193.49401
873.87	7496.85945
874.052	7117.06179
874.233	7100.53189
874.415	7379.28398
874.596	7416.42069
874.778	7166.64291
874.959	7354.52225
875.141	7288.47557
875.322	7540.15904
875.503	7249.24972
875.685	7630.85134
875.866	7422.60945
876.048	7304.98935
876.229	7162.51164
876.41	7205.88556
876.592	7092.26641
876.773	7148.05149
876.954	7189.36332
877.136	7505.10772
877.317	7311.18165
877.498	7290.53987
877.679	6990.98516
877.86	7486.54862
878.042	7104.6645
878.223	7401.97947
878.404	7224.47139
878.585	7309.11757
878.766	7191.42867
878.947	7315.30974
879.128	7034.39801
879.309	7028.19678
879.49	6866.89363
879.672	7226.53637
879.853	7377.22062
880.034	7498.92155
880.215	7205.88556
880.396	7542.22068
880.576	7193.49401
880.757	7387.53719
880.938	7185.23253
881.119	7296.73264
881.3	7238.9258
881.481	7595.81603
881.662	7152.18308
881.843	7453.55036
882.023	7368.96697
882.204	7585.51036
882.385	7569.02017
882.566	7296.73264
882.747	7331.82123
882.927	7538.09736
883.108	7189.36332
883.289	7212.08104
883.469	7255.4438
883.65	7503.04569
883.831	7298.79685
884.011	7571.08151
884.192	7414.35772
884.373	7515.41758
884.553	7496.85945
884.734	7457.67545
884.914	7694.72346
885.095	7795.64131
885.275	7267.83138
885.456	7721.5025
885.636	7486.54862
885.817	7709.14339
885.997	7564.8974
886.178	7593.75494
886.358	7562.83599
886.538	7643.21528
886.719	7276.08932
886.899	7610.24308
887.08	7354.52225
887.26	7515.41758
887.44	7255.4438
887.621	7455.61291
887.801	7331.82123
887.981	7459.73796
888.161	7406.10564
888.342	7573.14284
888.522	7350.39499
888.702	7717.38288
888.882	7401.97947
889.062	7595.81603
889.242	7554.59013
889.423	7371.03042
889.603	7117.06179
889.783	7408.16869
889.963	6920.67663
890.143	7430.86084
890.323	7298.79685
890.503	7503.04569
890.683	7490.67302
890.863	7756.51588
891.043	7189.36332
891.223	7445.29993
891.403	7067.46782
891.583	7674.12178
891.763	7133.59025
891.943	7486.54862
892.122	7455.61291
892.302	7482.42414
892.482	7090.19998
892.662	7265.76684
892.842	7001.32245
893.022	7263.70227
893.201	6916.54002
893.381	7218.27631
893.561	6703.38163
893.741	7323.56566
893.92	7098.46556
894.1	7300.86103
894.28	7102.59821
894.459	7389.60044
894.639	7007.52456
894.819	7057.13412
894.998	6846.20378
895.178	7156.31457
895.357	6846.20378
895.537	6899.99267
895.716	6953.76625
895.896	6937.22216
896.075	6726.15767
896.255	6862.75584
896.434	6730.29847
896.614	6922.7449
896.793	6467.17482
896.973	6593.60351
897.152	6438.14622
897.331	6713.73472
897.511	6777.91111
897.69	6945.49439
897.87	7048.86676
898.049	6775.84124
898.228	6682.67372
898.407	6771.70145
898.587	6564.59471
898.766	6891.71846
898.945	6643.32237
899.124	6603.9627
899.304	6477.54107
899.483	6589.45968
899.662	6307.46103
899.841	6319.91123
900.02	6062.43568
900.199	6411.18701
900.378	6064.51354
900.557	6415.33484
900.737	6085.29085
900.916	6091.52358
901.095	5889.89116
901.274	6189.14212
901.453	5858.69109
901.632	5916.92693
901.811	5717.18415
901.989	5746.32685
902.168	5762.97775
902.347	6101.911
902.526	5993.85309
902.705	6168.37657
902.884	6012.55997
903.063	6187.06567
903.242	6054.124
903.42	6106.0658
903.599	5725.51111
903.778	5823.32459
903.957	5454.69181
904.135	5588.06802
904.314	5458.86127
904.493	5704.693
904.672	5317.04672
904.85	5379.62534
905.029	4962.03796
905.207	5246.09879
905.386	5181.38744
905.565	5104.12202
905.743	4679.64512
905.922	5049.80838
906.1	4784.2834
906.279	5179.29961
906.457	4924.40962
906.636	5141.71458
906.814	4711.04253
906.993	4955.76708
907.171	4796.83619
907.35	5003.83847
907.528	4652.42994
907.707	4641.96155
907.885	4637.77404
908.063	4579.13947
908.242	4447.14804
908.42	4520.48745
908.598	4392.64994
908.777	4501.63132
908.955	4510.01204
909.133	4597.9882
909.311	4436.66879
909.49	4417.80474
909.668	4283.60966
909.846	4568.66717
910.024	4191.29946
910.202	4325.55515
910.38	4291.99945
910.559	4428.28499
910.737	4371.6852
910.915	4614.74112
911.093	4482.77341
911.271	4618.92912
911.449	4380.07136
911.627	4903.50177
911.805	4342.33092
911.983	4551.91034
912.161	4543.53139
912.339	4821.93931
912.517	4480.67798
912.695	4824.03109
912.872	4688.01826
913.05	4715.22847
913.228	4478.58252
913.406	4629.39874
913.584	4510.01204
913.762	4738.24952
913.939	4367.49199
914.117	4700.57729
914.295	4579.13947
914.473	4545.62616
914.65	4216.47906
914.828	4371.6852
915.006	4373.78177
915.184	4520.48745
915.361	4426.18898
915.539	4520.48745
915.716	4296.19421
915.894	4518.39241
916.072	4226.96966
916.249	4405.22773
916.427	4445.05223
916.604	4463.91371
916.782	4304.58348
916.959	4436.66879
917.137	4128.33717
917.314	4453.43533
917.492	4210.18445
917.669	4285.70714
917.847	4218.57722
918.024	4294.09684
918.201	4056.95712
918.379	4235.36175
918.556	3863.69209
918.733	3977.15113
918.911	3819.55336
919.088	4065.35602
919.265	3855.28538
919.442	3960.3461
919.62	3863.69209
919.797	4117.84161
919.974	3827.96141
920.151	4031.75843
920.328	3863.69209
920.506	3981.35218
920.683	3706.01401
920.86	3712.32323
921.037	3750.17494
921.214	3636.60115
921.391	3611.35499
921.568	3901.51829
921.745	3745.96951
921.922	3602.939
922.099	3605.04303
922.276	3907.82203
922.453	3695.49825
922.63	3821.6554
922.807	3544.01873
922.984	3813.24711
923.161	3442.97907
923.338	3636.60115
923.514	3501.92396
923.691	3741.764
923.868	3428.24064
924.045	3623.97841
924.222	3325.04743
924.399	3333.47294
924.575	3221.81285
924.752	3257.63353
924.929	3217.59834
925.105	3464.03244
925.282	3057.39861
925.459	3303.98246
925.635	3219.7056
925.812	3365.06611
925.989	3341.89817
926.165	3501.92396
926.342	3215.49106
926.518	3207.06176
926.695	2894.99939
926.871	3139.61797
927.048	2867.57271
927.224	3086.91602
927.401	2751.51057
927.577	3023.66069
927.754	2861.24313
927.93	2897.10903
928.107	2907.65703
928.283	2778.94718
928.459	2768.39491
928.636	2920.31416
928.812	2768.39491
928.988	2865.46287
929.165	2696.6306
929.341	2905.54746
929.517	2550.94607
929.693	2715.62852
929.87	2449.56704
930.046	2772.61586
930.222	2491.81145
930.398	2797.94042
930.574	2362.95258
930.751	2540.38698
930.927	2453.79168
931.103	2472.80201
931.279	2227.71623
931.455	2415.76837
931.631	2236.16961
931.807	2462.24082
931.983	2310.1305
932.159	2261.5289
932.335	1897.93811
932.511	2324.9213
932.687	1957.14115
932.863	2206.58216
933.039	2039.59457
933.215	2305.90447
933.391	2037.48051
933.566	2187.56076
933.742	1993.08359
933.918	2115.69616
934.094	1792.20828
934.27	1950.79818
934.445	1635.70994
934.621	1773.17572
934.797	1572.26048
934.973	1686.46804
935.148	1458.04848
935.324	1559.5704
935.5	1318.4562
935.675	1593.41049
935.851	1331.14621
936.027	1462.27858
936.202	1246.54755
936.378	1358.64142
936.553	1176.75692
936.729	1280.38658
936.904	1145.0352
937.08	1100.6264
937.255	838.45662
937.431	1102.74106
937.606	641.91564
937.782	1007.58672
937.957	696.85324
938.133	791.95509
938.308	758.1387
938.483	749.685
938.659	686.28771
938.834	690.51389
939.009	629.23887
939.185	629.23887
939.36	451.81433
939.535	494.04922
939.71	472.93102
939.886	589.09874
940.061	475.04277
940.236	481.37812
940.411	477.15454
940.586	447.59118
940.761	377.91833
940.937	428.58776
941.112	390.5848
941.287	464.48416
941.462	304.04289
941.637	354.69804
941.812	308.26376
941.987	310.37423
942.162	316.70572
942.337	240.73873
942.512	238.62888
942.687	306.15332
942.862	274.49885
943.037	325.14796
943.212	236.51906
943.386	346.25481
943.561	261.83823
943.736	242.84859
943.911	219.64116
944.086	356.80889
944.26	291.38072
944.435	316.70572
944.61	225.97022
944.785	219.64116
944.959	282.93964
945.134	228.07995
945.309	166.90597
945.483	225.97022
945.658	223.86052
945.833	211.20268
946.007	257.61818
946.182	310.37423
946.357	333.59049
946.531	352.58721
946.706	215.42188
946.88	232.29947
947.055	304.04289
947.229	346.25481
947.404	320.92681
947.578	308.26376
947.752	240.73873
947.927	301.93248
948.101	335.70117
948.276	249.1783
948.45	257.61818
948.624	228.07995
948.799	285.04988
948.973	257.61818
949.147	209.09311
949.321	299.82209
949.496	257.61818
949.67	325.14796
949.844	295.60137
950.018	249.1783
950.193	299.82209
950.367	316.70572
950.541	342.0333
950.715	386.36258
950.889	299.82209
951.063	342.0333
951.237	257.61818
951.411	358.91976
951.585	304.04289
951.759	318.81625
951.933	371.58532
952.107	314.5952
952.281	420.14221
952.455	295.60137
952.629	249.1783
952.803	354.69804
952.977	308.26376
953.151	327.25857
953.325	192.21728
953.499	299.82209
953.672	312.48471
953.846	304.04289
954.02	401.14065
954.194	358.91976
954.368	333.59049
954.541	327.25857
954.715	333.59049
954.889	350.47639
955.062	468.70756
955.236	331.47983
955.41	316.70572
955.583	342.0333
955.757	282.93964
955.93	409.58562
956.104	293.49103
956.278	352.58721
956.451	333.59049
956.625	304.04289
956.798	304.04289
956.972	325.14796
957.145	323.03738
957.319	346.25481
957.492	316.70572
957.665	358.91976
957.839	274.49885
958.012	335.70117
958.185	350.47639
958.359	333.59049
958.532	392.69594
958.705	409.58562
958.879	409.58562
959.052	308.26376
959.225	327.25857
959.398	384.25149
959.572	308.26376
959.745	401.14065
959.918	232.29947
960.091	291.38072
960.264	350.47639
960.438	386.36258
960.611	175.34274
960.784	291.38072
960.957	249.1783
961.13	342.0333
961.303	266.05836
961.476	329.36919
961.649	282.93964
961.822	272.3887
961.995	293.49103
962.168	282.93964
962.341	270.27857
962.514	312.48471
962.686	206.98356
962.859	223.86052
963.032	261.83823
963.205	308.26376
963.378	312.48471
963.551	282.93964
963.723	240.73873
963.896	291.38072
964.069	234.40925
964.242	333.59049
964.414	325.14796
964.587	234.40925
964.76	232.29947
964.932	251.28824
965.105	261.83823
965.278	249.1783
965.45	234.40925
965.623	299.82209
965.795	223.86052
965.968	261.83823
966.14	173.23352
966.313	337.81186
966.485	268.16846
966.658	261.83823
966.83	240.73873
967.003	215.42188
967.175	282.93964
967.348	244.95848
967.52	192.21728
967.692	261.83823
967.865	247.06838
968.037	217.53151
968.209	194.32669
968.382	272.3887
968.554	215.42188
968.726	196.43612
968.898	282.93964
969.071	232.29947
969.243	249.1783
969.415	287.16014
969.587	257.61818
969.759	238.62888
969.932	194.32669
970.104	160.57861
970.276	150.03342
970.448	223.86052
970.62	255.50818
970.792	276.60902
970.964	251.28824
971.136	181.67054
971.308	162.68771
971.48	128.94464
971.652	139.48876
971.824	217.53151
971.996	126.83588
972.168	107.85801
972.339	190.10789
972.511	228.07995
972.683	164.79683
972.855	145.81549
973.027	169.01513
973.199	204.87403
973.37	225.97022
973.542	169.01513
973.714	169.01513
973.886	97.31551
974.057	204.87403
974.229	97.31551
974.401	114.18377
974.572	192.21728
974.744	139.48876
974.915	190.10789
975.087	93.09867
975.259	105.74946
975.43	156.36047
975.602	152.14241
975.773	147.92445
975.945	99.42397
976.116	179.56125
976.288	225.97022
976.459	190.10789
976.63	162.68771
976.802	143.70656
976.973	244.95848
977.145	114.18377
977.316	63.58328
977.487	133.16222
977.659	190.10789
977.83	118.40105
978.001	63.58328
978.172	242.84859
978.344	88.88192
978.515	139.48876
978.686	160.57861
978.857	109.96657
979.028	76.23219
979.2	131.05342
979.371	141.59765
979.542	158.46953
979.713	63.58328
979.884	29.85689
980.055	93.09867
980.226	67.79949
980.397	105.74946
980.568	141.59765
980.739	147.92445
980.91	181.67054
981.081	114.18377
981.252	82.55695
981.423	114.18377
981.594	48.82725
981.765	63.58328
981.936	80.44868
982.106	74.12398
982.277	80.44868
982.448	80.44868
982.619	126.83588
982.79	133.16222
982.96	114.18377
983.131	114.18377
983.302	31.96461
983.472	126.83588
983.643	74.12398
983.814	57.25913
983.984	173.23352
984.155	4.56604
984.326	116.2924
984.496	93.09867
984.667	105.74946
984.837	93.09867
985.008	40.39575
985.178	107.85801
985.349	48.82725
985.519	63.58328
985.69	48.82725
985.86	23.53386
986.031	131.05342
986.201	76.23219
986.371	126.83588
986.542	61.47521
986.712	74.12398
986.882	74.12398
987.053	42.50359
987.223	95.20708
987.393	122.61842
987.563	57.25913
987.734	12.99594
987.904	48.82725
988.074	88.88192
988.244	82.55695
988.414	76.23219
988.585	29.85689
988.755	105.74946
988.925	88.88192
989.095	109.96657
989.265	4.56604
989.435	76.23219
989.605	6.67348
989.775	-35.47071
989.945	23.53386
990.115	114.18377
990.285	42.50359
990.455	46.71934
990.625	59.36716
990.795	76.23219
990.965	131.05342
991.134	63.58328
991.304	63.58328
991.474	57.25913
991.644	139.48876
991.814	80.44868
991.984	8.78094
992.153	8.78094
992.323	27.74919
992.493	46.71934
992.662	8.78094
992.832	31.96461
993.002	76.23219
993.171	23.53386
993.341	46.71934
993.511	65.69137
993.68	65.69137
993.85	72.0158
994.019	40.39575
994.189	48.82725
994.358	15.10348
994.528	-24.93558
994.697	63.58328
994.867	-27.04265
995.036	31.96461
995.206	-22.82848
995.375	-1.75614
995.544	82.55695
995.714	10.88843
995.883	44.61145
996.052	137.37989
996.222	23.53386
996.391	48.82725
996.56	72.0158
996.73	-37.57766
996.899	6.67348
997.068	80.44868
997.237	12.99594
997.406	82.55695
997.576	46.71934
997.745	46.71934
997.914	6.67348
998.083	-10.18537
998.252	84.66525
998.421	-60.75247
998.59	48.82725
998.759	21.42623
998.928	84.66525
999.097	69.90763
999.266	-14.39983
999.435	38.28793
999.604	17.21104
999.773	59.36716
999.942	8.78094
1000.111	69.90763
1000.28	63.58328
1000.448	42.50359
1000.617	46.71934
1000.786	133.16222
1000.955	40.39575
1001.124	25.64151
1001.292	42.50359
1001.461	17.21104
1001.63	46.71934
1001.798	29.85689
1001.967	25.64151
1002.136	21.42623
1002.304	38.28793
1002.473	4.56604
1002.642	23.53386
1002.81	21.42623
1002.979	-43.89836
1003.147	15.10348
1003.316	40.39575
1003.484	-10.18537
1003.653	-50.21884
1003.821	-1.75614
1003.99	36.18013
1004.158	-50.21884
1004.327	38.28793
1004.495	36.18013
1004.663	63.58328
1004.832	-71.28546
1005	63.58328
1005.168	38.28793
1005.337	-10.18537
1005.505	72.0158
1005.673	55.15113
1005.842	-39.68458
1006.01	12.99594
1006.178	29.85689
1006.346	57.25913
1006.514	-10.18537
1006.683	-3.86348
1006.851	-8.0781
1007.019	72.0158
1007.187	-58.64579
1007.355	6.67348
1007.523	59.36716
1007.691	-50.21884
1007.859	23.53386
1008.027	12.99594
1008.195	59.36716
1008.363	-77.60495
1008.531	0.35123
1008.699	-43.89836
1008.867	15.10348
1009.035	42.50359
1009.203	67.79949
1009.37	21.42623
1009.538	-10.18537
1009.706	67.79949
1009.874	31.96461
1010.042	55.15113
1010.209	10.88843
1010.377	63.58328
1010.545	-8.0781
1010.713	-29.1497
1010.88	38.28793
1011.048	-33.36373
1011.216	-1.75614
1011.383	15.10348
1011.551	55.15113
1011.718	65.69137
1011.886	38.28793
1012.054	40.39575
1012.221	-24.93558
1012.389	53.04315
1012.556	50.93519
1012.724	29.85689
1012.891	-1.75614
1013.058	107.85801
1013.226	-24.93558
1013.393	50.93519
1013.561	147.92445
1013.728	23.53386
1013.895	12.99594
1014.063	-18.61421
1014.23	76.23219
1014.397	23.53386
1014.565	8.78094
1014.732	31.96461
1014.899	31.96461
1015.066	23.53386
1015.233	-8.0781
1015.401	19.31862
1015.568	21.42623
1015.735	59.36716
1015.902	21.42623
1016.069	2.45862
1016.236	-12.29261
1016.403	15.10348
1016.57	57.25913
1016.737	6.67348
1016.904	4.56604
1017.071	40.39575
1017.238	40.39575
1017.405	48.82725
1017.572	-35.47071
1017.739	-54.43236
1017.906	40.39575
1018.073	-27.04265
1018.24	36.18013
1018.407	4.56604
1018.573	55.15113
1018.74	21.42623
1018.907	80.44868
1019.074	4.56604
1019.241	-3.86348
1019.407	-3.86348
1019.574	46.71934
1019.741	-10.18537
1019.907	23.53386
1020.074	19.31862
1020.241	-8.0781
1020.407	-5.9708
1020.574	-37.57766
1020.74	53.04315
1020.907	21.42623
1021.073	44.61145
1021.24	25.64151
1021.406	105.74946
1021.573	-33.36373
1021.739	0.35123
1021.906	19.31862
1022.072	44.61145
1022.239	-3.86348
1022.405	-54.43236
1022.571	-1.75614
1022.738	-10.18537
1022.904	93.09867
1023.07	59.36716
1023.237	0.35123
1023.403	-16.50703
1023.569	15.10348
1023.735	0.35123
1023.902	6.67348
1024.068	63.58328
1024.234	-46.00521
1024.4	-1.75614
1024.566	6.67348
1024.732	-3.86348
1024.898	36.18013
1025.065	27.74919
1025.231	23.53386
1025.397	4.56604
1025.563	38.28793
1025.729	-29.1497
1025.895	53.04315
1026.061	-37.57766
1026.227	29.85689
1026.392	-35.47071
1026.558	31.96461
1026.724	-29.1497
1026.89	31.96461
1027.056	29.85689
1027.222	29.85689
1027.388	-37.57766
1027.553	-37.57766
1027.719	25.64151
1027.885	-31.25673
1028.051	40.39575
1028.216	72.0158
1028.382	-88.13691
1028.548	-1.75614
1028.713	21.42623
1028.879	-1.75614
1029.045	-33.36373
1029.21	57.25913
1029.376	-37.57766
1029.541	31.96461
1029.707	-16.50703
1029.873	-62.85911
1030.038	0.35123
1030.204	8.78094
1030.369	-10.18537
1030.534	-3.86348
1030.7	99.42397
1030.865	-12.29261
1031.031	-10.18537
1031.196	-3.86348
1031.361	-18.61421
1031.527	-52.32561
1031.692	38.28793
1031.857	-37.57766
1032.023	42.50359
1032.188	93.09867
1032.353	55.15113
1032.518	25.64151
1032.684	-27.04265
1032.849	-41.79148
1033.014	34.07236
1033.179	-46.00521
1033.344	-77.60495
1033.509	29.85689
1033.674	29.85689
1033.839	-71.28546
1034.004	15.10348
1034.17	48.82725
1034.335	-3.86348
1034.5	6.67348
1034.664	31.96461
1034.829	-43.89836
1034.994	31.96461
1035.159	6.67348
1035.324	23.53386
1035.489	-8.0781
1035.654	10.88843
1035.819	-62.85911
1035.984	6.67348
1036.148	23.53386
1036.313	12.99594
1036.478	-37.57766
1036.643	38.28793
1036.807	-46.00521
1036.972	-27.04265
1037.137	-16.50703
1037.301	-1.75614
1037.466	-10.18537
1037.631	25.64151
1037.795	-50.21884
1037.96	-20.72135
1038.124	-29.1497
1038.289	34.07236
1038.454	25.64151
1038.618	-16.50703
1038.783	-1.75614
1038.947	-3.86348
1039.111	29.85689
1039.276	-12.29261
1039.44	-20.72135
1039.605	8.78094
1039.769	6.67348
1039.933	-3.86348
1040.098	-24.93558
1040.262	69.90763
1040.426	-1.75614
1040.591	-35.47071
1040.755	48.82725
1040.919	25.64151
1041.083	48.82725
1041.248	-35.47071
1041.412	31.96461
1041.576	2.45862
1041.74	10.88843
1041.904	-46.00521
1042.068	48.82725
1042.232	-29.1497
1042.397	74.12398
1042.561	-71.28546
1042.725	0.35123
1042.889	53.04315
1043.053	12.99594
1043.217	-92.34952
1043.381	34.07236
1043.544	48.82725
1043.708	17.21104
1043.872	-20.72135
1044.036	38.28793
1044.2	38.28793
1044.364	12.99594
1044.528	97.31551
1044.691	23.53386
1044.855	38.28793
1045.019	-12.29261
1045.183	-71.28546
1045.346	-3.86348
1045.51	21.42623
1045.674	-29.1497
1045.837	-16.50703
1046.001	-27.04265
1046.165	-18.61421
1046.328	-96.56202
1046.492	21.42623
1046.655	36.18013
1046.819	-69.17891
1046.983	-37.57766
1047.146	-3.86348
1047.31	0.35123
1047.473	12.99594
1047.636	-24.93558
1047.8	-3.86348
1047.963	25.64151
1048.127	-18.61421
1048.29	-10.18537
