Data from mixed_try1_USB4F045381__30__00134.txt Node

Date: Thu Apr 03 20:01:57 EDT 2025
User: mmckonesweet
Spectrometer: USB4F04538
Trigger mode: 4
Integration Time (sec): 2.700000E-3
Scans to average: 1
Electric dark correction enabled: true
Nonlinearity correction enabled: true
Boxcar width: 0
XAxis mode: Wavelengths
Number of Pixels in Spectrum: 3648
>>>>>Begin Spectral Data<<<<<
345.52	14.75222
345.736	14.75222
345.952	14.75222
346.168	-14.75104
346.384	-63.21022
346.6	-42.14263
346.816	50.58386
347.032	29.5056
347.248	-46.35635
347.464	-33.71489
347.68	-18.9654
347.896	4.2148
348.112	-50.56997
348.328	73.77262
348.544	37.93663
348.76	-12.64382
348.975	8.4297
349.191	-4.2147
349.407	-77.95602
349.623	-16.85823
349.839	-12.64382
350.055	-25.28676
350.27	12.64469
350.486	-16.85823
350.702	-10.53658
350.918	12.64469
351.133	-35.82187
351.349	-86.38163
351.565	29.5056
351.781	-4.2147
351.996	-50.56997
352.212	-16.85823
352.428	-21.07254
352.644	21.07496
352.859	-27.39383
353.075	-37.92881
353.291	-86.38163
353.506	-84.27527
353.722	21.07496
353.938	8.4297
354.153	46.36803
354.369	-23.17966
354.584	-25.28676
354.8	-63.21022
355.016	130.70195
355.231	-63.21022
355.447	59.01582
355.662	27.39791
355.878	-4.2147
356.093	12.64469
356.309	-12.64382
356.524	-4.2147
356.74	12.64469
356.955	-16.85823
357.171	-61.10358
357.386	-77.95602
357.602	31.61332
357.817	-29.50088
358.033	-21.07254
358.248	-0
358.464	-21.07254
358.679	-46.35635
358.895	-16.85823
359.11	-71.63655
359.325	21.07496
359.541	-0
359.756	-48.46317
359.972	-0
360.187	29.5056
360.402	-124.29169
360.618	-10.53658
360.833	-31.6079
361.048	12.64469
361.264	-29.50088
361.479	-46.35635
361.694	-33.71489
361.909	-14.75104
362.125	-61.10358
362.34	12.64469
362.555	-25.28676
362.77	-88.48797
362.986	16.85977
363.201	-4.2147
363.416	-48.46317
363.631	-37.92881
363.847	21.07496
364.062	-50.56997
364.277	-23.17966
364.492	4.2148
364.707	-0
364.922	21.07496
365.138	29.5056
365.353	52.69182
365.568	14.75222
365.783	-56.89021
365.998	-18.9654
366.213	4.2148
366.428	-10.53658
366.643	-48.46317
366.858	-12.64382
367.073	40.04444
367.288	-8.42931
367.503	-21.07254
367.718	40.04444
367.933	-10.53658
368.148	4.2148
368.363	-63.21022
368.578	50.58386
368.793	-12.64382
369.008	67.44814
369.223	16.85977
369.438	-46.35635
369.653	2.10739
369.868	-84.27527
370.083	-0
370.298	2.10739
370.513	-0
370.728	6.32224
370.943	-23.17966
371.157	-21.07254
371.372	-12.64382
371.587	-4.2147
371.802	16.85977
372.017	2.10739
372.232	14.75222
372.446	-10.53658
372.661	-54.78349
372.876	6.32224
373.091	-33.71489
373.306	-4.2147
373.52	2.10739
373.735	-25.28676
373.95	21.07496
374.165	54.79979
374.379	6.32224
374.594	-18.9654
374.809	-10.53658
375.023	-21.07254
375.238	33.72107
375.453	-21.07254
375.667	16.85977
375.882	-25.28676
376.097	-12.64382
376.311	23.18258
376.526	-86.38163
376.741	-25.28676
376.955	-10.53658
377.17	37.93663
377.384	31.61332
377.599	29.5056
377.813	-2.10736
378.028	-80.06246
378.242	-52.67674
378.457	-48.46317
378.672	-18.9654
378.886	-0
379.101	-8.42931
379.315	-21.07254
379.53	25.29023
379.744	-12.64382
379.958	12.64469
380.173	-77.95602
380.387	12.64469
380.602	12.64469
380.816	-25.28676
381.031	-56.89021
381.245	-21.07254
381.459	23.18258
381.674	21.07496
381.888	-31.6079
382.103	31.61332
382.317	25.29023
382.531	-12.64382
382.746	-8.42931
382.96	-6.32202
383.174	23.18258
383.388	37.93663
383.603	-0
383.817	-21.07254
384.031	-18.9654
384.246	-33.71489
384.46	14.75222
384.674	-44.2495
384.888	6.32224
385.103	-12.64382
385.317	27.39791
385.531	-67.42343
385.745	-18.9654
385.959	-69.53
386.174	-96.91306
386.388	-33.71489
386.602	-40.03573
386.816	-54.78349
387.03	-18.9654
387.244	-52.67674
387.458	21.07496
387.672	-42.14263
387.887	4.2148
388.101	-8.42931
388.315	23.18258
388.529	-54.78349
388.743	4.2148
388.957	31.61332
389.171	31.61332
389.385	4.2148
389.599	-29.50088
389.813	18.96735
390.027	-25.28676
390.241	63.23193
390.455	25.29023
390.669	31.61332
390.883	-61.10358
391.097	-21.07254
391.311	23.18258
391.525	46.36803
391.738	-21.07254
391.952	77.98905
392.166	-84.27527
392.38	-27.39383
392.594	29.5056
392.808	25.29023
393.022	-61.10358
393.236	12.64469
393.449	-2.10736
393.663	12.64469
393.877	50.58386
394.091	-21.07254
394.305	4.2148
394.518	-10.53658
394.732	-48.46317
394.946	42.15228
395.16	-4.2147
395.373	-21.07254
395.587	-25.28676
395.801	-4.2147
396.015	21.07496
396.228	12.64469
396.442	14.75222
396.656	-18.9654
396.869	54.79979
397.083	16.85977
397.297	-4.2147
397.51	31.61332
397.724	-12.64382
397.938	-29.50088
398.151	-21.07254
398.365	14.75222
398.578	37.93663
398.792	-44.2495
399.005	-18.9654
399.219	16.85977
399.433	-0
399.646	-27.39383
399.86	-27.39383
400.073	23.18258
400.287	46.36803
400.5	12.64469
400.714	-29.50088
400.927	-0
401.141	-86.38163
401.354	-18.9654
401.567	6.32224
401.781	71.66443
401.994	61.12386
402.208	-37.92881
402.421	21.07496
402.635	40.04444
402.848	-58.9969
403.061	-44.2495
403.275	6.32224
403.488	4.2148
403.701	-4.2147
403.915	-27.39383
404.128	-46.35635
404.341	-42.14263
404.555	-4.2147
404.768	-8.42931
404.981	-2.10736
405.195	-16.85823
405.408	-21.07254
405.621	8.4297
405.834	14.75222
406.048	12.64469
406.261	-2.10736
406.474	-21.07254
406.687	-40.03573
406.9	75.88082
407.114	77.98905
407.327	12.64469
407.54	-54.78349
407.753	-35.82187
407.966	-67.42343
408.179	-21.07254
408.392	-33.71489
408.605	27.39791
408.819	-35.82187
409.032	82.20557
409.245	-52.67674
409.458	-16.85823
409.671	-29.50088
409.884	-4.2147
410.097	-35.82187
410.31	-18.9654
410.523	-31.6079
410.736	-8.42931
410.949	-21.07254
411.162	50.58386
411.375	-4.2147
411.588	80.0973
411.801	21.07496
412.014	-50.56997
412.227	8.4297
412.44	-4.2147
412.653	-12.64382
412.865	37.93663
413.078	25.29023
413.291	56.90779
413.504	-52.67674
413.717	4.2148
413.93	8.4297
414.143	10.53718
414.356	-69.53
414.568	-58.9969
414.781	2.10739
414.994	-12.64382
415.207	-4.2147
415.42	46.36803
415.632	-101.12544
415.845	-48.46317
416.058	-8.42931
416.271	-44.2495
416.483	-50.56997
416.696	-31.6079
416.909	-42.14263
417.121	12.64469
417.334	-25.28676
417.547	12.64469
417.759	12.64469
417.972	65.34002
418.185	12.64469
418.397	31.61332
418.61	16.85977
418.823	46.36803
419.035	37.93663
419.248	50.58386
419.46	21.07496
419.673	29.5056
419.885	-52.67674
420.098	77.98905
420.311	-10.53658
420.523	56.90779
420.736	71.66443
420.948	-0
421.161	50.58386
421.373	25.29023
421.586	-12.64382
421.798	-16.85823
422.01	-54.78349
422.223	-23.17966
422.435	42.15228
422.648	-12.64382
422.86	8.4297
423.073	-18.9654
423.285	6.32224
423.497	2.10739
423.71	27.39791
423.922	-6.32202
424.134	42.15228
424.347	88.53052
424.559	-25.28676
424.771	31.61332
424.984	14.75222
425.196	-4.2147
425.408	25.29023
425.621	-42.14263
425.833	31.61332
426.045	-54.78349
426.257	42.15228
426.47	12.64469
426.682	-46.35635
426.894	31.61332
427.106	-50.56997
427.318	54.79979
427.531	16.85977
427.743	25.29023
427.955	14.75222
428.167	25.29023
428.379	12.64469
428.591	-0
428.804	-58.9969
429.016	12.64469
429.228	21.07496
429.44	21.07496
429.652	-4.2147
429.864	18.96735
430.076	-16.85823
430.288	-21.07254
430.5	-25.28676
430.712	54.79979
430.924	-37.92881
431.136	-40.03573
431.348	42.15228
431.56	-8.42931
431.772	-58.9969
431.984	29.5056
432.196	25.29023
432.408	29.5056
432.62	4.2148
432.832	8.4297
433.044	105.39804
433.256	-21.07254
433.468	-4.2147
433.679	16.85977
433.891	-25.28676
434.103	54.79979
434.315	-54.78349
434.527	33.72107
434.739	-40.03573
434.95	65.34002
435.162	48.47593
435.374	10.53718
435.586	92.74727
435.798	12.64469
436.009	4.2148
436.221	-46.35635
436.433	-0
436.645	-35.82187
436.856	-2.10736
437.068	105.39804
437.28	54.79979
437.491	-10.53658
437.703	-27.39383
437.915	-18.9654
438.126	-0
438.338	40.04444
438.55	63.23193
438.761	-29.50088
438.973	21.07496
439.184	-46.35635
439.396	14.75222
439.608	42.15228
439.819	4.2148
440.031	21.07496
440.242	21.07496
440.454	-27.39383
440.665	4.2148
440.877	-18.9654
441.088	52.69182
441.3	63.23193
441.511	63.23193
441.723	46.36803
441.934	56.90779
442.146	16.85977
442.357	-63.21022
442.569	29.5056
442.78	-23.17966
442.991	-37.92881
443.203	12.64469
443.414	-29.50088
443.626	-29.50088
443.837	12.64469
444.048	-12.64382
444.26	14.75222
444.471	48.47593
444.682	-48.46317
444.894	84.31387
445.105	-0
445.316	33.72107
445.528	46.36803
445.739	84.31387
445.95	40.04444
446.161	-4.2147
446.373	63.23193
446.584	42.15228
446.795	-16.85823
447.006	-8.42931
447.217	12.64469
447.429	-44.2495
447.64	-12.64382
447.851	-8.42931
448.062	33.72107
448.273	48.47593
448.484	-4.2147
448.695	-29.50088
448.907	-12.64382
449.118	63.23193
449.329	-14.75104
449.54	54.79979
449.751	29.5056
449.962	59.01582
450.173	4.2148
450.384	59.01582
450.595	31.61332
450.806	-2.10736
451.017	80.0973
451.228	29.5056
451.439	77.98905
451.65	48.47593
451.861	-4.2147
452.072	-0
452.283	80.0973
452.494	-12.64382
452.705	29.5056
452.915	-0
453.126	4.2148
453.337	92.74727
453.548	14.75222
453.759	40.04444
453.97	59.01582
454.181	8.4297
454.391	25.29023
454.602	69.55627
454.813	37.93663
455.024	37.93663
455.235	113.83233
455.445	-4.2147
455.656	46.36803
455.867	46.36803
456.078	40.04444
456.288	48.47593
456.499	88.53052
456.71	-40.03573
456.921	48.47593
457.131	90.63889
457.342	77.98905
457.553	92.74727
457.763	37.93663
457.974	75.88082
458.184	52.69182
458.395	-4.2147
458.606	84.31387
458.816	59.01582
459.027	23.18258
459.237	18.96735
459.448	14.75222
459.659	25.29023
459.869	82.20557
460.08	80.0973
460.29	67.44814
460.501	23.18258
460.711	63.23193
460.922	84.31387
461.132	105.39804
461.343	71.66443
461.553	67.44814
461.764	25.29023
461.974	77.98905
462.184	118.04961
462.395	99.07256
462.605	67.44814
462.816	-0
463.026	29.5056
463.236	54.79979
463.447	-4.2147
463.657	147.57295
463.867	107.50658
464.078	71.66443
464.288	73.77262
464.498	92.74727
464.709	59.01582
464.919	122.26697
465.129	118.04961
465.339	96.96411
465.55	96.96411
465.76	139.13728
465.97	54.79979
466.18	126.48442
466.391	99.07256
466.601	168.6636
466.811	130.70195
467.021	130.70195
467.231	115.94096
467.441	65.34002
467.651	166.55444
467.862	132.81075
468.072	139.13728
468.282	240.38709
468.492	160.22709
468.702	206.63197
468.912	126.48442
469.122	181.31899
469.332	156.00896
469.542	164.4453
469.752	246.71673
469.962	134.91958
470.172	191.86571
470.382	236.16742
470.592	105.39804
470.802	200.30345
471.012	177.10045
471.222	141.24617
471.432	177.10045
471.642	196.08454
471.852	223.5089
472.062	172.88198
472.272	206.63197
472.482	174.9912
472.691	265.70668
472.901	200.30345
473.111	244.60683
473.321	316.35397
473.531	364.90064
473.741	278.36751
473.95	324.7962
474.16	210.85109
474.37	426.12445
474.58	324.7962
474.79	375.45547
474.999	373.34447
475.209	324.7962
475.419	388.12183
475.628	447.23925
475.838	392.34408
476.048	373.34447
476.258	409.23374
476.467	426.12445
476.677	462.02054
476.886	516.92892
477.096	523.26513
477.306	493.69724
477.515	443.01617
477.725	552.83581
477.935	538.05013
478.144	493.69724
478.354	561.28507
478.563	721.85944
478.773	607.75981
478.982	662.69239
479.192	595.08425
479.401	738.76589
479.611	595.08425
479.82	732.42589
480.03	582.40916
480.239	713.40647
480.449	679.59635
480.658	861.3567
480.868	709.18005
481.077	992.4336
481.287	808.51194
481.496	1009.34873
481.705	941.69077
481.915	1051.63825
482.124	979.74753
482.333	1043.18016
482.543	1051.63825
482.752	1093.93002
482.961	1106.61795
483.171	1191.20821
483.38	1144.68274
483.589	1165.83045
483.799	1220.81625
484.008	1356.17389
484.217	1165.83045
484.426	1373.09412
484.636	1362.51897
484.845	1474.61638
485.054	1330.79371
485.263	1415.39495
485.472	1390.01441
485.682	1502.11201
485.891	1631.12754
486.1	1476.73143
486.309	1417.50999
486.518	1605.74791
486.727	1590.943
486.936	1891.24225
487.146	1749.5608
487.355	1908.158
487.564	1679.77088
487.773	1798.19994
487.982	1798.19994
488.191	1967.36026
488.4	1977.9316
488.609	1999.07382
488.818	1863.75345
489.027	2045.58438
489.236	2117.45765
489.445	2328.795
489.654	2117.45765
489.863	2284.42157
490.072	2178.75433
490.281	2339.35948
490.49	2328.795
490.698	2493.57154
490.907	2506.24394
491.116	2554.81766
491.325	2466.11329
491.534	2533.6994
491.743	2502.01985
491.952	2510.46799
492.16	2550.5941
492.369	2727.94142
492.578	2563.26463
492.787	2759.60109
492.996	2525.25178
493.204	2837.68193
493.413	2797.58871
493.622	2911.52454
493.831	2812.36047
494.039	3048.61307
494.248	2704.72244
494.457	2896.75743
494.665	2951.60312
494.874	3065.48106
495.083	2972.69496
495.291	3183.52859
495.5	2919.96258
495.709	3217.24713
495.917	3107.64664
496.126	3240.42616
496.335	3124.5111
496.543	3438.41727
496.752	3305.73794
496.96	3429.99526
497.169	3324.69636
497.377	3472.10242
497.586	3240.42616
497.794	3421.57297
498.003	3341.54712
498.211	3434.2063
498.42	3305.73794
498.628	3682.52815
498.837	3442.62816
499.045	3829.71305
499.254	3488.94327
499.462	3823.40709
499.671	3674.11472
499.879	3905.3706
500.087	3756.13251
500.296	3997.80552
500.504	3972.59989
500.713	3924.28093
500.921	3972.59989
501.129	4006.20674
501.338	3810.79464
501.546	4062.90637
501.754	3901.16808
501.962	4237.11006
502.171	3947.39134
502.379	4308.42845
502.587	3997.80552
502.795	4348.27201
503.004	4125.88825
503.212	4293.74728
503.42	4195.14654
503.628	4392.30054
503.837	4155.27336
504.045	4534.80294
504.253	4438.41537
504.461	4350.36883
504.669	4455.18177
504.877	4484.51959
505.085	4325.20564
505.294	4639.51884
505.502	4331.49673
505.71	4765.10395
505.918	4631.14362
506.126	4744.17874
506.334	4492.90103
506.542	4819.49887
506.75	4480.32873
506.958	4955.4187
507.166	4670.92272
507.374	4894.7895
507.582	4622.76805
507.79	4698.13532
507.998	5162.24808
508.206	5103.77391
508.414	4723.25127
508.622	5066.17376
508.83	5007.66973
509.037	5053.6387
509.245	4786.02689
509.453	5128.8365
509.661	5039.01343
509.869	5116.30562
510.077	5076.619
510.285	5237.40234
510.492	5220.704
510.7	5329.21643
510.908	5160.16003
511.116	5145.54303
511.324	5308.35357
511.531	5304.18072
511.739	5118.39416
511.947	5395.96184
512.155	5239.48952
512.362	5362.59214
512.57	5398.04725
512.778	5541.88353
512.985	5370.93513
513.193	5320.87157
513.401	5385.53445
513.608	5681.44333
513.816	5523.12863
514.024	5721.00072
514.231	5433.49557
514.439	5579.38761
514.646	5446.00512
514.854	5733.49076
515.061	5860.42457
515.269	5978.9555
515.477	5458.51382
515.684	5899.94339
515.892	5516.87657
516.099	5762.63087
516.307	5637.7121
516.514	5956.08707
516.722	6082.86695
516.929	5877.06511
517.136	5972.71894
517.344	5999.7425
517.551	5706.42794
517.759	6057.93357
517.966	6103.64218
518.173	6114.02891
518.381	5906.18243
518.588	6236.54802
518.796	5845.86285
519.003	6089.09977
519.21	6195.02527
519.418	6259.38153
519.625	6273.91048
519.832	6340.31391
520.039	6201.25428
520.247	6186.7196
520.454	6329.93995
520.661	6613.97604
520.868	6327.86509
521.076	6568.39374
521.283	6448.16851
521.49	6605.68918
521.697	6437.80062
521.904	6758.93651
522.112	6520.72755
522.319	6732.02378
522.526	6414.98919
522.733	6785.84537
522.94	6688.5412
523.147	6727.88302
523.354	6537.30848
523.561	6841.72068
523.768	6740.30503
523.975	7160.10169
524.183	6711.31905
524.39	7100.18751
524.597	7145.64136
524.804	7007.18
525.011	7077.45653
525.218	7164.23302
525.425	6961.69311
525.632	7021.65082
525.838	7077.45653
526.045	7104.32012
526.252	7193.14979
526.459	7490.32932
526.666	6992.70808
526.873	7438.76809
527.08	7189.01909
527.287	7758.23206
527.494	7263.35818
527.701	7525.38326
527.907	7449.08142
528.114	7407.82485
528.321	7469.70645
528.528	7537.75375
528.735	7224.12723
528.941	7752.05373
529.148	7451.14402
529.355	7712.91987
529.562	7395.44619
529.768	7731.4579
529.975	7387.19331
530.182	7659.35593
530.388	7449.08142
530.595	7869.41001
530.802	7667.59747
531.008	8083.3612
531.215	7830.29877
531.422	7844.70905
531.628	7686.13969
531.835	7725.27875
532.042	7922.91857
532.248	8132.70338
532.455	7918.80302
532.661	8301.20259
532.868	7957.89741
533.074	8260.11747
533.281	8050.45997
533.487	8101.86588
533.694	8124.48049
533.9	8321.74221
534.107	8054.57291
534.313	8342.27987
534.52	8317.63444
534.726	8508.56374
534.933	8128.59197
535.139	8527.03198
535.345	8621.40131
535.552	8434.67537
535.758	8321.74221
535.965	8728.03213
536.171	8479.83232
536.377	8678.82412
536.584	8596.78705
536.79	8662.41909
536.996	8537.29145
537.203	8781.32886
537.409	8584.47892
537.615	8662.41909
537.821	8832.56412
538.028	8881.73934
538.234	8769.03071
538.44	8928.85592
538.646	8826.41648
538.853	8935.00087
539.059	8656.2669
539.265	9064.0081
539.471	8961.62713
539.677	9162.25302
539.883	9160.20665
540.09	9096.76082
540.296	9207.26877
540.502	9327.95259
540.708	8904.27454
540.914	9248.18507
541.12	9307.50179
541.326	9246.13941
541.532	9370.8939
541.738	9518.06669
541.944	9174.53086
542.15	9432.22609
542.356	9422.00507
542.562	9550.76045
542.768	9587.53609
542.974	9728.46257
543.18	9464.93061
543.386	9969.30013
543.592	9656.98734
543.798	9687.62189
544.004	9714.16903
544.21	9852.98918
544.415	9628.39195
544.621	9910.13034
544.827	9624.30665
545.033	10038.65612
545.239	9734.58814
545.445	10057.01228
545.651	9785.62928
545.856	9901.96802
546.062	9908.08978
546.268	9942.77725
546.474	9887.68341
546.679	9818.29066
546.885	9883.60195
547.091	10073.32792
547.297	9824.41424
547.502	10216.05146
547.708	10071.28851
547.914	10211.97459
548.119	9867.27556
548.325	10003.9802
548.531	10193.62797
548.736	10322.03118
548.942	10146.7371
549.147	10040.69575
549.353	10032.53714
549.559	10590.89698
549.764	10527.7743
549.97	10287.38797
550.175	10358.70802
550.381	10723.21241
550.586	10544.06518
550.792	10662.15017
550.997	10427.97487
551.203	10767.98451
551.408	10582.7528
551.614	10639.75793
551.819	10735.42355
552.025	10798.50764
552.23	10548.13778
552.435	11095.46464
552.641	10574.60841
552.846	11014.13031
553.052	10698.78882
553.257	11241.82316
553.462	10949.05013
553.668	11144.25691
553.873	11042.59932
554.078	11117.82853
554.283	10869.71804
554.489	11199.1409
554.694	11091.39833
554.899	11178.81439
555.105	11008.02953
555.31	11160.51963
555.515	11136.12529
555.72	11241.82316
555.925	11079.19917
556.131	11556.72204
556.336	10993.79398
556.541	11473.44898
556.746	11306.85406
556.951	11696.82936
557.156	11132.05942
557.361	11497.82323
557.567	11560.78373
557.772	11436.88501
557.977	11343.42938
558.182	11491.72979
558.387	11424.69632
558.592	11725.2517
558.797	11503.91658
559.002	11579.06091
559.207	11536.413
559.412	11449.07334
559.617	11400.31789
559.822	11595.30665
560.027	11686.6781
560.232	11721.19147
560.437	11542.50581
560.642	11611.55181
560.847	11639.97943
561.051	12054.0179
561.256	11826.74612
561.461	12293.35956
561.666	11899.80894
561.871	12200.06912
562.076	11930.24861
562.281	11970.83198
562.485	11853.13117
562.69	12127.04841
562.895	12025.61445
563.1	12045.90279
563.305	11788.18078
563.509	11830.80545
563.714	11891.69138
563.919	12086.47713
564.123	11999.23843
564.328	12088.50577
564.533	12078.36251
564.737	12064.16163
564.942	12102.70601
565.147	12309.58245
565.351	12260.91244
565.556	12021.55668
565.761	12348.11001
565.965	12333.91593
566.17	12088.50577
566.374	12266.99641
566.579	12394.7453
566.784	12309.58245
566.988	12348.11001
567.193	12530.57584
567.397	12078.36251
567.602	12406.91044
567.806	12400.8279
568.011	12672.45788
568.215	12558.95468
568.42	12538.68421
568.624	12246.71625
568.828	12457.59593
569.033	12382.57992
569.237	12751.49368
569.442	12751.49368
569.646	12633.95001
569.85	12528.54873
570.055	12962.21415
570.259	12747.44077
570.463	12779.86336
570.668	12666.37784
570.872	12715.01672
571.076	12402.85542
571.281	12700.83073
571.485	12820.38956
571.689	13016.91109
571.893	12915.61751
572.098	13122.24321
572.302	12897.38329
572.506	13134.39608
572.71	12941.95508
572.914	13310.59449
573.119	12885.2269
573.323	13029.06547
573.527	13039.19398
573.731	13037.16829
573.935	13008.80807
574.139	13061.47628
574.343	13114.1412
574.547	13110.09016
574.751	13255.91578
574.955	13296.41882
575.159	13195.15796
575.364	13249.84018
575.568	13249.84018
575.772	13345.02024
575.976	13158.70133
576.18	13565.72304
576.383	13379.44482
576.587	13581.91968
576.791	13436.1416
576.995	13527.25512
577.199	13302.49413
577.403	13268.06688
577.607	13474.61268
577.811	13602.16516
578.015	13381.46975
578.219	13549.52618
578.422	13353.12025
578.626	13620.3858
578.83	13727.67967
579.034	13626.45929
579.238	13984.74574
579.442	14132.48923
579.645	13895.68856
579.849	13861.27871
580.053	14067.72648
580.257	13780.31114
580.46	13871.39934
580.664	13606.21422
580.868	13802.57769
581.071	14092.01278
581.275	13907.83302
581.479	14187.13107
581.682	13666.94842
581.886	14063.67874
582.09	13998.91348
582.293	14104.15581
582.497	13745.89849
582.7	14096.06047
582.904	14098.0843
583.107	14191.17855
583.311	14130.46543
583.515	14170.94105
583.718	13928.07358
583.922	14083.91739
584.125	14031.29641
584.329	14282.24487
584.532	14444.13174
584.735	14282.24487
584.939	14055.58321
585.142	14231.65295
585.346	14174.98857
585.549	14429.96705
585.753	14593.86874
585.956	14387.47251
586.159	14336.88287
586.363	14496.74286
586.566	14662.66463
586.769	14601.96244
586.973	14381.40181
587.176	14652.54767
587.379	14510.90723
587.582	14668.7348
587.786	14197.24976
587.989	15085.53798
588.192	14431.99058
588.395	14737.52945
588.599	14423.89644
588.802	14751.69293
589.005	14589.82188
589.208	14769.90306
589.411	14739.55281
589.615	14739.55281
589.818	14899.3957
590.021	14962.11789
590.224	15047.09576
590.427	15136.11978
590.63	15002.58361
590.833	15030.90954
591.036	14960.0946
591.239	15251.44625
591.442	14751.69293
591.645	14889.27918
591.848	15039.00265
592.051	15318.2144
592.254	15047.09576
592.457	15300.00488
592.66	15006.63017
592.863	15552.91787
593.066	15605.5249
593.269	15558.98788
593.472	15300.00488
593.675	15842.26392
593.878	15261.56262
594.081	15694.55342
594.284	15512.45124
594.486	15817.98235
594.689	15795.72439
594.892	15387.00615
595.095	15745.13859
595.298	15597.43148
595.5	15601.47819
595.703	15902.9686
595.906	15389.02945
596.109	15625.75851
596.311	15668.24937
596.514	15965.69795
596.717	15696.57682
596.92	15854.40477
597.122	15753.23227
597.325	15682.41307
597.528	15654.08571
597.73	15828.09965
597.933	15674.31952
598.136	16000.09846
598.338	15676.3429
598.541	16024.38142
598.743	15977.83926
598.946	15937.36841
599.148	15983.90994
599.351	15917.13318
599.554	15848.33434
599.756	16046.64099
599.959	15994.02776
600.161	16016.28708
600.363	16340.08064
600.566	16522.23502
600.768	16190.3208
600.971	16323.88991
601.173	16404.84478
601.376	16196.39196
601.578	16161.98893
601.78	16542.47542
601.983	16287.4612
602.185	16273.29463
602.388	16410.91652
602.59	16548.54758
602.792	16455.44318
602.995	16437.22761
603.197	16186.27337
603.399	16591.05327
603.601	16218.653
603.804	16465.56301
604.006	16475.68289
604.208	16386.62967
604.41	16275.31842
604.613	16564.74011
604.815	16433.17973
605.017	16763.11033
605.219	16297.58022
605.421	16459.4911
605.623	16520.21099
605.826	16888.62172
606.028	16625.46336
606.23	16692.26127
606.432	16414.96436
606.634	17220.66848
606.836	16712.50356
607.038	16736.79463
607.24	16506.04285
607.442	16629.51165
607.644	16726.67331
607.846	16973.65113
608.048	16722.6248
608.25	16900.7685
608.452	16888.62172
608.654	17145.74898
608.856	16597.1256
609.058	16676.06761
609.26	16674.04341
609.462	16769.18324
609.664	16844.08432
609.866	16846.10872
610.067	16704.40662
610.269	16977.70027
610.471	16870.40173
610.673	17034.38929
610.875	16872.42616
611.077	17240.91768
611.278	16625.46336
611.48	16799.54814
611.682	16655.82574
611.884	16993.89691
612.085	16556.64383
612.287	16947.33201
612.489	16831.93797
612.69	17348.24336
612.892	17026.29073
613.094	17038.43858
613.295	16647.72905
613.497	16969.60201
613.699	16963.52834
613.9	17461.65334
614.102	17024.26609
614.304	17242.94261
614.505	16795.49945
614.707	17131.57545
614.908	16769.18324
615.11	16878.49948
615.311	16838.01113
615.513	16977.70027
615.714	17244.96755
615.916	17168.02193
616.117	17180.17096
616.319	17449.5018
616.52	17131.57545
616.722	17172.0716
616.923	17115.37731
617.124	16979.72484
617.326	16787.40211
617.527	17074.88275
617.729	17020.21683
617.93	16993.89691
618.131	16811.69425
618.333	17344.19318
618.534	17109.30306
618.735	17352.29355
618.937	17157.89782
619.138	17186.24552
619.339	17020.21683
619.54	17279.39196
619.742	17212.56889
619.943	17224.7183
620.144	17095.12989
620.345	17431.27471
620.546	17155.873
620.748	17465.70387
620.949	17125.50113
621.15	17080.95686
621.351	17279.39196
621.552	17226.74321
621.753	17471.7797
621.954	17457.60281
622.155	16884.57281
622.356	17216.61868
622.558	17305.71709
622.759	17826.25351
622.96	17297.61699
623.161	17338.11793
623.362	17354.31865
623.563	17433.29993
623.764	17364.44419
623.965	17787.76284
624.166	17755.35061
624.366	17257.11725
624.567	17396.84645
624.768	17394.82129
624.969	17020.21683
625.17	17342.16809
625.371	17143.72418
625.572	17244.96755
625.773	17536.5903
625.973	17415.07307
626.174	17279.39196
626.375	17812.07259
626.576	17579.12404
626.777	17591.2768
626.977	17536.5903
627.178	17550.76806
627.379	17352.29355
627.58	17487.98205
627.78	17712.81086
627.981	17627.73577
628.182	17674.32379
628.382	17856.64174
628.583	17615.58266
628.784	17356.34375
628.984	17032.36464
629.185	17562.92055
629.386	17504.1846
629.586	17836.38283
629.787	17554.81887
629.987	17678.375
630.188	17625.71025
630.388	17789.78864
630.589	17429.2495
630.79	17710.78519
630.99	17763.45359
631.191	18061.27635
631.391	17789.78864
631.591	17546.71726
631.792	17617.60817
631.992	17726.99061
632.193	17773.58238
632.393	18028.85658
632.594	17933.62877
632.794	17994.41157
632.994	17686.47747
633.195	18237.57508
633.395	17915.39454
633.595	17755.35061
633.796	17733.0677
633.996	18030.88279
634.196	17791.81443
634.397	18395.65981
634.597	17749.27341
634.797	18004.54235
634.997	17840.43459
635.198	18038.98766
635.398	18251.76124
635.598	18397.68668
635.798	18209.2033
635.998	18265.94759
636.199	18043.04011
636.399	18320.66806
636.599	18156.51476
636.799	18047.09258
636.999	17990.35929
637.199	17907.29054
637.399	17700.65692
637.599	17808.02093
637.799	17743.19624
637.999	17953.88935
638.199	17862.71948
638.399	17923.49861
638.599	18115.9868
638.799	18367.28394
638.999	18490.92708
639.199	18314.58787
639.399	18168.67343
639.599	18470.65674
639.799	17842.46047
639.999	18111.93408
640.199	18053.17132
640.399	18488.90003
640.599	17425.19907
640.799	18521.33331
640.998	18267.97422
641.198	18152.4619
641.398	18249.73464
641.598	18715.95384
641.798	18361.2035
641.997	18312.56115
642.197	18038.98766
642.397	18174.75282
642.597	18407.82112
642.796	18608.50265
642.996	18272.02751
643.196	18535.52318
643.395	18192.99118
643.595	18746.36655
643.795	18324.72153
643.994	18464.57572
644.194	18294.32083
644.394	18661.21318
644.593	18162.59408
644.793	18452.41376
644.992	18302.4276
645.192	18298.3742
645.392	18391.60607
645.591	18616.61179
645.791	18551.74041
645.99	18671.35012
646.19	18691.6243
646.389	18744.33901
646.589	18582.14837
646.788	18734.20136
646.987	18594.3118
647.187	18614.5845
647.386	18430.11721
647.586	18855.85971
647.785	18584.1756
647.984	18699.73408
648.184	18882.22091
648.383	18870.05412
648.582	18594.3118
648.782	18868.02634
648.981	18730.14633
649.18	18438.225
649.38	18679.45975
649.579	18572.01229
649.778	18683.51458
649.977	18957.25265
650.177	18975.50444
650.376	18918.72215
650.575	18659.1858
650.774	19103.27619
650.973	19078.93747
651.173	18793.00111
651.372	18764.61461
651.571	18892.36001
651.77	18805.16699
651.969	18665.26794
652.168	18391.60607
652.367	18890.33219
652.566	18701.76154
652.765	19162.09718
652.964	18914.66639
653.163	18878.1653
653.362	18979.56044
653.561	18693.65174
653.76	18959.28061
653.959	19277.72088
654.158	19352.78202
654.357	19433.93557
654.556	18853.83196
654.755	18943.05703
654.954	18831.5269
655.153	18778.80776
655.352	19511.03759
655.551	19373.06979
655.749	19275.69228
655.948	19328.43725
656.147	19403.50221
656.346	19399.4445
656.545	18995.7846
656.743	19233.09261
656.942	19040.40237
657.141	19417.70433
657.34	19511.03759
657.538	19080.96567
657.737	19044.45862
657.936	19358.86831
658.135	19184.40949
658.333	19192.52318
658.532	19350.75327
658.731	19103.27619
658.929	18930.88952
659.128	19162.09718
659.326	19293.94984
659.525	19456.25396
659.724	19468.42783
659.922	19433.93557
660.121	19133.70041
660.319	19186.4379
660.518	18943.05703
660.716	18742.31147
660.915	18957.25265
661.113	19490.747
661.312	18790.97348
661.51	19190.49475
661.709	19237.14964
661.907	19413.64656
662.105	19336.55211
662.304	19521.18304
662.502	19494.80508
662.701	19655.11275
662.899	19391.32913
663.097	19535.38684
663.296	19577.99948
663.494	19691.64219
663.692	19444.08023
663.891	19358.86831
664.089	19133.70041
664.287	19389.3003
664.485	19210.77922
664.684	19567.85345
664.882	19525.24125
665.08	19565.82425
665.278	19285.83533
665.476	19488.71796
665.675	19241.20669
665.873	19166.15392
666.071	18910.61065
666.269	19421.76211
666.467	19082.99388
666.665	19194.55161
666.863	18991.72854
667.061	19298.00712
667.259	18971.44846
667.457	19371.04099
667.655	19166.15392
667.853	19421.76211
668.051	19020.12132
668.249	19298.00712
668.447	19298.00712
668.645	19235.12112
668.843	19229.03559
669.041	19198.60849
669.239	18979.56044
669.437	18945.08497
669.635	19202.66538
669.833	19275.69228
670.031	19099.21969
670.229	19099.21969
670.426	19022.14941
670.624	19196.58004
670.822	19093.13498
671.02	19478.57285
671.218	19732.23205
671.415	19326.40855
671.613	19188.46632
671.811	19040.40237
672.009	19462.34088
672.206	19373.06979
672.404	19444.08023
672.602	19464.36986
672.799	19312.20773
672.997	19352.78202
673.195	18855.85971
673.392	18945.08497
673.59	19214.83616
673.788	19129.64379
673.985	18841.6655
674.183	19194.55161
674.38	19026.20559
674.578	19036.34612
674.775	19036.34612
674.973	19216.86464
675.17	18934.94534
675.368	18991.72854
675.565	19222.9501
675.763	19267.57792
675.96	19233.09261
676.158	19320.32246
676.355	18724.06381
676.553	19153.98373
676.75	18679.45975
676.947	19291.92121
677.145	18985.64447
677.342	18815.30534
677.539	18902.49922
677.737	18559.84911
677.934	18511.19781
678.131	19016.06516
678.329	18955.22469
678.526	19097.19145
678.723	18930.88952
678.92	19413.64656
679.118	19640.90722
679.315	19324.37985
679.512	18888.30436
679.709	19322.35115
679.906	18843.69323
680.104	19135.72872
680.301	18906.55493
680.498	18924.80582
680.695	18760.55946
680.892	18874.1097
681.089	18821.38839
681.286	18770.69737
681.483	18586.20283
681.68	18882.22091
681.877	18916.69427
682.075	19182.38107
682.272	19020.12132
682.469	19421.76211
682.665	18697.70663
682.862	18620.66638
683.059	18811.24999
683.256	18711.89887
683.453	18801.11168
683.65	18825.44378
683.847	18825.44378
684.044	18334.85529
684.241	18563.90349
684.438	18687.56943
684.635	18683.51458
684.831	18774.75256
685.028	18578.09393
685.225	18784.8906
685.422	18320.66806
685.619	18752.4492
685.815	18322.69479
686.012	18762.58703
686.209	18213.25637
686.405	18770.69737
686.602	18638.91225
686.799	18470.65674
686.996	18555.79475
687.192	18087.61809
687.389	18270.00086
687.586	18379.44494
687.782	18369.31077
687.979	18338.90882
688.175	18513.2249
688.372	18456.46773
688.568	18486.87298
688.765	18330.80178
688.962	18521.33331
689.158	18807.19466
689.355	18632.83026
689.551	18632.83026
689.748	18567.95788
689.944	18415.92873
690.14	18464.57572
690.337	18399.71356
690.533	18233.52193
690.73	18825.44378
690.926	18213.25637
691.123	18302.4276
691.319	18259.8677
691.515	18415.92873
691.712	18140.3034
691.908	17949.83721
692.104	18140.3034
692.301	18415.92873
692.497	18091.67072
692.693	18551.74041
692.889	18501.0624
693.086	17957.94151
693.282	18182.85872
693.478	18095.72336
693.674	18142.32981
693.87	18482.8189
694.067	18371.33759
694.263	18296.34751
694.459	18223.3891
694.655	18207.17677
694.851	18274.05415
695.047	18342.96236
695.243	18440.25195
695.439	18229.46878
695.635	17992.38543
695.831	18146.38263
696.027	18097.74969
696.224	18221.36255
696.42	18130.17142
696.615	17966.04587
696.811	18267.97422
697.007	18103.82869
697.203	18207.17677
697.399	18006.56852
697.595	17560.89512
697.791	17899.18658
697.987	17745.22196
698.183	17876.901
698.379	17814.09843
698.575	18075.46029
698.77	17779.6597
698.966	17870.82319
699.162	17599.3787
699.358	17864.7454
699.554	17680.40061
699.749	18328.77502
699.945	17755.35061
700.141	17992.38543
700.337	17745.22196
700.532	17868.79726
700.728	17992.38543
700.924	17931.60273
701.119	17729.0163
701.315	17514.31129
701.511	17380.64522
701.706	17824.22765
701.902	17641.91455
702.097	17585.2004
702.293	17731.042
702.489	17917.42056
702.684	17761.42784
702.88	17700.65692
703.075	17546.71726
703.271	17435.32515
703.466	17406.97232
703.662	17692.55436
703.857	17212.56889
704.053	17872.84912
704.248	17281.41695
704.443	17660.14464
704.639	17874.87506
704.834	17702.68257
705.03	17585.2004
705.225	17775.60815
705.42	17840.43459
705.616	17941.73296
705.811	17803.96929
706.006	17818.15011
706.202	17546.71726
706.397	17801.94347
706.592	17874.87506
706.787	17789.78864
706.983	17702.68257
707.178	17915.39454
707.373	17621.6592
707.568	17524.43807
707.763	16979.72484
707.959	17556.84429
708.154	17508.23527
708.349	17348.24336
708.544	17550.76806
708.739	17899.18658
708.934	17698.63127
709.129	17718.88788
709.324	17060.70991
709.519	17447.47656
709.714	17249.01744
709.909	17747.24768
710.104	17313.81723
710.299	17585.2004
710.494	17479.88085
710.689	17411.02269
710.884	17698.63127
711.079	17708.75953
711.274	17617.60817
711.469	17905.26454
711.664	17439.37561
711.859	17629.7613
712.054	17471.7797
712.249	17473.80498
712.443	17255.09229
712.638	17554.81887
712.833	17036.41393
713.028	17198.3947
713.223	17072.85805
713.417	16894.6951
713.612	16886.59727
713.807	17111.32781
714.002	17016.16759
714.196	17204.46934
714.391	17313.81723
714.586	17350.26845
714.78	17496.0833
714.975	17277.36697
715.17	17074.88275
715.364	17230.79304
715.559	17295.59198
715.754	17246.99249
715.948	16955.43015
716.143	16868.3773
716.337	16708.45509
716.532	17439.37561
716.726	17022.24146
716.921	17190.29524
717.115	16734.77036
717.31	17222.69339
717.504	17103.22883
717.699	17366.46931
717.893	17163.97228
718.088	17184.22066
718.282	17230.79304
718.476	16933.16036
718.671	16809.66989
718.865	17117.40207
719.059	16965.55289
719.254	16953.40561
719.448	16530.33115
719.642	16722.6248
719.837	16196.39196
720.031	16617.36681
720.225	16334.0091
720.419	16493.89881
720.614	16372.46246
720.808	16763.11033
721.002	16344.12834
721.196	16702.38239
721.39	16226.74798
721.585	16410.91652
721.779	16143.77576
721.973	16485.80282
722.167	16485.80282
722.361	16649.75322
722.555	16396.74916
722.749	16431.15579
722.943	16321.86607
723.137	16291.5088
723.331	16605.22205
723.525	16481.75484
723.719	16344.12834
723.913	16710.47932
724.107	16684.16442
724.301	16607.24617
724.495	16109.37345
724.689	16000.09846
724.883	15892.85108
725.077	16155.91786
725.271	16087.11338
725.465	16068.90073
725.659	15787.63062
725.853	16315.79458
726.046	16236.86674
726.24	15807.86508
726.434	15840.24045
726.628	16487.82681
726.822	16024.38142
727.015	16435.20367
727.209	15850.35782
727.403	16139.7284
727.596	16062.82987
727.79	16119.49173
727.984	16101.27886
728.177	16198.41568
728.371	16313.77076
728.565	16313.77076
728.758	16135.68106
728.952	16164.01263
729.146	15979.86282
729.339	16309.72311
729.533	16218.653
729.726	16435.20367
729.92	16038.54658
730.113	15921.18022
730.307	16123.53905
730.5	16046.64099
730.694	16208.53432
730.887	16151.87049
731.081	16170.08372
731.274	16423.06006
731.468	16008.19276
731.661	15959.62731
731.854	15957.60377
732.048	16050.6882
732.241	15639.92209
732.435	15992.00419
732.628	15799.77128
732.821	15789.65406
733.014	15828.09965
733.208	16226.74798
733.401	16228.77173
733.594	15941.41547
733.788	16166.03632
733.981	16115.44441
734.174	16297.58022
734.367	16212.58179
734.56	16232.81923
734.754	16305.67548
734.947	16291.5088
735.14	16412.94044
735.333	16008.19276
735.526	15902.9686
735.719	15558.98788
735.912	15712.76401
736.105	15878.6866
736.298	15811.91199
736.491	15898.92158
736.684	16091.16065
736.877	15981.88638
737.07	15706.69381
737.263	15751.20885
737.456	16164.01263
737.649	15650.03895
737.842	15989.98062
738.035	15848.33434
738.228	15358.68009
738.421	15443.65853
738.614	15793.70094
738.807	15631.82861
739	15467.93824
739.192	15714.78742
739.385	15840.24045
739.578	15917.13318
739.771	16056.75903
739.964	15581.24467
740.156	15973.79215
740.349	15627.78188
740.542	15737.04492
740.735	15575.17463
740.927	15937.36841
741.12	15900.94509
741.313	15795.72439
741.505	15712.76401
741.698	15919.1567
741.891	15635.87535
742.083	15779.53686
742.276	15449.72845
742.468	15486.14807
742.661	14962.11789
742.854	15142.18959
743.046	15219.07388
743.239	15344.51708
743.431	15324.28425
743.624	15261.56262
743.816	15429.4954
744.009	15567.08125
744.201	15443.65853
744.393	15512.45124
744.586	15164.44557
744.778	15508.40459
744.971	15188.72482
745.163	15629.80524
745.355	15263.5859
745.548	15378.91298
745.74	15431.5187
745.932	15221.09716
746.125	14887.25587
746.317	15156.35249
746.509	15225.1437
746.702	15326.30753
746.894	15089.58453
747.086	15360.70338
747.278	15342.4938
747.471	15152.30595
747.663	15421.4022
747.855	15121.95688
748.047	15061.25869
748.239	15573.15128
748.431	15267.63245
748.623	15561.01122
748.815	15287.86521
749.008	15467.93824
749.2	15447.70514
749.392	15433.54201
749.584	14986.39734
749.776	15471.98486
749.968	15346.54037
750.16	15589.33807
750.352	15221.09716
750.544	15346.54037
750.736	15277.74883
750.928	15476.03149
751.12	14678.85173
751.311	14927.7219
751.503	15123.98015
751.695	15024.8397
751.887	14850.83627
752.079	14947.95485
752.271	14569.58753
752.463	14743.59952
752.654	14624.22002
752.846	14917.60542
753.038	14703.13226
753.23	14531.14194
753.421	14777.99644
753.613	14974.25762
753.805	15138.14305
753.997	14794.18314
754.188	14903.44231
754.38	14650.52427
754.572	14601.96244
754.763	14984.37405
754.955	14676.82835
755.146	14846.78963
755.338	14512.93071
755.53	14658.61785
755.721	14786.0898
755.913	14830.60307
756.104	14306.52859
756.296	14958.07131
756.487	14484.60191
756.679	14703.13226
756.87	14389.49608
757.062	14138.56062
757.253	14492.69588
757.445	14741.57617
757.636	14419.84936
757.827	14656.59446
758.019	14516.97765
758.21	14547.32961
758.401	14640.40727
758.593	14573.63441
758.784	14618.14979
758.975	14221.53443
759.167	14290.33947
759.358	14436.03764
759.549	13909.85709
759.74	14071.77422
759.932	14023.20074
760.123	13766.14133
760.314	13903.78488
760.505	13992.84161
760.696	13913.90521
760.888	14122.3702
761.079	14081.89353
761.27	13988.79368
761.461	13966.52991
761.652	13907.83302
761.843	13824.84388
762.034	13826.86806
762.225	13958.43392
762.416	13889.61629
762.607	13634.55722
762.798	14108.20347
762.989	14087.96509
763.18	14172.96481
763.371	13871.39934
763.562	14053.55932
763.753	14096.06047
763.944	14055.58321
764.135	14002.96138
764.326	13905.80895
764.517	13926.04953
764.708	14138.56062
764.899	13423.99254
765.089	13677.07049
765.28	13553.57542
765.471	13788.40811
765.662	13310.59449
765.853	13646.70402
766.043	13474.61268
766.234	13472.58792
766.425	13067.55316
766.615	13448.29051
766.806	13521.18112
766.997	13211.36043
767.187	13432.09193
767.378	13683.1437
767.569	13318.69477
767.759	13496.88479
767.95	13166.80293
768.141	13484.73642
768.331	13272.11721
768.522	13120.21771
768.712	13205.28454
768.903	13456.38971
769.093	13448.29051
769.284	13365.27013
769.474	13037.16829
769.665	13349.07025
769.855	13152.62508
770.046	13073.63001
770.236	12873.07032
770.426	12970.31763
770.617	13110.09016
770.807	13018.93683
770.998	12889.27905
771.188	12984.49853
771.378	12899.40933
771.569	12787.96878
771.759	12996.65339
771.949	12759.59941
772.139	12929.79938
772.33	12536.65713
772.52	12589.35921
772.71	12798.10042
772.9	12824.44206
773.09	12463.67791
773.281	12796.07411
773.471	12832.54699
773.661	12605.57439
773.851	12712.99017
774.041	12638.00357
774.231	12810.25822
774.421	12471.78713
774.611	12481.9235
774.802	12321.74932
774.992	12858.8874
775.182	12613.68183
775.372	12423.13025
775.562	12354.19308
775.752	12429.21257
775.942	12216.29464
776.131	12175.72995
776.321	12297.41533
776.511	12315.66591
776.701	12435.29483
776.891	12380.55233
777.081	12599.49374
777.271	12459.62326
777.461	12524.4945
777.651	12250.77234
777.84	12250.77234
778.03	12236.57589
778.22	12003.29636
778.41	12394.7453
778.599	12082.41984
778.789	12368.38667
778.979	11956.62817
779.169	11948.51153
779.358	11863.27889
779.548	12023.58557
779.738	12175.72995
779.927	12005.32532
780.117	12159.50325
780.307	12062.1329
780.496	12273.08032
780.686	12240.63206
780.875	12246.71625
781.065	12240.63206
781.254	12228.46348
781.444	12027.64332
781.633	11911.98503
781.823	12098.64884
782.012	11877.48534
782.202	11682.61753
782.391	11810.50846
782.581	11700.8898
782.77	11865.3084
782.96	11613.58241
783.149	11599.368
783.338	11757.73227
783.528	11976.91921
783.717	11989.09345
783.906	11869.36742
784.096	11404.38106
784.285	11467.3552
784.474	11428.75925
784.663	11438.91642
784.853	11465.32392
785.042	11107.66328
785.231	11302.78994
785.42	11406.41263
785.61	11538.44394
785.799	11436.88501
785.988	11357.65224
786.177	11134.09236
786.366	11119.86154
786.555	11038.53245
786.744	11156.45402
786.933	10896.164
787.122	11302.78994
787.312	11390.1598
787.501	11375.93805
787.69	10934.81231
787.879	11375.93805
788.068	10845.30465
788.257	10894.12976
788.445	10916.50573
788.634	11044.63274
788.823	11038.53245
789.012	11115.7955
789.201	11085.2988
789.39	11052.7663
789.579	11044.63274
789.768	11373.90634
789.957	11054.79966
790.145	11001.92865
790.334	10963.2874
790.523	11040.56589
790.712	11254.01725
790.9	10877.85546
791.089	10910.40333
791.278	10944.98224
791.467	10637.7222
791.655	10816.82025
791.844	10875.82112
792.033	10763.91456
792.221	10452.4184
792.41	10542.02887
792.599	10297.57755
792.787	10806.6467
792.976	10487.04355
793.164	10546.10148
793.353	10590.89698
793.541	10639.75793
793.73	10535.91984
793.918	10505.37302
794.107	10423.90077
794.295	10379.0822
794.484	10387.2315
794.672	10778.15918
794.861	10814.78556
795.049	10464.63947
795.238	10546.10148
795.426	10763.91456
795.614	10340.37014
795.803	10271.08395
795.991	10110.03478
796.179	10191.58939
796.368	10152.85372
796.556	10236.43502
796.744	10118.19124
796.932	10144.6982
797.121	10069.24909
797.309	10391.30607
797.497	10020.29879
797.685	10057.01228
797.874	9914.21141
798.062	9940.73693
798.25	9824.41424
798.438	10146.7371
798.626	9965.21985
798.814	10199.74363
799.002	9885.64269
799.19	10044.77497
799.378	9746.83888
799.566	9920.3329
799.755	9865.23469
799.943	10020.29879
800.131	10046.81456
800.318	9904.00862
800.506	9967.25999
800.694	9863.19381
800.882	9761.13072
801.07	10305.72898
801.258	10020.29879
801.446	10073.32792
801.634	9955.01889
801.822	10114.11304
802.01	9999.90041
802.197	10185.47356
802.385	9624.30665
802.573	10014.17943
802.761	9810.12568
802.949	9942.77725
803.136	9793.79499
803.324	9985.62068
803.512	9924.41382
803.699	9804.00178
803.887	10001.94031
804.075	10073.32792
804.262	9838.70208
804.45	9842.78418
804.638	9716.21101
804.825	10156.93139
805.013	9893.80547
805.201	10044.77497
805.388	9879.52044
805.576	9934.61588
805.763	9924.41382
805.951	10097.79967
806.138	9918.29242
806.326	10128.38651
806.513	10020.29879
806.701	10191.58939
806.888	9771.33872
807.075	10020.29879
807.263	9728.46257
807.45	9938.69659
807.638	10057.01228
807.825	10052.93324
808.012	9899.92741
808.2	10116.15215
808.387	10110.03478
808.574	10099.83889
808.761	9914.21141
808.949	10185.47356
809.136	9848.90722
809.323	10216.05146
809.51	9948.89814
809.698	9826.45541
809.885	9830.53769
810.072	10152.85372
810.259	9906.04921
810.446	9977.46052
810.633	10093.72118
810.82	10014.17943
811.008	10093.72118
811.195	9865.23469
811.382	9746.83888
811.569	10018.25902
811.756	9640.64749
811.943	9922.37337
812.13	9865.23469
812.317	10124.30844
812.504	10097.79967
812.691	10211.97459
812.878	10330.18196
813.064	10269.04588
813.251	9924.41382
813.438	10087.60335
813.625	9838.70208
813.812	10101.87809
813.999	9922.37337
814.186	10158.97021
814.372	10134.5035
814.559	10230.32009
814.746	9942.77725
814.933	9816.24944
815.12	9620.22128
815.306	9624.30665
815.493	9626.34931
815.68	9999.90041
815.866	9897.88678
816.053	10097.79967
816.24	9791.75358
816.426	9824.41424
816.613	9685.57969
816.799	9656.98734
816.986	9587.53609
817.173	9895.84613
817.359	9718.25297
817.546	9891.7648
817.732	9865.23469
817.919	9946.85786
818.105	9779.50485
818.292	9699.87474
818.478	9550.76045
818.665	9767.25556
818.851	9477.19375
819.037	9879.52044
819.224	9708.04299
819.41	9877.47966
819.597	9554.84689
819.783	9610.00759
819.969	9728.46257
820.156	9667.19924
820.342	9524.19708
820.528	9742.75536
820.714	9628.39195
820.901	9965.21985
821.087	9289.09466
821.273	9581.40717
821.459	9614.09311
821.646	9885.64269
821.832	9804.00178
822.018	9816.24944
822.204	9389.29509
822.39	9544.63068
822.576	9346.3569
822.762	9612.05036
822.948	9450.62289
823.134	9319.77247
823.32	8980.05894
823.507	9581.40717
823.693	9295.23052
823.879	9469.01839
824.065	9291.13996
824.25	9411.78365
824.436	9182.71574
824.622	9233.86513
824.808	9374.98317
824.994	9317.7274
825.18	8713.68089
825.366	9186.80808
825.552	9350.44656
825.738	9213.40664
825.923	9025.10849
826.109	9605.922
826.295	9372.93854
826.481	9808.08439
826.667	9268.6407
826.852	9509.89261
827.038	9293.18525
827.224	9585.49314
827.409	9360.67043
827.595	9407.69497
827.781	9280.91327
827.966	9407.69497
828.152	9301.36623
828.338	9186.80808
828.523	8916.56555
828.709	8818.21939
828.894	8631.65645
829.08	8810.022
829.266	8662.41909
829.451	8953.43475
829.637	8848.95701
829.822	8949.33846
830.008	8982.10683
830.193	9282.95864
830.378	9010.77546
830.564	9133.60234
830.749	8654.21613
830.935	8844.8589
831.12	8711.63064
831.305	9057.86648
831.491	8656.2669
831.676	8787.47769
831.861	8635.75838
832.047	8555.7573
832.232	8514.71999
832.417	8535.23959
832.602	8506.51162
832.788	8580.37605
832.973	8416.1994
833.158	8662.41909
833.343	8418.25236
833.528	8672.67237
833.714	8403.88122
833.899	8756.7319
834.084	8235.46263
834.269	8416.1994
834.454	8366.92251
834.639	8428.51689
834.824	8272.44383
835.009	8590.63307
835.194	8635.75838
835.379	8721.88171
835.564	8611.1457
835.749	8680.87467
835.934	8524.98003
836.119	8629.60546
836.304	8297.09443
836.489	8313.5266
836.674	8159.42557
836.859	8446.99182
837.044	8229.29847
837.228	8590.63307
837.413	8237.51731
837.598	8438.78093
837.783	8105.9778
837.968	8268.33513
838.152	8179.97881
838.337	8391.56234
838.522	8165.59176
838.707	8301.20259
838.891	8083.3612
839.076	8038.12068
839.261	7900.28204
839.445	7795.29813
839.63	7824.12262
839.815	7809.71089
839.999	7793.23909
840.184	8169.70244
840.368	7780.88436
840.553	7782.94353
840.737	7430.51704
840.922	7700.56023
841.106	7510.95004
841.291	7626.3864
841.475	7374.81334
841.66	7587.22801
841.844	7490.32932
842.029	7620.20401
842.213	7436.70536
842.397	7758.23206
842.582	7502.70201
842.766	7957.89741
842.951	7502.70201
843.135	7671.71811
843.319	7385.13004
843.504	7572.79929
843.688	7424.32852
843.872	7442.89349
844.056	7523.32143
844.241	7591.35031
844.425	7510.95004
844.609	7401.63562
844.793	7275.74525
844.977	7449.08142
845.161	7145.64136
845.346	7576.92189
845.53	7370.68651
845.714	7442.89349
845.898	7356.24192
846.082	7543.93871
846.266	7263.35818
846.45	7189.01909
846.634	7040.25454
846.818	7222.06222
847.002	7164.23302
847.186	7058.85644
847.37	6945.14972
847.554	7149.773
847.738	6634.69158
847.922	7025.78514
848.106	7124.98186
848.29	6986.50549
848.473	6974.09971
848.657	6924.46844
848.841	6992.70808
849.025	6829.30538
849.209	6783.77559
849.392	6808.61139
849.576	6624.3341
849.76	7065.05667
849.944	6938.94557
850.127	7065.05667
850.311	6874.82414
850.495	7081.58963
850.678	6715.46018
850.862	6941.01364
851.046	6936.87748
851.229	7062.98995
851.413	7112.58508
851.596	6990.64058
851.78	6920.33191
851.964	7141.50964
852.147	6587.04239
852.331	6613.97604
852.514	6649.19108
852.698	6587.04239
852.881	6477.19554
853.065	6628.47716
853.248	6560.10485
853.431	6595.33009
853.615	6410.84136
853.798	6858.27314
853.982	6377.65533
854.165	6630.54865
854.348	6278.06139
854.532	6448.16851
854.715	6228.24422
854.898	6452.31551
855.081	6315.41543
855.265	6642.97715
855.448	6402.54541
855.631	6526.94557
855.814	6354.83647
855.997	6593.2582
856.181	6269.75947
856.364	6441.94784
856.547	6199.17797
856.73	6255.2302
856.913	6043.38753
857.096	6483.41503
857.279	6205.40684
857.462	6381.80391
857.645	6230.3202
857.828	6352.76189
858.011	6305.04007
858.194	6192.94889
858.377	5872.90511
858.56	6141.03167
858.743	6224.09218
858.926	6222.01612
859.109	6049.62169
859.292	6182.56662
859.475	6032.9968
859.658	5872.90511
859.841	5768.87458
860.023	6147.26251
860.206	5693.93606
860.389	5814.65528
860.572	5329.21643
860.755	5525.2126
860.937	5543.96729
861.12	5625.21555
861.303	5473.10624
861.486	5926.97768
861.668	5398.04725
861.851	5698.10011
862.034	5439.75045
862.216	5666.86741
862.399	5587.72081
862.581	5704.34602
862.764	5347.99101
862.947	5566.8871
863.129	5612.71815
863.312	5895.78391
863.494	5439.75045
863.677	5675.19665
863.859	5381.36333
864.042	5479.35978
864.224	5181.03947
864.406	5387.61998
864.589	5153.89574
864.771	5535.63211
864.954	5057.81715
865.136	5433.49557
865.318	5137.18995
865.501	5391.79096
865.683	5291.6616
865.865	5312.52633
866.048	5028.5661
866.23	5097.50774
866.412	5066.17376
866.594	5053.6387
866.777	5087.06366
866.959	5185.21508
867.141	5249.92511
867.323	5195.6537
867.505	4997.22067
867.687	4915.6983
867.869	4890.60746
868.052	5074.52999
868.234	4821.59068
868.416	4986.77104
868.598	4817.40705
868.78	5049.46017
868.962	4986.77104
869.144	5189.3906
869.326	4915.6983
869.508	5126.74807
869.69	4878.06081
869.872	5189.3906
870.054	4928.24248
870.236	5229.05336
870.417	5005.57996
870.599	5270.79452
870.781	4825.77422
870.963	5045.28154
871.145	4756.73414
871.327	4735.80802
871.508	4411.16698
871.69	4783.9347
871.872	4526.42326
872.054	4878.06081
872.235	4593.45071
872.417	4765.10395
872.599	4654.17461
872.78	4696.04218
872.962	4614.39211
873.144	4773.4734
873.325	4624.86197
873.507	4788.11906
873.689	4559.93983
873.87	4804.8556
874.052	4564.129
874.233	4781.84248
874.415	4543.18226
874.596	4777.65799
874.778	4325.20564
874.959	4710.6937
875.141	4595.54495
875.322	4955.4187
875.503	4568.31808
875.685	4861.33065
875.866	4779.75025
876.048	4758.82663
876.229	4568.31808
876.41	4612.29807
876.592	4626.95588
876.773	4664.64235
876.954	4333.59371
877.136	4767.19635
877.317	4425.83965
877.498	4737.90074
877.679	4501.28212
877.86	4677.20289
878.042	4570.41259
878.223	4861.33065
878.404	4601.82754
878.585	4894.7895
878.766	4894.7895
878.947	4886.42533
879.128	4444.70293
879.309	4878.06081
879.49	4626.95588
879.672	4786.02689
879.853	4574.60154
880.034	4838.3243
880.215	4652.081
880.396	4919.87978
880.576	4681.38956
880.757	4662.54885
880.938	4719.0655
881.119	4938.69533
881.3	4677.20289
881.481	4993.04089
881.662	4806.94756
881.843	4819.49887
882.023	4693.94902
882.204	4965.87005
882.385	4696.04218
882.566	4760.91909
882.747	4744.17874
882.927	4861.33065
883.108	4752.5491
883.289	4965.87005
883.469	4463.56444
883.65	4811.13142
883.831	4815.31519
884.011	4767.19635
884.192	4817.40705
884.373	4892.69849
884.553	4842.50748
884.734	5009.75947
884.914	4769.28872
885.095	5120.48267
885.275	4677.20289
885.456	5107.95124
885.636	4873.8784
885.817	5099.59648
885.997	4693.94902
886.178	4938.69533
886.358	4710.6937
886.538	4871.78717
886.719	4652.081
886.899	4735.80802
887.08	4693.94902
887.26	4869.69591
887.44	4819.49887
887.621	4836.23268
887.801	4783.9347
887.981	4988.86102
888.161	4748.36396
888.342	5041.10282
888.522	4660.45532
888.702	4869.69591
888.882	4626.95588
889.062	5028.5661
889.242	4649.98736
889.423	4815.31519
889.603	4804.8556
889.783	5153.89574
889.963	4580.8848
890.143	4896.88048
890.323	4534.80294
890.503	4905.24418
890.683	4677.20289
890.863	4817.40705
891.043	4461.46881
891.223	4775.5657
891.403	4467.75565
891.583	4603.92169
891.763	4566.22355
891.943	4802.76361
892.122	4528.51821
892.302	4587.16785
892.482	4430.03164
892.662	4526.42326
892.842	4727.43694
893.022	4693.94902
893.201	4362.94925
893.381	4503.37733
893.561	4518.04323
893.741	4442.6071
893.92	4306.3312
894.1	4681.38956
894.28	4230.81608
894.459	4520.13828
894.639	4450.9903
894.819	4626.95588
894.998	4522.23329
895.178	4723.25127
895.357	4300.03934
895.537	4758.82663
895.716	4176.26019
895.896	4593.45071
896.075	4375.5289
896.255	4394.3969
896.434	4467.75565
896.614	4712.78669
896.793	4362.94925
896.973	4652.081
897.152	4142.68024
897.331	4476.13779
897.511	4392.30054
897.69	4497.09162
897.87	4270.67474
898.049	4392.30054
898.228	4276.96751
898.407	4367.14256
898.587	4228.71804
898.766	4388.10776
898.945	4060.80665
899.124	4096.49904
899.304	3867.54505
899.483	3968.39867
899.662	3892.7628
899.841	4121.69004
900.02	3989.40397
900.199	3981.0021
900.378	3938.98784
900.557	3997.80552
900.737	3951.59297
900.916	4006.20674
901.095	3814.99887
901.274	3770.85054
901.453	3733.00226
901.632	3697.25091
901.811	3615.21222
901.989	3705.66349
902.168	3491.04829
902.347	3705.66349
902.526	3453.15509
902.705	3865.44344
902.884	3453.15509
903.063	3442.62816
903.242	3368.92723
903.42	3501.57314
903.599	3198.28097
903.778	3512.09754
903.957	3257.28237
904.135	3368.92723
904.314	3147.69805
904.493	3404.72753
904.672	3375.2453
904.85	3318.37705
905.029	3130.83501
905.207	3314.16408
905.386	3206.71054
905.565	3284.67141
905.743	3059.15568
905.922	3103.43037
906.1	3038.07007
906.279	3021.20048
906.457	2753.26939
906.636	3006.43878
906.814	2829.24167
906.993	2865.11122
907.171	2860.89149
907.35	3031.74409
907.528	2751.1588
907.707	2979.02222
907.885	2609.71958
908.063	2679.39085
908.242	2533.6994
908.42	2700.50063
908.598	2717.38753
908.777	2628.72218
908.955	2419.64127
909.133	2700.50063
909.311	2499.90779
909.49	2751.1588
909.668	2575.93474
909.846	2696.27878
910.024	2421.75375
910.202	2801.80928
910.38	2457.66422
910.559	2533.6994
910.737	2565.37635
910.915	2582.26963
911.093	2573.82309
911.271	2700.50063
911.449	2573.82309
911.627	2793.36808
911.805	2554.81766
911.983	2696.27878
912.161	2347.81088
912.339	2736.38429
912.517	2525.25178
912.695	2683.61291
912.872	2377.38954
913.05	2616.05389
913.228	2379.50222
913.406	2622.38809
913.584	2497.79572
913.762	2559.04117
913.939	2582.26963
914.117	2677.2798
914.295	2472.44998
914.473	2858.7816
914.65	2559.04117
914.828	2784.92666
915.006	2573.82309
915.184	2776.48502
915.361	2417.52879
915.539	2740.60564
915.716	2328.795
915.894	2662.5021
916.072	2540.035
916.249	2514.69198
916.427	2521.02789
916.604	2637.16746
916.782	2478.78656
916.959	2531.58751
917.137	2434.42839
917.314	2544.25868
917.492	2250.61047
917.669	2440.76557
917.847	2178.75433
918.024	2440.76557
918.201	2233.70405
918.379	2449.21498
918.556	2189.32203
918.733	2459.77651
918.911	2066.72445
919.088	2442.87794
919.265	2119.57144
919.442	2271.74269
919.62	2094.20547
919.797	2387.95286
919.974	2070.95238
920.151	2271.74269
920.328	2113.23005
920.506	2263.28991
920.683	1935.64533
920.86	2106.88859
921.037	2041.35629
921.214	2161.84558
921.391	1933.53095
921.568	2111.11624
921.745	1963.13168
921.922	2174.52719
922.099	1910.27244
922.276	2117.45765
922.453	2003.30218
922.63	2104.77476
922.807	1992.73122
922.984	2011.75884
923.161	1834.14919
923.338	2261.17669
923.514	1975.81735
923.691	2049.81245
923.868	1908.158
924.045	2013.87298
924.222	1743.21641
924.399	1948.33146
924.575	1679.77088
924.752	1762.24947
924.929	1631.12754
925.105	1679.77088
925.282	1504.22705
925.459	1694.57509
925.635	1525.37746
925.812	1671.31127
925.989	1593.05799
926.165	1838.37843
926.342	1584.598
926.518	1660.73669
926.695	1614.20782
926.871	1559.2179
927.048	1394.24449
927.224	1535.95263
927.401	1326.5637
927.577	1633.24249
927.754	1366.74902
927.93	1677.65598
928.107	1402.70467
928.283	1561.33292
928.459	1364.63399
928.636	1626.89762
928.812	1368.86405
928.988	1406.93476
929.165	1138.33851
929.341	1415.39495
929.517	1246.19506
929.693	1523.26242
929.87	1271.57427
930.046	1309.64373
930.222	1178.51926
930.398	1390.01441
930.574	1186.97855
930.751	1246.19506
930.927	1096.04466
931.103	1222.93113
931.279	1129.87959
931.455	1136.22377
931.631	1026.26425
931.807	1157.37131
931.983	1011.46315
932.159	1106.61795
932.335	1017.80644
932.511	1197.55274
932.687	967.06169
932.863	1017.80644
933.039	869.81237
933.215	1015.692
933.391	916.3209
933.566	890.95213
933.742	810.62562
933.918	806.39826
934.094	707.06685
934.27	859.24281
934.445	730.31258
934.621	785.26206
934.797	713.40647
934.973	738.76589
935.148	647.90204
935.324	791.60282
935.5	702.8405
935.675	628.88674
935.851	529.60148
936.027	679.59635
936.202	470.46733
936.378	628.88674
936.553	573.95937
936.729	603.53457
936.904	369.12252
937.08	386.01073
937.255	352.2354
937.431	312.13296
937.606	367.01157
937.782	354.34623
937.957	223.5089
938.133	322.68561
938.308	310.02248
938.483	324.7962
938.659	267.81677
938.834	257.26651
939.009	265.70668
939.185	253.04654
939.36	278.36751
939.535	301.58075
939.71	126.48442
939.886	185.53762
940.061	202.41294
940.236	221.39921
940.411	94.85568
940.586	246.71673
940.761	215.07028
940.937	109.61514
941.112	80.0973
941.287	181.31899
941.462	126.48442
941.637	187.64696
941.812	105.39804
941.987	174.9912
942.162	84.31387
942.337	174.9912
942.512	172.88198
942.687	143.35507
942.862	166.55444
943.037	75.88082
943.212	94.85568
943.386	71.66443
943.561	46.36803
943.736	88.53052
943.911	92.74727
944.086	147.57295
944.26	42.15228
944.435	181.31899
944.61	88.53052
944.785	96.96411
944.959	88.53052
945.134	128.59318
945.309	101.18103
945.483	244.60683
945.658	141.24617
945.833	166.55444
946.007	164.4453
946.182	164.4453
946.357	56.90779
946.531	109.61514
946.706	59.01582
946.88	139.13728
947.055	122.26697
947.229	113.83233
947.404	103.28953
947.578	113.83233
947.752	134.91958
947.927	164.4453
948.101	191.86571
948.276	118.04961
948.45	82.20557
948.624	139.13728
948.799	73.77262
948.973	25.29023
949.147	86.42218
949.321	172.88198
949.496	105.39804
949.67	151.79091
949.844	63.23193
950.018	137.02842
950.193	73.77262
950.367	50.58386
950.541	46.36803
950.715	84.31387
950.889	103.28953
951.063	177.10045
951.237	181.31899
951.411	137.02842
951.585	139.13728
951.759	99.07256
951.933	63.23193
952.107	147.57295
952.281	122.26697
952.455	137.02842
952.629	193.97512
952.803	168.6636
952.977	99.07256
953.151	130.70195
953.325	172.88198
953.499	130.70195
953.672	134.91958
953.846	90.63889
954.02	105.39804
954.194	115.94096
954.368	122.26697
954.541	139.13728
954.715	139.13728
954.889	158.11802
955.062	107.50658
955.236	164.4453
955.41	75.88082
955.583	141.24617
955.757	160.22709
955.93	137.02842
956.104	141.24617
956.278	63.23193
956.451	174.9912
956.625	88.53052
956.798	96.96411
956.972	162.33619
957.145	166.55444
957.319	156.00896
957.492	84.31387
957.665	210.85109
957.839	80.0973
958.012	177.10045
958.185	40.04444
958.359	177.10045
958.532	151.79091
958.705	170.77278
958.879	130.70195
959.052	219.28955
959.225	177.10045
959.398	118.04961
959.572	63.23193
959.745	92.74727
959.918	160.22709
960.091	71.66443
960.264	118.04961
960.438	122.26697
960.611	139.13728
960.784	168.6636
960.957	73.77262
961.13	132.81075
961.303	82.20557
961.476	160.22709
961.649	88.53052
961.822	134.91958
961.995	111.72373
962.168	99.07256
962.341	217.1799
962.514	42.15228
962.686	147.57295
962.859	118.04961
963.032	122.26697
963.205	65.34002
963.378	124.37568
963.551	168.6636
963.723	118.04961
963.896	156.00896
964.069	90.63889
964.242	158.11802
964.414	139.13728
964.587	86.42218
964.76	124.37568
964.932	153.89993
965.105	65.34002
965.278	59.01582
965.45	130.70195
965.623	120.15828
965.795	143.35507
965.968	63.23193
966.14	-37.92881
966.313	115.94096
966.485	46.36803
966.658	105.39804
966.83	198.19399
967.003	130.70195
967.175	96.96411
967.348	96.96411
967.52	96.96411
967.692	31.61332
967.865	63.23193
968.037	88.53052
968.209	107.50658
968.382	94.85568
968.554	101.18103
968.726	80.0973
968.898	130.70195
969.071	31.61332
969.243	63.23193
969.415	84.31387
969.587	82.20557
969.759	63.23193
969.932	37.93663
970.104	105.39804
970.276	105.39804
970.448	99.07256
970.62	56.90779
970.792	80.0973
970.964	115.94096
971.136	105.39804
971.308	96.96411
971.48	90.63889
971.652	134.91958
971.824	80.0973
971.996	25.29023
972.168	69.55627
972.339	42.15228
972.511	101.18103
972.683	130.70195
972.855	115.94096
973.027	103.28953
973.199	111.72373
973.37	56.90779
973.542	84.31387
973.714	126.48442
973.886	35.82884
974.057	63.23193
974.229	120.15828
974.401	82.20557
974.572	21.07496
974.744	10.53718
974.915	31.61332
975.087	65.34002
975.259	29.5056
975.43	153.89993
975.602	21.07496
975.773	29.5056
975.945	63.23193
976.116	46.36803
976.288	75.88082
976.459	109.61514
976.63	113.83233
976.802	75.88082
976.973	96.96411
977.145	126.48442
977.316	84.31387
977.487	92.74727
977.659	40.04444
977.83	2.10739
978.001	73.77262
978.172	109.61514
978.344	67.44814
978.515	46.36803
978.686	67.44814
978.857	37.93663
979.028	37.93663
979.2	16.85977
979.371	27.39791
979.542	37.93663
979.713	71.66443
979.884	96.96411
980.055	12.64469
980.226	12.64469
980.397	105.39804
980.568	56.90779
980.739	71.66443
980.91	31.61332
981.081	96.96411
981.252	-0
981.423	103.28953
981.594	59.01582
981.765	37.93663
981.936	40.04444
982.106	16.85977
982.277	46.36803
982.448	48.47593
982.619	6.32224
982.79	33.72107
982.96	99.07256
983.131	88.53052
983.302	59.01582
983.472	21.07496
983.643	6.32224
983.814	29.5056
983.984	105.39804
984.155	4.2148
984.326	88.53052
984.496	4.2148
984.667	84.31387
984.837	59.01582
985.008	37.93663
985.178	29.5056
985.349	4.2148
985.519	65.34002
985.69	42.15228
985.86	-0
986.031	71.66443
986.201	-46.35635
986.371	14.75222
986.542	-33.71489
986.712	54.79979
986.882	96.96411
987.053	-4.2147
987.223	-42.14263
987.393	63.23193
987.563	71.66443
987.734	90.63889
987.904	88.53052
988.074	-16.85823
988.244	73.77262
988.414	42.15228
988.585	52.69182
988.755	88.53052
988.925	21.07496
989.095	-33.71489
989.265	12.64469
989.435	14.75222
989.605	29.5056
989.775	90.63889
989.945	-21.07254
990.115	56.90779
990.285	-2.10736
990.455	48.47593
990.625	16.85977
990.795	18.96735
990.965	113.83233
991.134	99.07256
991.304	-27.39383
991.474	40.04444
991.644	-40.03573
991.814	-6.32202
991.984	42.15228
992.153	-37.92881
992.323	-2.10736
992.493	35.82884
992.662	-27.39383
992.832	23.18258
993.002	59.01582
993.171	-35.82187
993.341	-44.2495
993.511	71.66443
993.68	59.01582
993.85	21.07496
994.019	-12.64382
994.189	-18.9654
994.358	37.93663
994.528	-12.64382
994.697	-52.67674
994.867	4.2148
995.036	31.61332
995.206	48.47593
995.375	35.82884
995.544	37.93663
995.714	14.75222
995.883	-23.17966
996.052	42.15228
996.222	54.79979
996.391	6.32224
996.56	-33.71489
996.73	35.82884
996.899	56.90779
997.068	-12.64382
997.237	12.64469
997.406	40.04444
997.576	35.82884
997.745	50.58386
997.914	21.07496
998.083	-46.35635
998.252	21.07496
998.421	80.0973
998.59	73.77262
998.759	21.07496
998.928	75.88082
999.097	-25.28676
999.266	59.01582
999.435	31.61332
999.604	-0
999.773	16.85977
999.942	-29.50088
1000.111	6.32224
1000.28	37.93663
1000.448	-18.9654
1000.617	-33.71489
1000.786	-56.89021
1000.955	-12.64382
1001.124	96.96411
1001.292	56.90779
1001.461	109.61514
1001.63	-14.75104
1001.798	-33.71489
1001.967	37.93663
1002.136	25.29023
1002.304	23.18258
1002.473	-37.92881
1002.642	21.07496
1002.81	37.93663
1002.979	25.29023
1003.147	-10.53658
1003.316	63.23193
1003.484	56.90779
1003.653	63.23193
1003.821	-21.07254
1003.99	-21.07254
1004.158	-44.2495
1004.327	65.34002
1004.495	21.07496
1004.663	-21.07254
1004.832	21.07496
1005	-27.39383
1005.168	-0
1005.337	6.32224
1005.505	27.39791
1005.673	54.79979
1005.842	12.64469
1006.01	-12.64382
1006.178	-12.64382
1006.346	21.07496
1006.514	-8.42931
1006.683	-10.53658
1006.851	-21.07254
1007.019	52.69182
1007.187	23.18258
1007.355	4.2148
1007.523	33.72107
1007.691	54.79979
1007.859	4.2148
1008.027	-10.53658
1008.195	-58.9969
1008.363	-31.6079
1008.531	-10.53658
1008.699	-4.2147
1008.867	-56.89021
1009.035	-21.07254
1009.203	6.32224
1009.37	-16.85823
1009.538	31.61332
1009.706	40.04444
1009.874	75.88082
1010.042	-73.74306
1010.209	12.64469
1010.377	-12.64382
1010.545	6.32224
1010.713	-4.2147
1010.88	35.82884
1011.048	31.61332
1011.216	29.5056
1011.383	21.07496
1011.551	-25.28676
1011.718	-37.92881
1011.886	21.07496
1012.054	31.61332
1012.221	-10.53658
1012.389	-29.50088
1012.556	8.4297
1012.724	8.4297
1012.891	-29.50088
1013.058	-8.42931
1013.226	29.5056
1013.393	21.07496
1013.561	21.07496
1013.728	31.61332
1013.895	8.4297
1014.063	-29.50088
1014.23	8.4297
1014.397	35.82884
1014.565	46.36803
1014.732	33.72107
1014.899	-46.35635
1015.066	25.29023
1015.233	33.72107
1015.401	8.4297
1015.568	-21.07254
1015.735	-16.85823
1015.902	-33.71489
1016.069	71.66443
1016.236	-29.50088
1016.403	88.53052
1016.57	-12.64382
1016.737	-23.17966
1016.904	31.61332
1017.071	-23.17966
1017.238	-50.56997
1017.405	-21.07254
1017.572	46.36803
1017.739	48.47593
1017.906	-42.14263
1018.073	56.90779
1018.24	-35.82187
1018.407	46.36803
1018.573	-37.92881
1018.74	-48.46317
1018.907	-25.28676
1019.074	-12.64382
1019.241	21.07496
1019.407	-44.2495
1019.574	-50.56997
1019.741	-44.2495
1019.907	42.15228
1020.074	107.50658
1020.241	-54.78349
1020.407	23.18258
1020.574	-8.42931
1020.74	-54.78349
1020.907	-58.9969
1021.073	-10.53658
1021.24	-16.85823
1021.406	65.34002
1021.573	4.2148
1021.739	-8.42931
1021.906	6.32224
1022.072	-21.07254
1022.239	2.10739
1022.405	31.61332
1022.571	-16.85823
1022.738	-4.2147
1022.904	4.2148
1023.07	-29.50088
1023.237	37.93663
1023.403	4.2148
1023.569	50.58386
1023.735	56.90779
1023.902	-18.9654
1024.068	-0
1024.234	14.75222
1024.4	-10.53658
1024.566	25.29023
1024.732	16.85977
1024.898	54.79979
1025.065	65.34002
1025.231	4.2148
1025.397	-54.78349
1025.563	25.29023
1025.729	-21.07254
1025.895	-4.2147
1026.061	-86.38163
1026.227	-71.63655
1026.392	-35.82187
1026.558	-21.07254
1026.724	-46.35635
1026.89	21.07496
1027.056	-12.64382
1027.222	25.29023
1027.388	25.29023
1027.553	4.2148
1027.719	-10.53658
1027.885	40.04444
1028.051	8.4297
1028.216	67.44814
1028.382	4.2148
1028.548	-67.42343
1028.713	-75.84956
1028.879	-25.28676
1029.045	25.29023
1029.21	4.2148
1029.376	-27.39383
1029.541	54.79979
1029.707	-80.06246
1029.873	40.04444
1030.038	-12.64382
1030.204	37.93663
1030.369	37.93663
1030.534	-10.53658
1030.7	-21.07254
1030.865	-42.14263
1031.031	46.36803
1031.196	-0
1031.361	-4.2147
1031.527	4.2148
1031.692	-23.17966
1031.857	6.32224
1032.023	6.32224
1032.188	6.32224
1032.353	16.85977
1032.518	-69.53
1032.684	14.75222
1032.849	16.85977
1033.014	8.4297
1033.179	-27.39383
1033.344	4.2148
1033.509	-75.84956
1033.674	29.5056
1033.839	40.04444
1034.004	-29.50088
1034.17	-21.07254
1034.335	-4.2147
1034.5	-35.82187
1034.664	-14.75104
1034.829	-35.82187
1034.994	-0
1035.159	37.93663
1035.324	-4.2147
1035.489	10.53718
1035.654	-44.2495
1035.819	-35.82187
1035.984	-6.32202
1036.148	67.44814
1036.313	-4.2147
1036.478	29.5056
1036.643	-35.82187
1036.807	14.75222
1036.972	42.15228
1037.137	-25.28676
1037.301	-12.64382
1037.466	4.2148
1037.631	23.18258
1037.795	27.39791
1037.96	-18.9654
1038.124	-29.50088
1038.289	12.64469
1038.454	14.75222
1038.618	37.93663
1038.783	-21.07254
1038.947	4.2148
1039.111	-4.2147
1039.276	14.75222
1039.44	-29.50088
1039.605	-35.82187
1039.769	4.2148
1039.933	6.32224
1040.098	-6.32202
1040.262	35.82884
1040.426	44.26014
1040.591	-16.85823
1040.755	-18.9654
1040.919	-31.6079
1041.083	-71.63655
1041.248	-18.9654
1041.412	42.15228
1041.576	25.29023
1041.74	-35.82187
1041.904	18.96735
1042.068	54.79979
1042.232	-48.46317
1042.397	33.72107
1042.561	-21.07254
1042.725	-25.28676
1042.889	-103.2316
1043.053	27.39791
1043.217	-37.92881
1043.381	27.39791
1043.544	-52.67674
1043.708	113.83233
1043.872	14.75222
1044.036	29.5056
1044.2	-31.6079
1044.364	25.29023
1044.528	-63.21022
1044.691	-16.85823
1044.855	-54.78349
1045.019	-63.21022
1045.183	12.64469
1045.346	-16.85823
1045.51	-31.6079
1045.674	-29.50088
1045.837	6.32224
1046.001	29.5056
1046.165	-21.07254
1046.328	-25.28676
1046.492	-71.63655
1046.655	-23.17966
1046.819	-12.64382
1046.983	-58.9969
1047.146	29.5056
1047.31	14.75222
1047.473	29.5056
1047.636	-12.64382
1047.8	6.32224
1047.963	2.10739
1048.127	40.04444
1048.29	21.07496
