Data from mixed_try1_USB4F045381__19__00123.txt Node

Date: Thu Apr 03 20:00:45 EDT 2025
User: mmckonesweet
Spectrometer: USB4F04538
Trigger mode: 4
Integration Time (sec): 2.700000E-3
Scans to average: 1
Electric dark correction enabled: true
Nonlinearity correction enabled: true
Boxcar width: 0
XAxis mode: Wavelengths
Number of Pixels in Spectrum: 3648
>>>>>Begin Spectral Data<<<<<
345.52	-10.88778
345.736	-10.88778
345.952	-10.88778
346.168	-27.74501
346.384	18.61609
346.6	-4.56592
346.816	46.01671
347.032	-59.34802
347.248	79.74592
347.464	-25.63794
347.68	-99.37029
347.896	48.12461
348.112	-6.67324
348.328	79.74592
348.544	-19.31659
348.76	20.72369
348.975	-59.34802
349.191	-55.13461
349.407	-23.53085
349.623	20.72369
349.839	-10.88778
350.055	41.80097
350.27	24.93896
350.486	58.66448
350.702	79.74592
350.918	62.88058
351.133	29.15432
351.349	10.18593
351.565	-12.99502
351.781	37.58533
351.996	52.34049
352.212	130.35049
352.428	60.77252
352.644	54.44846
352.859	20.72369
353.075	14.40096
353.291	-12.99502
353.506	41.80097
353.722	39.69314
353.938	-27.74501
354.153	46.01671
354.369	12.29343
354.584	-34.06606
354.8	5.97099
355.016	3.86356
355.231	-4.56592
355.447	-80.41353
355.662	50.23254
355.878	37.58533
356.093	54.44846
356.309	-8.78052
356.524	-38.27997
356.74	-17.20943
356.955	77.63768
357.171	-2.45859
357.386	33.36978
357.602	75.52945
357.817	-86.73269
358.033	3.86356
358.248	46.01671
358.464	-67.77453
358.679	14.40096
358.895	-38.27997
359.11	-38.27997
359.325	29.15432
359.541	-23.53085
359.756	5.97099
359.972	-38.27997
360.187	37.58533
360.402	-78.3071
360.618	37.58533
360.833	75.52945
361.048	48.12461
361.264	-38.27997
361.479	3.86356
361.694	29.15432
361.909	-31.95906
362.125	29.15432
362.34	14.40096
362.555	29.15432
362.77	-8.78052
362.986	-38.27997
363.201	67.09678
363.416	35.47754
363.631	-12.99502
363.847	-2.45859
364.062	18.61609
364.277	8.07845
364.492	-4.56592
364.707	14.40096
364.922	54.44846
365.138	56.55646
365.353	35.47754
365.568	16.50851
365.783	3.86356
365.998	16.50851
366.213	-38.27997
366.428	35.47754
366.643	10.18593
366.858	50.23254
367.073	54.44846
367.288	-19.31659
367.503	-46.70749
367.718	62.88058
367.933	50.23254
368.148	10.18593
368.363	81.85419
368.578	35.47754
368.793	73.42125
369.008	54.44846
369.223	41.80097
369.438	29.15432
369.653	-4.56592
369.868	-4.56592
370.083	20.72369
370.298	124.02423
370.513	-38.27997
370.728	39.69314
370.943	29.15432
371.157	29.15432
371.372	-27.74501
371.587	10.18593
371.802	73.42125
372.017	5.97099
372.232	12.29343
372.446	-36.17303
372.661	67.09678
372.876	1.75615
373.091	56.55646
373.306	-31.95906
373.52	-12.99502
373.735	-29.85205
373.95	12.29343
374.165	-29.85205
374.379	3.86356
374.594	31.26204
374.809	54.44846
375.023	-4.56592
375.238	54.44846
375.453	37.58533
375.667	3.86356
375.882	14.40096
376.097	83.96248
376.311	-8.78052
376.526	-6.67324
376.741	22.83131
376.955	62.88058
377.17	29.15432
377.384	-4.56592
377.599	-12.99502
377.813	-63.56133
378.028	37.58533
378.242	105.04662
378.457	-12.99502
378.672	46.01671
378.886	71.31307
379.101	20.72369
379.315	1.75615
379.53	-40.38689
379.744	-8.78052
379.958	37.58533
380.173	90.28749
380.387	33.36978
380.602	-27.74501
380.816	-12.99502
381.031	-50.9211
381.245	8.07845
381.459	-23.53085
381.674	62.88058
381.888	73.42125
382.103	8.07845
382.317	-40.38689
382.531	-27.74501
382.746	75.52945
382.96	37.58533
383.174	5.97099
383.388	71.31307
383.603	1.75615
383.817	3.86356
384.031	-19.31659
384.246	-4.56592
384.46	-38.27997
384.674	-38.27997
384.888	8.07845
385.103	54.44846
385.317	50.23254
385.531	48.12461
385.745	-23.53085
385.959	46.01671
386.174	29.15432
386.388	-63.56133
386.602	52.34049
386.816	-38.27997
387.03	-4.56592
387.244	20.72369
387.458	-10.88778
387.672	8.07845
387.887	24.93896
388.101	20.72369
388.315	3.86356
388.529	-21.42373
388.743	22.83131
388.957	43.90883
389.171	29.15432
389.385	12.29343
389.599	46.01671
389.813	46.01671
390.027	-17.20943
390.241	69.20492
390.455	39.69314
390.669	-0.35123
390.883	8.07845
391.097	20.72369
391.311	-97.26409
391.525	-38.27997
391.738	-44.60065
391.952	64.98867
392.166	37.58533
392.38	-42.49378
392.594	22.83131
392.808	46.01671
393.022	88.17913
393.236	24.93896
393.449	-21.42373
393.663	48.12461
393.877	-27.74501
394.091	-19.31659
394.305	79.74592
394.518	62.88058
394.732	33.36978
394.946	12.29343
395.16	-8.78052
395.373	48.12461
395.587	-8.78052
395.801	46.01671
396.015	5.97099
396.228	58.66448
396.442	-38.27997
396.656	39.69314
396.869	-34.06606
397.083	20.72369
397.297	-88.83902
397.51	-12.99502
397.724	8.07845
397.938	58.66448
398.151	29.15432
398.365	10.18593
398.578	41.80097
398.792	37.58533
399.005	14.40096
399.219	16.50851
399.433	-4.56592
399.646	-36.17303
399.86	56.55646
400.073	3.86356
400.287	8.07845
400.5	37.58533
400.714	-74.09415
400.927	69.20492
401.141	41.80097
401.354	10.18593
401.567	71.31307
401.781	27.04663
401.994	-4.56592
402.208	56.55646
402.421	-2.45859
402.635	48.12461
402.848	-4.56592
403.061	29.15432
403.275	54.44846
403.488	22.83131
403.701	27.04663
403.915	46.01671
404.128	10.18593
404.341	-10.88778
404.555	58.66448
404.768	75.52945
404.981	5.97099
405.195	41.80097
405.408	71.31307
405.621	64.98867
405.834	43.90883
406.048	54.44846
406.261	24.93896
406.474	48.12461
406.687	31.26204
406.9	88.17913
407.114	20.72369
407.327	1.75615
407.54	41.80097
407.753	-4.56592
407.966	83.96248
408.179	-4.56592
408.392	-44.60065
408.605	54.44846
408.819	14.40096
409.032	79.74592
409.245	-21.42373
409.458	86.0708
409.671	12.29343
409.884	5.97099
410.097	64.98867
410.31	-12.99502
410.523	-4.56592
410.736	3.86356
410.949	46.01671
411.162	-31.95906
411.375	52.34049
411.588	58.66448
411.801	-42.49378
412.014	37.58533
412.227	22.83131
412.44	-2.45859
412.653	-0.35123
412.865	-17.20943
413.078	71.31307
413.291	41.80097
413.504	3.86356
413.717	43.90883
413.93	-6.67324
414.143	22.83131
414.356	-10.88778
414.568	20.72369
414.781	-2.45859
414.994	73.42125
415.207	-12.99502
415.42	50.23254
415.632	43.90883
415.845	50.23254
416.058	33.36978
416.271	18.61609
416.483	88.17913
416.696	71.31307
416.909	-44.60065
417.121	33.36978
417.334	62.88058
417.547	22.83131
417.759	-4.56592
417.972	12.29343
418.185	-2.45859
418.397	18.61609
418.61	31.26204
418.823	-46.70749
419.035	37.58533
419.248	-38.27997
419.46	3.86356
419.673	29.15432
419.885	46.01671
420.098	29.15432
420.311	71.31307
420.523	-29.85205
420.736	54.44846
420.948	48.12461
421.161	12.29343
421.373	71.31307
421.586	56.55646
421.798	69.20492
422.01	-38.27997
422.223	-8.78052
422.435	-12.99502
422.648	33.36978
422.86	107.15516
423.073	48.12461
423.285	-4.56592
423.497	29.15432
423.71	-4.56592
423.922	-84.62633
424.134	-61.45468
424.347	-59.34802
424.559	12.29343
424.771	24.93896
424.984	54.44846
425.196	20.72369
425.408	12.29343
425.621	12.29343
425.833	-4.56592
426.045	73.42125
426.257	52.34049
426.47	14.40096
426.682	37.58533
426.894	90.28749
427.106	37.58533
427.318	-21.42373
427.531	-19.31659
427.743	-57.24133
427.955	10.18593
428.167	29.15432
428.379	-105.68875
428.591	46.01671
428.804	31.26204
429.016	58.66448
429.228	58.66448
429.44	-34.06606
429.652	5.97099
429.864	77.63768
430.076	67.09678
430.288	96.6127
430.5	-4.56592
430.712	54.44846
430.924	-17.20943
431.136	24.93896
431.348	16.50851
431.56	46.01671
431.772	115.58952
431.984	3.86356
432.196	8.07845
432.408	12.29343
432.62	-38.27997
432.832	35.47754
433.044	-36.17303
433.256	88.17913
433.468	-19.31659
433.679	12.29343
433.891	-10.88778
434.103	20.72369
434.315	1.75615
434.527	37.58533
434.739	-53.02787
434.95	39.69314
435.162	-63.56133
435.374	-36.17303
435.586	83.96248
435.798	62.88058
436.009	37.58533
436.221	3.86356
436.433	-0.35123
436.645	79.74592
436.856	-50.9211
437.068	46.01671
437.28	50.23254
437.491	98.72115
437.703	1.75615
437.915	50.23254
438.126	54.44846
438.338	98.72115
438.55	20.72369
438.761	37.58533
438.973	54.44846
439.184	-4.56592
439.396	64.98867
439.608	46.01671
439.819	62.88058
440.031	62.88058
440.242	18.61609
440.454	-36.17303
440.665	-12.99502
440.877	18.61609
441.088	48.12461
441.3	67.09678
441.511	31.26204
441.723	56.55646
441.934	20.72369
442.146	100.82962
442.357	-44.60065
442.569	50.23254
442.78	60.77252
442.991	3.86356
443.203	-4.56592
443.414	-4.56592
443.626	52.34049
443.837	12.29343
444.048	-50.9211
444.26	94.50427
444.471	-31.95906
444.682	67.09678
444.894	71.31307
445.105	73.42125
445.316	107.15516
445.528	24.93896
445.739	-36.17303
445.95	37.58533
446.161	41.80097
446.373	96.6127
446.584	-12.99502
446.795	20.72369
447.006	-0.35123
447.217	92.39587
447.429	56.55646
447.64	1.75615
447.851	67.09678
448.062	50.23254
448.273	86.0708
448.484	62.88058
448.695	-4.56592
448.907	77.63768
449.118	3.86356
449.329	-31.95906
449.54	-46.70749
449.751	24.93896
449.962	46.01671
450.173	12.29343
450.384	-50.9211
450.595	73.42125
450.806	3.86356
451.017	37.58533
451.228	90.28749
451.439	-21.42373
451.65	24.93896
451.861	92.39587
452.072	12.29343
452.283	5.97099
452.494	92.39587
452.705	90.28749
452.915	-10.88778
453.126	31.26204
453.337	60.77252
453.548	-2.45859
453.759	58.66448
453.97	31.26204
454.181	-42.49378
454.391	126.13296
454.602	3.86356
454.813	27.04663
455.024	37.58533
455.235	35.47754
455.445	83.96248
455.656	8.07845
455.867	33.36978
456.078	12.29343
456.288	117.69816
456.499	24.93896
456.71	62.88058
456.921	117.69816
457.131	-0.35123
457.342	73.42125
457.553	83.96248
457.763	79.74592
457.974	71.31307
458.184	8.07845
458.395	22.83131
458.606	-2.45859
458.816	48.12461
459.027	71.31307
459.237	-4.56592
459.448	90.28749
459.659	22.83131
459.869	46.01671
460.08	54.44846
460.29	79.74592
460.501	96.6127
460.711	5.97099
460.922	-10.88778
461.132	39.69314
461.343	22.83131
461.553	29.15432
461.764	48.12461
461.974	33.36978
462.184	98.72115
462.395	75.52945
462.605	140.89469
462.816	39.69314
463.026	71.31307
463.236	92.39587
463.447	67.09678
463.657	62.88058
463.867	-10.88778
464.078	48.12461
464.288	96.6127
464.498	73.42125
464.709	107.15516
464.919	130.35049
465.129	134.5681
465.339	-12.99502
465.55	96.6127
465.76	29.15432
465.97	81.85419
466.18	37.58533
466.391	1.75615
466.601	24.93896
466.811	73.42125
467.021	96.6127
467.231	105.04662
467.441	37.58533
467.651	56.55646
467.862	121.91552
468.072	155.65745
468.282	105.04662
468.492	-8.78052
468.702	5.97099
468.912	46.01671
469.122	48.12461
469.332	88.17913
469.542	130.35049
469.752	111.37229
469.962	121.91552
470.172	124.02423
470.382	136.67694
470.592	56.55646
470.802	147.22146
471.012	94.50427
471.222	115.58952
471.432	92.39587
471.642	115.58952
471.852	151.43941
472.062	73.42125
472.272	100.82962
472.482	168.31207
472.691	105.04662
472.901	67.09678
473.111	115.58952
473.321	138.7858
473.531	33.36978
473.741	113.4809
473.95	206.28038
474.16	81.85419
474.37	147.22146
474.58	121.91552
474.79	132.45929
474.999	157.7665
475.209	189.40476
475.419	206.28038
475.628	189.40476
475.838	221.0476
476.048	214.71868
476.258	113.4809
476.467	221.0476
476.677	240.03545
476.886	231.59621
477.096	185.18606
477.306	231.59621
477.515	117.69816
477.725	229.48645
477.935	227.37671
478.144	292.78759
478.354	202.06136
478.563	349.77279
478.773	170.42125
478.982	307.56028
479.192	316.00221
479.401	334.99761
479.611	353.99443
479.82	273.79547
480.03	351.8836
480.239	377.21465
480.449	271.68532
480.658	429.99538
480.868	353.99443
481.077	324.44443
481.287	326.55503
481.496	417.32708
481.705	423.66115
481.915	527.13733
482.124	451.11047
482.333	391.99222
482.543	493.34525
482.752	487.00965
482.961	510.24083
483.171	531.3616
483.38	459.55694
483.589	594.73216
483.799	548.25922
484.008	563.04536
484.217	514.46487
484.426	596.84472
484.636	628.53462
484.845	525.02522
485.054	634.87293
485.263	611.63298
485.472	664.45318
485.682	768.00155
485.891	696.14886
486.1	641.21136
486.309	713.05426
486.518	799.70503
486.727	755.32078
486.936	780.68268
487.146	780.68268
487.355	789.13696
487.564	806.04598
487.773	992.08121
487.982	915.96855
488.191	918.08266
488.4	989.96684
488.609	1019.56848
488.818	831.41065
489.027	905.3981
489.236	1017.45403
489.445	1000.53871
489.654	1008.99632
489.863	1080.88983
490.072	1040.71324
490.281	1127.41242
490.49	1137.98605
490.698	1199.31511
490.907	1171.82237
491.116	1205.65967
491.325	1154.90408
491.534	1406.58225
491.743	1283.91152
491.952	1349.47632
492.16	1121.0683
492.369	1393.89199
492.578	1410.81234
492.787	1372.74161
492.996	1442.53809
493.204	1408.6973
493.413	1453.11335
493.622	1436.19294
493.831	1558.8654
494.039	1575.78549
494.248	1440.42304
494.457	1615.9703
494.665	1516.5648
494.874	1706.91182
495.083	1721.71575
495.291	1677.3035
495.5	1692.10773
495.709	1835.91138
495.917	1859.1719
496.126	1664.61404
496.335	1757.66746
496.543	1996.60726
496.752	1838.02599
496.96	1867.63013
497.169	1728.06025
497.377	2095.96703
497.586	1797.84749
497.794	2095.96703
498.003	1950.09341
498.211	2235.46516
498.42	1964.89359
498.628	2212.21799
498.837	2142.47033
499.045	2060.03017
499.254	2062.14417
499.462	2017.7489
499.671	2227.01177
499.879	2114.99156
500.087	2254.48478
500.296	2188.96978
500.504	2355.90999
500.713	2319.99109
500.921	2292.5218
501.129	2372.81202
501.338	2370.6993
501.546	2531.23553
501.754	2322.10404
501.962	2584.02931
502.171	2457.31218
502.379	2628.37029
502.587	2317.87812
502.795	2795.12668
503.004	2469.98572
503.212	2590.36406
503.42	2548.13034
503.628	2679.03901
503.837	2805.67809
504.045	2666.37251
504.253	2607.25621
504.461	2725.47887
504.669	2641.03815
504.877	2693.81601
505.085	2873.19889
505.294	2970.23432
505.502	2752.91763
505.71	2970.23432
505.918	2856.32004
506.126	2944.92372
506.334	2641.03815
506.542	2860.53984
506.75	3031.39264
506.958	3138.91534
507.166	3041.93588
507.374	3216.89591
507.582	2932.26763
507.79	3212.68132
507.998	2987.10685
508.206	3299.06706
508.414	3073.56328
508.622	3166.31647
508.83	3035.60999
509.037	3324.34529
509.245	3067.23808
509.453	3299.06706
509.661	3368.57623
509.869	3747.37133
510.077	3343.30235
510.285	3364.36409
510.492	3162.10109
510.7	3505.43214
510.908	3307.49341
511.116	3661.14342
511.324	3425.43322
511.531	3576.98782
511.739	3450.69884
511.947	3579.09208
512.155	3435.96088
512.362	3724.24019
512.57	3640.10735
512.778	3593.82135
512.985	3602.23766
513.193	3810.44428
513.401	3686.3842
513.608	3797.8311
513.816	3757.88471
514.024	3783.11483
514.231	3888.20981
514.439	3764.1925
514.646	3837.7704
514.854	3808.34213
515.061	3814.64852
515.269	3999.5558
515.477	3862.99154
515.684	3783.11483
515.892	3713.72526
516.099	4001.65612
516.307	3781.01243
516.514	4287.10545
516.722	4031.05843
516.929	4335.34118
517.136	3917.62748
517.344	4125.5384
517.551	3884.00696
517.759	4299.68978
517.966	4085.65199
518.173	4175.91043
518.381	4091.95034
518.588	4232.56442
518.796	4301.7871
519.003	4347.92254
519.21	4249.34782
519.418	4377.27601
519.625	4459.02387
519.832	4345.8257
520.039	4433.87423
520.247	4463.21517
520.454	4276.61791
520.661	4762.66279
520.868	4350.01936
521.076	4856.79932
521.283	4383.56549
521.49	4729.18095
521.697	4534.45379
521.904	4513.50391
522.112	4691.50696
522.319	4768.93999
522.526	4704.06577
522.733	4869.34737
522.94	4802.41494
523.147	4915.34984
523.354	4823.33383
523.561	5191.13037
523.768	4678.94734
523.975	5053.2905
524.183	4927.89404
524.39	5132.66521
524.597	4963.43146
524.804	5278.79384
525.011	5186.95489
525.218	5347.64335
525.425	5021.94917
525.632	4978.06258
525.838	4879.80345
526.045	4961.3412
526.252	5132.66521
526.459	5522.7813
526.666	5249.57726
526.873	5161.90007
527.08	5170.25205
527.287	5391.44338
527.494	5170.25205
527.701	5689.42489
527.907	5278.79384
528.114	5697.75311
528.321	5574.87363
528.528	5604.0389
528.735	5554.03847
528.941	5522.7813
529.148	5470.67425
529.355	5718.572
529.562	5637.36498
529.768	5733.14382
529.975	5501.94024
530.182	5778.93344
530.388	5687.34278
530.595	5703.99903
530.802	5635.28228
531.008	5916.23376
531.215	5697.75311
531.422	5903.75616
531.628	5872.55844
531.835	5849.67675
532.042	6055.50931
532.248	6215.44179
532.455	5957.81963
532.661	6155.22383
532.868	5986.92412
533.074	6067.97659
533.281	5972.37245
533.487	6236.20203
533.694	5914.15422
533.9	6337.89337
534.107	6126.14603
534.313	6346.19222
534.52	6244.50547
534.726	6402.19974
534.933	6244.50547
535.139	6294.31825
535.345	6242.42965
535.552	6541.10807
535.758	6485.14262
535.965	6534.89052
536.171	6462.33704
536.377	6586.69707
536.584	6435.38136
536.79	6735.8194
536.996	6783.43063
537.203	6648.84587
537.409	6489.28879
537.615	6816.54435
537.821	6752.3812
538.028	6833.09903
538.234	6568.04837
538.44	6787.57016
538.646	6671.62857
538.853	6611.55908
539.059	6775.15128
539.265	7064.71222
539.471	6862.0662
539.677	6758.5915
539.883	6843.44496
540.09	7023.37346
540.296	7097.77677
540.502	7027.50774
540.708	7095.71041
540.914	7139.09943
541.12	7060.57875
541.326	7114.3069
541.532	7263.01408
541.738	7456.98794
541.944	7188.67486
542.15	7217.58796
542.356	7405.41795
542.562	7454.9254
542.768	7277.46561
542.974	7613.67794
543.18	7320.81373
543.386	7626.04294
543.592	7506.4824
543.798	7741.41281
544.004	7607.49515
544.21	7722.87569
544.415	7477.61214
544.621	7675.49529
544.827	7434.29881
545.033	7988.41333
545.239	7494.10995
545.445	7910.2287
545.651	7691.9767
545.856	7774.3635
546.062	7671.37473
546.268	7700.21689
546.474	7700.21689
546.679	7681.67597
546.885	7827.89696
547.091	7901.99701
547.297	7712.57655
547.502	7959.61191
547.708	7924.63336
547.914	7759.94824
548.119	7827.89696
548.325	7990.47042
548.531	7836.13162
548.736	8194.02238
548.942	8037.77791
549.147	7895.82303
549.353	8272.10144
549.559	8350.15213
549.764	8111.8029
549.97	8029.55129
550.175	8259.77507
550.381	8284.42712
550.586	8011.04022
550.792	8563.62192
550.997	8247.44798
551.203	8415.85724
551.408	8399.43282
551.614	8444.59701
551.819	8374.79387
552.025	8555.41535
552.23	8497.96091
552.435	8567.72509
552.641	8582.08559
552.846	8742.0408
553.052	8789.18567
553.257	8774.83825
553.462	8940.80428
553.668	8756.39026
553.873	8824.02569
554.078	8655.9251
554.283	8850.66454
554.489	9096.41967
554.694	8727.69044
554.899	8957.18962
555.105	8752.29051
555.31	9088.23189
555.515	8653.87433
555.72	9049.33618
555.925	9024.76723
556.131	9098.46657
556.336	9057.52527
556.541	9080.04384
556.746	9170.09726
556.951	9149.63349
557.156	8959.23771
557.361	9184.42089
557.567	9137.35441
557.772	9456.41421
557.977	9284.66311
558.182	9080.04384
558.387	9208.97375
558.592	9147.58702
558.797	9219.20338
559.002	9480.9407
559.207	9241.7071
559.412	9552.46314
559.617	9045.24153
559.822	9493.20308
560.027	9129.16801
560.232	9403.26549
560.437	9366.46378
560.642	9401.22109
560.847	9321.47669
561.051	9636.22194
561.256	9450.28222
561.461	9875.09874
561.666	9317.38655
561.871	9670.94351
562.076	9775.08156
562.281	9817.95046
562.485	9529.98676
562.69	9697.49228
562.895	9546.33341
563.1	9679.11264
563.305	9393.04332
563.509	9748.54033
563.714	9652.56206
563.919	9854.68998
564.123	9681.15488
564.328	9824.07405
564.533	9893.46536
564.737	9879.18031
564.942	9805.70288
565.147	10101.53823
565.351	9783.24757
565.556	9973.04034
565.761	9917.95234
565.965	10085.22416
566.17	9934.27581
566.374	10066.86975
566.579	10150.47505
566.784	10075.02741
566.988	10193.28821
567.193	10311.50277
567.397	9873.05793
567.602	10236.0953
567.806	9962.83965
568.011	10566.12446
568.215	10362.44339
568.42	10370.59312
568.624	10360.40592
568.828	10062.79084
569.033	9962.83965
569.237	10244.24835
569.442	10395.04105
569.646	10274.82036
569.85	10207.55791
570.055	10557.97967
570.259	10405.22713
570.463	10480.59405
570.668	10423.56126
570.872	10256.47752
571.076	10568.16063
571.281	10364.48084
571.485	10629.23986
571.689	10443.93127
571.893	10533.54408
572.098	10743.22489
572.302	10496.88728
572.506	10731.01402
572.71	10533.54408
572.914	10804.27283
573.119	10637.38291
573.323	10977.18516
573.527	10785.95956
573.731	11129.68764
573.935	10885.65366
574.139	11062.59412
574.343	10757.47037
574.547	10946.6772
574.751	10916.16671
574.955	11314.64353
575.159	11046.32724
575.364	11109.35751
575.568	11113.42362
575.772	11003.62335
575.976	10861.24135
576.18	11017.85852
576.383	11271.969
576.587	11253.67853
576.791	11192.70428
576.995	11349.18631
577.199	11513.73346
577.403	11015.82496
577.607	11050.39403
577.811	11282.13
578.015	11259.77545
578.219	11538.10545
578.422	11355.2818
578.626	11532.01258
578.83	11607.15214
579.034	11682.27915
579.238	11048.36064
579.442	11241.48443
579.645	11505.60916
579.849	11446.70342
580.053	11745.21398
580.257	11509.67133
580.46	11527.95062
580.664	11635.58003
580.868	11586.8454
581.071	11639.64101
581.275	11489.3601
581.479	11789.87231
581.682	11737.09383
581.886	11797.99156
582.09	11958.31912
582.293	12069.90965
582.497	12004.98716
582.7	11873.08815
582.904	11850.76334
583.107	12153.08005
583.311	11812.19991
583.515	12078.0244
583.718	11672.12757
583.922	11911.64681
584.125	11793.93195
584.329	12211.90028
584.532	12246.37824
584.735	12171.33527
584.939	12189.58989
585.142	12153.08005
585.346	12102.36791
585.549	12224.06921
585.753	11976.58103
585.956	12088.16766
586.159	12055.70854
586.363	12394.40738
586.566	12226.09734
586.769	12211.90028
586.973	12321.41135
587.176	12672.1201
587.379	12256.51842
587.582	12706.57271
587.786	12345.74435
587.989	12361.9658
588.192	12211.90028
588.395	12357.91048
588.599	12386.29715
588.802	12706.57271
589.005	12487.66737
589.208	12779.52563
589.411	12653.87979
589.615	12647.79958
589.818	12481.58562
590.021	12552.53576
590.224	12694.41316
590.427	12807.89422
590.63	12603.2097
590.833	12759.26168
591.036	12801.81533
591.239	12959.85061
591.442	12649.82632
591.645	12670.09343
591.848	12487.66737
592.051	12710.62585
592.254	12854.4974
592.457	12965.92825
592.66	13099.62491
592.863	13290.00596
593.066	13144.18577
593.269	13239.37655
593.472	12961.8765
593.675	13423.65507
593.878	13415.55562
594.081	13237.35131
594.284	13393.28182
594.486	13348.73275
594.689	13561.33642
594.892	13247.47743
595.095	13490.47317
595.298	13589.68049
595.5	13334.55764
595.703	13624.09738
595.906	13342.65773
596.109	13377.08238
596.311	13362.90767
596.514	13409.48099
596.717	13591.70504
596.92	13749.6097
597.122	13528.94234
597.325	13624.09738
597.528	13498.57205
597.73	13690.90387
597.933	13427.70477
598.136	13692.92825
598.338	13692.92825
598.541	13850.82066
598.743	13909.51974
598.946	13638.26875
599.148	13642.31769
599.351	13624.09738
599.554	13672.68427
599.756	13692.92825
599.959	13796.16766
600.161	13696.97701
600.363	13798.19188
600.566	14198.93621
600.768	14045.12644
600.971	14047.15033
601.173	14008.69589
601.376	14330.47478
601.578	14008.69589
601.78	14209.05484
601.983	13933.80835
602.185	14069.41304
602.388	14247.50521
602.59	14164.53247
602.792	14176.67503
602.995	13986.43239
603.197	14229.29197
603.399	14310.23858
603.601	13990.48032
603.804	14160.48493
604.006	14039.05473
604.208	14109.88999
604.41	13937.85642
604.613	14257.62362
604.815	14354.758
605.017	14441.77096
605.219	13575.50854
605.421	14504.49954
605.623	14352.73441
605.826	14712.91188
606.028	14470.10017
606.23	14366.89952
606.432	14640.07004
606.634	14880.84873
606.836	14427.60626
607.038	14682.56126
607.24	14522.71082
607.442	14828.24252
607.644	14476.17067
607.846	14828.24252
608.048	14233.33937
608.25	14555.08618
608.452	14516.64041
608.654	14931.43128
608.856	14544.96891
609.058	14573.29717
609.26	14751.35571
609.462	14702.79503
609.664	14688.6314
609.866	14828.24252
610.067	14549.01582
610.269	14899.05849
610.471	14712.91188
610.673	14971.89712
610.875	14605.67205
611.077	15149.94546
611.278	14555.08618
611.48	14773.61253
611.682	14298.09677
611.884	15030.57232
612.085	14694.70153
612.287	14445.81801
612.489	14745.28565
612.69	14544.96891
612.892	14559.13307
613.094	14868.70887
613.295	14567.22685
613.497	15026.52576
613.699	15056.87493
613.9	15253.13231
614.102	15042.71199
614.304	14795.86926
614.505	14455.9356
614.707	15087.22404
614.908	14585.43779
615.11	15117.57313
615.311	14808.00925
615.513	14982.01355
615.714	14549.01582
615.916	15228.85303
616.117	14840.38245
616.319	15083.1775
616.52	14943.57105
616.722	14953.68751
616.923	15127.68948
617.124	14672.44434
617.326	14937.50117
617.527	15210.64359
617.729	15220.75994
617.93	15032.5956
618.131	15034.61888
618.333	15050.8051
618.534	15093.29386
618.735	15243.01594
618.937	15058.8982
619.138	15020.45593
619.339	14828.24252
619.54	15200.52723
619.742	15113.52658
619.943	15247.06249
620.144	15224.80649
620.345	15572.81406
620.546	15348.22644
620.748	15558.65066
620.949	15392.73882
621.15	15520.20732
621.351	15164.10836
621.552	15240.99267
621.753	15024.50248
621.954	15232.89958
622.155	15048.78182
622.356	15400.832
622.558	14939.52446
622.759	15451.41454
622.96	15273.36506
623.161	15218.73667
623.362	15321.92375
623.563	15815.62165
623.764	15374.52919
623.965	15601.14096
624.166	15400.832
624.366	15536.39396
624.567	15370.48261
624.768	15518.184
624.969	15162.08509
625.17	15396.78541
625.371	15459.50777
625.572	15301.69095
625.773	15586.97749
625.973	15461.53108
626.174	15651.7251
626.375	15538.41729
626.576	15597.09425
626.777	15566.74403
626.977	15020.45593
627.178	15483.78753
627.379	15366.43603
627.58	15386.66894
627.78	15309.78407
627.981	15499.97408
628.182	15773.12932
628.382	15463.55439
628.583	15635.53812
628.784	15829.78587
628.984	15613.28111
629.185	15714.45018
629.386	15342.15658
629.586	15611.25775
629.787	15188.3876
629.987	15663.86537
630.188	15819.66857
630.388	16078.68158
630.589	15641.60823
630.79	16129.27277
630.99	15939.05468
631.191	16062.4926
631.391	15791.34026
631.591	15698.26298
631.792	15682.07584
631.992	15910.72539
632.193	16042.25651
632.393	16028.09134
632.594	15700.28638
632.794	15682.07584
632.994	15706.35657
633.195	15601.14096
633.395	15534.37063
633.595	15965.36069
633.796	16078.68158
633.996	16094.87065
634.196	15811.57474
634.397	16042.25651
634.597	15742.77793
634.797	16024.04416
634.997	15870.25539
635.198	16060.46898
635.398	15882.39634
635.598	16349.8626
635.798	16011.90266
635.998	15892.51383
636.199	15900.60784
636.399	16394.38794
636.599	16104.98888
636.799	16030.11493
636.999	15783.2465
637.199	16032.13852
637.399	16109.03618
637.599	16287.1239
637.799	15961.3136
637.999	16430.81847
638.199	15868.2319
638.399	16242.60072
638.599	16017.9734
638.799	16244.62448
638.999	16202.12585
639.199	16469.27362
639.399	16048.32732
639.599	16347.83874
639.799	15839.90321
639.999	16149.50952
640.199	16113.08348
640.399	16404.50747
640.599	15748.84819
640.799	16347.83874
640.998	16104.98888
641.198	16295.21911
641.398	16102.96523
641.598	16151.53321
641.798	16226.41069
641.997	16485.46549
642.197	16362.00578
642.397	16823.50306
642.597	16704.06925
642.796	16544.16213
642.996	16268.90977
643.196	16529.99381
643.395	16131.29644
643.595	16718.23892
643.795	16279.02871
643.994	16548.21024
644.194	16712.16619
644.394	16758.72435
644.593	16861.96661
644.793	16750.62719
644.992	16681.80285
645.192	16647.39169
645.392	16380.22068
645.591	16870.06432
645.791	16683.82705
645.99	17163.63481
646.19	16706.09348
646.389	16645.36753
646.589	16967.24002
646.788	16944.97006
646.987	16424.74667
647.187	17214.2563
647.386	16975.33827
647.586	16841.72252
647.785	16724.31168
647.984	16778.96743
648.184	16906.50451
648.383	17582.83737
648.582	17266.90458
648.782	17214.2563
648.981	16791.11339
649.18	16920.67592
649.38	16930.79843
649.579	17060.37246
649.778	16944.97006
649.977	17191.98262
650.177	16934.84746
650.376	17084.66883
650.575	16655.48837
650.774	16997.60867
650.973	16766.82155
651.173	16985.46114
651.372	16641.3192
651.571	17222.35591
651.77	17113.0151
651.969	17054.29843
652.168	16934.84746
652.367	17194.00749
652.566	16987.48572
652.765	17108.9656
652.964	17060.37246
653.163	17032.0272
653.362	16938.89649
653.561	17078.5947
653.76	17335.75535
653.959	17108.9656
654.158	17358.03134
654.357	17220.331
654.556	17009.7563
654.755	17400.55926
654.954	17279.05446
655.153	17295.25448
655.352	17461.31579
655.551	17266.90458
655.749	17487.6445
655.948	17507.89771
656.147	17491.69511
656.346	17123.1389
656.545	17349.93094
656.743	17562.58297
656.942	17443.08854
657.141	17625.37266
657.34	17305.37958
657.538	17224.38081
657.737	17364.10667
657.936	17473.46744
658.135	17390.43344
658.333	17479.5433
658.532	17388.40829
658.731	17279.05446
658.929	17167.68446
659.128	17244.63006
659.326	17461.31579
659.525	17706.39626
659.724	17489.6698
659.922	17720.57594
660.121	17420.81113
660.319	17418.78593
660.518	17339.8055
660.716	17649.67919
660.915	17588.91375
661.113	17771.21899
661.312	17497.77106
661.51	17985.96933
661.709	17813.76079
661.907	17708.42192
662.105	17738.8072
662.304	17613.21957
662.502	17532.20198
662.701	17953.55167
662.899	17329.68014
663.097	17597.01564
663.296	17414.73553
663.494	17935.31714
663.692	17663.85821
663.891	17544.35429
664.089	17236.53033
664.287	17564.6084
664.485	17396.50892
664.684	17860.35591
664.882	17659.80705
665.08	17392.4586
665.278	17570.68469
665.476	17607.14307
665.675	17633.47478
665.873	17487.6445
666.071	17532.20198
666.269	17386.38314
666.467	17287.15444
666.665	17748.93579
666.863	17268.92955
667.061	17414.73553
667.259	17653.73032
667.457	17708.42192
667.655	17434.98762
667.853	17451.18951
668.051	17309.42964
668.249	17797.55421
668.447	17341.83058
668.645	17663.85821
668.843	17603.09209
669.041	17730.70438
669.239	17422.83633
669.437	17556.50672
669.635	17823.89001
669.833	17408.65997
670.031	17635.50032
670.229	17613.21957
670.426	17262.85464
670.624	17643.60251
670.822	17400.55926
671.02	17834.01931
671.218	17428.91196
671.415	17437.01284
671.613	17706.39626
671.811	17441.0633
672.009	17441.0633
672.206	17669.93499
672.404	17647.65362
672.602	17621.32162
672.799	17990.0216
672.997	17915.05688
673.195	17742.85862
673.392	17748.93579
673.59	17961.656
673.788	17759.06447
673.985	17542.3289
674.183	17447.13902
674.38	17550.43049
674.578	17848.20049
674.775	17862.38183
674.973	17613.21957
675.17	17694.24239
675.368	17625.37266
675.565	17635.50032
675.763	17706.39626
675.96	17669.93499
676.158	17742.85862
676.355	17665.8838
676.553	17827.94172
676.75	17643.60251
676.947	17224.38081
677.145	17232.48048
677.342	17260.82967
677.539	17331.7052
677.737	17643.60251
677.934	17659.80705
678.131	17627.39819
678.329	17797.55421
678.526	18030.54508
678.723	17759.06447
678.92	17619.2961
679.118	17556.50672
679.315	17655.75589
679.512	17382.33284
679.709	17570.68469
679.906	17621.32162
680.104	17888.71906
680.301	17515.99908
680.498	17463.34106
680.695	17481.56859
680.892	17400.55926
681.089	17439.03807
681.286	17671.96059
681.483	17378.28256
681.68	17548.40509
681.877	17380.3077
682.075	17732.73008
682.272	17515.99908
682.469	17542.3289
682.665	17283.10445
682.862	17402.58443
683.059	17291.20445
683.256	17070.4959
683.453	17062.39715
683.65	17208.18162
683.847	16975.33827
684.044	17432.9624
684.241	17390.43344
684.438	17327.65508
684.635	17268.92955
684.831	17732.73008
685.028	17653.73032
685.225	17353.98113
685.422	17536.25274
685.619	17202.10698
685.815	17489.6698
686.012	17382.33284
686.209	17244.63006
686.405	17398.53409
686.602	16977.36284
686.799	17046.19977
686.996	17196.03235
687.192	17038.10114
687.389	16803.25944
687.586	16981.41198
687.782	16857.91778
687.979	17356.00623
688.175	17216.2812
688.372	17147.43631
688.568	17406.63479
688.765	17250.7049
688.962	17643.60251
689.158	17471.44215
689.355	16904.48003
689.551	17250.7049
689.748	17400.55926
689.944	17437.01284
690.14	17388.40829
690.337	17054.29843
690.533	17173.75896
690.73	16924.72492
690.926	17104.91611
691.123	17108.9656
691.319	16930.79843
691.515	16938.89649
691.712	16732.40871
691.908	16406.53138
692.104	16542.13808
692.301	17228.43064
692.497	17206.15674
692.693	17534.22736
692.889	17127.18844
693.086	17042.15045
693.282	17151.48592
693.478	17283.10445
693.674	17034.05185
693.87	17398.53409
694.067	17157.56035
694.263	17177.80864
694.459	16912.57795
694.655	17309.42964
694.851	17098.8419
695.047	17246.655
695.243	16938.89649
695.439	16831.60057
695.635	17013.80553
695.831	16710.14195
696.027	16714.19043
696.224	16663.58509
696.42	16501.65749
696.615	16944.97006
696.811	16813.38122
697.007	16795.16206
697.203	16742.53007
697.399	16734.43298
697.595	16831.60057
697.791	16695.97234
697.987	16457.12981
698.183	16861.96661
698.379	16540.11403
698.575	16898.40662
698.77	16619.05359
698.966	16542.13808
699.162	16635.24673
699.358	16691.9239
699.554	16671.68185
699.749	17212.2314
699.945	16904.48003
700.141	16655.48837
700.337	16756.70006
700.532	16793.13773
700.728	16584.64362
700.924	16766.82155
701.119	16511.77756
701.315	16821.47868
701.511	16396.41184
701.706	16766.82155
701.902	16617.02945
702.097	16835.64934
702.293	16687.87547
702.489	16313.43346
702.684	16774.91879
702.88	16596.78824
703.075	16574.52317
703.271	16262.83842
703.466	16610.95707
703.662	16444.98607
703.857	16807.30814
704.053	16631.19843
704.248	16513.80158
704.443	16872.08875
704.639	16331.64795
704.834	16714.19043
705.03	16608.93294
705.225	16770.87017
705.42	16655.48837
705.616	16491.53747
705.811	16378.1968
706.006	16461.17774
706.202	16374.14903
706.397	16564.40277
706.592	16560.35462
706.787	16874.11319
706.983	16485.46549
707.178	16944.97006
707.373	16382.24457
707.568	16240.57696
707.763	16242.60072
707.959	16461.17774
708.154	16481.41751
708.349	16610.95707
708.544	16631.19843
708.739	16675.73024
708.934	16467.24965
709.129	16422.72274
709.324	16232.48194
709.519	16722.28742
709.714	16442.96212
709.909	16615.00532
710.104	16264.8622
710.299	16127.2491
710.494	16329.62411
710.689	16776.94311
710.884	16560.35462
711.079	16426.7706
711.274	16260.81464
711.469	16580.59544
711.664	16250.69578
711.859	16333.67179
712.054	16281.0525
712.249	16475.34556
712.443	16036.18572
712.638	16410.57921
712.833	16173.79384
713.028	16131.29644
713.223	16001.78477
713.417	16206.1733
713.612	16024.04416
713.807	16248.67201
714.002	15959.29006
714.196	16119.15445
714.391	16281.0525
714.586	16279.02871
714.78	16022.02057
714.975	16187.9598
715.17	16088.79974
715.364	16491.53747
715.559	16303.31436
715.754	16192.00723
715.948	16171.77014
716.143	15920.84296
716.337	16013.92624
716.532	16262.83842
716.726	16060.46898
716.921	16032.13852
717.115	15787.29338
717.31	15888.46683
717.504	16030.11493
717.699	16297.24292
717.893	15852.04405
718.088	15941.07822
718.282	16078.68158
718.476	15973.45489
718.671	16001.78477
718.865	15625.42128
719.059	15716.47359
719.254	15789.31682
719.448	15718.49699
719.642	16202.12585
719.837	15667.91213
720.031	16181.88867
720.225	15479.7409
720.419	15682.07584
720.614	15637.56149
720.808	15702.30977
721.002	15584.95414
721.196	15924.89
721.39	15678.02906
721.585	15690.1694
721.779	15544.4873
721.973	15740.75452
722.167	15240.99267
722.361	15704.33317
722.555	15584.95414
722.749	15232.89958
722.943	15374.52919
723.137	15653.74848
723.331	15633.51475
723.525	15947.14882
723.719	15487.83416
723.913	15615.30447
724.107	15236.94612
724.301	15467.60102
724.495	15295.62111
724.689	15797.41059
724.883	15732.66086
725.077	15698.26298
725.271	15560.674
725.465	15655.77185
725.659	15522.23065
725.853	15487.83416
726.046	15245.03922
726.24	15332.04016
726.434	15336.08673
726.628	15495.92744
726.822	15139.82911
727.015	15400.832
727.209	15156.01527
727.403	15637.56149
727.596	15718.49699
727.79	15439.2747
727.984	15690.1694
728.177	15983.57268
728.371	15374.52919
728.565	15576.86075
728.758	15767.05902
728.952	15637.56149
729.146	15540.44063
729.339	15803.48094
729.533	15516.16067
729.726	15530.32397
729.92	15153.992
730.113	15769.08245
730.307	15617.32783
730.5	15455.46115
730.694	15463.55439
730.887	15368.45932
731.081	15218.73667
731.274	15330.01688
731.468	14931.43128
731.661	15269.31851
731.854	15309.78407
732.048	15210.64359
732.241	15287.528
732.435	15075.0844
732.628	15046.75855
732.821	15107.45677
733.014	15166.13163
733.208	14986.06012
733.401	15018.43265
733.594	15491.8808
733.788	15479.7409
733.981	15576.86075
734.174	15696.23958
734.367	15566.74403
734.56	15439.2747
734.754	15455.46115
734.947	15469.62433
735.14	15508.06737
735.333	15220.75994
735.526	15309.78407
735.719	15097.34041
735.912	15176.24798
736.105	15489.85748
736.298	15510.09069
736.491	15297.64439
736.684	15247.06249
736.877	15330.01688
737.07	15506.04405
737.263	15251.10904
737.456	15613.28111
737.649	15160.06182
737.842	15240.99267
738.035	15364.41274
738.228	15619.35119
738.421	15659.81861
738.614	15325.97032
738.807	15247.06249
739	15267.29524
739.192	14919.2915
739.385	15054.85165
739.578	15024.50248
739.771	15115.54986
739.964	15064.96803
740.156	15050.8051
740.349	14973.9204
740.542	15504.02072
740.735	14949.64093
740.927	15050.8051
741.12	15279.43489
741.313	15022.47921
741.505	15127.68948
741.698	15056.87493
741.891	15052.82837
742.083	15026.52576
742.276	14931.43128
742.468	14917.2682
742.661	14666.37418
742.854	14419.5121
743.046	14755.40241
743.239	14793.84592
743.431	14945.59434
743.624	14721.00534
743.816	14617.81255
744.009	14761.47246
744.201	14846.45241
744.393	14765.51915
744.586	14668.39757
744.778	14803.96259
744.971	14801.93926
745.163	14808.00925
745.355	14542.94546
745.548	14486.28816
745.74	14731.12215
745.932	14735.16887
746.125	14704.8184
746.317	14850.49905
746.509	14905.1284
746.702	15028.54904
746.894	14646.14024
747.086	14605.67205
747.278	14664.35079
747.471	14767.5425
747.663	14526.75776
747.855	14757.42576
748.047	14516.64041
748.239	14793.84592
748.431	14832.28917
748.623	15212.66686
748.815	14682.56126
749.008	14907.1517
749.2	14923.33809
749.392	14326.42755
749.584	14140.24711
749.776	14381.06455
749.968	14340.59282
750.16	14490.33514
750.352	14283.93125
750.544	14704.8184
750.736	14644.11684
750.928	14858.59231
751.12	14484.26466
751.311	14767.5425
751.503	14850.49905
751.695	14694.70153
751.887	14808.00925
752.079	14751.35571
752.271	14544.96891
752.463	14706.84177
752.654	14356.78159
752.846	14721.00534
753.038	14366.89952
753.23	14532.82816
753.421	14283.93125
753.613	14532.82816
753.805	14445.81801
753.997	14445.81801
754.188	14271.78931
754.38	14370.94668
754.572	14122.0329
754.763	14510.56998
754.955	13893.32712
755.146	14387.13525
755.338	14140.24711
755.53	14213.10229
755.721	14205.0074
755.913	14059.29366
756.104	14277.86029
756.296	14132.15193
756.487	14374.99383
756.679	14322.38032
756.87	13988.45635
757.062	14322.38032
757.253	14237.38676
757.445	14476.17067
757.636	14330.47478
757.827	14132.15193
758.019	14306.19132
758.21	14051.19812
758.401	14267.74198
758.593	13844.74821
758.784	13644.34215
758.975	13794.14343
759.167	13840.69989
759.358	13889.27894
759.549	13820.45814
759.74	13950.00055
759.932	13767.82822
760.123	13654.46441
760.314	13636.24428
760.505	13856.89309
760.696	13737.46388
760.888	14039.05473
761.079	13854.86895
761.27	13690.90387
761.461	13630.17085
761.652	13945.95251
761.843	13474.27522
762.034	13449.97785
762.225	13294.05619
762.416	13611.95036
762.607	13326.45748
762.798	13480.34948
762.989	13419.60535
763.18	13476.29998
763.371	13541.09023
763.562	13462.1266
763.753	13504.64617
763.944	13607.90132
764.135	13395.30673
764.326	13601.82774
764.517	13182.66835
764.708	13624.09738
764.899	12996.31576
765.089	13528.94234
765.28	13350.75775
765.471	13470.22569
765.662	13063.1643
765.853	13204.94699
766.043	12836.26172
766.234	13452.00265
766.425	13046.95909
766.615	13302.15662
766.806	13188.7444
766.997	12965.92825
767.187	12864.62814
767.378	13190.76974
767.569	12890.96744
767.759	13127.98208
767.95	12965.92825
768.141	12909.20181
768.331	12848.41888
768.522	12939.59148
768.712	13101.65045
768.903	13020.62494
769.093	12828.15683
769.284	12684.28004
769.474	12830.18306
769.665	12913.25384
769.855	12751.15593
770.046	12909.20181
770.236	12511.99379
770.426	12611.31717
770.617	12501.85789
770.807	12297.07735
770.998	12645.77283
771.188	12672.1201
771.378	12576.85974
771.569	12878.81095
771.759	12593.07522
771.949	12696.43977
772.139	12799.78902
772.33	12507.93945
772.52	12520.10239
772.71	12599.15593
772.9	12361.9658
773.09	12459.28537
773.281	12305.18879
773.471	12175.3919
773.661	12226.09734
773.851	12299.10522
774.041	12015.13183
774.231	12394.40738
774.421	11968.46471
774.611	12483.61288
774.802	12299.10522
774.992	12491.72184
775.182	12303.16094
775.372	12268.68639
775.562	12222.04107
775.752	12262.60244
775.942	11862.94063
776.131	11940.05655
776.321	12179.44851
776.511	11816.25936
776.701	12169.30694
776.891	11769.57359
777.081	11885.26489
777.271	11907.58814
777.461	11964.4065
777.651	12151.05165
777.84	11905.5588
778.03	11611.21337
778.22	11804.0809
778.41	11978.61009
778.599	11816.25936
778.789	11714.7627
778.979	11637.61053
779.169	11858.88157
779.358	11806.11067
779.548	11911.64681
779.738	11795.96176
779.927	11952.23167
780.117	12009.04505
780.307	11840.61536
780.496	11728.97354
780.686	11899.47071
780.875	11828.43751
781.065	11909.61748
781.254	11759.4239
781.444	11846.70417
781.633	11627.45796
781.823	11895.41195
782.012	11700.55143
782.202	11596.99888
782.391	11369.50425
782.581	11564.50692
782.77	11523.88862
782.96	11668.06688
783.149	11639.64101
783.338	11538.10545
783.528	11501.54695
783.717	11759.4239
783.906	11789.87231
784.096	11430.45213
784.285	11304.48333
784.474	11383.72621
784.663	11180.5083
784.853	11233.35482
785.042	11164.24641
785.231	10985.32019
785.42	10948.71114
785.61	11288.22649
785.799	11202.86731
785.988	11605.12151
786.177	11257.74315
786.366	11284.16218
786.555	10944.64325
786.744	10999.55606
786.933	10855.13802
787.122	10950.74508
787.312	10783.9247
787.501	10745.26
787.69	10969.04995
787.879	10899.8934
788.068	10706.59099
788.257	10877.51641
788.445	10623.13244
788.634	10592.59366
788.823	10582.41345
789.012	10759.50539
789.201	10562.05209
789.39	10641.45437
789.579	10602.77356
789.768	10950.74508
789.957	10415.41289
790.145	10574.26906
790.334	10586.48557
790.523	10584.44952
790.712	10731.01402
790.9	10712.69691
791.089	10523.36205
791.278	11040.22698
791.467	10472.44713
791.655	10739.15465
791.844	10588.52162
792.033	10458.18952
792.221	10488.74077
792.41	10297.23791
792.599	10278.8964
792.787	10380.77999
792.976	10299.27578
793.164	10360.40592
793.353	10201.44241
793.541	10482.63075
793.73	10170.86303
793.918	10488.74077
794.107	10217.75014
794.295	10409.30147
794.484	10413.37576
794.672	10665.88206
794.861	10315.57833
795.049	10327.80467
795.238	10097.45979
795.426	10211.63484
795.614	10160.66921
795.803	9897.54667
795.991	10185.13379
796.179	10044.43503
796.368	9721.99654
796.556	10136.20264
796.744	9824.07405
796.932	9911.83079
797.121	9670.94351
797.309	10056.67237
797.497	9836.32082
797.685	10052.59331
797.874	9583.10967
798.062	9809.78546
798.25	9491.15939
798.438	9734.24784
798.626	9746.49859
798.814	10054.63285
799.002	9834.27973
799.19	9960.79947
799.378	9873.05793
799.566	9652.56206
799.755	9746.49859
799.943	9848.56706
800.131	10042.39543
800.318	9991.40065
800.506	9860.81276
800.694	9983.24066
800.882	9758.7488
801.07	9885.30257
801.258	9975.08043
801.446	9856.73092
801.634	9405.30988
801.822	9689.3237
802.01	9597.41017
802.197	10021.99859
802.385	9662.77413
802.573	9954.67885
802.761	9689.3237
802.949	9924.07375
803.136	9844.48504
803.324	9954.67885
803.512	9783.24757
803.699	9791.41335
803.887	9832.23862
804.075	9777.12308
804.262	9768.95689
804.45	9881.22108
804.638	9550.41991
804.825	9964.87982
805.013	9871.01711
805.201	9850.60805
805.388	9738.33148
805.576	10119.89048
805.763	9811.82674
805.951	9911.83079
806.138	9930.19503
806.326	9922.03329
806.513	9748.54033
806.701	10095.42056
806.888	9817.95046
807.075	9922.03329
807.263	9924.07375
807.45	10260.5538
807.638	10134.16367
807.825	9868.97627
808.012	9883.26183
808.2	9703.61855
808.387	9607.62434
808.574	9848.56706
808.761	9672.98581
808.949	9734.24784
809.136	9785.28904
809.323	9979.16057
809.51	9775.08156
809.698	9638.26451
809.885	9550.41991
810.072	9811.82674
810.259	9689.3237
810.446	9799.57888
810.633	9703.61855
810.82	9948.55809
811.008	9715.87068
811.195	9915.91183
811.382	9881.22108
811.569	9675.0281
811.756	9719.9546
811.943	9913.87132
812.13	9913.87132
812.317	9844.48504
812.504	9752.62376
812.691	9897.54667
812.878	9726.08036
813.064	9952.63861
813.251	9770.99846
813.438	10040.35581
813.625	9836.32082
813.812	10026.07807
813.999	9783.24757
814.186	9903.66852
814.372	9777.12308
814.559	9856.73092
814.746	9431.88539
814.933	10176.97915
815.12	9864.89454
815.306	9840.40296
815.493	9795.49615
815.68	9754.66546
815.866	9664.8165
816.053	9832.23862
816.24	9554.50635
816.426	9981.20062
816.613	9793.45476
816.799	9758.7488
816.986	9701.57648
817.173	9864.89454
817.359	9515.68261
817.546	9640.30707
817.732	9595.36728
817.919	9538.16021
818.105	9472.76546
818.292	9499.33405
818.478	9515.68261
818.665	9787.33049
818.851	9472.76546
819.037	9797.53752
819.224	9668.90119
819.41	9603.53872
819.597	9458.45817
819.783	9681.15488
819.969	9315.34146
820.156	9599.45303
820.342	9427.79703
820.528	9681.15488
820.714	9147.58702
820.901	9513.63909
821.087	9354.19536
821.273	9713.8287
821.459	9466.63386
821.646	9660.73175
821.832	9689.3237
822.018	9687.28152
822.204	9077.99678
822.39	9566.76529
822.576	9339.88146
822.762	9460.50212
822.948	9433.92955
823.134	9276.48158
823.32	9288.75377
823.507	9525.89994
823.693	9476.85311
823.879	9466.63386
824.065	9356.24014
824.25	9309.20609
824.436	9294.88964
824.622	9403.26549
824.808	9589.23855
824.994	9670.94351
825.18	9229.4326
825.366	9572.89455
825.552	9233.52417
825.738	9331.70173
825.923	9022.71971
826.109	9030.90971
826.295	8989.95692
826.481	9227.38679
826.667	9192.60545
826.852	9237.61567
827.038	9145.54053
827.224	9206.92777
827.409	9286.70845
827.595	9315.34146
827.781	9211.01971
827.966	9370.55312
828.152	9266.25429
828.338	9172.14355
828.523	8932.61119
828.709	8983.81339
828.894	8799.43328
829.08	9227.38679
829.266	8989.95692
829.451	9227.38679
829.637	8858.86049
829.822	8705.13806
830.008	8918.27259
830.193	9229.4326
830.378	8680.53291
830.564	9047.28886
830.749	8877.30034
830.935	9028.86223
831.12	8809.68044
831.305	8801.48275
831.491	8608.75265
831.676	8506.1696
831.861	8655.9251
832.047	8713.33918
832.232	8456.9129
832.417	8832.22259
832.602	8370.68711
832.788	8403.53904
832.973	8526.68999
833.158	8762.53976
833.343	8343.99126
833.528	8916.22414
833.714	8341.9376
833.899	8793.28477
834.084	8584.13701
834.269	8908.03019
834.454	8543.10493
834.639	8854.76255
834.824	8559.51867
835.009	8756.39026
835.194	8376.84722
835.379	8727.69044
835.564	8491.8042
835.749	8623.11053
835.934	8309.07634
836.119	8629.26363
836.304	8358.36635
836.489	8395.32652
836.674	8144.69453
836.859	8463.07059
837.044	8169.35989
837.228	8374.79387
837.413	8163.19382
837.598	8770.73883
837.783	8165.24919
837.968	8487.69963
838.152	8177.58104
838.337	8397.37968
838.522	8013.09708
838.707	8189.91216
838.891	8025.43786
839.076	8228.95602
839.261	7829.95565
839.445	8017.21076
839.63	7685.79633
839.815	7819.66196
839.999	7788.77774
840.184	7891.70694
840.368	7836.13162
840.553	7856.71683
840.737	7766.12633
840.922	7980.18476
841.106	7947.26721
841.291	7990.47042
841.475	7696.09684
841.66	7823.7795
841.844	7654.89163
842.029	7811.42663
842.213	7741.41281
842.397	7749.65099
842.582	7679.61577
842.766	7712.57655
842.951	7689.91659
843.135	7584.82329
843.319	7329.06942
843.504	7364.15218
843.688	7390.97592
843.872	7355.89798
844.056	7626.04294
844.241	7673.43502
844.425	7659.01253
844.609	7632.22515
844.793	7518.85407
844.977	7613.67794
845.161	7225.84805
845.346	7353.83438
845.53	7364.15218
845.714	7428.11042
845.898	6932.39653
846.082	7087.44471
846.266	7006.83545
846.45	7357.96157
846.634	7207.26235
846.818	7199.00146
847.002	7039.91004
847.186	7281.59442
847.37	7010.97008
847.554	7265.07865
847.738	7194.87089
847.922	7223.78306
848.106	7048.17779
848.29	6986.1609
848.473	7221.71805
848.657	7279.53002
848.841	7351.77075
849.025	7240.30236
849.209	7033.70899
849.392	7273.33671
849.576	7143.2312
849.76	7039.91004
849.944	6944.80505
850.127	7000.63332
850.311	6932.39653
850.495	7060.57875
850.678	6816.54435
850.862	7027.50774
851.046	6915.85057
851.229	7033.70899
851.413	6862.0662
851.596	6862.0662
851.78	6876.54812
851.964	7170.08557
852.147	6742.03025
852.331	6961.34847
852.514	6592.91288
852.698	6634.34634
852.881	6443.67583
853.065	7019.23909
853.248	6510.01824
853.431	6986.1609
853.615	6733.74907
853.798	6857.92831
853.982	6719.25613
854.165	6603.27211
854.348	6642.63192
854.532	6694.40848
854.715	6387.6809
854.898	6395.97752
855.081	6383.53245
855.265	6717.18562
855.448	6140.6855
855.631	6514.16385
855.814	6252.80854
855.997	6555.61487
856.181	6439.52864
856.364	6597.05664
856.547	6385.60669
856.73	6352.41612
856.913	6252.80854
857.096	6389.75509
857.279	5995.23885
857.462	6157.30064
857.645	6180.144
857.828	6269.41354
858.011	6128.22316
858.194	6315.06959
858.377	5976.53019
858.56	6175.99088
858.743	6076.28764
858.926	6078.36534
859.109	6049.27535
859.292	6030.57221
859.475	5799.74313
859.658	6101.21852
859.841	5835.11418
860.023	5978.60903
860.206	5610.288
860.389	5722.7355
860.572	5487.3501
860.755	5862.15803
860.937	5624.86841
861.12	5766.4465
861.303	5920.39277
861.486	5824.71164
861.668	5687.34278
861.851	5864.23816
862.034	5595.70644
862.216	5662.35558
862.399	5456.08164
862.581	5654.02576
862.764	5516.52923
862.947	5579.04038
863.129	5491.51883
863.312	5626.95123
863.494	5366.41606
863.677	5570.70679
863.859	5464.42041
864.042	5485.26571
864.224	5645.69556
864.406	5649.86071
864.589	5347.64335
864.771	5560.28926
864.954	5389.3579
865.136	5333.04104
865.318	4986.42271
865.501	5395.61427
865.683	5061.64731
865.865	5431.06306
866.048	5328.86874
866.23	5245.40309
866.412	5330.9549
866.594	5199.48105
866.777	5080.44877
866.959	5228.70547
867.141	4948.79921
867.323	5128.48843
867.505	5021.94917
867.687	5182.77932
867.869	4936.25638
868.052	5268.35988
868.234	5067.91467
868.416	5172.33999
868.598	4785.67819
868.78	5017.76993
868.962	4984.33271
869.144	5255.83834
869.326	5065.82557
869.508	5049.11195
869.69	4760.57035
869.872	5113.86896
870.054	4886.07682
870.236	5218.2687
870.417	4959.25093
870.599	5364.33029
870.781	4998.96222
870.963	5095.07084
871.145	4936.25638
871.327	5078.35981
871.508	4714.53082
871.69	5007.32143
871.872	4883.98572
872.054	4986.42271
872.235	4783.586
872.417	4883.98572
872.599	4760.57035
872.78	4877.71228
872.962	4827.51734
873.144	4750.10778
873.325	4802.41494
873.507	5278.79384
873.689	4963.43146
873.87	5103.42579
874.052	5015.68028
874.233	5055.37973
874.415	4923.71273
874.596	5287.14059
874.778	4710.34487
874.959	4873.52987
875.141	4873.52987
875.322	5090.89322
875.503	4664.29343
875.685	4896.53198
875.866	4777.30927
876.048	4965.52168
876.229	4701.97269
876.41	4777.30927
876.592	4513.50391
876.773	4779.40154
876.954	4492.55181
877.136	4796.13883
877.317	4618.23113
877.498	4802.41494
877.679	4542.83313
877.86	4729.18095
878.042	4712.43786
878.223	4783.586
878.404	4754.29287
878.585	4904.8957
878.766	4641.26364
878.947	4808.69085
879.128	4593.10167
879.309	4923.71273
879.49	4888.1679
879.672	4952.97996
879.853	4829.60906
880.034	4934.16583
880.215	4685.22725
880.396	4823.33383
880.576	4762.66279
880.757	4785.67819
880.938	4429.68231
881.119	4852.61645
881.3	4660.1064
881.481	4944.61836
881.662	4729.18095
881.843	4980.15265
882.023	4827.51734
882.204	4896.53198
882.385	4741.73732
882.566	4860.98209
882.747	4701.97269
882.927	4871.43863
883.108	4672.66723
883.289	4693.60015
883.469	4609.855
883.65	4773.12468
883.831	4936.25638
884.011	4973.88237
884.192	4971.79223
884.373	5149.3714
884.553	5151.45957
884.734	4992.69257
884.914	4835.88407
885.095	5032.39686
885.275	4791.95465
885.456	4911.16825
885.636	4911.16825
885.817	5241.22883
885.997	4923.71273
886.178	5153.54772
886.358	5005.23167
886.538	5234.96726
886.719	4919.53133
886.899	5026.12831
887.08	4944.61836
887.26	5174.4279
887.44	4858.89071
887.621	5138.9302
887.801	4783.586
887.981	5189.04264
888.161	4984.33271
888.342	4902.80481
888.522	4961.3412
888.702	4913.25905
888.882	4729.18095
889.062	5078.35981
889.242	4662.19993
889.423	4630.79465
889.603	4701.97269
889.783	5078.35981
889.963	4917.44059
890.143	5044.93332
890.323	4852.61645
890.503	5136.8419
890.683	4844.25044
890.863	5143.10675
891.043	4833.79242
891.223	4929.98466
891.403	4517.69406
891.583	5024.03875
891.763	4593.10167
891.943	4846.34198
892.122	4591.0074
892.302	4840.0673
892.482	4469.50196
892.662	4691.50696
892.842	4567.969
893.022	4626.6069
893.201	4521.88413
893.381	4777.30927
893.561	4609.855
893.741	4714.53082
893.92	4511.4088
894.1	4844.25044
894.28	4398.24017
894.459	4802.41494
894.639	4500.93291
894.819	4743.82997
894.998	4840.0673
895.178	4662.19993
895.357	4601.47851
895.537	4678.94734
895.716	4417.10604
895.896	4856.79932
896.075	4459.02387
896.255	4492.55181
896.434	4207.38678
896.614	4681.04067
896.793	4299.68978
896.973	4660.1064
897.152	4303.88439
897.331	4745.92259
897.511	4352.11616
897.69	4287.10545
897.87	4236.7604
898.049	4085.65199
898.228	4106.64578
898.407	4196.89519
898.587	4010.05719
898.766	4249.34782
898.945	3823.05675
899.124	4024.75827
899.304	4108.74504
899.483	4224.17222
899.662	3827.26075
899.841	4031.05843
900.02	3974.35038
900.199	4198.99355
900.378	4049.95778
900.557	4098.24851
900.737	3762.08992
900.916	3942.83948
901.095	3631.69239
901.274	3892.41258
901.453	3823.05675
901.632	3787.31958
901.811	3860.88989
901.989	3774.7051
902.168	3591.71722
902.347	3833.5666
902.526	3408.58805
902.705	3669.55732
902.884	3438.06635
903.063	3688.48747
903.242	3545.42177
903.42	3829.36272
903.599	3560.15311
903.778	3341.19608
903.957	3320.13243
904.135	3412.79945
904.314	3172.63942
904.493	3652.72922
904.672	3265.35892
904.85	3568.57062
905.029	3147.34675
905.207	3341.19608
905.386	2974.45254
905.565	3134.69955
905.743	3225.3249
905.922	3277.99998
906.1	2974.45254
906.279	3341.19608
906.457	2953.36083
906.636	3275.89318
906.814	2957.57929
906.993	3012.41384
907.171	3014.52266
907.35	3079.88834
907.528	2767.69141
907.707	3098.86266
907.885	2837.33025
908.063	2885.85743
908.242	2947.03302
908.42	3143.13108
908.598	2704.37062
908.777	2816.22916
908.955	2434.07632
909.133	2835.22021
909.311	2408.72664
909.49	2763.4704
909.668	2584.02931
909.846	2769.8019
910.024	2510.11598
910.202	2573.47114
910.38	2341.1202
910.559	2674.81689
910.737	2480.54671
910.915	2522.78785
911.093	2364.36109
911.271	2643.14941
911.449	2446.75059
911.627	2609.36767
911.805	2567.1361
911.983	2776.13328
912.161	2685.37209
912.339	3014.52266
912.517	2928.04881
912.695	2940.70508
912.872	2624.14757
913.05	2982.88881
913.228	2860.53984
913.406	2790.90602
913.584	2708.59238
913.762	2803.56784
913.939	2757.13878
914.117	2828.88998
914.295	2615.70199
914.473	2814.11897
914.65	2717.03573
914.828	2862.64972
915.006	2790.90602
915.184	2879.52823
915.361	2562.91268
915.539	2755.02821
915.716	2550.24214
915.894	2852.10019
916.072	2592.47562
916.249	2784.57493
916.427	2501.66784
916.604	2691.70505
916.782	2577.69444
916.959	2957.57929
917.137	2826.77988
917.314	2805.67809
917.492	2463.649
917.669	2594.58717
917.847	2404.50155
918.024	2531.23553
918.201	2377.03742
918.379	2573.47114
918.556	2218.55824
918.733	2307.31315
918.911	2286.1825
919.088	2442.52587
919.265	2074.82796
919.442	2332.66867
919.62	2153.03873
919.797	2336.89446
919.974	2165.72055
920.151	2383.37545
920.328	1992.37885
920.506	2227.01177
920.683	2100.19475
920.86	2315.76515
921.037	2237.57849
921.214	2355.90999
921.391	2146.69771
921.568	2172.06135
921.745	2091.73927
921.922	2311.53917
922.099	2125.56047
922.276	2235.46516
922.453	1905.69114
922.63	2254.48478
922.807	1947.97907
922.984	2163.60693
923.161	1876.08828
923.338	2144.58402
923.514	1838.02599
923.691	1950.09341
923.868	1812.65028
924.045	1935.29293
924.222	1749.20833
924.399	1996.60726
924.575	1670.95878
924.752	1890.88984
924.929	1747.09354
925.105	1888.77534
925.282	1656.15435
925.459	1926.83539
925.635	1880.31732
925.812	2007.17816
925.989	1916.26333
926.165	1880.31732
926.342	1647.69462
926.518	1654.03943
926.695	1541.94521
926.871	1711.14153
927.048	1639.23485
927.224	1831.68213
927.401	1360.05143
927.577	1582.1305
927.754	1457.34346
927.93	1622.3152
928.107	1552.52034
928.283	1550.40531
928.459	1389.6619
928.636	1660.3842
928.812	1404.4672
928.988	1575.78549
929.165	1398.12207
929.341	1499.64446
929.517	1292.37139
929.693	1393.89199
929.87	1239.49783
930.046	1465.80367
930.222	1135.87131
930.398	1250.07242
930.574	1186.62608
930.751	1402.35216
930.927	1207.77453
931.103	1256.4172
931.279	979.39514
931.455	1288.14145
931.631	1068.20228
931.807	1288.14145
931.983	1233.15312
932.159	1343.13127
932.335	1013.22517
932.511	1104.15084
932.687	930.7675
932.863	1152.78931
933.039	1034.36975
933.215	1135.87131
933.391	951.90949
933.566	1070.31686
933.742	947.68104
933.918	932.88167
934.094	776.4556
934.27	1008.99632
934.445	795.47777
934.621	827.18311
934.797	624.30913
934.973	721.50723
935.148	706.71465
935.324	755.32078
935.5	622.19641
935.675	717.28072
935.851	546.14697
936.027	679.24418
936.202	565.15772
936.378	622.19641
936.553	579.94462
936.729	552.48376
936.904	489.12151
937.08	556.70836
937.255	463.78027
937.431	444.77578
937.606	402.54813
937.782	440.55273
937.957	360.32701
938.133	470.11538
938.308	360.32701
938.483	358.21613
938.659	297.00827
938.834	271.68532
939.009	233.70599
939.185	301.22902
939.36	246.36508
939.535	250.58493
939.71	242.1453
939.886	305.44984
940.061	273.79547
940.236	210.49949
940.411	197.84241
940.586	235.81579
940.761	214.71868
940.937	197.84241
941.112	218.93794
941.287	275.90563
941.462	115.58952
941.637	259.02486
941.812	130.35049
941.987	138.7858
942.162	153.54842
942.337	216.8283
942.512	147.22146
942.687	197.84241
942.862	227.37671
943.037	79.74592
943.212	191.51415
943.386	121.91552
943.561	62.88058
943.736	197.84241
943.911	157.7665
944.086	117.69816
944.26	147.22146
944.435	155.65745
944.61	172.53045
944.785	81.85419
944.959	132.45929
945.134	147.22146
945.309	172.53045
945.483	140.89469
945.658	113.4809
945.833	143.00359
946.007	172.53045
946.182	168.31207
946.357	71.31307
946.531	92.39587
946.706	155.65745
946.88	88.17913
947.055	138.7858
947.229	174.63967
947.404	75.52945
947.578	132.45929
947.752	115.58952
947.927	138.7858
948.101	113.4809
948.276	168.31207
948.45	185.18606
948.624	166.20292
948.799	147.22146
948.973	117.69816
949.147	111.37229
949.321	149.33043
949.496	105.04662
949.67	126.13296
949.844	147.22146
950.018	193.62355
950.193	115.58952
950.367	138.7858
950.541	189.40476
950.715	191.51415
950.889	113.4809
951.063	202.06136
951.237	180.96744
951.411	197.84241
951.585	202.06136
951.759	237.92561
951.933	155.65745
952.107	204.17086
952.281	134.5681
952.455	214.71868
952.629	149.33043
952.803	214.71868
952.977	124.02423
953.151	168.31207
953.325	128.24171
953.499	214.71868
953.672	121.91552
953.846	202.06136
954.02	227.37671
954.194	147.22146
954.368	197.84241
954.541	140.89469
954.715	206.28038
954.889	164.09378
955.062	86.0708
955.236	210.49949
955.41	206.28038
955.583	193.62355
955.757	237.92561
955.93	159.87558
956.104	185.18606
956.278	138.7858
956.451	214.71868
956.625	147.22146
956.798	242.1453
956.972	172.53045
957.145	155.65745
957.319	235.81579
957.492	96.6127
957.665	189.40476
957.839	195.73297
958.012	115.58952
958.185	189.40476
958.359	130.35049
958.532	191.51415
958.705	218.93794
958.879	197.84241
959.052	172.53045
959.225	126.13296
959.398	214.71868
959.572	121.91552
959.745	172.53045
959.918	191.51415
960.091	128.24171
960.264	130.35049
960.438	206.28038
960.611	166.20292
960.784	117.69816
960.957	71.31307
961.13	94.50427
961.303	134.5681
961.476	107.15516
961.649	79.74592
961.822	117.69816
961.995	176.7489
962.168	206.28038
962.341	130.35049
962.514	151.43941
962.686	176.7489
962.859	121.91552
963.032	153.54842
963.205	119.80683
963.378	183.07674
963.551	195.73297
963.723	130.35049
963.896	278.01581
964.069	81.85419
964.242	221.0476
964.414	147.22146
964.587	225.26699
964.76	174.63967
964.932	100.82962
965.105	94.50427
965.278	109.26371
965.45	124.02423
965.623	132.45929
965.795	64.98867
965.968	130.35049
966.14	151.43941
966.313	100.82962
966.485	121.91552
966.658	69.20492
966.83	193.62355
967.003	168.31207
967.175	109.26371
967.348	100.82962
967.52	157.7665
967.692	168.31207
967.865	121.91552
968.037	166.20292
968.209	130.35049
968.382	143.00359
968.554	73.42125
968.726	113.4809
968.898	94.50427
969.071	105.04662
969.243	48.12461
969.415	130.35049
969.587	58.66448
969.759	14.40096
969.932	107.15516
970.104	136.67694
970.276	130.35049
970.448	50.23254
970.62	164.09378
970.792	98.72115
970.964	75.52945
971.136	33.36978
971.308	157.7665
971.48	71.31307
971.652	126.13296
971.824	115.58952
971.996	88.17913
972.168	183.07674
972.339	90.28749
972.511	105.04662
972.683	153.54842
972.855	98.72115
973.027	145.11251
973.199	100.82962
973.37	73.42125
973.542	100.82962
973.714	113.4809
973.886	88.17913
974.057	73.42125
974.229	107.15516
974.401	71.31307
974.572	149.33043
974.744	113.4809
974.915	105.04662
975.087	145.11251
975.259	140.89469
975.43	109.26371
975.602	130.35049
975.773	62.88058
975.945	105.04662
976.116	52.34049
976.288	33.36978
976.459	71.31307
976.63	121.91552
976.802	138.7858
976.973	83.96248
977.145	100.82962
977.316	113.4809
977.487	37.58533
977.659	48.12461
977.83	105.04662
978.001	105.04662
978.172	159.87558
978.344	130.35049
978.515	145.11251
978.686	73.42125
978.857	10.18593
979.028	79.74592
979.2	83.96248
979.371	41.80097
979.542	71.31307
979.713	88.17913
979.884	113.4809
980.055	41.80097
980.226	96.6127
980.397	75.52945
980.568	62.88058
980.739	75.52945
980.91	54.44846
981.081	54.44846
981.252	130.35049
981.423	83.96248
981.594	46.01671
981.765	48.12461
981.936	71.31307
982.106	52.34049
982.277	79.74592
982.448	50.23254
982.619	140.89469
982.79	94.50427
982.96	117.69816
983.131	77.63768
983.302	39.69314
983.472	107.15516
983.643	83.96248
983.814	132.45929
983.984	22.83131
984.155	22.83131
984.326	3.86356
984.496	83.96248
984.667	41.80097
984.837	79.74592
985.008	54.44846
985.178	5.97099
985.349	81.85419
985.519	12.29343
985.69	130.35049
985.86	117.69816
986.031	22.83131
986.201	31.26204
986.371	64.98867
986.542	41.80097
986.712	33.36978
986.882	90.28749
987.053	37.58533
987.223	58.66448
987.393	22.83131
987.563	113.4809
987.734	35.47754
987.904	71.31307
988.074	88.17913
988.244	22.83131
988.414	-34.06606
988.585	105.04662
988.755	62.88058
988.925	50.23254
989.095	29.15432
989.265	50.23254
989.435	52.34049
989.605	14.40096
989.775	64.98867
989.945	64.98867
990.115	105.04662
990.285	67.09678
990.455	79.74592
990.625	56.55646
990.795	37.58533
990.965	67.09678
991.134	-17.20943
991.304	67.09678
991.474	88.17913
991.644	121.91552
991.814	56.55646
991.984	50.23254
992.153	77.63768
992.323	16.50851
992.493	16.50851
992.662	16.50851
992.832	92.39587
993.002	-21.42373
993.171	48.12461
993.341	-31.95906
993.511	75.52945
993.68	54.44846
993.85	138.7858
994.019	-8.78052
994.189	3.86356
994.358	39.69314
994.528	14.40096
994.697	10.18593
994.867	-44.60065
995.036	20.72369
995.206	62.88058
995.375	62.88058
995.544	64.98867
995.714	64.98867
995.883	31.26204
996.052	-19.31659
996.222	12.29343
996.391	115.58952
996.56	1.75615
996.73	35.47754
996.899	75.52945
997.068	83.96248
997.237	54.44846
997.406	43.90883
997.576	54.44846
997.745	14.40096
997.914	64.98867
998.083	86.0708
998.252	-42.49378
998.421	31.26204
998.59	5.97099
998.759	50.23254
998.928	147.22146
999.097	1.75615
999.266	56.55646
999.435	67.09678
999.604	96.6127
999.773	-8.78052
999.942	-10.88778
1000.111	73.42125
1000.28	14.40096
1000.448	3.86356
1000.617	81.85419
1000.786	54.44846
1000.955	-0.35123
1001.124	90.28749
1001.292	73.42125
1001.461	29.15432
1001.63	22.83131
1001.798	67.09678
1001.967	-0.35123
1002.136	-4.56592
1002.304	58.66448
1002.473	64.98867
1002.642	22.83131
1002.81	39.69314
1002.979	33.36978
1003.147	48.12461
1003.316	24.93896
1003.484	3.86356
1003.653	111.37229
1003.821	-8.78052
1003.99	71.31307
1004.158	41.80097
1004.327	62.88058
1004.495	37.58533
1004.663	16.50851
1004.832	90.28749
1005	-38.27997
1005.168	56.55646
1005.337	-8.78052
1005.505	54.44846
1005.673	37.58533
1005.842	-10.88778
1006.01	79.74592
1006.178	-21.42373
1006.346	56.55646
1006.514	20.72369
1006.683	46.01671
1006.851	46.01671
1007.019	46.01671
1007.187	3.86356
1007.355	67.09678
1007.523	62.88058
1007.691	22.83131
1007.859	18.61609
1008.027	12.29343
1008.195	54.44846
1008.363	14.40096
1008.531	105.04662
1008.699	46.01671
1008.867	90.28749
1009.035	39.69314
1009.203	16.50851
1009.37	-25.63794
1009.538	58.66448
1009.706	71.31307
1009.874	56.55646
1010.042	62.88058
1010.209	16.50851
1010.377	73.42125
1010.545	92.39587
1010.713	-38.27997
1010.88	22.83131
1011.048	-12.99502
1011.216	-2.45859
1011.383	88.17913
1011.551	16.50851
1011.718	12.29343
1011.886	31.26204
1012.054	-10.88778
1012.221	33.36978
1012.389	52.34049
1012.556	81.85419
1012.724	46.01671
1012.891	5.97099
1013.058	20.72369
1013.226	-12.99502
1013.393	24.93896
1013.561	-10.88778
1013.728	37.58533
1013.895	5.97099
1014.063	-63.56133
1014.23	-36.17303
1014.397	-6.67324
1014.565	62.88058
1014.732	-0.35123
1014.899	-21.42373
1015.066	14.40096
1015.233	-29.85205
1015.401	10.18593
1015.568	-15.10224
1015.735	50.23254
1015.902	37.58533
1016.069	113.4809
1016.236	35.47754
1016.403	86.0708
1016.57	20.72369
1016.737	39.69314
1016.904	92.39587
1017.071	67.09678
1017.238	109.26371
1017.405	102.93811
1017.572	16.50851
1017.739	92.39587
1017.906	54.44846
1018.073	-53.02787
1018.24	86.0708
1018.407	35.47754
1018.573	79.74592
1018.74	16.50851
1018.907	48.12461
1019.074	8.07845
1019.241	92.39587
1019.407	-0.35123
1019.574	29.15432
1019.741	-19.31659
1019.907	46.01671
1020.074	-6.67324
1020.241	64.98867
1020.407	1.75615
1020.574	-21.42373
1020.74	27.04663
1020.907	16.50851
1021.073	39.69314
1021.24	-42.49378
1021.406	73.42125
1021.573	-0.35123
1021.739	31.26204
1021.906	67.09678
1022.072	58.66448
1022.239	-10.88778
1022.405	22.83131
1022.571	8.07845
1022.738	-17.20943
1022.904	-0.35123
1023.07	-4.56592
1023.237	37.58533
1023.403	29.15432
1023.569	50.23254
1023.735	-46.70749
1023.902	71.31307
1024.068	71.31307
1024.234	29.15432
1024.4	-27.74501
1024.566	39.69314
1024.732	20.72369
1024.898	48.12461
1025.065	-4.56592
1025.231	31.26204
1025.397	12.29343
1025.563	58.66448
1025.729	12.29343
1025.895	-12.99502
1026.061	22.83131
1026.227	8.07845
1026.392	5.97099
1026.558	12.29343
1026.724	64.98867
1026.89	-0.35123
1027.056	22.83131
1027.222	-10.88778
1027.388	-2.45859
1027.553	8.07845
1027.719	12.29343
1027.885	-17.20943
1028.051	54.44846
1028.216	1.75615
1028.382	22.83131
1028.548	3.86356
1028.713	33.36978
1028.879	12.29343
1029.045	3.86356
1029.21	77.63768
1029.376	24.93896
1029.541	-4.56592
1029.707	-2.45859
1029.873	29.15432
1030.038	29.15432
1030.204	22.83131
1030.369	1.75615
1030.534	39.69314
1030.7	-25.63794
1030.865	-63.56133
1031.031	37.58533
1031.196	-0.35123
1031.361	-8.78052
1031.527	46.01671
1031.692	81.85419
1031.857	119.80683
1032.023	20.72369
1032.188	41.80097
1032.353	-8.78052
1032.518	5.97099
1032.684	71.31307
1032.849	31.26204
1033.014	12.29343
1033.179	-86.73269
1033.344	-2.45859
1033.509	33.36978
1033.674	67.09678
1033.839	12.29343
1034.004	41.80097
1034.17	71.31307
1034.335	-23.53085
1034.5	37.58533
1034.664	-25.63794
1034.829	20.72369
1034.994	-21.42373
1035.159	-15.10224
1035.324	98.72115
1035.489	113.4809
1035.654	48.12461
1035.819	-63.56133
1035.984	-63.56133
1036.148	117.69816
1036.313	48.12461
1036.478	37.58533
1036.643	-19.31659
1036.807	20.72369
1036.972	79.74592
1037.137	18.61609
1037.301	117.69816
1037.466	-6.67324
1037.631	20.72369
1037.795	39.69314
1037.96	29.15432
1038.124	-4.56592
1038.289	3.86356
1038.454	50.23254
1038.618	75.52945
1038.783	-19.31659
1038.947	20.72369
1039.111	-27.74501
1039.276	-55.13461
1039.44	22.83131
1039.605	14.40096
1039.769	29.15432
1039.933	8.07845
1040.098	-23.53085
1040.262	20.72369
1040.426	33.36978
1040.591	14.40096
1040.755	67.09678
1040.919	-46.70749
1041.083	10.18593
1041.248	8.07845
1041.412	-50.9211
1041.576	-4.56592
1041.74	-65.66794
1041.904	62.88058
1042.068	64.98867
1042.232	29.15432
1042.397	20.72369
1042.561	41.80097
1042.725	1.75615
1042.889	60.77252
1043.053	27.04663
1043.217	62.88058
1043.381	5.97099
1043.544	31.26204
1043.708	37.58533
1043.872	56.55646
1044.036	-15.10224
1044.2	58.66448
1044.364	64.98867
1044.528	-15.10224
1044.691	60.77252
1044.855	20.72369
1045.019	67.09678
1045.183	-10.88778
1045.346	12.29343
1045.51	-29.85205
1045.674	50.23254
1045.837	41.80097
1046.001	92.39587
1046.165	39.69314
1046.328	-38.27997
1046.492	50.23254
1046.655	29.15432
1046.819	-88.83902
1046.983	67.09678
1047.146	12.29343
1047.31	81.85419
1047.473	16.50851
1047.636	79.74592
1047.8	-57.24133
1047.963	-12.99502
1048.127	10.18593
1048.29	-0.35123
