Data from mixed_try1_USB4F045381__25__00129.txt Node

Date: Thu Apr 03 20:01:40 EDT 2025
User: mmckonesweet
Spectrometer: USB4F04538
Trigger mode: 4
Integration Time (sec): 2.700000E-3
Scans to average: 1
Electric dark correction enabled: true
Nonlinearity correction enabled: true
Boxcar width: 0
XAxis mode: Wavelengths
Number of Pixels in Spectrum: 3648
>>>>>Begin Spectral Data<<<<<
345.52	5.09289
345.736	5.09289
345.952	5.09289
346.168	-37.05092
346.384	-13.87303
346.6	116.81956
346.816	-9.65855
347.032	-37.05092
347.248	15.63036
347.464	-15.98024
347.68	24.06077
347.896	13.52282
348.112	7.20034
348.328	9.30781
348.544	-32.83698
348.76	-5.44397
348.975	-85.50398
349.191	15.63036
349.407	-1.2293
349.623	-5.44397
349.839	15.63036
350.055	-28.62294
350.27	-15.98024
350.486	-66.54569
350.702	-30.72997
350.918	7.20034
351.133	32.49155
351.349	-28.62294
351.565	-7.55127
351.781	-74.97185
351.996	-28.62294
352.212	-9.65855
352.428	-60.2258
352.644	-30.72997
352.859	47.24632
353.075	19.84552
353.291	28.27611
353.506	-41.26476
353.722	36.70708
353.938	-77.07833
354.153	24.06077
354.369	-32.83698
354.584	-22.3017
354.8	-26.51589
355.016	-110.77844
355.231	9.30781
355.447	15.63036
355.662	11.4153
355.878	-13.87303
356.093	-37.05092
356.309	-9.65855
356.524	15.63036
356.74	40.92271
356.955	32.49155
357.171	-41.26476
357.386	32.49155
357.602	-41.26476
357.817	-1.2293
358.033	-43.37164
358.248	-15.98024
358.464	43.03055
358.679	-30.72997
358.895	-34.94396
359.11	-51.79892
359.325	-15.98024
359.541	102.05957
359.756	34.5993
359.972	-3.33665
360.187	-102.35404
360.402	2.98547
360.618	24.06077
360.833	24.06077
361.048	24.06077
361.264	19.84552
361.479	68.32652
361.694	-22.3017
361.909	-49.69214
362.125	-77.07833
362.34	40.92271
362.555	7.20034
362.77	-83.39761
362.986	7.20034
363.201	-34.94396
363.416	40.92271
363.631	-1.2293
363.847	36.70708
364.062	11.4153
364.277	-49.69214
364.492	-18.08741
364.707	-39.15785
364.922	2.98547
365.138	-26.51589
365.353	21.95313
365.568	38.81488
365.783	24.06077
365.998	66.2184
366.213	32.49155
366.428	-70.75882
366.643	2.98547
366.858	-5.44397
367.073	-1.2293
367.288	49.35423
367.503	-32.83698
367.718	24.06077
367.933	-51.79892
368.148	11.4153
368.363	2.98547
368.578	-15.98024
368.793	36.70708
369.008	-34.94396
369.223	-30.72997
369.438	-7.55127
369.653	-41.26476
369.868	-26.51589
370.083	51.46218
370.298	-43.37164
370.513	-18.08741
370.728	-7.55127
370.943	-26.51589
371.157	57.78613
371.372	-18.08741
371.587	57.78613
371.802	24.06077
372.017	-1.2293
372.232	-15.98024
372.446	-9.65855
372.661	19.84552
372.876	-15.98024
373.091	-68.65227
373.306	83.08402
373.52	34.5993
373.735	7.20034
373.95	7.20034
374.165	62.00222
374.379	40.92271
374.594	53.57014
374.809	83.08402
375.023	26.16843
375.238	-1.2293
375.453	38.81488
375.667	70.43467
375.882	11.4153
376.097	-47.58533
376.311	34.5993
376.526	-1.2293
376.741	-5.44397
376.955	-70.75882
377.17	-9.65855
377.384	24.06077
377.599	-5.44397
377.813	53.57014
378.028	2.98547
378.242	-24.40881
378.457	34.5993
378.672	-43.37164
378.886	-1.2293
379.101	-13.87303
379.315	59.89417
379.53	45.13842
379.744	13.52282
379.958	49.35423
380.173	-28.62294
380.387	-30.72997
380.602	-13.87303
380.816	49.35423
381.031	9.30781
381.245	-26.51589
381.459	-11.7658
381.674	38.81488
381.888	87.30066
382.103	-37.05092
382.317	-60.2258
382.531	68.32652
382.746	11.4153
382.96	-43.37164
383.174	-56.01241
383.388	-3.33665
383.603	26.16843
383.817	-18.08741
384.031	32.49155
384.246	-28.62294
384.46	97.84262
384.674	-13.87303
384.888	40.92271
385.103	-9.65855
385.317	-26.51589
385.531	53.57014
385.745	19.84552
385.959	-13.87303
386.174	17.73793
386.388	5.09289
386.602	-56.01241
386.816	64.1103
387.03	-18.08741
387.244	-22.3017
387.458	26.16843
387.672	-39.15785
387.887	-81.29121
388.101	2.98547
388.315	-9.65855
388.529	104.16807
388.743	-51.79892
388.957	74.65103
389.171	0.87808
389.385	17.73793
389.599	-34.94396
389.813	-32.83698
390.027	-41.26476
390.241	32.49155
390.455	32.49155
390.669	19.84552
390.883	0.87808
391.097	13.52282
391.311	91.51738
391.525	43.03055
391.738	40.92271
391.952	19.84552
392.166	34.5993
392.38	9.30781
392.594	-13.87303
392.808	19.84552
393.022	9.30781
393.236	32.49155
393.449	49.35423
393.663	-9.65855
393.877	-1.2293
394.091	-70.75882
394.305	-1.2293
394.518	26.16843
394.732	74.65103
394.946	59.89417
395.16	11.4153
395.373	45.13842
395.587	-34.94396
395.801	-43.37164
396.015	28.27611
396.228	-22.3017
396.442	-53.90568
396.656	-9.65855
396.869	-93.92922
397.083	68.32652
397.297	9.30781
397.51	-56.01241
397.724	-22.3017
397.938	-9.65855
398.151	2.98547
398.365	55.67812
398.578	70.43467
398.792	83.08402
399.005	40.92271
399.219	32.49155
399.433	66.2184
399.646	-15.98024
399.86	-7.55127
400.073	59.89417
400.287	-60.2258
400.5	43.03055
400.714	-3.33665
400.927	-22.3017
401.141	24.06077
401.354	-15.98024
401.567	-13.87303
401.781	19.84552
401.994	43.03055
402.208	51.46218
402.421	7.20034
402.635	68.32652
402.848	-64.43909
403.061	53.57014
403.275	24.06077
403.488	-34.94396
403.701	-1.2293
403.915	-30.72997
404.128	-1.2293
404.341	74.65103
404.555	-26.51589
404.768	-13.87303
404.981	-41.26476
405.195	26.16843
405.408	34.5993
405.621	24.06077
405.834	26.16843
406.048	-32.83698
406.261	34.5993
406.474	-34.94396
406.687	7.20034
406.9	-26.51589
407.114	15.63036
407.327	116.81956
407.54	-41.26476
407.753	-18.08741
407.966	66.2184
408.179	-26.51589
408.392	32.49155
408.605	9.30781
408.819	15.63036
409.032	36.70708
409.245	62.00222
409.458	-11.7658
409.671	-53.90568
409.884	15.63036
410.097	36.70708
410.31	-39.15785
410.523	0.87808
410.736	-34.94396
410.949	-41.26476
411.162	70.43467
411.375	28.27611
411.588	-74.97185
411.801	118.92822
412.014	17.73793
412.227	2.98547
412.44	-45.4785
412.653	28.27611
412.865	40.92271
413.078	-34.94396
413.291	40.92271
413.504	32.49155
413.717	13.52282
413.93	53.57014
414.143	9.30781
414.356	-7.55127
414.568	62.00222
414.781	9.30781
414.994	13.52282
415.207	7.20034
415.42	43.03055
415.632	-26.51589
415.845	-18.08741
416.058	26.16843
416.271	-26.51589
416.483	13.52282
416.696	57.78613
416.909	-1.2293
417.121	-1.2293
417.334	-51.79892
417.547	-45.4785
417.759	32.49155
417.972	40.92271
418.185	36.70708
418.397	26.16843
418.61	-5.44397
418.823	-13.87303
419.035	-24.40881
419.248	-32.83698
419.46	-39.15785
419.673	2.98547
419.885	7.20034
420.098	-30.72997
420.311	15.63036
420.523	26.16843
420.736	15.63036
420.948	-15.98024
421.161	-9.65855
421.373	53.57014
421.586	-34.94396
421.798	-22.3017
422.01	-39.15785
422.223	34.5993
422.435	2.98547
422.648	49.35423
422.86	0.87808
423.073	-15.98024
423.285	34.5993
423.497	32.49155
423.71	32.49155
423.922	70.43467
424.134	-15.98024
424.347	-5.44397
424.559	85.19233
424.771	7.20034
424.984	43.03055
425.196	17.73793
425.408	7.20034
425.621	17.73793
425.833	-43.37164
426.045	0.87808
426.257	-13.87303
426.47	-9.65855
426.682	51.46218
426.894	-30.72997
427.106	11.4153
427.318	-89.71665
427.531	-30.72997
427.743	47.24632
427.955	-22.3017
428.167	32.49155
428.379	32.49155
428.591	36.70708
428.804	32.49155
429.016	-26.51589
429.228	-15.98024
429.44	40.92271
429.652	34.5993
429.864	-28.62294
430.076	7.20034
430.288	24.06077
430.5	26.16843
430.712	66.2184
430.924	40.92271
431.136	53.57014
431.348	66.2184
431.56	-1.2293
431.772	7.20034
431.984	70.43467
432.196	51.46218
432.408	0.87808
432.62	-7.55127
432.832	32.49155
433.044	36.70708
433.256	-26.51589
433.468	7.20034
433.679	64.1103
433.891	49.35423
434.103	45.13842
434.315	99.95108
434.527	32.49155
434.739	66.2184
434.95	83.08402
435.162	24.06077
435.374	36.70708
435.586	-1.2293
435.798	83.08402
436.009	24.06077
436.221	-26.51589
436.433	24.06077
436.645	66.2184
436.856	7.20034
437.068	36.70708
437.28	15.63036
437.491	49.35423
437.703	53.57014
437.915	40.92271
438.126	-58.11912
438.338	0.87808
438.55	15.63036
438.761	57.78613
438.973	24.06077
439.184	45.13842
439.396	-7.55127
439.608	-18.08741
439.819	24.06077
440.031	34.5993
440.242	24.06077
440.454	7.20034
440.665	30.38382
440.877	17.73793
441.088	93.62577
441.3	36.70708
441.511	7.20034
441.723	24.06077
441.934	-13.87303
442.146	2.98547
442.357	51.46218
442.569	-11.7658
442.78	-1.2293
442.991	17.73793
443.203	9.30781
443.414	7.20034
443.626	70.43467
443.837	7.20034
444.048	85.19233
444.26	91.51738
444.471	47.24632
444.682	53.57014
444.894	24.06077
445.105	11.4153
445.316	43.03055
445.528	57.78613
445.739	43.03055
445.95	9.30781
446.161	78.86748
446.373	26.16843
446.584	110.49372
446.795	24.06077
447.006	-24.40881
447.217	102.05957
447.429	49.35423
447.64	34.5993
447.851	-56.01241
448.062	110.49372
448.273	-58.11912
448.484	34.5993
448.695	51.46218
448.907	30.38382
449.118	66.2184
449.329	-7.55127
449.54	-15.98024
449.751	68.32652
449.962	0.87808
450.173	40.92271
450.384	15.63036
450.595	85.19233
450.806	93.62577
451.017	-1.2293
451.228	5.09289
451.439	55.67812
451.65	-18.08741
451.861	43.03055
452.072	74.65103
452.283	49.35423
452.494	43.03055
452.705	7.20034
452.915	30.38382
453.126	62.00222
453.337	15.63036
453.548	57.78613
453.759	-7.55127
453.97	93.62577
454.181	13.52282
454.391	85.19233
454.602	43.03055
454.813	5.09289
455.024	78.86748
455.235	49.35423
455.445	49.35423
455.656	53.57014
455.867	53.57014
456.078	93.62577
456.288	-15.98024
456.499	57.78613
456.71	57.78613
456.921	55.67812
457.131	38.81488
457.342	-34.94396
457.553	148.45169
457.763	32.49155
457.974	49.35423
458.184	40.92271
458.395	15.63036
458.606	59.89417
458.816	-18.08741
459.027	-18.08741
459.237	104.16807
459.448	47.24632
459.659	66.2184
459.869	76.75925
460.08	-24.40881
460.29	127.36306
460.501	91.51738
460.711	83.08402
460.922	74.65103
461.132	57.78613
461.343	91.51738
461.553	28.27611
461.764	57.78613
461.974	40.92271
462.184	7.20034
462.395	91.51738
462.605	57.78613
462.816	26.16843
463.026	28.27611
463.236	121.0369
463.447	40.92271
463.657	34.5993
463.867	110.49372
464.078	-9.65855
464.288	108.38515
464.498	40.92271
464.709	40.92271
464.919	74.65103
465.129	80.97574
465.339	7.20034
465.55	15.63036
465.76	36.70708
465.97	51.46218
466.18	102.05957
466.391	45.13842
466.601	112.60231
466.811	106.2766
467.021	76.75925
467.231	91.51738
467.441	112.60231
467.651	108.38515
467.862	116.81956
468.072	102.05957
468.282	89.40901
468.492	108.38515
468.702	64.1103
468.912	106.2766
469.122	24.06077
469.332	83.08402
469.542	133.68943
469.752	83.08402
469.962	102.05957
470.172	68.32652
470.382	150.56067
470.592	93.62577
470.802	108.38515
471.012	125.25432
471.222	125.25432
471.432	142.12488
471.642	137.90711
471.852	57.78613
472.062	144.23379
472.272	110.49372
472.482	163.21498
472.691	142.12488
472.901	118.92822
473.111	167.43326
473.321	152.66967
473.531	133.68943
473.741	182.19786
473.95	158.99679
474.16	207.51095
474.37	207.51095
474.58	256.03568
474.79	258.14568
474.999	209.6205
475.209	262.36575
475.419	167.43326
475.628	218.05892
475.838	218.05892
476.048	142.12488
476.258	302.46008
476.467	281.35697
476.677	310.90184
476.886	327.78622
477.096	351.00409
477.306	272.91624
477.515	346.78251
477.725	243.37606
477.935	260.25571
478.144	336.22884
478.354	397.44606
478.563	346.78251
478.773	410.11344
478.982	471.34722
479.192	370.00209
479.401	429.11561
479.611	462.9004
479.82	429.11561
480.03	448.11907
480.239	505.13686
480.449	462.9004
480.658	505.13686
480.868	509.36083
481.077	644.55668
481.287	530.48154
481.496	515.69689
481.705	591.73939
481.915	614.97804
482.124	581.17689
482.333	633.9926
482.543	490.35343
482.752	733.30644
482.961	593.85193
483.171	722.73996
483.38	707.94735
483.589	752.32677
483.799	847.44038
484.008	724.85324
484.217	826.30238
484.426	822.07489
484.636	877.03503
484.845	786.14272
485.054	784.02915
485.263	991.20022
485.472	944.6859
485.682	999.65772
485.891	927.77245
486.1	1046.17573
486.309	1039.83219
486.518	1206.89334
486.727	993.31459
486.936	1232.27191
487.146	1022.91636
487.355	1103.26973
487.564	1141.33439
487.773	1259.76584
487.982	1194.20423
488.191	1369.74532
488.4	1291.49015
488.609	1236.50171
488.818	1363.40023
489.027	1486.0729
489.236	1312.63997
489.445	1513.56849
489.654	1274.57045
489.863	1566.4442
490.072	1528.37376
490.281	1519.91361
490.49	1541.06395
490.698	1562.21417
490.907	1530.48879
491.116	1699.68604
491.325	1663.73283
491.534	1659.50299
491.743	1725.06424
491.952	1875.20722
492.16	1731.40872
492.369	2042.23714
492.578	1824.45712
492.787	1940.75504
492.996	1970.35549
493.204	2048.57927
493.413	1841.37413
493.622	2052.80732
493.831	1923.83999
494.039	2150.04437
494.248	2107.76935
494.457	2207.11052
494.665	2107.76935
494.874	2173.29427
495.083	2120.45219
495.291	2361.36801
495.5	2122.56596
495.709	2331.7883
495.917	2249.37773
496.126	2327.56246
496.335	2418.40899
496.543	2412.07148
496.752	2272.62317
496.96	2466.99339
497.169	2424.74641
497.377	2469.10563
497.586	2308.54575
497.794	2652.82589
498.003	2407.84642
498.211	2602.15345
498.42	2488.11524
498.628	2543.02678
498.837	2728.82089
499.045	2741.48509
499.254	2483.89096
499.462	2817.46009
499.671	2908.18443
499.879	3007.31747
500.087	2863.88047
500.296	2944.04484
500.504	2931.38871
500.713	3167.54594
500.921	2933.4981
501.129	2910.29398
501.338	2813.23973
501.546	3144.36066
501.754	2908.18443
501.962	3218.12516
502.171	2977.79193
502.379	3312.93529
502.587	3051.60018
502.795	3327.68043
503.004	2982.01004
503.212	3380.33474
503.42	3228.6613
503.628	3432.97809
503.837	3243.41119
504.045	3237.08991
504.253	3369.80475
504.461	3260.26721
504.669	3365.59263
504.877	3472.97958
505.085	3270.80167
505.294	3472.97958
505.502	3569.79814
505.71	3508.76486
505.918	3420.34469
506.126	3647.64549
506.334	3504.5551
506.542	3590.8405
506.75	3449.82161
506.958	3717.05504
507.166	3592.94463
507.374	3698.12723
507.582	3649.74912
507.79	3881.0299
507.998	3733.87845
508.206	4067.98061
508.414	3780.13642
508.622	3857.91251
508.83	3727.56982
509.037	3826.38492
509.245	3719.15803
509.453	3958.77056
509.661	3790.64828
509.869	4271.54875
510.077	3773.82907
510.285	4164.5428
510.492	3975.57571
510.7	4279.93902
510.908	4019.68301
511.116	4235.88625
511.324	4179.23316
511.531	4235.88625
511.739	4103.67178
511.947	4453.95927
512.155	4267.35348
512.362	4506.34552
512.57	4386.88485
512.778	4277.84149
512.985	4189.72564
513.193	4307.20506
513.401	4470.72436
513.608	4489.58342
513.816	4474.91542
514.024	4531.48603
514.231	4420.42486
514.439	4562.90717
514.646	4445.57619
514.854	4644.5787
515.061	4311.39951
515.269	4665.51463
515.477	4575.47423
515.684	4839.19581
515.892	4583.85182
516.099	4724.12329
516.307	4684.35506
516.514	4826.64578
516.722	4715.75171
516.929	4805.72725
517.136	4858.0193
517.344	4644.5787
517.551	4889.38768
517.759	4958.37997
517.966	4730.40174
518.173	4722.03043
518.381	5002.27112
518.588	4927.02294
518.796	4941.65687
519.003	5148.50132
519.21	5004.36092
519.418	5071.22236
519.625	5031.52624
519.832	5133.88342
520.039	5115.08729
520.247	5102.5555
520.454	5023.16809
520.661	5323.82709
520.868	5131.79505
521.076	5426.02418
521.283	5307.1365
521.49	5442.70407
521.697	5409.34279
521.904	5553.17028
522.112	5225.74845
522.319	5630.24898
522.526	5190.26049
522.733	5563.58821
522.94	5657.32303
523.147	5315.48198
523.354	5405.17221
523.561	5461.46714
523.768	5748.92866
523.975	5723.94983
524.183	5848.80996
524.39	5882.09164
524.597	5651.07552
524.804	5857.13095
525.011	5715.6228
525.218	5717.7046
525.425	5692.72153
525.632	5859.21113
525.838	5828.00584
526.045	5719.78637
526.252	5773.90408
526.459	6042.17531
526.666	5873.77179
526.873	6058.79937
527.08	6060.87727
527.287	6060.87727
527.494	5813.44155
527.701	6337.02888
527.907	6021.39312
528.114	6231.18519
528.321	6173.04902
528.528	6268.54874
528.735	6085.81025
528.941	6363.99892
529.148	6131.51192
529.355	6235.33707
529.562	6200.0431
529.768	6482.2057
529.975	6023.47144
530.182	6461.47313
530.388	6399.26149
530.595	6525.73653
530.802	6438.66463
531.008	6548.53431
531.215	6372.29661
531.422	6755.65888
531.628	6647.98283
531.835	6505.00884
532.042	6672.83666
532.248	6631.41177
532.455	6819.82092
532.661	6819.82092
532.868	6790.84723
533.074	6894.30419
533.281	6865.34197
533.487	6890.167
533.694	6761.86907
533.9	6840.51367
534.107	6788.77751
534.313	6968.75808
534.52	7020.44496
534.726	7034.91477
534.933	7045.24967
535.139	7125.84271
535.345	7251.83061
535.552	6985.29941
535.758	7144.43629
535.965	7142.37042
536.171	7028.71356
536.377	7070.05115
536.584	7185.74889
536.79	7202.27144
536.996	7342.65614
537.203	7204.33666
537.409	7187.81428
537.615	7406.62141
537.821	6946.01139
538.028	7458.19107
538.234	7435.50209
538.44	7608.69738
538.646	7427.2509
538.853	7581.90325
539.059	7398.369
539.265	7371.54627
539.471	7418.99936
539.677	7654.0331
539.883	7651.9726
540.09	7835.27386
540.296	7763.20892
540.502	7892.90748
540.708	7862.03434
540.914	7892.90748
541.12	7742.61424
541.326	7901.13953
541.532	7909.37125
541.738	7964.92676
541.944	7789.97888
542.15	8094.49847
542.356	7868.20934
542.562	8195.22118
542.768	8082.16177
542.974	8166.44815
543.18	7892.90748
543.386	8380.09832
543.592	8176.72468
543.798	8143.83804
544.004	8154.11566
544.21	8205.49631
544.415	8135.61558
544.621	8390.36464
544.827	8238.37342
545.033	8419.10776
545.239	8406.78974
545.445	8382.15162
545.651	8279.46269
545.856	8462.21537
546.062	8404.73667
546.268	8540.19821
546.474	8320.54412
546.679	8361.61773
546.885	8324.65183
547.091	8735.03657
547.297	8369.83152
547.502	8474.53028
547.708	8495.0536
547.914	8607.89799
548.119	8702.23342
548.325	8700.18307
548.531	8597.64176
548.736	8560.71546
548.942	8287.67961
549.147	8784.2325
549.353	8716.58538
549.559	8653.01984
549.764	8712.48491
549.97	8788.33168
550.175	8749.38647
550.381	9185.61449
550.586	8778.08358
550.792	9304.2636
550.997	8892.83649
551.203	8923.56431
551.408	8939.95085
551.614	8909.22516
551.819	8954.28814
552.025	8905.1281
552.23	9048.48313
552.435	9226.53436
552.641	9206.07527
552.846	9455.56255
553.052	9275.62932
553.257	9377.87969
553.462	9455.56255
553.668	9291.99216
553.873	9494.39522
554.078	9490.30785
554.283	9238.80901
554.489	9641.49855
554.694	9525.04851
554.899	9641.49855
555.105	9345.16407
555.31	9494.39522
555.515	9508.70054
555.72	9868.12591
555.925	9635.37087
556.131	9845.67563
556.336	9639.456
556.541	9520.96161
556.746	9561.82773
556.951	9857.92146
557.156	9592.47318
557.361	9853.83958
557.567	9890.5744
557.772	10047.66438
557.977	9745.64786
558.182	9770.1478
558.387	10145.54775
558.592	9998.71046
558.797	9764.02302
559.002	10051.7435
559.207	9866.08505
559.412	10127.19708
559.617	9876.2892
559.822	9976.27048
560.027	9715.01985
560.232	10178.16838
560.437	9992.59063
560.642	10023.18845
560.847	9796.68695
561.051	10278.04723
561.256	9908.94001
561.461	10080.29577
561.666	9917.10213
561.871	10398.26668
562.076	10092.53161
562.281	10463.45133
562.485	9990.55066
562.69	10420.6754
562.895	10015.02935
563.1	10233.20771
563.305	10104.76695
563.509	10418.63831
563.714	10125.15804
563.919	10557.13124
564.123	10408.45266
564.328	10420.6754
564.533	10424.74954
564.737	10381.96843
564.942	10436.97166
565.147	10707.77826
565.351	10308.61589
565.556	10685.38903
565.761	10485.8555
565.965	10685.38903
566.17	10512.33116
566.374	10691.49533
566.579	10597.85332
566.784	10746.44714
566.988	10722.02519
567.193	10781.04195
567.397	10587.67327
567.602	10612.10487
567.806	10461.41451
568.011	10850.22137
568.215	10758.65746
568.42	11055.64689
568.624	10805.45976
568.828	10915.31916
569.033	10793.25107
569.237	11295.50828
569.442	11035.31281
569.646	10838.01422
569.85	10984.4728
570.055	11214.21571
570.259	11004.80963
570.463	11291.44404
570.668	10998.7087
570.872	11281.28326
571.076	11179.66135
571.281	10945.82972
571.485	10972.27016
571.689	11078.01312
571.893	10842.08331
572.098	11480.38901
572.302	11248.76706
572.506	11443.82563
572.71	11130.87353
572.914	11480.38901
573.119	11360.53062
573.323	11419.44831
573.527	11230.47554
573.731	11370.68943
573.935	11561.62992
574.139	11384.91136
574.343	11435.70001
574.547	11433.66858
574.751	11707.8263
574.955	11805.26493
575.159	11561.62992
575.364	11411.32222
575.568	11527.10437
575.772	11555.53737
575.976	11492.57611
576.18	11478.35779
576.383	11634.73399
576.587	11638.79498
576.791	11701.73572
576.995	11894.56637
577.199	11736.24798
577.403	11831.65114
577.607	11740.30807
577.811	12105.57982
578.015	11894.56637
578.219	11837.74007
578.422	11744.36814
578.626	12115.72257
578.83	11782.93701
579.034	12083.26511
579.238	11886.44872
579.442	12127.89361
579.645	12008.19966
579.849	12131.95057
580.053	12385.45232
580.257	11916.8892
580.46	12034.57523
580.664	12168.4618
580.868	12056.89198
581.071	12393.56257
581.275	12073.12175
581.479	12215.11155
581.682	12006.17072
581.886	12209.02702
582.09	12290.14873
582.293	12324.62201
582.497	12164.40512
582.7	12438.16698
582.904	12535.47466
583.107	12308.39954
583.311	12081.23645
583.515	12470.60454
583.718	12178.60338
583.922	12369.23151
584.125	12373.28676
584.329	12590.20376
584.532	12498.98603
584.735	12841.49608
584.939	12578.04213
585.142	12715.86111
585.346	12401.6727
585.549	12630.74092
585.753	12628.71412
585.956	12458.44065
586.159	12728.02029
586.363	12920.51366
586.566	12723.96726
586.769	12794.89208
586.973	12819.20758
587.176	12794.89208
587.379	12701.67514
587.582	12792.86576
587.786	12756.3909
587.989	12959.00649
588.192	12788.81309
588.395	13084.60198
588.599	12918.48767
588.802	13033.96093
589.005	13035.98663
589.208	13441.03492
589.411	13068.39717
589.615	13196.00184
589.818	13005.6006
590.021	13092.70426
590.224	12973.18759
590.427	13266.88553
590.63	12971.16174
590.833	13404.58752
591.036	13165.62145
591.239	13418.76166
591.442	13295.23751
591.645	13410.66217
591.848	13236.50746
592.051	13732.57179
592.254	13080.5508
592.457	13432.93561
592.66	12991.42007
592.863	13665.7675
593.066	13720.42581
593.269	13647.54754
593.472	13461.28294
593.675	13586.81237
593.878	13471.40681
594.081	13611.10681
594.284	13637.42523
594.486	13787.2273
594.689	14036.18753
594.892	13611.10681
595.095	13483.55532
595.298	13742.69335
595.5	13700.18227
595.703	14125.23726
595.906	13542.27126
596.109	13716.37713
596.311	13758.88768
596.514	13793.3
596.717	13866.17036
596.92	14161.66546
597.122	13825.68729
597.325	13598.95965
597.528	13714.35278
597.73	14295.22995
597.933	13732.57179
598.136	14208.21163
598.338	13959.27725
598.541	14442.95135
598.743	14305.34813
598.946	14135.35628
599.148	14017.97226
599.351	13922.84479
599.554	13985.58907
599.756	14141.42766
599.959	14161.66546
600.161	14200.11672
600.363	14119.16583
600.566	14420.6925
600.768	14335.70244
600.971	14631.13333
601.173	14487.46853
601.376	14386.2921
601.578	14562.33686
601.78	14491.51551
601.983	14412.59833
602.185	14341.77325
602.388	14424.73958
602.59	14509.72687
602.792	14349.86765
602.995	14329.63161
603.197	14252.73306
603.399	14489.49202
603.601	14291.18266
603.804	14497.58598
604.006	14570.43063
604.208	14592.68841
604.41	14546.14926
604.613	14621.01629
604.815	14189.99804
605.017	14446.9984
605.219	14343.79685
605.421	14414.62188
605.623	14497.58598
605.826	14944.7513
606.028	14353.91483
606.23	14764.67609
606.432	14513.77382
606.634	14888.09892
606.836	14513.77382
607.038	15246.21946
607.24	14455.09247
607.442	14809.18953
607.644	14837.51608
607.846	15041.86896
608.048	14750.51265
608.25	14827.39947
608.452	14495.56249
608.654	14882.029
608.856	14651.36735
609.058	15082.33447
609.26	14989.26366
609.462	14768.72278
609.664	14833.46944
609.866	14764.67609
610.067	14975.10065
610.269	15191.59112
610.471	14983.1938
610.673	14948.79789
610.875	15068.17155
611.077	15049.96207
611.278	14918.44846
611.48	15027.70601
611.682	15003.42664
611.884	15248.24273
612.085	14910.35526
612.287	14908.33196
612.489	14920.47176
612.69	15114.70683
612.892	15128.86973
613.094	15236.10309
613.295	15074.24137
613.497	14993.31022
613.699	14979.14723
613.9	15191.59112
614.102	15276.56858
614.304	15304.89447
614.505	14904.28535
614.707	15462.71135
614.908	15195.63766
615.11	15203.73074
615.311	15124.82318
615.513	15047.93879
615.714	15177.42822
615.916	15521.3876
616.117	15266.4522
616.319	15383.80261
616.52	15468.78128
616.722	15406.05885
616.923	15029.72929
617.124	15375.70944
617.326	14754.55935
617.527	15426.29184
617.729	15410.10544
617.93	15280.61514
618.131	15298.82463
618.333	15242.17291
618.534	15159.21879
618.735	15470.80459
618.937	15029.72929
619.138	15517.34094
619.339	15106.61374
619.54	15333.22041
619.742	15248.24273
619.943	15389.87249
620.144	15567.92431
620.345	15559.83094
620.546	15306.91775
620.748	15571.971
620.949	15343.33683
621.15	15612.43804
621.351	15448.54819
621.552	15731.81777
621.753	15177.42822
621.954	15511.27097
622.155	14983.1938
622.356	15418.19864
622.558	15602.32125
622.759	15727.77095
622.96	15571.971
623.161	15442.47827
623.362	15559.83094
623.563	15743.95826
623.764	15426.29184
623.965	15851.20093
624.166	15547.69091
624.366	15523.41092
624.567	15687.30293
624.768	15640.76516
624.969	15622.55485
625.17	15695.3965
625.371	15743.95826
625.572	15911.90577
625.773	15798.59094
625.973	15731.81777
626.174	15944.28214
626.375	15873.45925
626.576	15663.0223
626.777	15873.45925
626.977	15379.75602
627.178	15913.92928
627.379	15363.5697
627.58	15660.99891
627.78	15843.10704
627.981	15770.26279
628.182	15877.50623
628.382	15922.02335
628.583	15786.45028
628.784	15956.42337
628.984	15438.43166
629.185	15665.04568
629.386	15683.25615
629.586	15956.42337
629.787	15865.3653
629.987	16098.07475
630.188	15960.47046
630.388	15849.17746
630.589	15954.39983
630.79	16041.41335
630.99	15681.23276
631.191	15911.90577
631.391	15772.28622
631.591	15675.1626
631.792	15952.37629
631.992	16239.73373
632.193	16051.53137
632.393	15948.32921
632.594	15776.33309
632.794	15988.80021
632.994	15940.23508
633.195	15978.68241
633.395	16043.43695
633.595	16116.2876
633.796	16106.16934
633.996	16126.40591
634.196	15879.52972
634.397	16019.15383
634.597	16112.24029
634.797	16363.18637
634.997	15984.75309
635.198	16160.80845
635.398	16138.54793
635.598	15917.97631
635.798	16179.02174
635.998	16156.76106
636.199	15879.52972
636.399	16537.24663
636.599	16170.92693
636.799	16442.11881
636.999	15974.6353
637.199	15922.02335
637.399	15792.5206
637.599	15968.56464
637.799	15642.78853
637.999	16134.50058
638.199	15877.50623
638.399	16181.04545
638.599	16272.11409
638.799	16179.02174
638.999	16597.96897
639.199	16549.39094
639.399	16223.54372
639.599	16342.94776
639.799	16092.00383
639.999	16478.5502
640.199	15960.47046
640.399	16308.54255
640.599	15557.8076
640.799	16840.87902
640.998	16527.12643
641.198	16415.80766
641.398	16249.85254
641.598	16591.89665
641.798	16608.08956
641.997	16640.4758
642.197	16772.05102
642.397	16604.04132
642.597	16476.52621
642.796	16498.79015
642.996	16407.71199
643.196	16693.1047
643.395	16559.51126
643.595	16834.80585
643.795	16640.4758
643.994	16689.05627
644.194	16644.52412
644.394	16905.66098
644.593	16786.22126
644.793	16934.00391
644.992	16735.6138
645.192	16628.33089
645.392	16707.27428
645.591	16757.8809
645.791	16723.46824
645.99	16595.94486
646.19	16808.48902
646.389	16907.68545
646.589	16646.54829
646.788	16960.3228
646.987	16713.347
647.187	17027.13432
647.386	16563.5594
647.586	16956.27371
647.785	16929.95489
647.984	16919.83238
648.184	17106.09721
648.383	17130.39433
648.582	16723.46824
648.782	16917.80788
648.981	16834.80585
649.18	16853.02544
649.38	17114.19621
649.579	17093.9488
649.778	16934.00391
649.977	17142.54305
650.177	16925.90588
650.376	17399.71544
650.575	16950.2001
650.774	17193.16379
650.973	17205.31304
651.173	17168.86561
651.372	17043.3315
651.571	16899.58756
651.77	16717.39549
651.969	16901.61203
652.168	16595.94486
652.367	16757.8809
652.566	16891.4897
652.765	17330.86143
652.964	17231.63676
653.163	17270.11079
653.362	17334.91157
653.561	17262.0109
653.76	17017.01118
653.959	17004.86349
654.158	17563.76447
654.357	17223.5371
654.556	16917.80788
654.755	17237.71154
654.954	17061.55353
655.153	17426.04291
655.352	17280.23571
655.551	17280.23571
655.749	17154.69186
655.948	17466.54774
656.147	17561.73905
656.346	17482.75002
656.545	17148.61744
656.743	17276.18573
656.942	17264.03587
657.141	17681.24462
657.34	17247.83622
657.538	17725.80896
657.737	17334.91157
657.936	17517.18054
658.135	17217.46239
658.333	17201.26328
658.532	17274.16075
658.731	17616.42663
658.929	17055.47949
659.128	17340.9868
659.326	17199.2384
659.525	17507.05382
659.724	17286.31069
659.922	17164.81596
660.121	17116.22096
660.319	17102.04773
660.518	16994.74049
660.716	17178.9898
660.915	17255.93602
661.113	17525.28197
661.312	17559.71363
661.51	17401.74061
661.709	17359.21265
661.907	17547.56117
662.105	17399.71544
662.304	17547.56117
662.502	17515.15519
662.701	17590.09527
662.899	17531.35808
663.097	17798.73593
663.296	17460.47193
663.494	17762.2719
663.692	17361.23776
663.891	17401.74061
664.089	17456.42141
664.287	17788.60692
664.485	17606.29912
664.684	17671.11659
664.882	17316.68604
665.08	17675.16779
665.278	17519.20589
665.476	17428.06812
665.675	17176.96496
665.873	17268.08581
666.071	17304.53582
666.269	17154.69186
666.467	17288.3357
666.665	17421.99249
666.863	17195.18866
667.061	17454.39616
667.259	17266.06084
667.457	17531.35808
667.655	17361.23776
667.853	17503.00315
668.051	17353.13734
668.249	17559.71363
668.447	17345.03697
668.645	17446.29517
668.843	17403.76578
669.041	17253.91107
669.239	17170.89044
669.437	17223.5371
669.635	17409.84133
669.833	17466.54774
670.031	17519.20589
670.229	17456.42141
670.426	17727.83465
670.624	17816.96836
670.822	17707.5779
671.02	17509.07916
671.218	17517.18054
671.415	17539.4596
671.613	17744.04029
671.811	17735.93744
672.009	17654.9119
672.206	17742.01458
672.404	17349.08715
672.602	17507.05382
672.799	17381.48903
672.997	17665.03981
673.195	17140.51826
673.392	17178.9898
673.59	17243.78634
673.788	17369.33823
673.985	17193.16379
674.183	17764.29765
674.38	17148.61744
674.578	17411.86651
674.775	17434.14377
674.973	17523.25661
675.17	17448.32041
675.368	17193.16379
675.565	17405.79096
675.763	17389.58963
675.96	17142.54305
676.158	17407.81614
676.355	17359.21265
676.553	17723.78327
676.75	17063.57821
676.947	17537.43421
677.145	17223.5371
677.342	17195.18866
677.539	17294.41072
677.737	17292.38571
677.934	17114.19621
678.131	17282.2607
678.329	17093.9488
678.526	17673.14219
678.723	17405.79096
678.92	17776.45223
679.118	17316.68604
679.315	17413.8917
679.512	17257.96098
679.709	17438.19423
679.906	17227.58693
680.104	17114.19621
680.301	16931.9794
680.498	17146.59264
680.695	17142.54305
680.892	17008.91271
681.089	16798.36727
681.286	17172.91528
681.483	16982.59299
681.68	17231.63676
681.877	17274.16075
682.075	17478.69943
682.272	17004.86349
682.469	17588.06981
682.665	17353.13734
682.862	17290.3607
683.059	17385.53932
683.256	17095.97353
683.453	16960.3228
683.65	16810.51337
683.847	17012.96194
684.044	17097.99826
684.241	16814.5621
684.438	17102.04773
684.635	17023.08506
684.831	17316.68604
685.028	16877.31855
685.225	16929.95489
685.422	17152.66705
685.619	17239.73647
685.815	16990.69131
686.012	17049.40548
686.209	16824.68394
686.405	17126.34479
686.602	17037.25754
686.799	16887.44079
686.996	17021.06043
687.192	17033.20824
687.389	16721.44398
687.586	16915.78339
687.782	16749.78374
687.979	17170.89044
688.175	16903.6365
688.372	16539.27068
688.568	16818.61083
688.765	16964.3719
688.962	16765.97809
689.158	16956.27371
689.355	16931.9794
689.551	17063.57821
689.748	16958.29826
689.944	16808.48902
690.14	16595.94486
690.337	16936.02842
690.533	17079.77578
690.73	16962.34735
690.926	16608.08956
691.123	16557.48719
691.319	16391.52075
691.515	16678.93523
691.712	16810.51337
691.908	16739.66234
692.104	16484.62216
692.301	16838.85463
692.497	16508.9102
692.693	16761.92949
692.889	16636.42749
693.086	16701.20159
693.282	16632.37919
693.478	16731.56527
693.674	16660.7175
693.87	16652.62079
694.067	16832.78146
694.263	17047.38082
694.459	16761.92949
694.655	16901.61203
694.851	16786.22126
695.047	16626.30675
695.243	16891.4897
695.439	16741.68662
695.635	16763.95379
695.831	16885.41634
696.027	16543.31878
696.224	16761.92949
696.42	16695.12892
696.615	16778.12396
696.811	16632.37919
697.007	17118.24572
697.203	16739.66234
697.399	16595.94486
697.595	16470.45428
697.791	16351.04318
697.987	16429.97516
698.183	16952.22463
698.379	16646.54829
698.575	16818.61083
698.77	16346.99546
698.966	16290.32825
699.162	16100.0984
699.358	16458.31046
699.554	16233.66246
699.749	16373.30575
699.945	16276.16167
700.141	16381.40128
700.337	16298.42348
700.532	16583.80025
700.728	16106.16934
700.924	16468.4303
701.119	16211.40128
701.315	16164.85583
701.511	16227.59121
701.706	16573.6798
701.902	15986.77665
702.097	15871.43576
702.293	16096.05111
702.489	15928.09391
702.684	16041.41335
702.88	16179.02174
703.075	15986.77665
703.271	16434.02304
703.466	15980.70597
703.662	16264.01896
703.857	16128.42957
704.053	16359.13863
704.248	15998.91805
704.443	16425.92729
704.639	16270.09031
704.834	16442.11881
705.03	16486.64615
705.225	16081.88566
705.42	15863.34181
705.616	15968.56464
705.811	15786.45028
706.006	16077.8384
706.202	16035.34255
706.397	16089.98019
706.592	15800.61438
706.787	16209.37754
706.983	15857.27137
707.178	16363.18637
707.373	16039.38975
707.568	16140.5716
707.763	16011.0595
707.959	16389.49685
708.154	16535.22258
708.349	16191.16402
708.544	16405.68808
708.739	16166.87953
708.934	16039.38975
709.129	16174.97433
709.324	16089.98019
709.519	16215.44875
709.714	16096.05111
709.909	16454.26253
710.104	15794.54405
710.299	16041.41335
710.494	15871.43576
710.689	16191.16402
710.884	15988.80021
711.079	15869.41227
711.274	15940.23508
711.469	16239.73373
711.664	15988.80021
711.859	16168.90323
712.054	15897.74121
712.249	15752.05194
712.443	15709.56029
712.638	15974.6353
712.833	15513.29429
713.028	15806.68473
713.223	15612.43804
713.417	15758.12222
713.612	15956.42337
713.807	16243.78125
714.002	16148.66632
714.196	16126.40591
714.391	15620.53149
714.586	16094.02747
714.78	15847.15398
714.975	16098.07475
715.17	15624.57822
715.364	15869.41227
715.559	15976.65886
715.754	15748.0051
715.948	15654.92878
716.143	15919.99983
716.337	15772.28622
716.532	15636.71842
716.726	15784.42684
716.921	15964.51755
717.115	15426.29184
717.31	15640.76516
717.504	15470.80459
717.699	15766.21593
717.893	15377.73273
718.088	15533.52757
718.282	15529.48091
718.476	15195.63766
718.671	15636.71842
718.865	15460.68804
719.059	15385.8259
719.254	15456.64142
719.448	15021.63617
719.642	15286.68497
719.837	14942.72801
720.031	15298.82463
720.225	14900.23875
720.419	15128.86973
720.614	15015.56633
720.808	15594.22783
721.002	15280.61514
721.196	15377.73273
721.39	15290.73152
721.585	15175.40495
721.779	15232.05655
721.973	15493.06107
722.167	15049.96207
722.361	15219.91691
722.555	15084.35774
722.749	14977.12394
722.943	15191.59112
723.137	15033.77585
723.331	15116.7301
723.525	15406.05885
723.719	15470.80459
723.913	15673.13921
724.107	15159.21879
724.301	15357.49984
724.495	15005.44992
724.689	15086.38101
724.883	14853.70263
725.077	15039.84568
725.271	15126.84645
725.465	14991.28694
725.659	14877.98238
725.853	14805.14287
726.046	14602.80553
726.24	15183.49803
726.434	14914.40186
726.628	15169.33514
726.822	14819.30617
727.015	15013.54305
727.209	14714.09218
727.403	15310.96431
727.596	15072.2181
727.79	15177.42822
727.984	15043.89224
728.177	15292.7548
728.371	15037.8224
728.565	15114.70683
728.758	14930.58824
728.952	15159.21879
729.146	14940.70472
729.339	15128.86973
729.533	14960.93763
729.726	14900.23875
729.92	14831.44612
730.113	14770.74613
730.307	14981.17051
730.5	14924.51835
730.694	15027.70601
730.887	15039.84568
731.081	14851.67931
731.274	14778.83949
731.468	14882.029
731.661	14536.03197
731.854	14661.48432
732.048	14637.20355
732.241	14556.26652
732.435	14689.81171
732.628	14726.23236
732.821	14758.60605
733.014	15118.75337
733.208	15051.98534
733.401	15145.05589
733.594	14932.61154
733.788	14973.07737
733.981	15118.75337
734.174	14960.93763
734.367	15167.31187
734.56	14964.98421
734.754	15126.84645
734.947	14979.14723
735.14	14803.11953
735.333	14825.37615
735.526	14633.15674
735.719	14562.33686
735.912	14928.56495
736.105	14742.41923
736.298	14683.74157
736.491	14964.98421
736.684	14890.12223
736.877	14807.1662
737.07	14904.28535
737.263	14675.64804
737.456	14799.07287
737.649	14823.35282
737.842	14993.31022
738.035	14778.83949
738.228	14661.48432
738.421	14602.80553
738.614	14758.60605
738.807	14776.81615
739	14465.21003
739.192	14546.14926
739.385	14604.82895
739.578	14281.06441
739.771	14493.539
739.964	14430.81018
740.156	14627.08652
740.349	14633.15674
740.542	14503.65643
740.735	14428.78665
740.927	14592.68841
741.12	14655.41414
741.313	14119.16583
741.505	14455.09247
741.698	14315.46628
741.891	14442.95135
742.083	14262.85144
742.276	14469.25704
742.468	14246.66201
742.661	14578.52439
742.854	14169.76053
743.046	14109.04673
743.239	14127.26107
743.431	14406.52769
743.624	14335.70244
743.816	14463.18652
744.009	14534.00851
744.201	14222.37764
744.393	14177.85556
744.586	14576.50095
744.778	14633.15674
744.971	14406.52769
745.163	14362.00919
745.355	14173.80804
745.548	14465.21003
745.74	14402.48058
745.932	14252.73306
746.125	14455.09247
746.317	14580.54782
746.509	14491.51551
746.702	14562.33686
746.894	14400.45703
747.086	14204.16418
747.278	13999.75679
747.471	14036.18753
747.663	14040.23534
747.855	14386.2921
748.047	14096.90373
748.239	14206.1879
748.431	14303.3245
748.623	14584.59469
748.815	14175.8318
749.008	14382.24496
749.2	14311.41903
749.392	14446.9984
749.584	13953.20523
749.776	14321.53714
749.968	13771.03331
750.16	14179.87931
750.352	14256.78042
750.544	14125.23726
750.736	13991.66096
750.928	14244.63833
751.12	14370.10352
751.311	14050.35483
751.503	14046.30704
751.695	13815.56634
751.887	13613.13132
752.079	13858.07383
752.271	13839.85649
752.463	13771.03331
752.654	13728.52314
752.846	13758.88768
753.038	13799.37268
753.23	14022.02011
753.421	14131.30868
753.613	13823.6631
753.805	14098.92757
753.997	13912.72451
754.188	13949.15721
754.38	14109.04673
754.572	13973.4452
754.763	13696.13352
754.955	13447.10937
755.146	13341.81397
755.338	13756.8634
755.53	13627.30282
755.721	13465.3325
755.913	13615.15583
756.104	13607.05777
756.296	13987.61303
756.487	13827.71147
756.679	13841.88065
756.87	13550.36977
757.062	13594.91057
757.253	13930.94097
757.445	13997.73284
757.636	13623.25384
757.827	13858.07383
758.019	13783.17882
758.21	13558.46823
758.401	13499.75313
758.593	13505.82725
758.784	13256.75961
758.975	13420.78652
759.167	13663.74308
759.358	13426.86108
759.549	13372.18875
759.74	13283.08676
759.932	13023.83235
760.123	13062.32029
760.314	13100.80647
760.505	13133.21456
760.696	13163.59605
760.888	13070.42279
761.079	12894.17537
761.27	13347.889
761.461	12723.96726
761.652	12873.91453
761.843	12754.36447
762.034	13149.41815
762.225	12610.47265
762.416	12875.94064
762.607	12959.00649
762.798	13121.06167
762.989	13305.36302
763.18	13048.14073
763.371	12792.86576
763.562	12861.75778
763.753	12863.78392
763.944	12829.3388
764.135	12665.1956
764.326	12916.46167
764.517	13001.54905
764.708	12952.9288
764.899	12849.60082
765.089	12835.41746
765.28	12853.65316
765.471	12648.98185
765.662	12661.1422
765.853	12578.04213
766.043	12580.06908
766.234	12730.0468
766.425	12383.42475
766.615	12748.28513
766.806	12417.89265
766.997	12644.92835
767.187	12373.28676
767.378	12659.11549
767.569	12434.11217
767.759	12642.90159
767.95	12486.82269
768.141	12691.54213
768.331	12559.79927
768.522	12608.44579
768.712	12117.75109
768.903	12547.63708
769.093	12292.17663
769.284	12261.75744
769.474	12259.72943
769.665	12180.63168
769.855	12298.26027
770.046	12336.78857
770.236	12062.9782
770.426	12140.06438
770.617	12316.51083
770.807	12166.43346
770.998	12478.71367
771.188	12413.8377
771.378	12237.42093
771.569	12355.03794
771.759	12028.48868
771.949	12381.39716
772.139	12407.75523
772.33	12000.08383
772.52	12129.92209
772.71	11878.33095
772.9	11679.40289
773.09	12158.32003
773.281	11833.68079
773.471	11845.85851
773.661	11870.21304
773.851	11795.116
774.041	11927.03562
774.231	11793.08619
774.421	11758.57809
774.611	11588.02998
774.802	11612.3979
774.992	11577.8763
775.182	11671.2816
775.372	11874.27201
775.562	11799.1756
775.752	11590.06069
775.942	11240.6376
776.131	11496.6384
776.321	11104.44423
776.511	11565.69157
776.701	11464.139
776.891	11837.74007
777.081	11945.29865
777.271	11453.98244
777.461	11648.9473
777.651	11695.64505
777.84	11354.43521
778.03	11260.96095
778.22	11240.6376
778.41	11279.25108
778.599	11348.33971
778.789	11419.44831
778.979	11634.73399
779.169	11518.98032
779.358	11289.4119
779.548	11218.28073
779.738	11069.8801
779.927	11236.57281
780.117	11175.59593
780.307	11080.04634
780.496	11155.2682
780.686	11228.4431
780.875	11057.68024
781.065	11269.09
781.254	10953.96544
781.444	11155.2682
781.633	11017.0112
781.823	10907.18258
782.012	10742.37693
782.202	11033.27935
782.391	11098.34491
782.581	10986.50653
782.77	11025.14536
782.96	10933.6258
783.149	10469.56171
783.338	10838.01422
783.528	10675.21162
783.717	10919.38738
783.906	10681.3181
784.096	10603.9612
784.285	10748.48222
784.474	10654.85589
784.663	10569.34839
784.853	10654.85589
785.042	10255.62829
785.231	10658.92713
785.42	10361.59445
785.61	10359.55697
785.799	10371.7816
785.988	10426.7866
786.177	10308.61589
786.366	10384.00576
786.555	10139.43098
786.744	10410.48981
786.933	10516.40415
787.122	10553.05876
787.312	10396.22944
787.501	10654.85589
787.69	10410.48981
787.879	10656.89152
788.068	10514.36766
788.257	10603.9612
788.445	10347.33187
788.634	10414.56409
788.823	10245.43732
789.012	10436.97166
789.201	10141.46992
789.39	10304.54024
789.579	10025.22819
789.768	10218.93922
789.957	10055.82257
790.145	10451.23021
790.334	10092.53161
790.523	10316.76702
790.712	10117.00177
790.9	10145.54775
791.089	9866.08505
791.278	10112.92355
791.467	9766.06463
791.655	9851.79862
791.844	9947.70797
792.033	10247.47554
792.221	9984.43067
792.41	9868.12591
792.599	9555.69822
792.787	9941.58707
792.976	9806.89364
793.164	9974.23039
793.353	9835.47037
793.541	9843.63461
793.73	10023.18845
793.918	9849.75764
794.107	9476.00152
794.295	9821.18237
794.484	9831.38816
794.672	9557.74141
794.861	9604.73036
795.049	9655.79592
795.238	9453.51856
795.426	9868.12591
795.614	9680.30395
795.803	9888.5337
795.991	9657.83835
796.179	9672.13485
796.368	9639.456
796.556	9784.43843
796.744	9463.73833
796.932	9619.0297
797.121	9461.69441
797.309	9831.38816
797.497	9668.05022
797.685	9484.17666
797.874	9312.44422
798.062	9476.00152
798.25	9257.21984
798.438	9839.55252
798.626	9565.914
798.814	9588.38732
799.002	9612.90151
799.19	9384.0134
799.378	9371.74583
799.566	9177.4297
799.755	9216.30503
799.943	9498.48253
800.131	9543.43876
800.318	9508.70054
800.506	9502.56978
800.694	9298.12796
800.882	9453.51856
801.07	9859.96238
801.258	9384.0134
801.446	9447.38651
801.634	9230.62598
801.822	9255.17426
802.01	9267.4475
802.197	9598.60184
802.385	9259.26541
802.573	9379.92428
802.761	9435.12197
802.949	9435.12197
803.136	9246.99177
803.324	9222.44268
803.512	9191.7529
803.699	9206.07527
803.887	9130.36187
804.075	9445.34246
804.262	9414.67976
804.45	9447.38651
804.638	9195.84509
804.825	9138.54823
805.013	9058.71949
805.201	9398.32483
805.388	9159.01293
805.576	9386.05794
805.763	9476.00152
805.951	9473.9577
806.138	9447.38651
806.326	9557.74141
806.513	9304.2636
806.701	9428.98947
806.888	9281.76551
807.075	9574.08634
807.263	9201.98325
807.45	9729.31335
807.638	9410.59113
807.825	9823.22356
808.012	9216.30503
808.2	9484.17666
808.387	9541.39547
808.574	9396.28039
808.761	9520.96161
808.949	9723.18766
809.136	9537.30882
809.323	9551.6118
809.51	9302.2184
809.698	9478.04533
809.885	9418.76833
810.072	9576.12938
810.259	9388.10246
810.446	9627.20041
810.633	9498.48253
810.82	9578.17241
811.008	9287.90155
811.195	9386.05794
811.382	9324.71466
811.569	9402.41366
811.756	9107.84797
811.943	9708.89384
812.13	9406.50243
812.317	9582.25842
812.504	9565.914
812.691	9690.51497
812.878	9341.07432
813.064	9361.52241
813.251	9093.51986
813.438	9343.1192
813.625	9267.4475
813.812	9500.52617
813.999	9336.9845
814.186	9398.32483
814.372	9273.58389
814.559	9322.66963
814.746	9300.17319
814.933	9246.99177
815.12	9316.53443
815.306	9623.11509
815.493	9161.05931
815.68	9257.21984
815.866	9218.35093
816.053	9520.96161
816.24	9126.26859
816.426	9255.17426
816.613	8923.56431
816.799	9181.52213
816.986	9044.38847
817.173	9152.8737
817.359	9142.64131
817.546	9494.39522
817.732	9052.57773
817.919	9443.29839
818.105	9138.54823
818.292	9107.84797
818.478	9169.24464
818.665	9320.62458
818.851	9377.87969
819.037	9406.50243
819.224	9187.66064
819.41	9283.81088
819.597	8995.24705
819.783	9336.9845
819.969	9042.34111
820.156	9134.45509
820.342	9156.96654
820.528	9330.84966
820.714	9163.10567
820.901	9343.1192
821.087	9052.57773
821.273	9296.08271
821.459	9214.25911
821.646	9478.04533
821.832	9030.05659
822.018	9201.98325
822.204	8712.48491
822.39	9019.81902
822.576	8948.14369
822.762	8991.15147
822.948	8788.33168
823.134	8817.02395
823.32	8640.71477
823.507	8976.81641
823.693	8903.07954
823.879	8829.31955
824.065	8607.89799
824.25	8632.51103
824.436	8880.54424
824.622	8974.76847
824.808	8673.52679
824.994	8726.83622
825.18	8486.8445
825.366	8855.95779
825.552	8648.91823
825.738	8909.22516
825.923	8454.00505
826.109	8710.43465
826.295	8493.00135
826.481	8878.49546
826.667	8562.76708
826.852	8788.33168
827.038	8599.69304
827.224	9001.39028
827.409	8743.23662
827.595	9017.77145
827.781	8607.89799
827.966	8954.28814
828.152	8696.08231
828.338	8765.78526
828.523	8252.75556
828.709	8642.76566
828.894	8199.33129
829.08	8534.04267
829.266	8119.1697
829.451	8406.78974
829.637	8201.38632
829.822	8252.75556
830.008	8086.27408
830.193	8499.15803
830.378	8180.83515
830.564	8131.50423
830.749	8084.21794
830.935	8484.79218
831.12	8135.61558
831.305	8306.16651
831.491	8092.4424
831.676	8310.2745
831.861	8059.5426
832.047	8349.29646
832.232	8012.24006
832.417	8073.9369
832.602	8024.58089
832.788	8067.76803
832.973	7892.90748
833.158	8047.20384
833.343	8106.83445
833.528	8324.65183
833.714	7973.15593
833.899	8265.08234
834.084	8152.06018
834.269	8260.97349
834.454	8041.03419
834.639	8026.63762
834.824	7738.49505
835.009	8084.21794
835.194	7839.39109
835.379	8049.26035
835.564	7818.80413
835.749	8197.27624
835.934	7894.96552
836.119	8108.89037
836.304	7915.54482
836.489	7925.8337
836.674	7499.43707
836.859	7913.48698
837.044	7829.09787
837.228	8059.5426
837.413	7604.57544
837.598	7752.91184
837.783	7767.32761
837.968	7876.44238
838.152	7886.73322
838.337	7689.05821
838.522	7713.77815
838.707	7571.59685
838.891	7482.93971
839.076	7532.42766
839.261	7433.43933
839.445	7441.69026
839.63	7315.82575
839.815	7501.49914
839.999	7489.12638
840.184	7550.98245
840.368	7340.59239
840.553	7604.57544
840.737	7233.24741
840.922	7462.31606
841.106	7284.863
841.291	7515.93305
841.475	7284.863
841.66	7540.67445
841.844	7227.05262
842.029	7522.11869
842.213	7191.94501
842.397	7127.90875
842.582	7373.60969
842.766	7233.24741
842.951	6968.75808
843.135	7123.77665
843.319	7026.64644
843.504	7194.01034
843.688	7032.84772
843.872	7350.9109
844.056	7324.08165
844.241	7400.43213
844.425	7332.3372
844.609	7078.3176
844.793	7061.78435
844.977	7224.98764
845.161	6890.167
845.346	7270.41202
845.53	7092.78301
845.714	7212.59732
845.898	6968.75808
846.082	7284.863
846.266	6995.63701
846.45	7210.53219
846.634	6679.0496
846.818	6879.82364
847.002	6919.12541
847.186	6747.37831
847.37	6550.6067
847.554	6676.97865
847.738	6361.92445
847.922	6867.41085
848.106	6683.19145
848.29	6799.12588
848.473	6838.4445
848.657	6900.5098
848.841	6805.33463
849.025	6811.54318
849.209	6293.45356
849.392	6515.37297
849.576	6505.00884
849.76	6471.83971
849.944	6305.9047
850.127	6728.74568
850.311	6341.17838
850.495	6473.91295
850.678	6461.47313
850.862	6538.17203
851.046	6283.07696
851.229	6451.10598
851.413	6374.37097
851.596	6471.83971
851.78	6305.9047
851.964	6401.33555
852.147	6181.35531
852.331	6224.95719
852.514	6247.79215
852.698	6299.67923
852.881	5979.82167
853.065	6382.66818
853.248	6183.43183
853.431	6320.42997
853.615	6089.96542
853.798	6291.37828
853.982	6135.66605
854.165	6177.20221
854.348	6175.12563
854.532	6490.49807
854.715	6258.17074
854.898	6349.47709
855.081	5923.68525
855.265	6229.10922
855.448	6175.12563
855.631	6200.0431
855.814	6025.54974
855.997	6029.70628
856.181	5807.19936
856.364	6170.97239
856.547	5977.74285
856.73	5973.58514
856.913	5728.11321
857.096	6110.73984
857.279	5767.66054
857.462	6040.0972
857.645	5840.48859
857.828	5861.2913
858.011	5740.60276
858.194	6042.17531
858.377	5661.48791
858.56	5838.40819
858.743	5628.1662
858.926	5692.72153
859.109	5628.1662
859.292	5490.65036
859.475	5574.00555
859.658	5615.669
859.841	5486.48161
860.023	5586.50557
860.206	5382.23233
860.389	5327.9995
860.572	5380.14674
860.755	5505.24023
860.937	5290.44441
861.12	5626.08339
861.303	5336.34404
861.486	5290.44441
861.668	5081.66732
861.851	5221.57374
862.034	4887.29662
862.216	5135.97176
862.399	4872.65852
862.581	5156.8539
862.764	5135.97176
862.947	5273.75083
863.129	4776.43749
863.312	5146.41312
863.494	4899.84267
863.677	5148.50132
863.859	5100.46679
864.042	5148.50132
864.224	5167.2941
864.406	5090.02287
864.589	4912.38789
864.771	5000.1813
864.954	4922.84161
865.136	5079.57837
865.318	4738.77269
865.501	4822.46226
865.683	4922.84161
865.865	4950.0186
866.048	4826.64578
866.23	5016.89924
866.412	4529.3911
866.594	4939.56637
866.777	4719.93755
866.959	4975.10161
867.141	4885.20553
867.323	4897.75171
867.505	4621.54658
867.687	4824.55403
867.869	4989.73183
868.052	4937.47586
868.234	4604.79425
868.416	4757.60601
868.598	4707.37976
868.78	4835.01256
868.962	4818.27864
869.144	4945.83778
869.326	4629.92221
869.508	5016.89924
869.69	4703.19366
869.872	4812.00305
870.054	4726.21613
870.236	4985.55188
870.417	4835.01256
870.599	4924.93229
870.781	4554.52869
870.963	4671.79498
871.145	4437.19276
871.327	4688.54157
871.508	4437.19276
871.69	4623.64052
871.872	4298.8159
872.054	4512.63095
872.235	4271.54875
872.417	4512.63095
872.599	4405.75179
872.78	4554.52869
872.962	4437.19276
873.144	4562.90717
873.325	4428.80898
873.507	4403.65555
873.689	4422.52092
873.87	4619.45262
874.052	4451.86353
874.233	4659.23409
874.415	4726.21613
874.596	4707.37976
874.778	4493.77408
874.959	4667.6081
875.141	4627.82833
875.322	4657.14053
875.503	4514.72604
875.685	4780.62202
875.866	4523.10621
876.048	4533.58092
876.229	4340.75825
876.41	4380.59548
876.592	4210.70901
876.773	4512.63095
876.954	4158.24662
877.136	4634.10989
877.317	4344.95201
877.498	4422.52092
877.679	4414.13653
877.86	4332.37047
878.042	4223.29801
878.223	4487.48805
878.404	4133.05999
878.585	4428.80898
878.766	4036.48341
878.947	4326.07941
879.128	4088.97614
879.309	4435.09685
879.49	4198.11924
879.672	4604.79425
879.853	4288.32896
880.034	4439.28865
880.215	4237.98421
880.396	4588.04049
880.576	4198.11924
880.757	4579.66307
880.938	4109.9696
881.119	4479.10639
881.3	4147.75256
881.481	4420.42486
881.662	4109.9696
881.843	4562.90717
882.023	4491.67876
882.204	4550.33931
882.385	4412.04038
882.566	4680.16845
882.747	4571.2853
882.927	4615.26462
883.108	4160.34537
883.289	4439.28865
883.469	4374.30591
883.65	4619.45262
883.831	4671.79498
884.011	4617.35863
884.192	4347.04886
884.373	4556.62334
884.553	4376.40246
884.734	4657.14053
884.914	4378.49898
885.095	4430.90496
885.275	4420.42486
885.456	4830.82921
885.636	4529.3911
885.817	4577.56866
885.997	4613.17059
886.178	4870.56727
886.358	4548.24459
886.538	4759.69849
886.719	4529.3911
886.899	4424.61696
887.08	4279.93902
887.26	4596.41754
887.44	4357.53278
887.621	4575.47423
887.801	4349.14569
887.981	4634.10989
888.161	4629.92221
888.342	4579.66307
888.522	4514.72604
888.702	4759.69849
888.882	4556.62334
889.062	4774.3452
889.242	4449.76777
889.423	4583.85182
889.603	4468.6288
889.783	4763.88337
889.963	4376.40246
890.143	4615.26462
890.323	4428.80898
890.503	4688.54157
890.683	4521.0112
890.863	4711.56578
891.043	4516.82112
891.223	4615.26462
891.403	4313.4967
891.583	4648.76606
891.763	4269.45112
891.943	4669.70155
892.122	4353.33928
892.302	4632.01606
892.482	4137.25798
892.662	4273.64635
892.842	4378.49898
893.022	4464.43762
893.201	4183.43021
893.381	4491.67876
893.561	4189.72564
893.741	4598.51175
893.92	4336.56441
894.1	4388.98127
894.28	4219.10176
894.459	4288.32896
894.639	4122.56468
894.819	4319.78815
894.998	4244.27798
895.178	4510.53583
895.357	3935.66136
895.537	4229.59222
895.716	4225.3961
895.896	4370.11276
896.075	4067.98061
896.255	4284.13403
896.434	4093.175
896.614	4275.74393
896.793	4011.28232
896.973	4277.84149
897.152	3941.96411
897.331	4120.46555
897.511	4095.2744
897.69	4160.34537
897.87	3809.56839
898.049	4046.98299
898.228	3830.58886
898.407	3946.16585
898.587	3696.02404
898.766	3927.25741
898.945	3628.71202
899.124	3700.2304
899.304	3742.28969
899.483	3944.06499
899.662	3752.8033
899.841	3891.53701
900.02	3613.98493
900.199	3542.44031
900.378	3422.4503
900.557	3506.65999
900.737	3611.88098
900.916	3866.31912
901.095	3580.31955
901.274	3748.59792
901.453	3531.91724
901.632	3799.05741
901.811	3281.33571
901.989	3483.50521
902.168	3304.50911
902.347	3512.97455
902.526	3357.16819
902.705	3584.52799
902.884	3315.04179
903.063	3481.40012
903.242	3327.68043
903.42	3599.25692
903.599	3194.94419
903.778	3435.08359
903.957	3192.83673
904.135	3243.41119
904.314	2865.99033
904.493	3199.15906
904.672	2876.53939
904.85	3087.44308
905.029	3017.86159
905.207	3116.95735
905.386	3009.42633
905.565	3093.76783
905.743	2939.82619
905.922	3015.7528
906.1	2836.45107
906.279	2937.71684
906.457	2597.93043
906.636	2954.59122
906.814	2781.5852
906.993	2701.38018
907.171	2576.81459
907.35	2619.04505
907.528	2720.37783
907.707	2775.25393
907.885	2460.65662
908.063	2597.93043
908.242	2509.23598
908.42	2627.49056
908.598	2477.55446
908.777	2741.48509
908.955	2623.26783
909.133	2735.15305
909.311	2355.02966
909.49	2325.44953
909.668	2221.90444
909.846	2517.68395
910.024	2390.94575
910.202	2665.49287
910.38	2399.39617
910.559	2483.89096
910.737	2316.99772
910.915	2502.89988
911.093	2323.33659
911.271	2502.89988
911.449	2340.23984
911.627	2409.95895
911.805	2393.05837
911.983	2648.60346
912.161	2344.46555
912.339	2509.23598
912.517	2540.91494
912.695	2745.70638
912.872	2369.819
913.05	2553.58579
913.228	2340.23984
913.406	2509.23598
913.584	2454.31975
913.762	2581.03786
913.939	2494.45158
914.117	2547.25042
914.295	2361.36801
914.473	2543.02678
914.65	2393.05837
914.828	2437.42096
915.006	2213.45083
915.184	2519.79592
915.361	2188.08915
915.539	2593.70736
915.716	2361.36801
915.894	2680.27045
916.072	2306.43273
916.249	2509.23598
916.427	2276.8495
916.604	2517.68395
916.782	2207.11052
916.959	2545.1386
917.137	2367.70627
917.314	2352.91686
917.492	2073.94715
917.669	2281.07579
917.847	2230.35792
918.024	2359.25524
918.201	2371.93172
918.379	2422.63395
918.556	2230.35792
918.733	2418.40899
918.911	2116.22461
919.088	2416.2965
919.265	1913.26789
919.442	2310.65875
919.62	1881.55079
919.797	2122.56596
919.974	1940.75504
920.151	2150.04437
920.328	2103.54168
920.506	2154.2717
920.683	1782.16336
920.86	2018.98215
921.037	1809.6545
921.214	2069.71924
921.391	1909.03901
921.568	1849.83252
921.745	1854.06169
921.922	2171.18068
922.099	1824.45712
922.276	1968.24121
922.453	1868.86362
922.63	1919.61116
922.807	1919.61116
922.984	1744.09758
923.161	1593.93924
923.338	1858.29083
923.514	1672.19248
923.691	1790.62224
923.868	1486.0729
924.045	1651.04327
924.222	1329.55995
924.399	1629.89381
924.575	1443.77187
924.752	1640.46857
924.929	1551.63908
925.105	1722.94941
925.282	1462.80734
925.459	1769.4749
925.635	1672.19248
925.812	1714.49005
925.989	1469.1525
926.165	1703.91577
926.342	1471.26755
926.518	1824.45712
926.695	1428.96651
926.871	1646.8134
927.048	1437.42672
927.224	1502.99328
927.401	1257.65091
927.577	1384.55056
927.754	1329.55995
927.93	1513.56849
928.107	1378.20545
928.283	1538.94892
928.459	1274.57045
928.636	1388.78064
928.812	1253.42105
928.988	1283.03028
929.165	1202.66362
929.341	1316.86995
929.517	1166.71161
929.693	1327.44495
929.87	1092.69648
930.046	1310.52498
930.222	1304.18002
930.398	1219.58257
930.574	1156.1377
930.751	1185.7449
930.927	1080.00875
931.103	1228.04212
931.279	1113.84309
931.455	1096.92576
931.631	927.77245
931.807	910.85947
931.983	963.71408
932.159	980.6285
932.335	887.60495
932.511	957.37129
932.687	843.21271
932.863	834.75747
933.039	811.50632
933.215	970.05694
933.391	965.82836
933.566	824.18863
933.742	807.27896
933.918	790.36989
934.094	665.68575
934.27	781.91558
934.445	566.38994
934.621	644.55668
934.797	693.15527
934.973	657.23398
935.148	568.50232
935.324	650.89528
935.5	617.09072
935.675	640.33102
935.851	591.73939
936.027	644.55668
936.202	545.26687
936.378	541.04242
936.553	448.11907
936.729	519.921
936.904	439.67293
937.08	378.44609
937.255	363.66927
937.431	420.67004
937.606	321.45445
937.782	393.22373
937.957	338.33954
938.133	302.46008
938.308	209.6205
938.483	241.26619
938.659	247.59586
938.834	289.79799
939.009	234.9367
939.185	213.83967
939.36	209.6205
939.535	188.52586
939.71	264.47581
939.886	177.9793
940.061	228.60739
940.236	234.9367
940.411	201.1824
940.586	264.47581
940.761	184.30718
940.937	239.15634
941.112	205.40141
941.287	144.23379
941.462	165.32411
941.637	167.43326
941.812	165.32411
941.987	57.78613
942.162	125.25432
942.337	243.37606
942.512	125.25432
942.687	158.99679
942.862	72.54284
943.037	150.56067
943.212	133.68943
943.386	57.78613
943.561	152.66967
943.736	110.49372
943.911	163.21498
944.086	118.92822
944.26	131.58062
944.435	142.12488
944.61	154.77869
944.785	169.54242
944.959	76.75925
945.134	70.43467
945.309	85.19233
945.483	74.65103
945.658	140.01598
945.833	133.68943
946.007	129.47183
946.182	64.1103
946.357	150.56067
946.531	125.25432
946.706	150.56067
946.88	163.21498
947.055	83.08402
947.229	108.38515
947.404	104.16807
947.578	72.54284
947.752	99.95108
947.927	74.65103
948.101	142.12488
948.276	72.54284
948.45	129.47183
948.624	163.21498
948.799	108.38515
948.973	211.73008
949.147	167.43326
949.321	161.10588
949.496	133.68943
949.67	142.12488
949.844	213.83967
950.018	110.49372
950.193	66.2184
950.367	135.79826
950.541	112.60231
950.715	158.99679
950.889	154.77869
951.063	150.56067
951.237	167.43326
951.411	163.21498
951.585	95.73419
951.759	154.77869
951.933	83.08402
952.107	99.95108
952.281	146.34273
952.455	182.19786
952.629	133.68943
952.803	49.35423
952.977	158.99679
953.151	163.21498
953.325	127.36306
953.499	211.73008
953.672	148.45169
953.846	211.73008
954.02	175.87005
954.194	158.99679
954.368	83.08402
954.541	83.08402
954.715	152.66967
954.889	180.08857
955.062	137.90711
955.236	224.38794
955.41	87.30066
955.583	194.85404
955.757	180.08857
955.93	205.40141
956.104	218.05892
956.278	194.85404
956.451	116.81956
956.625	74.65103
956.798	118.92822
956.972	150.56067
957.145	121.0369
957.319	87.30066
957.492	144.23379
957.665	175.87005
957.839	161.10588
958.012	133.68943
958.185	106.2766
958.359	201.1824
958.532	106.2766
958.705	161.10588
958.879	158.99679
959.052	182.19786
959.225	32.49155
959.398	123.1456
959.572	167.43326
959.745	91.51738
959.918	167.43326
960.091	104.16807
960.264	150.56067
960.438	184.30718
960.611	57.78613
960.784	158.99679
960.957	182.19786
961.13	106.2766
961.303	127.36306
961.476	83.08402
961.649	140.01598
961.822	131.58062
961.995	116.81956
962.168	91.51738
962.341	209.6205
962.514	129.47183
962.686	142.12488
962.859	110.49372
963.032	102.05957
963.205	156.88773
963.378	125.25432
963.551	118.92822
963.723	144.23379
963.896	194.85404
964.069	112.60231
964.242	127.36306
964.414	66.2184
964.587	169.54242
964.76	150.56067
964.932	104.16807
965.105	127.36306
965.278	142.12488
965.45	78.86748
965.623	184.30718
965.795	72.54284
965.968	125.25432
966.14	158.99679
966.313	80.97574
966.485	169.54242
966.658	135.79826
966.83	68.32652
967.003	165.32411
967.175	85.19233
967.348	165.32411
967.52	192.74463
967.692	104.16807
967.865	150.56067
968.037	196.96348
968.209	64.1103
968.382	125.25432
968.554	125.25432
968.726	125.25432
968.898	83.08402
969.071	152.66967
969.243	163.21498
969.415	142.12488
969.587	158.99679
969.759	78.86748
969.932	108.38515
970.104	62.00222
970.276	87.30066
970.448	99.95108
970.62	156.88773
970.792	83.08402
970.964	47.24632
971.136	152.66967
971.308	83.08402
971.48	196.96348
971.652	2.98547
971.824	205.40141
971.996	104.16807
972.168	83.08402
972.339	83.08402
972.511	125.25432
972.683	70.43467
972.855	108.38515
973.027	66.2184
973.199	53.57014
973.37	108.38515
973.542	102.05957
973.714	68.32652
973.886	129.47183
974.057	118.92822
974.229	40.92271
974.401	68.32652
974.572	78.86748
974.744	116.81956
974.915	87.30066
975.087	110.49372
975.259	34.5993
975.43	26.16843
975.602	76.75925
975.773	110.49372
975.945	102.05957
976.116	64.1103
976.288	99.95108
976.459	43.03055
976.63	43.03055
976.802	57.78613
976.973	21.95313
977.145	53.57014
977.316	97.84262
977.487	89.40901
977.659	83.08402
977.83	129.47183
978.001	93.62577
978.172	43.03055
978.344	76.75925
978.515	68.32652
978.686	78.86748
978.857	-1.2293
979.028	74.65103
979.2	30.38382
979.371	87.30066
979.542	68.32652
979.713	49.35423
979.884	-7.55127
980.055	15.63036
980.226	59.89417
980.397	32.49155
980.568	116.81956
980.739	161.10588
980.91	34.5993
981.081	55.67812
981.252	102.05957
981.423	93.62577
981.594	17.73793
981.765	28.27611
981.936	7.20034
982.106	102.05957
982.277	72.54284
982.448	150.56067
982.619	76.75925
982.79	70.43467
982.96	87.30066
983.131	-79.18478
983.302	99.95108
983.472	93.62577
983.643	19.84552
983.814	43.03055
983.984	-9.65855
984.155	99.95108
984.326	38.81488
984.496	55.67812
984.667	66.2184
984.837	80.97574
985.008	87.30066
985.178	19.84552
985.349	26.16843
985.519	99.95108
985.69	72.54284
985.86	34.5993
986.031	87.30066
986.201	7.20034
986.371	57.78613
986.542	59.89417
986.712	83.08402
986.882	72.54284
987.053	121.0369
987.223	26.16843
987.393	-39.15785
987.563	-11.7658
987.734	-15.98024
987.904	21.95313
988.074	68.32652
988.244	38.81488
988.414	68.32652
988.585	78.86748
988.755	93.62577
988.925	68.32652
989.095	-34.94396
989.265	51.46218
989.435	-3.33665
989.605	2.98547
989.775	62.00222
989.945	74.65103
990.115	7.20034
990.285	30.38382
990.455	26.16843
990.625	34.5993
990.795	57.78613
990.965	85.19233
991.134	7.20034
991.304	36.70708
991.474	26.16843
991.644	-32.83698
991.814	-24.40881
991.984	51.46218
992.153	36.70708
992.323	17.73793
992.493	34.5993
992.662	40.92271
992.832	74.65103
993.002	68.32652
993.171	17.73793
993.341	-9.65855
993.511	0.87808
993.68	-5.44397
993.85	83.08402
994.019	43.03055
994.189	102.05957
994.358	24.06077
994.528	53.57014
994.697	-18.08741
994.867	64.1103
995.036	-7.55127
995.206	87.30066
995.375	-1.2293
995.544	57.78613
995.714	15.63036
995.883	26.16843
996.052	-24.40881
996.222	7.20034
996.391	40.92271
996.56	32.49155
996.73	45.13842
996.899	78.86748
997.068	91.51738
997.237	83.08402
997.406	59.89417
997.576	-43.37164
997.745	32.49155
997.914	142.12488
998.083	-83.39761
998.252	74.65103
998.421	11.4153
998.59	-7.55127
998.759	-51.79892
998.928	78.86748
999.097	78.86748
999.266	62.00222
999.435	36.70708
999.604	74.65103
999.773	57.78613
999.942	15.63036
1000.111	78.86748
1000.28	150.56067
1000.448	19.84552
1000.617	-7.55127
1000.786	15.63036
1000.955	24.06077
1001.124	57.78613
1001.292	49.35423
1001.461	43.03055
1001.63	2.98547
1001.798	-51.79892
1001.967	15.63036
1002.136	57.78613
1002.304	-51.79892
1002.473	32.49155
1002.642	24.06077
1002.81	32.49155
1002.979	57.78613
1003.147	62.00222
1003.316	47.24632
1003.484	-22.3017
1003.653	-7.55127
1003.821	-34.94396
1003.99	-51.79892
1004.158	-18.08741
1004.327	-1.2293
1004.495	108.38515
1004.663	21.95313
1004.832	5.09289
1005	32.49155
1005.168	-34.94396
1005.337	55.67812
1005.505	26.16843
1005.673	51.46218
1005.842	-30.72997
1006.01	-7.55127
1006.178	24.06077
1006.346	13.52282
1006.514	21.95313
1006.683	-22.3017
1006.851	55.67812
1007.019	9.30781
1007.187	-11.7658
1007.355	-60.2258
1007.523	2.98547
1007.691	93.62577
1007.859	66.2184
1008.027	-66.54569
1008.195	7.20034
1008.363	70.43467
1008.531	-3.33665
1008.699	66.2184
1008.867	-32.83698
1009.035	40.92271
1009.203	32.49155
1009.37	7.20034
1009.538	0.87808
1009.706	-1.2293
1009.874	38.81488
1010.042	34.5993
1010.209	19.84552
1010.377	-20.19457
1010.545	57.78613
1010.713	-7.55127
1010.88	21.95313
1011.048	-5.44397
1011.216	93.62577
1011.383	19.84552
1011.551	34.5993
1011.718	59.89417
1011.886	34.5993
1012.054	28.27611
1012.221	-32.83698
1012.389	-1.2293
1012.556	-49.69214
1012.724	19.84552
1012.891	-22.3017
1013.058	34.5993
1013.226	76.75925
1013.393	26.16843
1013.561	15.63036
1013.728	53.57014
1013.895	19.84552
1014.063	2.98547
1014.23	13.52282
1014.397	24.06077
1014.565	68.32652
1014.732	-26.51589
1014.899	-7.55127
1015.066	32.49155
1015.233	-68.65227
1015.401	-9.65855
1015.568	36.70708
1015.735	-9.65855
1015.902	-32.83698
1016.069	15.63036
1016.236	43.03055
1016.403	43.03055
1016.57	-26.51589
1016.737	34.5993
1016.904	-39.15785
1017.071	-28.62294
1017.238	-43.37164
1017.405	17.73793
1017.572	-26.51589
1017.739	97.84262
1017.906	15.63036
1018.073	28.27611
1018.24	9.30781
1018.407	36.70708
1018.573	19.84552
1018.74	-15.98024
1018.907	74.65103
1019.074	49.35423
1019.241	-51.79892
1019.407	13.52282
1019.574	99.95108
1019.741	59.89417
1019.907	17.73793
1020.074	-9.65855
1020.241	30.38382
1020.407	2.98547
1020.574	-24.40881
1020.74	17.73793
1020.907	-9.65855
1021.073	0.87808
1021.24	-15.98024
1021.406	45.13842
1021.573	-56.01241
1021.739	9.30781
1021.906	49.35423
1022.072	15.63036
1022.239	5.09289
1022.405	24.06077
1022.571	-1.2293
1022.738	5.09289
1022.904	-3.33665
1023.07	-11.7658
1023.237	7.20034
1023.403	36.70708
1023.569	9.30781
1023.735	34.5993
1023.902	-58.11912
1024.068	49.35423
1024.234	-13.87303
1024.4	80.97574
1024.566	49.35423
1024.732	40.92271
1024.898	-53.90568
1025.065	-13.87303
1025.231	24.06077
1025.397	11.4153
1025.563	24.06077
1025.729	-28.62294
1025.895	-20.19457
1026.061	-18.08741
1026.227	70.43467
1026.392	51.46218
1026.558	24.06077
1026.724	62.00222
1026.89	-7.55127
1027.056	-34.94396
1027.222	24.06077
1027.388	32.49155
1027.553	15.63036
1027.719	68.32652
1027.885	40.92271
1028.051	59.89417
1028.216	-30.72997
1028.382	74.65103
1028.548	19.84552
1028.713	9.30781
1028.879	30.38382
1029.045	59.89417
1029.21	66.2184
1029.376	72.54284
1029.541	-28.62294
1029.707	-24.40881
1029.873	45.13842
1030.038	59.89417
1030.204	-9.65855
1030.369	24.06077
1030.534	26.16843
1030.7	-56.01241
1030.865	-7.55127
1031.031	-30.72997
1031.196	-51.79892
1031.361	40.92271
1031.527	45.13842
1031.692	-18.08741
1031.857	-24.40881
1032.023	0.87808
1032.188	-49.69214
1032.353	-24.40881
1032.518	-18.08741
1032.684	38.81488
1032.849	17.73793
1033.014	49.35423
1033.179	-53.90568
1033.344	87.30066
1033.509	-15.98024
1033.674	-43.37164
1033.839	24.06077
1034.004	-9.65855
1034.17	36.70708
1034.335	19.84552
1034.5	74.65103
1034.664	89.40901
1034.829	-11.7658
1034.994	-20.19457
1035.159	-56.01241
1035.324	9.30781
1035.489	7.20034
1035.654	7.20034
1035.819	15.63036
1035.984	-85.50398
1036.148	-18.08741
1036.313	-26.51589
1036.478	-5.44397
1036.643	19.84552
1036.807	66.2184
1036.972	66.2184
1037.137	51.46218
1037.301	57.78613
1037.466	36.70708
1037.631	32.49155
1037.795	-1.2293
1037.96	13.52282
1038.124	-9.65855
1038.289	51.46218
1038.454	-7.55127
1038.618	-72.86535
1038.783	43.03055
1038.947	2.98547
1039.111	68.32652
1039.276	24.06077
1039.44	40.92271
1039.605	66.2184
1039.769	2.98547
1039.933	-7.55127
1040.098	-22.3017
1040.262	-41.26476
1040.426	19.84552
1040.591	28.27611
1040.755	28.27611
1040.919	51.46218
1041.083	26.16843
1041.248	24.06077
1041.412	-9.65855
1041.576	24.06077
1041.74	-3.33665
1041.904	34.5993
1042.068	30.38382
1042.232	-1.2293
1042.397	-41.26476
1042.561	30.38382
1042.725	-13.87303
1042.889	-83.39761
1043.053	-18.08741
1043.217	0.87808
1043.381	-102.35404
1043.544	-26.51589
1043.708	7.20034
1043.872	15.63036
1044.036	-22.3017
1044.2	-9.65855
1044.364	38.81488
1044.528	7.20034
1044.691	62.00222
1044.855	51.46218
1045.019	36.70708
1045.183	49.35423
1045.346	15.63036
1045.51	40.92271
1045.674	-24.40881
1045.837	9.30781
1046.001	-26.51589
1046.165	43.03055
1046.328	11.4153
1046.492	17.73793
1046.655	38.81488
1046.819	-7.55127
1046.983	72.54284
1047.146	-26.51589
1047.31	34.5993
1047.473	-24.40881
1047.636	-30.72997
1047.8	24.06077
1047.963	-39.15785
1048.127	7.20034
1048.29	-81.29121
