Data from mixed_try1_USB4F045381__4__00108.txt Node

Date: Thu Apr 03 19:58:50 EDT 2025
User: mmckonesweet
Spectrometer: USB4F04538
Trigger mode: 4
Integration Time (sec): 2.700000E-3
Scans to average: 1
Electric dark correction enabled: true
Nonlinearity correction enabled: true
Boxcar width: 0
XAxis mode: Wavelengths
Number of Pixels in Spectrum: 3648
>>>>>Begin Spectral Data<<<<<
345.52	12.29343
345.736	12.29343
345.952	12.29343
346.168	24.93896
346.384	-17.20943
346.6	-48.81431
346.816	27.04663
347.032	-67.77453
347.248	46.01671
347.464	14.40096
347.68	14.40096
347.896	-59.34802
348.112	16.50851
348.328	41.80097
348.544	33.36978
348.76	-0.35123
348.975	-17.20943
349.191	-10.88778
349.407	-21.42373
349.623	-15.10224
349.839	50.23254
350.055	-31.95906
350.27	10.18593
350.486	-55.13461
350.702	33.36978
350.918	24.93896
351.133	-6.67324
351.349	41.80097
351.565	18.61609
351.781	31.26204
351.996	-23.53085
352.212	37.58533
352.428	35.47754
352.644	33.36978
352.859	43.90883
353.075	56.55646
353.291	-2.45859
353.506	-8.78052
353.722	12.29343
353.938	54.44846
354.153	43.90883
354.369	29.15432
354.584	-17.20943
354.8	14.40096
355.016	8.07845
355.231	24.93896
355.447	67.09678
355.662	27.04663
355.878	3.86356
356.093	52.34049
356.309	-6.67324
356.524	33.36978
356.74	-8.78052
356.955	33.36978
357.171	88.17913
357.386	-10.88778
357.602	-6.67324
357.817	12.29343
358.033	-55.13461
358.248	-31.95906
358.464	1.75615
358.679	83.96248
358.895	52.34049
359.11	33.36978
359.325	75.52945
359.541	-21.42373
359.756	-8.78052
359.972	-6.67324
360.187	71.31307
360.402	41.80097
360.618	22.83131
360.833	-17.20943
361.048	-42.49378
361.264	-88.83902
361.479	-42.49378
361.694	20.72369
361.909	8.07845
362.125	-4.56592
362.34	58.66448
362.555	24.93896
362.77	1.75615
362.986	10.18593
363.201	-6.67324
363.416	-8.78052
363.631	12.29343
363.847	29.15432
364.062	37.58533
364.277	33.36978
364.492	41.80097
364.707	64.98867
364.922	10.18593
365.138	10.18593
365.353	52.34049
365.568	33.36978
365.783	20.72369
365.998	50.23254
366.213	20.72369
366.428	3.86356
366.643	18.61609
366.858	-0.35123
367.073	41.80097
367.288	12.29343
367.503	-10.88778
367.718	69.20492
367.933	18.61609
368.148	16.50851
368.363	14.40096
368.578	-17.20943
368.793	-34.06606
369.008	54.44846
369.223	16.50851
369.438	-6.67324
369.653	8.07845
369.868	109.26371
370.083	8.07845
370.298	-15.10224
370.513	39.69314
370.728	-21.42373
370.943	41.80097
371.157	10.18593
371.372	67.09678
371.587	29.15432
371.802	18.61609
372.017	-8.78052
372.232	98.72115
372.446	41.80097
372.661	24.93896
372.876	41.80097
373.091	27.04663
373.306	-6.67324
373.52	-12.99502
373.735	54.44846
373.95	41.80097
374.165	86.0708
374.379	-17.20943
374.594	27.04663
374.809	-8.78052
375.023	8.07845
375.238	-4.56592
375.453	54.44846
375.667	41.80097
375.882	1.75615
376.097	20.72369
376.311	46.01671
376.526	8.07845
376.741	8.07845
376.955	18.61609
377.17	-21.42373
377.384	5.97099
377.599	-17.20943
377.813	14.40096
378.028	-0.35123
378.242	-6.67324
378.457	29.15432
378.672	43.90883
378.886	54.44846
379.101	69.20492
379.315	-8.78052
379.53	41.80097
379.744	35.47754
379.958	12.29343
380.173	20.72369
380.387	12.29343
380.602	69.20492
380.816	-23.53085
381.031	12.29343
381.245	24.93896
381.459	24.93896
381.674	8.07845
381.888	58.66448
382.103	71.31307
382.317	41.80097
382.531	-4.56592
382.746	-25.63794
382.96	39.69314
383.174	24.93896
383.388	-67.77453
383.603	94.50427
383.817	60.77252
384.031	-67.77453
384.246	-25.63794
384.46	50.23254
384.674	-6.67324
384.888	-8.78052
385.103	58.66448
385.317	50.23254
385.531	35.47754
385.745	37.58533
385.959	16.50851
386.174	41.80097
386.388	67.09678
386.602	12.29343
386.816	27.04663
387.03	58.66448
387.244	-8.78052
387.458	50.23254
387.672	33.36978
387.887	3.86356
388.101	-19.31659
388.315	20.72369
388.529	-82.51994
388.743	46.01671
388.957	37.58533
389.171	75.52945
389.385	46.01671
389.599	-31.95906
389.813	126.13296
390.027	-29.85205
390.241	54.44846
390.455	8.07845
390.669	86.0708
390.883	27.04663
391.097	16.50851
391.311	-4.56592
391.525	50.23254
391.738	-42.49378
391.952	43.90883
392.166	1.75615
392.38	37.58533
392.594	12.29343
392.808	56.55646
393.022	50.23254
393.236	50.23254
393.449	1.75615
393.663	31.26204
393.877	-17.20943
394.091	58.66448
394.305	20.72369
394.518	92.39587
394.732	46.01671
394.946	20.72369
395.16	71.31307
395.373	43.90883
395.587	33.36978
395.801	-36.17303
396.015	52.34049
396.228	10.18593
396.442	8.07845
396.656	1.75615
396.869	-8.78052
397.083	119.80683
397.297	54.44846
397.51	1.75615
397.724	41.80097
397.938	5.97099
398.151	60.77252
398.365	62.88058
398.578	69.20492
398.792	-2.45859
399.005	60.77252
399.219	1.75615
399.433	-25.63794
399.646	35.47754
399.86	24.93896
400.073	1.75615
400.287	50.23254
400.5	46.01671
400.714	48.12461
400.927	-12.99502
401.141	-29.85205
401.354	71.31307
401.567	52.34049
401.781	27.04663
401.994	33.36978
402.208	134.5681
402.421	14.40096
402.635	79.74592
402.848	24.93896
403.061	75.52945
403.275	54.44846
403.488	77.63768
403.701	50.23254
403.915	24.93896
404.128	71.31307
404.341	81.85419
404.555	1.75615
404.768	41.80097
404.981	60.77252
405.195	-4.56592
405.408	62.88058
405.621	20.72369
405.834	16.50851
406.048	64.98867
406.261	1.75615
406.474	54.44846
406.687	35.47754
406.9	-15.10224
407.114	35.47754
407.327	75.52945
407.54	46.01671
407.753	46.01671
407.966	50.23254
408.179	-40.38689
408.392	79.74592
408.605	58.66448
408.819	29.15432
409.032	62.88058
409.245	92.39587
409.458	27.04663
409.671	67.09678
409.884	50.23254
410.097	126.13296
410.31	73.42125
410.523	54.44846
410.736	126.13296
410.949	35.47754
411.162	92.39587
411.375	109.26371
411.588	46.01671
411.801	75.52945
412.014	54.44846
412.227	35.47754
412.44	83.96248
412.653	41.80097
412.865	12.29343
413.078	37.58533
413.291	67.09678
413.504	-15.10224
413.717	130.35049
413.93	100.82962
414.143	113.4809
414.356	54.44846
414.568	67.09678
414.781	67.09678
414.994	102.93811
415.207	109.26371
415.42	67.09678
415.632	41.80097
415.845	16.50851
416.058	73.42125
416.271	75.52945
416.483	81.85419
416.696	56.55646
416.909	119.80683
417.121	79.74592
417.334	33.36978
417.547	71.31307
417.759	39.69314
417.972	81.85419
418.185	16.50851
418.397	102.93811
418.61	-6.67324
418.823	41.80097
419.035	62.88058
419.248	60.77252
419.46	143.00359
419.673	52.34049
419.885	77.63768
420.098	81.85419
420.311	126.13296
420.523	94.50427
420.736	111.37229
420.948	121.91552
421.161	94.50427
421.373	75.52945
421.586	117.69816
421.798	178.85816
422.01	37.58533
422.223	96.6127
422.435	143.00359
422.648	126.13296
422.86	147.22146
423.073	134.5681
423.285	136.67694
423.497	159.87558
423.71	67.09678
423.922	92.39587
424.134	128.24171
424.347	62.88058
424.559	94.50427
424.771	86.0708
424.984	168.31207
425.196	107.15516
425.408	100.82962
425.621	35.47754
425.833	92.39587
426.045	109.26371
426.257	134.5681
426.47	117.69816
426.682	126.13296
426.894	136.67694
427.106	170.42125
427.318	143.00359
427.531	180.96744
427.743	134.5681
427.955	170.42125
428.167	212.60907
428.379	151.43941
428.591	143.00359
428.804	227.37671
429.016	134.5681
429.228	216.8283
429.44	124.02423
429.652	178.85816
429.864	187.2954
430.076	155.65745
430.288	143.00359
430.5	147.22146
430.712	227.37671
430.924	254.80485
431.136	176.7489
431.348	214.71868
431.56	159.87558
431.772	240.03545
431.984	155.65745
432.196	252.69488
432.408	164.09378
432.62	218.93794
432.832	134.5681
433.044	235.81579
433.256	235.81579
433.468	248.47499
433.679	178.85816
433.891	204.17086
434.103	151.43941
434.315	231.59621
434.527	254.80485
434.739	237.92561
434.95	195.73297
435.162	269.5752
435.374	227.37671
435.586	305.44984
435.798	223.15728
436.009	320.22329
436.221	187.2954
436.433	330.77629
436.645	256.91485
436.856	286.45672
437.068	244.25518
437.28	271.68532
437.491	252.69488
437.703	286.45672
437.915	227.37671
438.126	370.88166
438.338	235.81579
438.55	417.32708
438.761	225.26699
438.973	381.43673
439.184	275.90563
439.396	370.88166
439.608	271.68532
439.819	324.44443
440.031	377.21465
440.242	370.88166
440.454	383.5478
440.665	330.77629
440.877	337.1083
441.088	332.88694
441.3	358.21613
441.511	446.88733
441.723	372.99264
441.934	347.662
442.146	381.43673
442.357	463.78027
442.569	297.00827
442.78	389.88109
442.991	421.54978
443.203	406.7706
443.414	429.99538
443.626	324.44443
443.837	446.88733
444.048	419.43842
444.26	377.21465
444.471	459.55694
444.682	615.85832
444.894	451.11047
445.105	482.78599
445.316	489.12151
445.528	442.66424
445.739	421.54978
445.95	495.45715
446.161	446.88733
446.373	489.12151
446.584	552.48376
446.795	455.33367
447.006	554.59606
447.217	573.6073
447.429	594.73216
447.64	491.23337
447.851	527.13733
448.062	516.57691
448.273	563.04536
448.484	438.44123
448.695	617.971
448.907	503.90488
449.118	554.59606
449.329	571.49488
449.54	679.24418
449.751	508.12883
449.962	533.47375
450.173	668.67912
450.384	700.37515
450.595	641.21136
450.806	620.0837
451.017	647.5499
451.228	719.39397
451.439	751.09394
451.65	704.60147
451.861	746.86714
452.072	755.32078
452.283	791.25055
452.494	719.39397
452.705	742.64038
452.915	725.73377
453.126	734.18699
453.337	880.02982
453.548	894.82784
453.759	932.88167
453.97	869.46005
454.181	989.96684
454.391	877.91585
454.602	1025.91184
454.813	1091.46294
455.024	1059.74401
455.235	899.05592
455.445	981.50947
455.656	1013.22517
455.867	913.85444
456.078	996.30995
456.288	983.6238
456.499	945.56682
456.71	981.50947
456.921	901.16997
457.131	1146.44503
457.342	983.6238
457.553	1131.64186
457.763	1137.98605
457.974	1360.05143
458.184	1209.8894
458.395	1309.29123
458.606	1011.11074
458.816	1436.19294
459.027	1355.82139
459.237	1241.61274
459.448	1408.6973
459.659	1317.7512
459.869	1584.2455
460.08	1459.45851
460.29	1389.6619
460.501	1546.17526
460.711	1546.17526
460.922	1366.39652
461.132	1615.9703
461.343	1719.60092
461.553	1512.33472
461.764	1700.56723
461.974	1584.2455
462.184	1582.1305
462.395	1706.91182
462.605	1977.57923
462.816	1706.91182
463.026	1922.60658
463.236	1909.92003
463.447	2114.99156
463.657	1793.61808
463.867	2150.92507
464.078	2214.33142
464.288	2273.50366
464.498	2298.86101
464.709	2091.73927
464.919	2231.23848
465.129	2288.29561
465.339	2406.6141
465.55	2256.59802
465.76	2284.06939
465.97	2383.37545
466.18	2546.01853
466.391	2636.81558
466.601	2520.6759
466.811	2824.66976
467.021	2742.36453
467.231	2856.32004
467.441	2588.25249
467.651	2797.23699
467.862	2824.66976
468.072	3010.30501
468.282	2919.611
468.492	2942.81441
468.702	3147.34675
468.912	3387.52999
469.122	3240.07498
469.332	3360.15188
469.542	3393.84759
469.752	3515.95637
469.962	3640.10735
470.172	3684.2809
470.382	3814.64852
470.592	3827.26075
470.802	3667.45387
471.012	3886.1084
471.222	3909.22283
471.432	3888.20981
471.642	4035.25843
471.852	4152.82475
472.062	4322.75905
472.272	4408.72143
472.482	4303.88439
472.691	4689.41375
472.901	4456.92819
473.111	4396.14385
473.321	4576.34691
473.531	4764.75521
473.741	4835.88407
473.95	4936.25638
474.16	4649.63842
474.37	5111.78037
474.58	5115.95753
474.79	5426.89296
474.999	5186.95489
475.209	5249.57726
475.419	5324.69635
475.628	5693.58905
475.838	5297.57351
476.048	5685.26064
476.258	5637.36498
476.467	6032.65043
476.677	6090.83107
476.886	6288.09239
477.096	6373.16093
477.306	6344.11755
477.515	6057.58725
477.725	6148.99326
477.935	6312.99456
478.144	6557.68718
478.354	6449.89644
478.563	6839.30666
478.773	6690.26689
478.982	7035.77603
479.192	7258.88487
479.401	7081.24521
479.611	7302.23715
479.82	7448.73765
480.03	7452.86284
480.239	7597.19008
480.449	7275.40117
480.658	7702.27689
480.868	7939.03701
481.077	8076.84991
481.287	7762.00762
481.496	8050.11722
481.705	8154.97211
481.915	8255.66612
482.124	8150.86114
482.333	8350.15213
482.543	8633.3656
482.752	8674.38121
482.961	8731.79064
483.171	8828.12418
483.38	8709.23866
483.589	8887.54407
483.799	9137.35441
484.008	9202.83576
484.217	8951.04525
484.426	9315.34146
484.636	9339.88146
484.845	9721.99654
485.054	9648.47712
485.263	9605.58154
485.472	9636.22194
485.682	9901.62792
485.891	9850.60805
486.1	9791.41335
486.309	10138.2416
486.518	10203.48092
486.727	10189.21103
486.936	10435.78342
487.146	10166.78554
487.355	10586.48557
487.564	10505.03359
487.773	10674.02424
487.982	10808.34231
488.191	10855.13802
488.4	10869.37897
488.609	11058.52746
488.818	11091.05947
489.027	11200.83472
489.236	11367.4725
489.445	11448.73478
489.654	11404.04247
489.863	11802.05113
490.072	11446.70342
490.281	11739.12388
490.49	11800.02135
490.698	12035.42058
490.907	12035.42058
491.116	12146.99484
491.325	12252.46237
491.534	12122.65333
491.743	12130.76729
491.952	12443.06651
492.16	12483.61288
492.369	12599.15593
492.578	12595.10213
492.787	13006.44467
492.996	12542.40051
493.204	13046.95909
493.413	13030.75356
493.622	13026.70213
493.831	12990.23835
494.039	13411.50587
494.248	13046.95909
494.457	13468.20093
494.665	13735.43957
494.874	13417.58049
495.083	13431.75445
495.291	13889.27894
495.5	13543.11486
495.709	14132.15193
495.917	13779.97377
496.126	13887.25484
496.335	13733.41525
496.543	14156.43738
496.752	13964.16858
496.96	14239.41046
497.169	14079.53236
497.377	14399.27662
497.586	14273.81297
497.794	14273.81297
498.003	14257.62362
498.211	14304.16768
498.42	14684.58464
498.628	14820.14922
498.837	14492.35863
499.045	14654.23383
499.254	14771.58918
499.462	14953.68751
499.671	15208.62031
499.879	15455.46115
500.087	15000.22311
500.296	15139.82911
500.504	15077.10768
500.713	15194.45742
500.921	15550.55731
501.129	15491.8808
501.338	15414.99508
501.546	15712.42678
501.754	15578.8841
501.962	15607.21103
502.171	15726.59062
502.379	15951.19589
502.587	15868.2319
502.795	16349.8626
503.004	15862.16145
503.212	16192.00723
503.42	15957.26651
503.628	16082.72884
503.837	16244.62448
504.045	16311.40963
504.253	16495.58547
504.461	16655.48837
504.669	16400.45965
504.877	16580.59544
505.085	16924.72492
505.294	17054.29843
505.502	16708.11771
505.71	16983.43656
505.918	16625.126
506.126	16995.58408
506.334	16576.54726
506.542	17420.81113
506.75	16772.89448
506.958	16843.74692
507.166	17149.46111
507.374	17283.10445
507.582	17376.25743
507.79	17275.00449
507.998	17325.63002
508.206	17692.21675
508.414	17412.71034
508.622	17686.13987
508.83	17301.32953
509.037	17495.74574
509.245	17380.3077
509.453	17623.34714
509.661	17676.01179
509.869	18052.83361
510.077	17726.653
510.285	17933.2911
510.492	17852.25228
510.7	18214.94515
510.908	18032.5713
511.116	17977.86483
511.324	17955.57775
511.531	18229.13102
511.739	17965.70819
511.947	18225.0779
512.155	18054.85986
512.362	18508.83287
512.57	18058.91237
512.778	18468.29189
512.985	18302.08981
513.193	18279.79634
513.401	18411.5371
513.608	18423.69859
513.816	18470.31891
514.024	18695.34128
514.231	18379.10713
514.439	18816.99507
514.646	18912.30054
514.854	19198.27041
515.061	18739.94602
515.269	18804.82905
515.477	18894.04987
515.684	19218.55504
515.892	19056.28947
516.099	19445.77101
516.307	19305.78362
516.514	19496.49596
516.722	19541.13606
516.929	19393.01983
517.136	19326.07043
517.344	19614.18785
517.551	19190.15668
517.759	19758.27809
517.966	19908.47916
518.173	19668.98024
518.381	19545.19435
518.588	19729.86426
518.796	19908.47916
519.003	20286.11321
519.21	19863.82238
519.418	20054.64282
519.625	19813.07852
519.832	20168.34075
520.039	19884.12067
520.247	20464.82945
520.454	20509.51359
520.661	20290.17459
520.868	20462.79841
521.076	20887.37823
521.283	20336.88157
521.49	20375.46727
521.697	20592.79396
521.904	20950.36961
522.112	20615.13867
522.319	20800.00966
522.526	20649.67239
522.733	20986.94706
522.94	20950.36961
523.147	20588.73134
523.354	21082.46112
523.561	21198.30942
523.768	21017.42929
523.975	21322.30201
524.183	20956.46576
524.39	21428.01243
524.597	21041.81574
524.804	21672.0006
525.011	21293.84337
525.218	21566.26541
525.425	21387.3533
525.632	21549.9994
525.838	21954.69058
526.045	21926.21484
526.252	21824.5219
526.459	21997.40559
526.666	21940.45262
526.873	21940.45262
527.08	21625.2318
527.287	22424.64647
527.494	21877.40103
527.701	22593.55276
527.907	22296.45709
528.114	22554.88529
528.321	22536.56957
528.528	22776.7317
528.735	22829.6553
528.941	22422.6116
529.148	22176.41993
529.355	22715.66891
529.562	22406.33281
529.768	22819.4775
529.975	22697.35068
530.182	22803.19321
530.388	22668.85622
530.595	23151.31715
530.802	22518.25414
531.008	23147.24496
531.215	23222.58254
531.422	23247.0173
531.628	23544.34352
531.835	23218.51013
532.042	23466.95082
532.248	23581.00477
532.455	23340.68817
532.661	23853.958
532.868	23813.21534
533.074	23509.71992
533.281	23352.90661
533.487	23803.02986
533.694	23676.736
533.9	24094.36303
534.107	23752.10355
534.313	24141.22618
534.52	24212.54246
534.726	24261.44698
534.933	24261.44698
535.139	23986.37962
535.345	23748.02952
535.552	24389.82863
535.758	24306.27747
535.965	24577.32515
536.171	24669.0432
536.377	24744.45955
536.584	24436.70072
536.79	24536.5632
536.996	24695.54045
537.203	24300.16415
537.409	24915.68728
537.615	24740.38291
537.821	24538.60127
538.028	25146.05516
538.234	24648.66097
538.44	24925.87993
538.646	24815.8024
538.853	25156.2491
539.059	24823.95605
539.265	25356.06114
539.471	25751.66609
539.677	25600.75636
539.883	25409.07593
540.09	25574.2463
540.296	25702.72123
540.502	25523.26637
540.708	25649.69889
540.914	25810.80926
541.12	25953.57511
541.326	25927.06077
541.532	25831.20382
541.738	25635.42387
541.944	25272.46379
542.15	25853.63806
542.356	25598.71712
542.562	26053.51651
542.768	26275.85023
542.974	26420.68386
543.18	26698.13411
543.386	26818.50732
543.592	26745.05865
543.798	26794.02422
544.004	26557.36532
544.21	26740.97822
544.415	26571.64587
544.621	27061.30925
544.827	26567.56571
545.033	26989.89484
545.239	26634.88926
545.445	27230.67008
545.651	26745.05865
545.856	27126.60389
546.062	26836.86978
546.268	27222.5079
546.474	27134.76582
546.679	26942.96631
546.885	26520.64423
547.091	26949.08738
547.297	27055.18795
547.502	27408.20264
547.708	27242.91339
547.914	27098.03731
548.119	27732.68327
548.325	27528.60378
548.531	27020.50081
548.736	27606.15256
548.942	27414.32463
549.147	27204.14308
549.353	27775.54149
549.559	27683.70309
549.764	27640.846
549.97	27453.09747
550.175	27577.58175
550.381	28069.44017
550.586	27416.3653
550.792	28385.81539
550.997	28167.41162
551.203	28510.33147
551.408	28138.83635
551.614	28514.41403
551.819	28755.29262
552.025	28865.53006
552.23	28679.76132
552.435	28526.66174
552.641	28861.44714
552.846	28506.24891
553.052	28865.53006
553.257	28569.52903
553.462	28963.52143
553.668	28734.87862
553.873	28955.35539
554.078	28969.64597
554.283	29228.92674
554.489	29239.13499
554.694	28865.53006
554.899	28865.53006
555.105	29106.4298
555.31	29306.51008
555.515	29676.07263
555.72	29433.09666
555.925	29061.5152
556.131	29553.56185
556.336	29284.05159
556.541	29757.74865
556.746	29465.76482
556.951	29914.97991
557.156	29939.48408
557.361	29774.08406
557.567	29694.44958
557.772	30309.10865
557.977	29778.16792
558.182	29812.88094
558.387	29896.60189
558.592	29874.13999
558.797	29868.01404
559.002	30066.09154
559.207	29849.63625
559.412	30019.12375
559.617	29692.40769
559.822	30119.1863
560.027	29816.96485
560.232	30227.42037
560.437	30282.55975
560.642	30178.40831
560.847	30141.6497
561.051	30186.57694
561.256	30082.42831
561.461	30370.37613
561.666	30025.24995
561.871	30907.53671
562.076	30507.21084
562.281	30104.89148
562.485	29794.50342
562.69	30452.06782
562.895	30294.81306
563.1	29974.1986
563.305	30264.17986
563.509	30723.70726
563.714	30398.968
563.919	30864.64218
564.123	30574.60911
564.328	30976.98631
564.533	30503.12614
564.737	30607.28756
564.942	30932.04815
565.147	31497.91339
565.351	31312.00233
565.556	30611.37239
565.761	31195.55924
565.965	30774.76989
566.17	30917.74978
566.374	30976.98631
566.579	30936.13341
566.784	31162.87436
566.988	31428.45054
567.193	31326.30271
567.397	31211.90183
567.602	31340.60317
567.806	31040.30945
568.011	31232.3302
568.215	31381.46204
568.42	31444.79457
568.624	31812.56399
568.828	31898.38518
569.033	31536.7317
569.237	31665.44945
569.442	31681.79505
569.646	31630.71542
569.85	31867.73438
570.055	32303.01717
570.259	31463.18173
570.463	32031.21028
570.668	31722.65956
570.872	32129.30182
571.076	31557.16264
571.281	32243.74788
571.485	31879.99465
571.689	31969.90537
571.893	32174.262
572.098	32536.02456
572.302	32061.86339
572.506	31832.99731
572.71	32065.95051
572.914	32513.54012
573.119	32102.73491
573.323	32270.31665
573.527	32008.73161
573.731	32503.32001
573.935	32597.34719
574.139	32906.03735
574.343	31843.21404
574.547	32544.20079
574.751	32981.68544
574.955	32724.08737
575.159	32540.11267
575.364	32713.86604
575.568	32493.09996
575.772	32842.65925
575.976	32329.58674
576.18	32523.76029
576.383	32816.08206
576.587	32300.97337
576.791	32437.91266
576.995	32517.62818
577.199	32660.71613
577.403	32294.84199
577.607	33235.23562
577.811	33255.68508
578.015	32983.73003
578.219	32953.06142
578.422	32707.73328
578.626	32987.81923
578.83	33063.47123
579.034	33145.26135
579.238	33000.08687
579.442	33754.74514
579.645	33255.68508
579.849	33306.80999
580.053	33629.96269
580.257	33394.74912
580.46	33832.48468
580.664	33478.6032
580.868	33597.23486
581.071	33797.70587
581.275	33629.96269
581.479	33959.33341
581.682	33807.93483
581.886	33486.78435
582.09	33615.64416
582.293	33869.31037
582.497	33650.41801
582.7	34202.83933
582.904	34037.08605
583.107	33738.37954
583.311	33748.60802
583.515	33683.14718
583.718	34084.14936
583.922	34296.98169
584.125	34286.74844
584.329	34043.22463
584.532	34360.43003
584.735	34577.41117
584.939	34092.33447
585.142	34213.0718
585.346	34045.27083
585.549	34501.66733
585.753	34256.04924
585.956	34835.39275
586.159	34681.82414
586.363	34624.49803
586.566	34796.4864
586.769	34462.774
586.973	34542.60925
587.176	34730.96346
587.379	34657.2554
587.582	34927.54576
587.786	34831.29727
587.989	35099.58929
588.192	34462.774
588.395	34733.01098
588.599	34995.13042
588.802	35419.18771
589.005	35021.75605
589.208	35863.96415
589.411	35247.08151
589.615	35665.11601
589.818	35372.0599
590.021	35544.1919
590.224	35519.5994
590.427	35410.99138
590.63	35288.05602
590.833	34876.34853
591.036	35310.59283
591.239	35540.0931
591.442	35421.23681
591.645	35638.47013
591.848	36064.91562
592.051	35677.41441
592.254	35253.22756
592.457	35894.71849
592.66	35851.66276
592.863	36530.60365
593.066	36171.5655
593.269	36017.7486
593.472	35927.52452
593.675	36680.43095
593.878	36302.84903
594.081	36352.08677
594.284	36762.54291
594.486	36444.41715
594.689	36686.58898
594.892	36056.71244
595.095	36046.45859
595.298	36263.87164
595.5	36489.56106
595.703	36891.89098
595.906	36460.83276
596.109	36278.23148
596.311	36547.0214
596.514	35937.7767
596.717	36415.69079
596.92	36625.01134
597.122	36674.27298
597.325	36649.64169
597.528	36175.66774
597.73	36705.06342
597.933	36748.17255
598.136	36700.95795
598.338	36651.69426
598.541	36953.4948
598.743	37206.13636
598.946	36914.47833
599.148	37162.99481
599.351	37068.50533
599.554	37013.05109
599.756	37430.11331
599.959	37824.86089
600.161	37103.4236
600.363	37298.5933
600.566	37789.89762
600.768	38199.32125
600.971	37308.8672
601.173	37411.61647
601.376	37319.1413
601.578	37621.28342
601.78	37522.60673
601.983	37701.47139
602.185	37171.21201
602.388	37121.91058
602.59	37134.23555
602.792	37218.4631
602.995	37117.80231
603.197	37368.45951
603.399	37880.39555
603.601	37230.7901
603.804	37331.47045
604.006	37520.55115
604.208	37121.91058
604.41	36982.24538
604.613	37224.62656
604.815	37448.61077
605.017	37650.06748
605.219	37880.39555
605.421	37810.46397
605.623	37545.21857
605.826	38351.65388
606.028	37462.99811
606.23	37985.31047
606.432	37282.15542
606.634	38170.50682
606.836	37604.83607
607.038	37705.58391
607.24	37512.32892
607.442	37619.22748
607.644	37571.94286
607.846	38088.189
608.048	37948.27925
608.25	37911.25068
608.452	38246.66285
608.654	38567.88332
608.856	38312.53695
609.058	38846.03792
609.26	38088.189
609.462	38287.83313
609.664	38631.74121
609.866	37722.03432
610.067	38104.65149
610.269	38057.32326
610.471	38051.15034
610.673	38462.84545
610.875	38580.24223
611.077	38129.34623
611.278	37903.02247
611.48	37937.99327
611.682	37808.4073
611.884	38747.11944
612.085	37972.96644
612.287	38549.34554
612.489	38322.83058
612.69	38590.54158
612.892	38326.94809
613.094	38572.00292
613.295	38166.39061
613.497	38623.50099
613.699	38044.97749
613.9	38421.66041
614.102	38300.18489
614.304	38283.71595
614.505	37645.95538
614.707	37520.55115
614.908	37382.8448
615.11	37882.4525
615.311	38298.12624
615.513	38359.88942
615.714	38217.84569
615.916	38493.73655
616.117	38339.30083
616.319	38269.30608
616.52	38012.0569
616.722	38024.40187
616.923	38304.30221
617.124	38473.14226
617.326	38364.00724
617.527	38547.28583
617.729	38551.40526
617.93	38040.8623
618.131	38141.69405
618.333	38390.77393
618.534	38872.83202
618.735	38454.60816
618.937	38215.78738
619.138	37734.37246
619.339	37931.82178
619.54	38421.66041
619.742	38263.13055
619.943	38539.04709
620.144	38298.12624
620.345	38691.48709
620.546	37946.22204
620.748	38405.18738
620.949	38149.92611
621.15	38372.24299
621.351	38407.24648
621.552	38401.06921
621.753	38302.24354
621.954	38775.96847
622.155	38219.904
622.356	38639.98157
622.558	38326.94809
622.759	38831.61098
622.96	38586.42181
623.161	39107.86368
623.362	38343.41847
623.563	39130.54872
623.764	38539.04709
623.965	38604.96104
624.166	39371.90781
624.366	38790.39366
624.567	38427.83794
624.768	38761.54373
624.969	38549.34554
625.17	38734.75612
625.371	38695.60777
625.572	38195.2048
625.773	38102.59365
625.973	38335.18321
626.174	38366.06616
626.375	38530.80849
626.576	38794.51522
626.777	38421.66041
626.977	38271.36461
627.178	38602.90109
627.379	38596.72129
627.58	38133.46214
627.78	38184.91383
627.981	38639.98157
628.182	38738.87719
628.382	38897.56642
628.583	39157.35981
628.784	38769.78638
628.984	38557.58446
629.185	39076.93141
629.386	38300.18489
629.586	39411.11558
629.787	38862.52641
629.987	38722.39312
630.188	39064.55911
630.388	38940.85488
630.589	38553.46498
630.79	38555.52472
630.99	38594.66138
631.191	38738.87719
631.391	39017.13512
631.591	39070.74522
631.792	38710.03046
631.992	39050.12519
632.193	39588.62759
632.393	39206.86151
632.594	39027.44425
632.794	38798.63683
632.994	39087.24193
633.195	38920.24081
633.395	38870.77088
633.595	39270.8095
633.796	39340.95683
633.996	39116.11265
634.196	39213.04962
634.397	39673.28179
634.597	38994.45586
634.797	39303.81859
634.997	38990.33248
635.198	38841.91589
635.398	38973.83934
635.598	39650.568
635.798	39753.82254
635.998	39204.79883
636.199	39322.38731
636.399	38936.73199
636.599	39260.49467
636.799	39741.43063
636.999	38977.96257
637.199	39530.8248
637.399	39122.29948
637.599	38934.67056
637.799	38557.58446
637.999	38852.22103
638.199	38969.71615
638.399	38821.3063
638.599	39547.33907
638.799	39772.4111
638.999	39578.30508
639.199	39871.56433
639.399	39557.66082
639.599	39627.85545
639.799	38928.48633
639.999	38848.09895
640.199	38846.03792
640.399	39510.18287
640.599	38687.36644
640.799	40651.19101
640.998	39446.19927
641.198	39563.85399
641.398	39132.61106
641.598	39638.17919
641.798	39793.06604
641.997	39497.79819
642.197	39551.46774
642.397	39543.21044
642.597	39621.66133
642.796	39305.88174
642.996	39704.25715
643.196	39644.37355
643.395	39462.71025
643.595	39726.97388
643.795	39592.75667
643.994	39925.2824
644.194	39423.49773
644.394	39753.82254
644.593	39534.95331
644.793	39567.98282
644.992	39551.46774
645.192	39596.88578
645.392	39755.88789
645.591	39826.11611
645.791	39634.04966
645.99	39295.56608
646.19	39646.43836
646.389	39658.82742
646.589	39803.3939
646.788	39607.20875
646.987	39695.99683
647.187	39997.60647
647.386	39454.45468
647.586	39774.47655
647.785	39753.82254
647.984	40144.36113
648.184	40167.10262
648.383	40179.50762
648.582	39970.74173
648.782	40208.45414
648.981	39541.14614
649.18	40262.21761
649.38	39939.74618
649.579	39821.98471
649.778	39803.3939
649.977	40293.23835
650.177	40330.4665
650.376	39914.95145
650.575	39712.51763
650.774	40026.53974
650.973	39894.29034
651.173	39712.51763
651.372	39766.21482
651.571	40404.9335
651.77	39658.82742
651.969	39795.13159
652.168	39594.82122
652.367	40026.53974
652.566	40216.72496
652.765	40647.05091
652.964	40671.89218
653.163	40613.93176
653.362	40473.20752
653.561	39972.80818
653.76	39991.40676
653.959	39803.3939
654.158	40518.73028
654.357	39650.568
654.556	39836.44481
654.755	40291.17022
654.954	40413.20849
655.153	40181.57516
655.352	40438.03454
655.551	40336.67153
655.749	40489.76062
655.948	40183.64271
656.147	40396.65868
656.346	40613.93176
656.545	40332.53483
656.743	40278.7617
656.942	40233.26713
657.141	40123.68819
657.34	40055.4751
657.538	40510.45301
657.737	40978.40337
657.936	40744.35523
658.135	40429.75901
658.333	40001.73967
658.532	39357.46374
658.731	39989.34021
658.929	39718.71311
659.128	39755.88789
659.326	39896.3564
659.525	40134.02453
659.724	40183.64271
659.922	40274.62561
660.121	39710.4525
660.319	39840.57636
660.518	39826.11611
660.716	40307.71554
660.915	40291.17022
661.113	40723.65008
661.312	40051.34135
661.51	39970.74173
661.709	40280.82976
661.907	40626.3511
662.105	40204.31879
662.304	40570.46726
662.502	40622.21128
662.701	40965.97232
662.899	40280.82976
663.097	40423.55248
663.296	40235.33495
663.494	40495.96822
663.692	40384.24678
663.891	40214.65724
664.089	40098.88208
664.287	40485.62228
664.485	40539.42423
664.684	41086.15679
664.882	40483.55313
665.08	40134.02453
665.278	39902.55465
665.476	40069.94357
665.675	39518.43952
665.873	39886.02618
666.071	39902.55465
666.269	39939.74618
666.467	39739.36535
666.665	40338.7399
666.863	39025.38241
667.061	39456.51856
667.259	39774.47655
667.457	40127.82269
667.655	39376.03477
667.853	39617.53197
668.051	39805.4595
668.249	39797.19715
668.447	39786.86945
668.645	39578.30508
668.843	39157.35981
669.041	39629.92018
669.239	39332.70361
669.437	39646.43836
669.635	39770.34566
669.833	39685.67166
670.031	39221.30056
670.229	38971.77774
670.426	38786.27213
670.624	39093.42835
670.822	39512.24701
671.02	40171.23758
671.218	39567.98282
671.415	39314.13445
671.613	39652.63284
671.811	39299.69232
672.009	39462.71025
672.206	39563.85399
672.404	38790.39366
672.602	38926.42493
672.799	39334.7669
672.997	39491.60599
673.195	39324.45055
673.392	39592.75667
673.59	39454.45468
673.788	40016.20619
673.985	39731.10433
674.183	39859.16886
674.38	39473.02993
674.578	39784.80394
674.775	39326.5138
674.973	39095.49052
675.17	39537.01757
675.368	39423.49773
675.565	39206.86151
675.763	39652.63284
675.96	38938.79343
676.158	39217.17507
676.355	39177.98484
676.553	39598.95036
676.75	39297.62919
676.947	39281.12457
677.145	39693.93177
677.342	39991.40676
677.539	39390.47946
677.737	39613.40265
677.934	39417.30661
678.131	39070.74522
678.329	39811.65638
678.526	39050.12519
678.723	39192.42294
678.92	39941.81247
679.118	38843.9769
679.315	38870.77088
679.512	39563.85399
679.709	39454.45468
679.906	39021.25874
680.104	38846.03792
680.301	38831.61098
680.498	38250.77972
680.695	37767.27556
680.892	38765.66503
681.089	38378.41989
681.286	39177.98484
681.483	38289.89174
681.68	38753.30122
681.877	39019.19693
682.075	38747.11944
682.272	38088.189
682.469	38637.92146
682.665	38557.58446
682.862	37989.42522
683.059	38277.54024
683.256	38032.63202
683.453	38211.6708
683.65	37557.5527
683.847	38226.07899
684.044	38166.39061
684.241	38145.81006
684.438	38648.22207
684.635	38189.03019
684.831	38644.1018
685.028	38652.34237
685.225	37962.67997
685.422	37732.31609
685.619	37656.23569
685.815	37693.24643
686.012	37837.20142
686.209	37543.16291
686.405	38205.49599
686.602	38047.0351
686.799	37831.03112
686.996	37865.99711
687.192	37697.35889
687.389	37615.11561
687.586	37173.26632
687.782	37940.05045
687.979	37670.62846
688.175	37890.68039
688.372	38158.15829
688.568	38014.11438
688.765	37884.50946
688.962	38042.91989
689.158	37849.54224
689.355	37473.275
689.551	37117.80231
689.748	37239.00824
689.944	37103.4236
690.14	36906.26465
690.337	37497.94032
690.533	37426.00285
690.73	37214.35415
690.926	37824.86089
691.123	37265.71802
691.319	37380.78973
691.515	37748.76732
691.712	37002.78235
691.908	36717.38002
692.104	36600.38193
692.301	36776.91359
692.497	36930.90601
692.693	36655.79942
692.889	36930.90601
693.086	36969.92354
693.282	36912.4249
693.478	36947.33414
693.674	36910.37148
693.87	37099.31546
694.067	37183.53801
694.263	37167.1034
694.459	37343.79987
694.655	36978.13807
694.851	36902.15785
695.047	36893.94434
695.243	36641.43147
695.439	36505.97779
695.635	36705.06342
695.831	36608.59163
696.027	36631.16884
696.224	36499.82147
696.42	36110.03478
696.615	36114.13666
696.811	36421.84633
697.007	36417.74263
697.203	36091.5766
697.399	36210.53772
697.595	36097.72927
697.791	36140.79947
697.987	36362.34508
698.183	36134.64643
698.379	36362.34508
698.575	36261.82026
698.77	36680.43095
698.966	36395.17271
699.162	36226.94772
699.358	36401.32807
699.554	35931.62538
699.749	36434.15759
699.945	36194.1281
700.141	36327.46745
700.337	36290.54014
700.532	36352.08677
700.728	36606.5392
700.924	36647.58912
701.119	36432.1057
701.315	36003.39403
701.511	36001.3434
701.706	36520.34277
701.902	35751.2089
702.097	35855.7632
702.293	35519.5994
702.489	35556.48843
702.684	35335.17912
702.88	35771.70861
703.075	35974.68573
703.271	35353.61931
703.466	35132.36321
703.662	34915.25817
703.857	35154.89597
704.053	35197.91468
704.248	35486.81055
704.443	35419.18771
704.639	35642.56944
704.834	35540.0931
705.03	35509.35274
705.225	35527.79681
705.42	35845.51214
705.616	35984.93856
705.811	35068.86484
706.006	36001.3434
706.202	35558.53787
706.397	35622.07312
706.592	35681.51392
706.787	35745.05909
706.983	35767.60863
707.178	36339.777
707.373	35609.77558
707.568	35251.17888
707.763	34821.05865
707.959	35367.96196
708.154	35021.75605
708.349	34921.40194
708.544	35189.72048
708.739	34892.73134
708.934	35007.41908
709.129	34407.50703
709.324	34511.90266
709.519	34773.96238
709.714	34806.72476
709.909	35066.81658
710.104	34427.97594
710.299	34763.72437
710.494	34778.05762
710.689	34900.92285
710.884	35083.20279
711.079	35060.67183
711.274	34741.20112
711.469	35169.23531
711.664	34835.39275
711.859	34448.44525
712.054	33887.72363
712.249	34200.79284
712.443	33912.27508
712.638	34317.44849
712.833	34063.68681
713.028	34251.95608
713.223	33959.33341
713.417	33959.33341
713.612	34184.4211
713.807	34403.4133
714.002	34018.67048
714.196	34389.08535
714.391	34006.3936
714.586	34137.35367
714.78	34213.0718
714.975	34481.19698
715.17	33736.33385
715.364	34606.07247
715.559	34876.34853
715.754	34215.11831
715.948	33930.68899
716.143	33562.46242
716.337	33854.98914
716.532	33803.84323
716.726	33959.33341
716.921	33838.62222
717.115	33854.98914
717.31	34231.4905
717.504	33812.02644
717.699	34168.0496
717.893	33560.41701
718.088	33707.6946
718.282	33871.35627
718.476	33194.33755
718.671	33057.33715
718.865	33449.96952
719.059	33151.39579
719.254	33531.78161
719.448	33396.79428
719.642	33124.81341
719.837	32979.64085
720.031	32998.04226
720.225	32789.5053
720.419	32985.77463
720.614	33116.63431
720.808	33043.02438
721.002	32881.5036
721.196	32672.98135
721.39	33225.01099
721.585	33323.17035
721.779	32993.95304
721.973	33331.3506
722.167	32660.71613
722.361	32948.97232
722.555	32875.37022
722.749	32401.12203
722.943	32290.75441
723.137	32219.22318
723.331	31933.12327
723.525	32272.36042
723.719	32468.57207
723.913	32856.97022
724.107	32787.46095
724.301	33075.73947
724.495	32638.23011
724.689	32899.90388
724.883	32556.46521
725.077	32722.0431
725.271	32578.95018
725.465	32325.49909
725.659	32607.56783
725.853	32106.8221
726.046	31753.3084
726.24	31716.52984
726.434	31600.06815
726.628	32376.59534
726.822	31761.4815
727.015	32258.0541
727.209	31442.75156
727.403	32039.3844
727.596	32078.2119
727.79	32331.63057
727.984	32258.0541
728.177	32237.61668
728.371	32474.70401
728.565	32568.7297
728.758	32762.92896
728.952	32630.05345
729.146	32478.79198
729.339	32705.68903
729.533	32754.75171
729.726	32399.07813
729.92	32507.40805
730.113	32264.18536
730.307	32166.08735
730.5	31720.61631
730.694	31926.99298
730.887	31287.48758
731.081	31593.93875
731.274	31718.57307
731.468	31244.5873
731.661	31448.8806
731.854	31387.59093
732.048	31389.63389
732.241	31175.13114
732.435	31224.15884
732.628	31761.4815
732.821	31440.70856
733.014	31491.78424
733.208	31032.13865
733.401	31334.47439
733.594	31146.53206
733.788	31395.7628
733.981	31800.30409
734.174	31894.29838
734.367	31671.57904
734.56	31814.60731
734.754	31777.82777
734.947	31882.03803
735.14	31916.77586
735.333	31826.86729
735.526	31843.21404
735.719	31077.07837
735.912	31193.51643
736.105	31138.36095
736.298	30883.02547
736.491	30870.76993
736.684	30699.19749
736.877	31469.31081
737.07	31516.30094
737.263	31465.22476
737.456	31354.9037
737.649	31042.35216
737.842	31348.77489
738.035	30811.5355
738.228	31193.51643
738.421	31379.41908
738.614	31448.8806
738.807	31604.15443
739	31181.25956
739.192	30650.17853
739.385	31281.35893
739.578	31728.78929
739.771	31986.25318
739.964	31700.18399
740.156	31851.38745
740.349	31320.17397
740.542	31501.9995
740.735	31524.47323
740.927	31755.35167
741.12	31363.07547
741.313	31483.61206
741.505	31612.32701
741.698	31269.10166
741.891	31075.03564
742.083	30985.15696
742.276	30770.68485
742.468	31097.50575
742.661	30860.55701
742.854	30703.28244
743.046	30494.95676
743.239	30521.50733
743.431	30934.09078
743.624	30599.11792
743.816	30754.34474
744.009	30780.89746
744.201	30744.13221
744.393	30511.29554
744.586	30476.57572
744.778	30979.02897
744.971	30874.8551
745.163	30564.39716
745.355	30184.53478
745.548	30447.98319
745.74	30656.30586
745.932	30709.40987
746.125	30672.64546
746.317	30793.15264
746.509	30417.34861
746.702	31097.50575
746.894	30921.83502
747.086	30533.76151
747.278	30108.97571
747.471	29963.98841
747.663	29831.25855
747.855	30174.324
748.047	30454.11014
748.239	30441.85625
748.431	30750.25972
748.623	30666.5181
748.815	30233.54692
749.008	29945.61015
749.2	30137.56544
749.392	30249.88445
749.584	29578.0637
749.776	30321.36206
749.968	30064.04945
750.16	30059.96527
750.352	29835.34248
750.544	29473.9319
750.736	29400.42877
750.928	29516.80937
751.12	29712.82662
751.311	29563.77093
751.503	29533.14376
751.695	29098.26347
751.887	28973.729
752.079	29475.97368
752.271	29153.38652
752.463	29498.43325
752.654	29065.59832
752.846	28655.26499
753.038	28730.79583
753.23	29016.60109
753.421	29233.01004
753.613	28857.36422
753.805	29363.67771
753.997	29279.96824
754.188	29308.55176
754.38	28830.82535
754.572	28977.81204
754.763	28992.1027
754.955	29057.43207
755.146	28983.9366
755.338	28830.82535
755.53	28553.19858
755.721	28710.38195
755.913	28761.41685
756.104	28518.4966
756.296	28859.40568
756.487	28385.81539
756.679	28581.77691
756.87	28391.93904
757.062	28524.62045
757.253	28508.29019
757.445	28236.80959
757.636	28222.52167
757.827	28442.96982
758.019	28165.37052
758.21	28046.98875
758.401	28118.42558
758.593	27524.52231
758.784	27255.15675
758.975	27604.11178
759.167	27942.89755
759.358	28334.78536
759.549	28059.23496
759.74	27781.66413
759.932	27649.00922
760.123	27424.52797
760.314	27581.66328
760.505	27363.30843
760.696	27057.22838
760.888	27479.62652
761.079	27349.02404
761.27	27481.66723
761.461	26908.28048
761.652	27067.43056
761.843	26889.91756
762.034	27010.29879
762.225	27087.83503
762.416	27328.61787
762.607	27063.34968
762.798	27600.03022
762.989	27738.80584
763.18	27604.11178
763.371	26806.26574
763.562	26738.93801
763.753	26490.04371
763.944	27079.67322
764.135	26781.78275
764.326	26991.93523
764.517	26938.8856
764.708	26879.71599
764.899	26481.88363
765.089	26641.00967
765.28	26153.46216
765.471	26114.70723
765.662	25853.63806
765.853	26198.33707
766.043	25798.57261
766.234	26200.37686
766.425	26096.34985
766.615	26459.44355
766.806	26573.68596
766.997	26051.47685
767.187	26335.00663
767.378	26412.524
767.569	26245.25264
767.759	26200.37686
767.95	26365.60531
768.141	25994.367
768.331	26018.84247
768.522	25702.72123
768.712	26004.56508
768.903	26167.74045
769.093	25790.41488
769.284	25584.44244
769.474	25392.76354
769.665	25019.65503
769.855	25268.38596
770.046	25480.4442
770.236	25056.35095
770.426	25048.19624
770.617	25535.50144
770.807	25280.61947
770.998	25280.61947
771.188	25404.99782
771.378	25296.93094
771.569	25172.5595
771.759	24919.76433
771.949	24901.41766
772.139	25376.45128
772.33	24667.00496
772.52	24852.49414
772.71	25125.66746
772.9	25086.93145
773.09	24878.99421
773.281	25272.46379
773.471	24868.80183
773.661	24850.45569
773.851	24556.94405
774.041	24426.51102
774.231	24308.31525
774.421	24114.73813
774.611	23884.51576
774.802	24186.05317
774.992	24045.4639
775.182	23941.55864
775.372	23886.55297
775.562	23998.60376
775.752	23831.5494
775.942	23583.04153
776.131	24092.32553
776.321	23853.958
776.511	24241.06991
776.701	24106.58806
776.891	24410.20763
777.081	24336.84445
777.271	24263.4847
777.461	24092.32553
777.651	24387.79075
777.84	24029.16455
778.03	23711.36383
778.22	23242.94481
778.41	23627.85113
778.599	23729.69656
778.789	23595.26219
778.979	23420.11004
779.169	23212.40153
779.358	23120.77606
779.548	23407.89098
779.738	23320.32437
779.927	23534.16002
780.117	23503.60996
780.307	23385.48966
780.496	23061.73206
780.686	23299.96088
780.875	22681.06805
781.065	22927.36648
781.254	23006.76256
781.444	23175.75055
781.633	23069.87589
781.823	23045.44455
782.012	22902.93795
782.202	22506.04401
782.391	22465.34452
782.581	22607.79899
782.77	22589.48244
782.96	22888.6882
783.149	22233.38511
783.338	22182.52321
783.528	22416.50703
783.717	22192.6954
783.906	21962.82664
784.096	21779.78005
784.285	21958.7586
784.474	22107.25185
784.663	21883.50263
784.853	21997.40559
785.042	22062.49834
785.231	21987.2352
785.42	21897.73985
785.61	21916.04511
785.799	21794.01589
785.988	22011.6443
786.177	21914.01118
786.366	21877.40103
786.555	21696.40254
786.744	21716.73792
786.933	21318.23644
787.122	21800.11702
787.312	21964.86067
787.501	22310.69964
787.69	21838.75833
787.879	22038.08811
788.068	21604.89819
788.257	21403.61676
788.445	21271.48356
788.634	21295.8761
788.823	21304.00708
789.012	21208.47218
789.201	21600.83152
789.39	21306.03983
789.579	21273.51625
789.768	21499.16976
789.957	20980.85073
790.145	21330.4332
790.334	21476.8055
790.523	21127.17293
790.712	20966.62609
790.9	20808.13665
791.089	21025.55804
791.278	21175.9517
791.467	21084.49343
791.655	21106.84914
791.844	20804.07315
792.033	20554.19974
792.221	20239.40865
792.41	20554.19974
792.599	20194.73679
792.787	20879.2506
792.976	20602.95058
793.164	20641.5467
793.353	20698.42793
793.541	20450.6122
793.73	20535.9188
793.918	20621.23277
794.107	20259.71471
794.295	20330.78923
794.484	20310.4817
794.672	20627.3269
794.861	20332.82
795.049	20641.5467
795.238	20028.25055
795.426	20692.33336
795.614	20347.03555
795.803	20204.88931
795.991	19955.16796
796.179	19981.55826
796.368	19888.18037
796.556	19947.04801
796.744	20014.03962
796.932	20277.99052
797.121	19961.25796
797.309	20178.49299
797.497	20121.64179
797.685	19963.28798
797.874	20178.49299
798.062	19648.68641
798.25	19681.15675
798.438	20158.18861
798.626	19748.1302
798.814	19666.95084
799.002	19423.45286
799.19	19344.32891
799.378	19409.25066
799.566	19496.49596
799.755	19429.53958
799.943	19614.18785
800.131	19583.74895
800.318	19518.81576
800.506	19823.22708
800.694	19455.9158
800.882	19242.89713
801.07	19277.38278
801.258	19275.35418
801.446	19703.48073
801.634	19275.35418
801.822	19261.15409
802.01	19251.0113
802.197	19557.36932
802.385	19346.35765
802.573	19257.09696
802.761	19248.98275
802.949	19510.69941
803.136	19048.17687
803.324	19271.29699
803.512	19295.64037
803.699	19046.14874
803.887	19058.31763
804.075	19419.39507
804.262	19435.62634
804.45	19311.86962
804.638	19104.9664
804.825	19472.14766
805.013	19451.85787
805.201	19350.41514
805.388	19376.78926
805.576	19380.84687
805.763	19348.38639
805.951	19251.0113
806.138	19561.42768
806.326	19535.04865
806.513	19040.06434
806.701	19186.09983
806.888	19151.61732
807.075	19411.27954
807.263	19113.07945
807.45	20054.64282
807.638	19445.77101
807.825	19472.14766
808.012	19356.50141
808.2	19076.57124
808.387	19121.19256
808.574	19514.75757
808.761	19038.03622
808.949	19027.89567
809.136	19180.0146
809.323	19628.39299
809.51	19180.0146
809.698	19301.72631
809.885	19342.30017
810.072	19733.92333
810.259	19715.65765
810.446	19758.27809
810.633	19386.93333
810.82	19421.42396
811.008	19113.07945
811.195	19050.20502
811.382	18855.52175
811.569	19155.67403
811.756	18766.30426
811.943	19433.59741
812.13	18936.63527
812.317	19380.84687
812.504	19119.16428
812.691	19334.18527
812.878	19457.94476
813.064	19303.75496
813.251	18896.07771
813.438	19060.34579
813.625	18819.02276
813.812	18889.99421
813.999	18902.16124
814.186	19214.49808
814.372	18981.25045
814.559	18991.39053
814.746	18831.18895
814.933	18873.77174
815.12	18746.02863
815.306	18906.21695
815.493	18841.32755
815.68	19072.51485
815.866	18950.8308
816.053	19143.50396
816.24	19048.17687
816.426	18652.7658
816.613	19033.97999
816.799	19104.9664
816.986	19246.95421
817.173	19147.56064
817.359	19042.09247
817.546	19232.75452
817.732	18735.89096
817.919	19060.34579
818.105	19076.57124
818.292	18879.85514
818.478	18456.1299
818.665	18687.23153
818.851	18666.95743
819.037	18739.94602
819.224	18593.97393
819.41	18585.86496
819.597	18348.70491
819.783	18397.34887
819.969	18482.48106
820.156	18715.61592
820.342	18555.45689
820.528	18687.23153
820.714	18920.41205
820.901	18908.24481
821.087	18946.77491
821.273	19027.89567
821.459	19048.17687
821.646	19226.66901
821.832	19145.5323
822.018	19074.54304
822.204	18131.86008
822.39	18466.26489
822.576	18464.23788
822.762	18727.7809
822.948	18245.34367
823.134	18129.83369
823.32	17973.8126
823.507	18115.64907
823.693	18024.46647
823.879	18289.92968
824.065	18370.99979
824.25	18087.28037
824.436	18060.93864
824.622	17994.07388
824.808	18174.41508
824.994	18137.93926
825.18	17965.70819
825.366	18302.08981
825.552	18239.2639
825.738	18662.90266
825.923	18069.04372
826.109	18433.83327
826.295	18050.80736
826.481	18162.25634
826.667	18170.36215
826.852	18413.56401
827.038	17856.30409
827.224	17979.89095
827.409	17996.10003
827.595	17996.10003
827.781	17447.13902
827.966	17459.29053
828.152	17483.59389
828.338	17299.30451
828.523	17072.5206
828.709	17481.56859
828.894	17088.71827
829.08	17102.89137
829.266	17157.56035
829.451	17667.90939
829.637	16880.18651
829.822	17256.77975
830.008	17082.64412
830.193	17088.71827
830.378	16944.97006
830.564	17066.44652
830.749	16904.48003
830.935	17078.5947
831.12	16639.29504
831.305	17416.76073
831.491	17040.12579
831.676	17080.61941
831.861	16651.44003
832.047	16770.87017
832.232	16963.19091
832.417	17086.69355
832.602	16983.43656
832.788	16606.90882
832.973	16695.97234
833.158	17003.68247
833.343	16712.16619
833.528	16983.43656
833.714	16706.09348
833.899	17106.94085
834.084	16529.99381
834.269	16829.57619
834.454	16552.25836
834.639	16564.40277
834.824	16333.67179
835.009	16406.53138
835.194	16568.45092
835.379	16730.38445
835.564	16256.76709
835.749	16671.68185
835.934	16442.96212
836.119	16572.49908
836.304	16279.02871
836.489	16092.84701
836.674	16058.44537
836.859	16005.83192
837.044	15825.73895
837.228	15971.43134
837.413	15841.92668
837.598	16390.34014
837.783	15868.2319
837.968	16353.91031
838.152	15787.29338
838.337	15932.9841
838.522	15777.17619
838.707	15847.9971
838.891	15461.53108
839.076	15572.81406
839.261	15323.94703
839.445	15372.5059
839.63	15196.48069
839.815	15259.20214
839.999	15390.71552
840.184	15728.61403
840.368	15839.90321
840.553	16104.98888
840.737	15971.43134
840.922	15534.37063
841.106	15661.84199
841.291	15243.01594
841.475	15216.7134
841.66	15259.20214
841.844	14838.35913
842.029	15038.66544
842.213	14848.47573
842.397	14901.08179
842.582	15178.27125
842.766	15216.7134
842.951	14921.3148
843.135	14888.94196
843.319	14589.48465
843.504	14718.98198
843.688	14708.86514
843.872	14848.47573
844.056	15103.41023
844.241	15062.94475
844.425	14927.38469
844.609	15117.57313
844.793	15052.82837
844.977	14773.61253
845.161	14785.75257
845.346	14992.12998
845.53	14990.10669
845.714	15062.94475
845.898	14557.10962
846.082	14542.94546
846.266	14314.28583
846.45	14455.9356
846.634	14310.23858
846.818	14304.16768
847.002	14633.99983
847.186	14488.31165
847.37	14328.45117
847.554	14389.15882
847.738	14304.16768
847.922	14623.88279
848.106	14350.71081
848.29	14227.26827
848.473	14532.82816
848.657	14510.56998
848.841	14128.10432
849.025	14103.8185
849.209	13682.8063
849.392	13909.51974
849.576	13885.23075
849.76	13939.88044
849.944	13686.85509
850.127	14030.95909
850.311	13640.29322
850.495	14004.648
850.678	13917.61599
850.862	14063.34142
851.046	13867.01374
851.229	13968.21657
851.413	13387.20706
851.596	13524.89302
851.78	13583.60682
851.964	13713.17191
852.147	13208.99759
852.331	13302.15662
852.514	12974.0317
852.698	12972.00585
852.881	12813.97306
853.065	13046.95909
853.248	13095.5738
853.431	13482.37422
853.615	13247.47743
853.798	13656.48885
853.982	13354.80774
854.165	13387.20706
854.348	13310.25697
854.532	13528.94234
854.715	13040.88205
854.898	13180.64299
855.081	12787.63105
855.265	12961.8765
855.448	12781.55199
855.631	13105.70152
855.814	13004.4189
855.997	13055.06174
856.181	12734.94418
856.364	13073.29241
856.547	12897.04561
856.73	12988.21253
856.913	12805.86793
857.096	12805.86793
857.279	12830.18306
857.462	12755.20882
857.645	12491.72184
857.828	12712.65241
858.011	12566.72486
858.194	12538.34636
858.377	12084.11038
858.56	12301.13309
858.743	12284.90997
858.926	12224.06921
859.109	12122.65333
859.292	12313.30013
859.475	12132.79576
859.658	12122.65333
859.841	11767.54367
860.023	11864.97015
860.206	11580.7532
860.389	11875.11762
860.572	11424.35774
860.755	12065.85223
860.937	11938.02734
861.12	12017.16074
861.303	11980.63915
861.486	12041.50705
861.668	11568.56855
861.851	11621.36631
862.034	11462.95408
862.216	11534.04355
862.399	11564.50692
862.581	11635.58003
862.764	11375.59944
862.947	11664.00615
863.129	11635.58003
863.312	11582.78394
863.494	11381.69453
863.677	11688.36999
863.859	11416.23175
864.042	11391.85283
864.224	11410.13715
864.406	11235.38724
864.589	11172.37744
864.771	11351.21815
864.954	11121.55572
865.136	11046.32724
865.318	10783.9247
865.501	11113.42362
865.683	10989.38763
865.865	10954.8129
866.048	10790.02926
866.23	11206.93244
866.412	10993.45504
866.594	11052.4274
866.777	10989.38763
866.959	11147.98384
867.141	11050.39403
867.323	10987.35392
867.505	10787.99442
867.687	10903.9618
867.869	10399.11552
868.052	10665.88206
868.234	10297.23791
868.416	10806.30757
868.598	10513.1797
868.78	10594.62967
868.962	10515.2162
869.144	10855.13802
869.326	10643.49008
869.508	10551.87094
869.69	10694.37882
869.872	10590.55765
870.054	10466.3368
870.236	10787.99442
870.417	10798.16851
870.599	10820.55048
870.781	10551.87094
870.963	10511.14319
871.145	10452.07892
871.327	10537.6168
871.508	10268.7062
871.69	10718.80272
871.872	10574.26906
872.054	10806.30757
872.235	10293.16211
872.417	10460.22636
872.599	10299.27578
872.78	10684.20168
872.962	10370.59312
873.144	10301.31365
873.325	9979.16057
873.507	10217.75014
873.689	10121.92955
873.87	10028.11779
874.052	9795.49615
874.233	10435.78342
874.415	10085.22416
874.596	10207.55791
874.778	10115.8123
874.959	10166.78554
875.141	9881.22108
875.322	10056.67237
875.503	9868.97627
875.685	10211.63484
875.866	9942.4372
876.048	10405.22713
876.229	10058.71187
876.41	10445.9682
876.592	10364.48084
876.773	10580.37737
876.954	10203.48092
877.136	10431.70942
877.317	10003.64022
877.498	10148.43618
877.679	10185.13379
877.86	10091.34204
878.042	10091.34204
878.223	10541.68948
878.404	9983.24066
878.585	10189.21103
878.766	10032.19719
878.947	10268.7062
879.128	10109.69492
879.309	10101.53823
879.49	9968.96011
879.672	10293.16211
879.853	10077.06679
880.034	10313.54055
880.215	10107.65577
880.396	10531.5077
880.576	10380.77999
880.757	10411.33862
880.938	10195.32678
881.119	10299.27578
881.3	10146.39729
881.481	10737.11951
881.662	10431.70942
881.843	10358.36844
882.023	10376.70528
882.204	10264.63003
882.385	10142.31947
882.566	10179.01783
882.747	10368.55571
882.927	10195.32678
883.108	10317.61608
883.289	10248.3248
883.469	9995.48057
883.65	10317.61608
883.831	9836.32082
884.011	10164.74678
884.192	10056.67237
884.373	10480.59405
884.553	10085.22416
884.734	10240.17186
884.914	10244.24835
885.095	10260.5538
885.275	10158.63041
885.456	10358.36844
885.636	10144.35839
885.817	10623.13244
885.997	10174.94046
886.178	10639.41865
886.358	10358.36844
886.538	10215.71172
886.719	10185.13379
886.899	10295.20001
887.08	10464.3
887.26	10541.68948
887.44	10191.24962
887.621	10700.48496
887.801	10130.08568
887.981	10478.55734
888.161	10229.98037
888.342	10488.74077
888.522	10156.59159
888.702	10631.27564
888.882	10529.47131
889.062	10574.26906
889.242	10335.9553
889.423	10376.70528
889.603	10329.84235
889.783	10659.7753
889.963	10174.94046
890.143	10612.95316
890.323	10170.86303
890.503	10325.76698
890.683	10390.96653
890.863	10323.72928
891.043	10378.74264
891.223	10317.61608
891.403	10066.86975
891.583	10466.3368
891.763	10203.48092
891.943	10217.75014
892.122	10050.55376
892.302	10225.90368
892.482	10058.71187
892.662	10205.51942
892.842	9748.54033
893.022	10325.76698
893.201	9668.90119
893.381	9938.35654
893.561	9721.99654
893.741	9744.45684
893.92	9828.15637
894.1	10136.20264
894.28	9721.99654
894.459	9850.60805
894.639	9917.95234
894.819	10203.48092
894.998	10091.34204
895.178	10142.31947
895.357	10262.59192
895.537	10289.08626
895.716	10399.11552
895.896	10733.0492
896.075	10068.90919
896.255	10077.06679
896.434	9987.32068
896.614	10500.96046
896.793	10001.60033
896.973	9632.13676
897.152	9858.77185
897.331	9746.49859
897.511	9917.95234
897.69	10052.59331
897.87	9603.53872
898.049	9824.07405
898.228	9550.41991
898.407	9601.49588
898.587	9638.26451
898.766	9795.49615
898.945	9305.11576
899.124	9448.23819
899.304	9485.02822
899.483	9505.46488
899.662	9047.28886
899.841	9417.57584
900.02	9294.88964
900.199	9548.37667
900.378	9088.23189
900.557	9120.98134
900.737	8908.03019
900.916	9118.93462
901.095	8635.41655
901.274	8948.9971
901.453	8739.9908
901.632	8748.19068
901.811	8678.48236
901.989	8963.33384
902.168	8657.97586
902.347	8858.86049
902.526	8637.46749
902.705	8797.3838
902.884	9004.29119
903.063	9227.38679
903.242	8813.77917
903.42	9184.42089
903.599	8848.6155
903.778	9170.09726
903.957	8903.93311
904.135	8871.15388
904.314	8520.53407
904.493	8772.78855
904.672	8471.28058
904.85	8629.26363
905.029	8625.16158
905.207	8836.32092
905.386	8465.12312
905.565	8424.06899
905.743	8430.2276
905.922	8539.00131
906.1	8364.52682
906.279	8506.1696
906.457	8165.24919
906.636	8694.88624
906.814	8300.86025
906.993	8177.58104
907.171	8231.01076
907.35	8159.083
907.528	7994.58454
907.707	8157.02757
907.885	8095.35516
908.063	8093.2991
908.242	7908.17081
908.42	8083.01851
908.598	7739.35322
908.777	8214.57227
908.955	7691.9767
909.133	7976.07036
909.311	7737.2936
909.49	7840.24883
909.668	7574.51705
909.846	7862.89199
910.024	7591.00678
910.202	7772.30424
910.38	7475.54982
910.559	7485.86122
910.737	7547.71831
910.915	7706.39682
911.093	7564.21027
911.271	7805.24991
911.449	7628.1037
911.627	7483.79898
911.805	7240.30236
911.983	7638.40717
912.161	7072.97889
912.339	7477.61214
912.517	7170.08557
912.695	7329.06942
912.872	7010.97008
913.05	7060.57875
913.228	7037.84305
913.406	6975.82278
913.584	6855.85933
913.762	7048.17779
913.939	6466.48372
914.117	6797.9186
914.295	6449.89644
914.473	6804.12739
914.65	6824.82187
914.828	6818.61377
915.006	6688.19606
915.184	6835.16826
915.361	6563.90397
915.539	6563.90397
915.716	6497.58085
915.894	6655.05961
916.072	6456.11684
916.249	6655.05961
916.427	6681.98342
916.604	6673.69958
916.782	6541.10807
916.959	6505.87254
917.137	6422.93895
917.314	6853.79032
917.492	6499.65381
917.669	6406.34776
917.847	6132.37737
918.024	6464.41039
918.201	6155.22383
918.379	6443.67583
918.556	6273.56456
918.733	6344.11755
918.911	6067.97659
919.088	6319.21958
919.265	5866.31826
919.442	5947.42404
919.62	5685.26064
919.797	6140.6855
919.974	5687.34278
920.151	6080.44302
920.328	5795.58138
920.506	6173.91428
920.683	5826.79219
920.86	5776.85234
921.037	5568.62333
921.214	5810.14709
921.391	5451.91211
921.568	5601.95582
921.745	5310.09223
921.922	5487.3501
922.099	5464.42041
922.276	5545.70374
922.453	5360.1587
922.63	5643.61295
922.807	5345.55737
922.984	5695.67109
923.161	5441.48788
923.338	5466.50505
923.514	5101.33709
923.691	5320.52386
923.868	4848.43349
924.045	5260.01228
924.222	4940.43741
924.399	5303.83298
924.575	4886.07682
924.752	5063.73645
924.929	4750.10778
925.105	4840.0673
925.282	4718.71669
925.459	4823.33383
925.635	4708.25186
925.812	4842.15889
925.989	4735.45924
926.165	4990.60264
926.342	4651.73206
926.518	4783.586
926.695	4425.49031
926.871	4557.49611
927.048	4337.43813
927.224	4354.21293
927.401	4026.85834
927.577	4410.81761
927.754	4337.43813
927.93	4471.59751
928.107	4194.79681
928.283	4282.9105
928.459	4180.10755
928.636	4161.21984
928.812	3942.83948
928.988	4180.10755
929.165	4028.9584
929.341	4119.24105
929.517	3884.00696
929.693	3942.83948
929.87	3793.62655
930.046	3762.08992
930.222	3585.40473
930.398	3724.24019
930.574	3642.21104
930.751	3862.99154
930.927	3482.27724
931.103	3665.35041
931.279	3530.68952
931.455	3774.7051
931.631	3454.90953
931.807	3560.15311
931.983	3513.85156
932.159	3564.3619
932.335	3320.13243
932.511	3650.62562
932.687	3185.28487
932.863	3564.3619
933.039	3303.28027
933.215	3370.68227
933.391	3060.91274
933.566	3303.28027
933.742	3067.23808
933.918	3168.42413
934.094	2670.59473
934.27	3001.86953
934.445	2736.03251
934.621	2890.07683
934.797	2603.03324
934.973	2797.23699
935.148	2622.03619
935.324	2670.59473
935.5	2398.16383
935.675	2503.7799
935.851	2231.23848
936.027	2358.02278
936.202	2047.34608
936.378	2427.73904
936.553	1884.54634
936.729	2157.26603
936.904	1723.83059
937.08	1827.45286
937.255	1548.29029
937.431	1799.96219
937.606	1419.27253
937.782	1749.20833
937.957	1571.55548
938.133	1444.65315
938.308	1326.2112
938.483	1389.6619
938.659	1235.26802
938.834	1330.44121
939.009	1110.49485
939.185	1157.01885
939.36	939.22421
939.535	928.65334
939.71	865.2322
939.886	1066.0877
940.061	782.79623
940.236	947.68104
940.411	742.64038
940.586	920.19678
940.761	848.32114
940.937	873.68793
941.112	784.9098
941.287	742.64038
941.462	636.98573
941.637	818.72815
941.812	689.80952
941.987	700.37515
942.162	609.52034
942.337	628.53462
942.512	605.29508
942.687	683.47028
942.862	632.76015
943.037	677.13115
943.212	531.3616
943.386	584.16957
943.561	455.33367
943.736	459.55694
943.911	497.56906
944.086	590.50708
944.26	506.01685
944.435	472.22711
944.61	442.66424
944.785	503.90488
944.959	455.33367
945.134	489.12151
945.309	391.99222
945.483	501.79293
945.658	417.32708
945.833	556.70836
946.007	402.54813
946.182	476.45062
946.357	482.78599
946.531	601.06987
946.706	539.8103
946.88	605.29508
947.055	535.58592
947.229	624.30913
947.404	484.89782
947.578	717.28072
947.752	624.30913
947.927	527.13733
948.101	544.03473
948.276	601.06987
948.45	448.99889
948.624	691.92262
948.799	584.16957
948.973	653.88854
949.147	539.8103
949.321	588.39456
949.496	506.01685
949.67	584.16957
949.844	565.15772
950.018	575.71972
950.193	404.65936
950.367	598.95729
950.541	489.12151
950.715	603.18247
950.889	497.56906
951.063	658.11436
951.237	506.01685
951.411	691.92262
951.585	560.93302
951.759	710.94105
951.933	679.24418
952.107	744.75376
952.281	544.03473
952.455	694.03574
952.629	577.83217
952.803	784.9098
952.977	548.25922
953.151	660.22729
953.325	573.6073
953.499	789.13696
953.672	592.61962
953.846	691.92262
954.02	611.63298
954.194	658.11436
954.368	601.06987
954.541	639.09854
954.715	525.02522
954.889	734.18699
955.062	624.30913
955.236	721.50723
955.41	742.64038
955.583	844.09347
955.757	683.47028
955.93	710.94105
956.104	567.2701
956.278	649.66276
956.451	531.3616
956.625	630.64738
956.798	590.50708
956.972	662.34023
957.145	550.37148
957.319	615.85832
957.492	592.61962
957.665	675.01812
957.839	560.93302
958.012	632.76015
958.185	569.38248
958.359	647.5499
958.532	491.23337
958.705	594.73216
958.879	550.37148
959.052	681.35723
959.225	442.66424
959.398	658.11436
959.572	516.57691
959.745	622.19641
959.918	544.03473
960.091	653.88854
960.264	442.66424
960.438	683.47028
960.611	554.59606
960.784	556.70836
960.957	451.11047
961.13	571.49488
961.303	455.33367
961.476	675.01812
961.649	489.12151
961.822	696.14886
961.995	493.34525
962.168	533.47375
962.341	480.67419
962.514	601.06987
962.686	465.89196
962.859	468.00366
963.032	476.45062
963.205	577.83217
963.378	425.77255
963.551	563.04536
963.723	341.32972
963.896	459.55694
964.069	446.88733
964.242	455.33367
964.414	451.11047
964.587	491.23337
964.76	423.66115
964.932	459.55694
965.105	432.10681
965.278	487.00965
965.45	448.99889
965.623	478.56239
965.795	429.99538
965.968	480.67419
966.14	440.55273
966.313	556.70836
966.485	455.33367
966.658	436.32974
966.83	406.7706
967.003	429.99538
967.175	442.66424
967.348	459.55694
967.52	468.00366
967.692	436.32974
967.865	364.54882
968.037	514.46487
968.209	472.22711
968.382	408.88187
968.554	421.54978
968.726	514.46487
968.898	446.88733
969.071	506.01685
969.243	398.32572
969.415	508.12883
969.587	383.5478
969.759	432.10681
969.932	311.78121
970.104	379.32569
970.276	322.33385
970.448	345.55122
970.62	339.219
970.792	459.55694
970.964	423.66115
971.136	427.88395
971.308	273.79547
971.48	459.55694
971.652	282.23623
971.824	404.65936
971.996	206.28038
972.168	364.54882
972.339	288.56699
972.511	425.77255
972.683	330.77629
972.855	322.33385
973.027	261.13489
973.199	282.23623
973.37	273.79547
973.542	341.32972
973.714	294.89792
973.886	292.78759
974.057	244.25518
974.229	197.84241
974.401	337.1083
974.572	273.79547
974.744	288.56699
974.915	330.77629
975.087	286.45672
975.259	320.22329
975.43	250.58493
975.602	305.44984
975.773	328.66565
975.945	294.89792
976.116	216.8283
976.288	294.89792
976.459	223.15728
976.63	271.68532
976.802	269.5752
976.973	328.66565
977.145	265.355
977.316	265.355
977.487	202.06136
977.659	191.51415
977.83	311.78121
978.001	242.1453
978.172	318.11274
978.344	231.59621
978.515	187.2954
978.686	204.17086
978.857	159.87558
979.028	254.80485
979.2	136.67694
979.371	235.81579
979.542	191.51415
979.713	244.25518
979.884	168.31207
980.055	193.62355
980.226	183.07674
980.397	223.15728
980.568	185.18606
980.739	231.59621
980.91	227.37671
981.081	185.18606
981.252	151.43941
981.423	180.96744
981.594	168.31207
981.765	218.93794
981.936	197.84241
982.106	180.96744
982.277	254.80485
982.448	316.00221
982.619	199.95188
982.79	164.09378
982.96	121.91552
983.131	218.93794
983.302	214.71868
983.472	153.54842
983.643	166.20292
983.814	223.15728
983.984	170.42125
984.155	143.00359
984.326	134.5681
984.496	109.26371
984.667	206.28038
984.837	166.20292
985.008	155.65745
985.178	176.7489
985.349	128.24171
985.519	168.31207
985.69	151.43941
985.86	166.20292
986.031	132.45929
986.201	143.00359
986.371	124.02423
986.542	100.82962
986.712	79.74592
986.882	221.0476
987.053	143.00359
987.223	75.52945
987.393	128.24171
987.563	96.6127
987.734	41.80097
987.904	113.4809
988.074	75.52945
988.244	145.11251
988.414	115.58952
988.585	166.20292
988.755	67.09678
988.925	83.96248
989.095	176.7489
989.265	105.04662
989.435	121.91552
989.605	67.09678
989.775	185.18606
989.945	58.66448
990.115	77.63768
990.285	100.82962
990.455	69.20492
990.625	100.82962
990.795	75.52945
990.965	92.39587
991.134	86.0708
991.304	96.6127
991.474	75.52945
991.644	83.96248
991.814	96.6127
991.984	83.96248
992.153	75.52945
992.323	136.67694
992.493	62.88058
992.662	92.39587
992.832	62.88058
993.002	88.17913
993.171	64.98867
993.341	92.39587
993.511	197.84241
993.68	90.28749
993.85	71.31307
994.019	22.83131
994.189	113.4809
994.358	105.04662
994.528	92.39587
994.697	79.74592
994.867	88.17913
995.036	96.6127
995.206	117.69816
995.375	46.01671
995.544	16.50851
995.714	58.66448
995.883	33.36978
996.052	105.04662
996.222	126.13296
996.391	43.90883
996.56	111.37229
996.73	43.90883
996.899	109.26371
997.068	88.17913
997.237	100.82962
997.406	98.72115
997.576	88.17913
997.745	50.23254
997.914	109.26371
998.083	50.23254
998.252	124.02423
998.421	-23.53085
998.59	16.50851
998.759	83.96248
998.928	-42.49378
999.097	27.04663
999.266	50.23254
999.435	92.39587
999.604	62.88058
999.773	41.80097
999.942	130.35049
1000.111	54.44846
1000.28	48.12461
1000.448	16.50851
1000.617	138.7858
1000.786	58.66448
1000.955	67.09678
1001.124	69.20492
1001.292	83.96248
1001.461	67.09678
1001.63	92.39587
1001.798	46.01671
1001.967	54.44846
1002.136	62.88058
1002.304	50.23254
1002.473	50.23254
1002.642	29.15432
1002.81	113.4809
1002.979	24.93896
1003.147	124.02423
1003.316	31.26204
1003.484	71.31307
1003.653	52.34049
1003.821	58.66448
1003.99	41.80097
1004.158	46.01671
1004.327	52.34049
1004.495	75.52945
1004.663	62.88058
1004.832	-46.70749
1005	58.66448
1005.168	117.69816
1005.337	33.36978
1005.505	-15.10224
1005.673	18.61609
1005.842	121.91552
1006.01	67.09678
1006.178	29.15432
1006.346	18.61609
1006.514	96.6127
1006.683	-8.78052
1006.851	16.50851
1007.019	58.66448
1007.187	-0.35123
1007.355	50.23254
1007.523	90.28749
1007.691	60.77252
1007.859	16.50851
1008.027	29.15432
1008.195	35.47754
1008.363	-17.20943
1008.531	35.47754
1008.699	20.72369
1008.867	-23.53085
1009.035	58.66448
1009.203	50.23254
1009.37	3.86356
1009.538	22.83131
1009.706	41.80097
1009.874	107.15516
1010.042	24.93896
1010.209	33.36978
1010.377	83.96248
1010.545	27.04663
1010.713	37.58533
1010.88	58.66448
1011.048	46.01671
1011.216	58.66448
1011.383	-36.17303
1011.551	16.50851
1011.718	20.72369
1011.886	50.23254
1012.054	-8.78052
1012.221	8.07845
1012.389	22.83131
1012.556	58.66448
1012.724	50.23254
1012.891	-6.67324
1013.058	12.29343
1013.226	33.36978
1013.393	92.39587
1013.561	46.01671
1013.728	58.66448
1013.895	50.23254
1014.063	92.39587
1014.23	33.36978
1014.397	18.61609
1014.565	43.90883
1014.732	-34.06606
1014.899	43.90883
1015.066	75.52945
1015.233	14.40096
1015.401	81.85419
1015.568	-36.17303
1015.735	35.47754
1015.902	8.07845
1016.069	10.18593
1016.236	37.58533
1016.403	50.23254
1016.57	98.72115
1016.737	71.31307
1016.904	12.29343
1017.071	64.98867
1017.238	43.90883
1017.405	-25.63794
1017.572	46.01671
1017.739	33.36978
1017.906	-55.13461
1018.073	-31.95906
1018.24	33.36978
1018.407	92.39587
1018.573	16.50851
1018.74	-10.88778
1018.907	-40.38689
1019.074	-8.78052
1019.241	86.0708
1019.407	27.04663
1019.574	29.15432
1019.741	-6.67324
1019.907	8.07845
1020.074	75.52945
1020.241	-25.63794
1020.407	31.26204
1020.574	50.23254
1020.74	71.31307
1020.907	3.86356
1021.073	-53.02787
1021.24	-8.78052
1021.406	5.97099
1021.573	1.75615
1021.739	58.66448
1021.906	54.44846
1022.072	75.52945
1022.239	24.93896
1022.405	-40.38689
1022.571	-0.35123
1022.738	1.75615
1022.904	-8.78052
1023.07	58.66448
1023.237	-21.42373
1023.403	69.20492
1023.569	16.50851
1023.735	3.86356
1023.902	-34.06606
1024.068	96.6127
1024.234	-17.20943
1024.4	58.66448
1024.566	-65.66794
1024.732	86.0708
1024.898	18.61609
1025.065	58.66448
1025.231	-34.06606
1025.397	60.77252
1025.563	-10.88778
1025.729	20.72369
1025.895	-15.10224
1026.061	75.52945
1026.227	33.36978
1026.392	50.23254
1026.558	43.90883
1026.724	8.07845
1026.89	31.26204
1027.056	-17.20943
1027.222	77.63768
1027.388	-36.17303
1027.553	-34.06606
1027.719	-19.31659
1027.885	67.09678
1028.051	24.93896
1028.216	54.44846
1028.382	-17.20943
1028.548	29.15432
1028.713	52.34049
1028.879	-67.77453
1029.045	16.50851
1029.21	37.58533
1029.376	-12.99502
1029.541	16.50851
1029.707	46.01671
1029.873	75.52945
1030.038	60.77252
1030.204	75.52945
1030.369	33.36978
1030.534	-2.45859
1030.7	8.07845
1030.865	37.58533
1031.031	14.40096
1031.196	-12.99502
1031.361	24.93896
1031.527	29.15432
1031.692	8.07845
1031.857	67.09678
1032.023	24.93896
1032.188	-21.42373
1032.353	10.18593
1032.518	16.50851
1032.684	27.04663
1032.849	-50.9211
1033.014	-6.67324
1033.179	5.97099
1033.344	27.04663
1033.509	41.80097
1033.674	20.72369
1033.839	1.75615
1034.004	109.26371
1034.17	1.75615
1034.335	-6.67324
1034.5	69.20492
1034.664	-6.67324
1034.829	-12.99502
1034.994	92.39587
1035.159	-19.31659
1035.324	16.50851
1035.489	-12.99502
1035.654	-8.78052
1035.819	-17.20943
1035.984	-10.88778
1036.148	1.75615
1036.313	27.04663
1036.478	-10.88778
1036.643	-67.77453
1036.807	62.88058
1036.972	-15.10224
1037.137	-31.95906
1037.301	58.66448
1037.466	12.29343
1037.631	-29.85205
1037.795	41.80097
1037.96	-6.67324
1038.124	54.44846
1038.289	29.15432
1038.454	-12.99502
1038.618	-8.78052
1038.783	81.85419
1038.947	-34.06606
1039.111	52.34049
1039.276	48.12461
1039.44	-4.56592
1039.605	-21.42373
1039.769	29.15432
1039.933	-65.66794
1040.098	35.47754
1040.262	16.50851
1040.426	37.58533
1040.591	46.01671
1040.755	22.83131
1040.919	10.18593
1041.083	3.86356
1041.248	-38.27997
1041.412	43.90883
1041.576	83.96248
1041.74	27.04663
1041.904	16.50851
1042.068	20.72369
1042.232	3.86356
1042.397	-0.35123
1042.561	35.47754
1042.725	-12.99502
1042.889	27.04663
1043.053	22.83131
1043.217	46.01671
1043.381	54.44846
1043.544	62.88058
1043.708	37.58533
1043.872	10.18593
1044.036	14.40096
1044.2	16.50851
1044.364	-0.35123
1044.528	-42.49378
1044.691	62.88058
1044.855	43.90883
1045.019	58.66448
1045.183	29.15432
1045.346	33.36978
1045.51	10.18593
1045.674	-31.95906
1045.837	5.97099
1046.001	60.77252
1046.165	1.75615
1046.328	-0.35123
1046.492	69.20492
1046.655	50.23254
1046.819	58.66448
1046.983	-25.63794
1047.146	43.90883
1047.31	-19.31659
1047.473	-25.63794
1047.636	60.77252
1047.8	-27.74501
1047.963	16.50851
1048.127	-8.78052
1048.29	-6.67324
