Data from mixed_try1_USB4F045381__18__00122.txt Node

Date: Thu Apr 03 20:00:25 EDT 2025
User: mmckonesweet
Spectrometer: USB4F04538
Trigger mode: 4
Integration Time (sec): 2.700000E-3
Scans to average: 1
Electric dark correction enabled: true
Nonlinearity correction enabled: true
Boxcar width: 0
XAxis mode: Wavelengths
Number of Pixels in Spectrum: 3648
>>>>>Begin Spectral Data<<<<<
345.52	-55.48573
345.736	-55.48573
345.952	-55.48573
346.168	33.01848
346.384	-21.77492
346.6	14.04971
346.816	3.51233
347.032	20.37242
347.248	-9.13173
347.464	-72.33872
347.68	37.23403
347.896	37.23403
348.112	-51.27223
348.328	-2.80981
348.544	-15.45344
348.76	9.83468
348.975	28.80304
349.191	54.09713
349.407	-23.88203
349.623	37.23403
349.839	138.43433
350.055	45.6654
350.27	28.80304
350.486	30.91075
350.702	45.6654
350.918	-0.70246
351.133	-0.70246
351.349	-13.34623
351.565	33.01848
351.781	1.40492
351.996	-34.41722
352.212	41.44967
352.428	-9.13173
352.644	-7.02445
352.859	-80.7646
353.075	11.94218
353.291	-63.91243
353.506	-13.34623
353.722	24.58768
353.938	22.48004
354.153	-7.02445
354.369	30.91075
354.584	-59.69913
354.8	45.6654
355.016	-25.98912
355.231	30.91075
355.447	-70.23219
355.662	-42.84492
355.878	-15.45344
356.093	-15.45344
356.309	37.23403
356.524	-38.63112
356.74	-53.37899
356.955	30.91075
357.171	-17.56062
357.386	3.51233
357.602	3.51233
357.817	-28.09618
358.033	-4.91714
358.248	11.94218
358.464	1.40492
358.679	45.6654
358.895	56.20513
359.11	-28.09618
359.325	-13.34623
359.541	70.96171
359.756	-4.91714
359.972	-11.23899
360.187	-4.91714
360.402	-2.80981
360.618	-7.02445
360.833	5.61975
361.048	14.04971
361.264	-30.20322
361.479	49.88122
361.694	-0.70246
361.909	11.94218
362.125	87.82774
362.34	26.69535
362.555	-30.20322
362.77	22.48004
362.986	70.96171
363.201	28.80304
363.416	24.58768
363.631	24.58768
363.847	-32.31023
364.062	43.55752
364.277	20.37242
364.492	49.88122
364.707	7.72721
364.922	-4.91714
365.138	3.51233
365.353	9.83468
365.568	-21.77492
365.783	-13.34623
365.998	5.61975
366.213	37.23403
366.428	-11.23899
366.643	-13.34623
366.858	7.72721
367.073	3.51233
367.288	-0.70246
367.503	-2.80981
367.718	5.61975
367.933	-70.23219
368.148	16.15725
368.363	54.09713
368.578	35.12624
368.793	87.82774
369.008	-9.13173
369.223	20.37242
369.438	5.61975
369.653	30.91075
369.868	26.69535
370.083	-72.33872
370.298	-47.05863
370.513	-11.23899
370.728	39.34183
370.943	-47.05863
371.157	-51.27223
371.372	47.77329
371.587	-15.45344
371.802	3.51233
372.017	47.77329
372.232	11.94218
372.446	-7.02445
372.661	20.37242
372.876	39.34183
373.091	3.51233
373.306	104.6952
373.52	87.82774
373.735	-23.88203
373.95	3.51233
374.165	45.6654
374.379	-21.77492
374.594	45.6654
374.809	-21.77492
375.023	3.51233
375.238	-4.91714
375.453	66.74543
375.667	-42.84492
375.882	30.91075
376.097	73.06989
376.311	89.9361
376.526	-21.77492
376.741	-78.65817
376.955	45.6654
377.17	18.26482
377.384	20.37242
377.599	33.01848
377.813	35.12624
378.028	-21.77492
378.242	28.80304
378.457	51.98916
378.672	70.96171
378.886	-2.80981
379.101	49.88122
379.315	-30.20322
379.53	62.52924
379.744	-21.77492
379.958	3.51233
380.173	49.88122
380.387	30.91075
380.602	45.6654
380.816	30.91075
381.031	35.12624
381.245	28.80304
381.459	-19.66778
381.674	33.01848
381.888	28.80304
382.103	20.37242
382.317	-21.77492
382.531	16.15725
382.746	45.6654
382.96	-9.13173
383.174	41.44967
383.388	-7.02445
383.603	56.20513
383.817	33.01848
384.031	-9.13173
384.246	22.48004
384.46	-13.34623
384.674	41.44967
384.888	-32.31023
385.103	-9.13173
385.317	28.80304
385.531	-4.91714
385.745	30.91075
385.959	-17.56062
386.174	-25.98912
386.388	49.88122
386.602	-25.98912
386.816	16.15725
387.03	-23.88203
387.244	87.82774
387.458	-19.66778
387.672	3.51233
387.887	16.15725
388.101	-30.20322
388.315	3.51233
388.529	45.6654
388.743	30.91075
388.957	5.61975
389.171	37.23403
389.385	-53.37899
389.599	28.80304
389.813	-63.91243
390.027	-55.48573
390.241	123.67278
390.455	-0.70246
390.669	16.15725
390.883	5.61975
391.097	-7.02445
391.311	-11.23899
391.525	-19.66778
391.738	-55.48573
391.952	-30.20322
392.166	11.94218
392.38	79.39455
392.594	-0.70246
392.808	123.67278
393.022	37.23403
393.236	54.09713
393.449	-2.80981
393.663	60.42118
393.877	-17.56062
394.091	18.26482
394.305	-0.70246
394.518	41.44967
394.732	14.04971
394.946	64.63732
395.16	-4.91714
395.373	87.82774
395.587	96.26129
395.801	22.48004
396.015	70.96171
396.228	87.82774
396.442	-28.09618
396.656	73.06989
396.869	73.06989
397.083	39.34183
397.297	-19.66778
397.51	20.37242
397.724	3.51233
397.938	-13.34623
398.151	-17.56062
398.365	24.58768
398.578	62.52924
398.792	24.58768
399.005	-30.20322
399.219	-2.80981
399.433	11.94218
399.646	1.40492
399.86	3.51233
400.073	7.72721
400.287	14.04971
400.5	30.91075
400.714	47.77329
400.927	-36.52418
401.141	70.96171
401.354	49.88122
401.567	33.01848
401.781	-66.01904
401.994	22.48004
402.208	96.26129
402.421	20.37242
402.635	-7.02445
402.848	24.58768
403.061	28.80304
403.275	-44.95179
403.488	28.80304
403.701	60.42118
403.915	117.34672
404.128	-34.41722
404.341	7.72721
404.555	-63.91243
404.768	-0.70246
404.981	-30.20322
405.195	7.72721
405.408	-15.45344
405.621	47.77329
405.834	-40.73804
406.048	-4.91714
406.261	-17.56062
406.474	-53.37899
406.687	54.09713
406.9	28.80304
407.114	16.15725
407.327	14.04971
407.54	54.09713
407.753	22.48004
407.966	-44.95179
408.179	37.23403
408.392	66.74543
408.605	-2.80981
408.819	54.09713
409.032	33.01848
409.245	22.48004
409.458	100.4782
409.671	-36.52418
409.884	45.6654
410.097	64.63732
410.31	45.6654
410.523	1.40492
410.736	33.01848
410.949	28.80304
411.162	-4.91714
411.375	-2.80981
411.588	22.48004
411.801	62.52924
412.014	28.80304
412.227	35.12624
412.44	30.91075
412.653	45.6654
412.865	30.91075
413.078	3.51233
413.291	18.26482
413.504	16.15725
413.717	79.39455
413.93	-17.56062
414.143	28.80304
414.356	37.23403
414.568	41.44967
414.781	58.31314
414.994	-72.33872
415.207	24.58768
415.42	104.6952
415.632	24.58768
415.845	28.80304
416.058	62.52924
416.271	3.51233
416.483	1.40492
416.696	58.31314
416.909	11.94218
417.121	56.20513
417.334	73.06989
417.547	3.51233
417.759	-7.02445
417.972	22.48004
418.185	-2.80981
418.397	33.01848
418.61	5.61975
418.823	14.04971
419.035	11.94218
419.248	-32.31023
419.46	24.58768
419.673	47.77329
419.885	45.6654
420.098	28.80304
420.311	20.37242
420.523	127.89025
420.736	39.34183
420.948	33.01848
421.161	62.52924
421.373	-2.80981
421.586	11.94218
421.798	35.12624
422.01	11.94218
422.223	79.39455
422.435	-17.56062
422.648	51.98916
422.86	39.34183
423.073	-19.66778
423.285	11.94218
423.497	47.77329
423.71	39.34183
423.922	37.23403
424.134	7.72721
424.347	14.04971
424.559	54.09713
424.771	-34.41722
424.984	-19.66778
425.196	3.51233
425.408	43.55752
425.621	134.21663
425.833	3.51233
426.045	-17.56062
426.257	70.96171
426.47	45.6654
426.682	39.34183
426.894	-21.77492
427.106	-32.31023
427.318	28.80304
427.531	20.37242
427.743	83.6111
427.955	70.96171
428.167	35.12624
428.379	9.83468
428.591	-63.91243
428.804	-21.77492
429.016	87.82774
429.228	16.15725
429.44	39.34183
429.652	-32.31023
429.864	54.09713
430.076	87.82774
430.288	-13.34623
430.5	20.37242
430.712	-4.91714
430.924	-4.91714
431.136	33.01848
431.348	-2.80981
431.56	-25.98912
431.772	-28.09618
431.984	11.94218
432.196	41.44967
432.408	37.23403
432.62	22.48004
432.832	14.04971
433.044	-0.70246
433.256	11.94218
433.468	-15.45344
433.679	47.77329
433.891	7.72721
434.103	28.80304
434.315	26.69535
434.527	-47.05863
434.739	20.37242
434.95	-9.13173
435.162	-68.12563
435.374	62.52924
435.586	28.80304
435.798	62.52924
436.009	-36.52418
436.221	96.26129
436.433	-21.77492
436.645	3.51233
436.856	-44.95179
437.068	-0.70246
437.28	22.48004
437.491	18.26482
437.703	83.6111
437.915	-11.23899
438.126	14.04971
438.338	-4.91714
438.55	5.61975
438.761	3.51233
438.973	-11.23899
439.184	-80.7646
439.396	33.01848
439.608	33.01848
439.819	30.91075
440.031	5.61975
440.242	-34.41722
440.454	-34.41722
440.665	-63.91243
440.877	-2.80981
441.088	-30.20322
441.3	-97.61513
441.511	87.82774
441.723	37.23403
441.934	98.36974
442.146	54.09713
442.357	60.42118
442.569	-63.91243
442.78	14.04971
442.991	54.09713
443.203	-63.91243
443.414	-32.31023
443.626	24.58768
443.837	30.91075
444.048	-4.91714
444.26	-0.70246
444.471	-23.88203
444.682	-13.34623
444.894	45.6654
445.105	-11.23899
445.316	-25.98912
445.528	45.6654
445.739	-21.77492
445.95	60.42118
446.161	28.80304
446.373	-11.23899
446.584	58.31314
446.795	-0.70246
447.006	70.96171
447.217	20.37242
447.429	-97.61513
447.64	33.01848
447.851	16.15725
448.062	39.34183
448.273	62.52924
448.484	-2.80981
448.695	66.74543
448.907	-13.34623
449.118	24.58768
449.329	5.61975
449.54	11.94218
449.751	-72.33872
449.962	-47.05863
450.173	-28.09618
450.384	87.82774
450.595	16.15725
450.806	-11.23899
451.017	45.6654
451.228	64.63732
451.439	-4.91714
451.65	-2.80981
451.861	11.94218
452.072	-30.20322
452.283	-4.91714
452.494	51.98916
452.705	-44.95179
452.915	22.48004
453.126	24.58768
453.337	33.01848
453.548	54.09713
453.759	-28.09618
453.97	41.44967
454.181	85.71941
454.391	-30.20322
454.602	14.04971
454.813	33.01848
455.024	37.23403
455.235	37.23403
455.445	-13.34623
455.656	26.69535
455.867	16.15725
456.078	-11.23899
456.288	-0.70246
456.499	28.80304
456.71	28.80304
456.921	1.40492
457.131	58.31314
457.342	33.01848
457.553	66.74543
457.763	-25.98912
457.974	-4.91714
458.184	121.56407
458.395	43.55752
458.606	-36.52418
458.816	-15.45344
459.027	41.44967
459.237	7.72721
459.448	28.80304
459.659	49.88122
459.869	-9.13173
460.08	-28.09618
460.29	-4.91714
460.501	-13.34623
460.711	39.34183
460.922	70.96171
461.132	-2.80981
461.343	3.51233
461.553	64.63732
461.764	-2.80981
461.974	64.63732
462.184	-9.13173
462.395	14.04971
462.605	28.80304
462.816	16.15725
463.026	-32.31023
463.236	47.77329
463.447	89.9361
463.657	37.23403
463.867	56.20513
464.078	9.83468
464.288	-38.63112
464.498	16.15725
464.709	37.23403
464.919	47.77329
465.129	83.6111
465.339	24.58768
465.55	11.94218
465.76	20.37242
465.97	7.72721
466.18	-9.13173
466.391	64.63732
466.601	-47.05863
466.811	37.23403
467.021	-13.34623
467.231	3.51233
467.441	83.6111
467.651	81.50281
467.862	5.61975
468.072	30.91075
468.282	20.37242
468.492	20.37242
468.702	22.48004
468.912	60.42118
469.122	39.34183
469.332	24.58768
469.542	37.23403
469.752	-23.88203
469.962	-44.95179
470.172	24.58768
470.382	20.37242
470.592	41.44967
470.802	43.55752
471.012	47.77329
471.222	20.37242
471.432	-9.13173
471.642	33.01848
471.852	-0.70246
472.062	11.94218
472.272	117.34672
472.482	-13.34623
472.691	-13.34623
472.901	28.80304
473.111	-11.23899
473.321	58.31314
473.531	45.6654
473.741	-13.34623
473.95	-13.34623
474.16	37.23403
474.37	-0.70246
474.58	5.61975
474.79	37.23403
474.999	-19.66778
475.209	16.15725
475.419	20.37242
475.628	37.23403
475.838	7.72721
476.048	33.01848
476.258	28.80304
476.467	94.15287
476.677	96.26129
476.886	60.42118
477.096	9.83468
477.306	75.17808
477.515	-0.70246
477.725	49.88122
477.935	-4.91714
478.144	14.04971
478.354	28.80304
478.563	7.72721
478.773	5.61975
478.982	68.85356
479.192	3.51233
479.401	24.58768
479.611	-13.34623
479.82	54.09713
480.03	45.6654
480.239	64.63732
480.449	79.39455
480.658	96.26129
480.868	16.15725
481.077	-11.23899
481.287	22.48004
481.496	49.88122
481.705	39.34183
481.915	41.44967
482.124	37.23403
482.333	28.80304
482.543	73.06989
482.752	113.12946
482.961	56.20513
483.171	20.37242
483.38	62.52924
483.589	54.09713
483.799	39.34183
484.008	66.74543
484.217	30.91075
484.426	64.63732
484.636	-11.23899
484.845	66.74543
485.054	92.04447
485.263	28.80304
485.472	14.04971
485.682	-0.70246
485.891	51.98916
486.1	49.88122
486.309	33.01848
486.518	7.72721
486.727	66.74543
486.936	-17.56062
487.146	104.6952
487.355	56.20513
487.564	-17.56062
487.773	58.31314
487.982	28.80304
488.191	16.15725
488.4	58.31314
488.609	96.26129
488.818	70.96171
489.027	22.48004
489.236	153.19692
489.445	75.17808
489.654	3.51233
489.863	79.39455
490.072	70.96171
490.281	66.74543
490.49	87.82774
490.698	37.23403
490.907	39.34183
491.116	94.15287
491.325	62.52924
491.534	41.44967
491.743	113.12946
491.952	121.56407
492.16	136.32547
492.369	89.9361
492.578	138.43433
492.787	104.6952
492.996	119.45538
493.204	49.88122
493.413	115.23808
493.622	172.17891
493.831	123.67278
494.039	83.6111
494.248	96.26129
494.457	62.52924
494.665	49.88122
494.874	104.6952
495.083	79.39455
495.291	64.63732
495.5	5.61975
495.709	113.12946
495.917	85.71941
496.126	132.10782
496.335	108.91229
496.543	56.20513
496.752	113.12946
496.96	129.99903
497.169	121.56407
497.377	100.4782
497.586	58.31314
497.794	41.44967
498.003	47.77329
498.211	94.15287
498.42	121.56407
498.628	45.6654
498.837	87.82774
499.045	129.99903
499.254	121.56407
499.462	155.30595
499.671	144.76102
499.879	123.67278
500.087	138.43433
500.296	81.50281
500.504	123.67278
500.713	146.86997
500.921	89.9361
501.129	172.17891
501.338	193.27198
501.546	111.02086
501.754	146.86997
501.962	132.10782
502.171	100.4782
502.379	138.43433
502.587	89.9361
502.795	146.86997
503.004	151.08791
503.212	106.80373
503.42	117.34672
503.628	79.39455
503.837	218.58633
504.045	96.26129
504.253	163.74226
504.461	140.5432
504.669	45.6654
504.877	108.91229
505.085	89.9361
505.294	98.36974
505.502	129.99903
505.71	216.47669
505.918	165.85139
506.126	197.49084
506.334	142.6521
506.542	155.30595
506.75	163.74226
506.958	227.02509
507.166	180.61589
507.374	224.91537
507.582	117.34672
507.79	163.74226
507.998	189.0532
508.206	214.36707
508.414	231.24458
508.622	193.27198
508.83	205.9288
509.037	121.56407
509.245	184.83451
509.453	172.17891
509.661	165.85139
509.869	180.61589
510.077	134.21663
510.285	265.00332
510.492	191.16258
510.7	199.6003
510.908	273.44377
511.116	233.35436
511.324	172.17891
511.531	222.80567
511.739	214.36707
511.947	231.24458
512.155	140.5432
512.362	222.80567
512.57	195.3814
512.778	243.90353
512.985	256.56318
513.193	233.35436
513.401	267.11341
513.608	208.03833
513.816	258.67319
514.024	218.58633
514.231	281.88452
514.439	290.32557
514.646	214.36707
514.854	283.99475
515.061	235.46415
515.269	231.24458
515.477	216.47669
515.684	229.13482
515.892	189.0532
516.099	315.65046
516.307	237.57397
516.514	235.46415
516.722	203.81928
516.929	281.88452
517.136	277.66411
517.344	290.32557
517.551	229.13482
517.759	347.3102
517.966	224.91537
518.173	279.77431
518.381	241.79366
518.588	326.20327
518.796	281.88452
519.003	345.19943
519.21	218.58633
519.418	328.31388
519.625	368.41887
519.832	254.45319
520.039	309.31899
520.247	243.90353
520.454	277.66411
520.661	332.53516
520.868	307.20854
521.076	400.08505
521.283	258.67319
521.49	317.76099
521.697	328.31388
521.904	400.08505
522.112	334.64583
522.319	334.64583
522.526	330.42451
522.733	319.87153
522.94	368.41887
523.147	357.86432
523.354	423.30926
523.561	397.97385
523.768	395.86267
523.975	305.0981
524.183	372.64081
524.39	421.19789
524.597	300.87729
524.804	478.21043
525.011	353.64262
525.218	448.64696
525.425	338.86722
525.632	438.08931
525.838	433.86636
526.045	444.42385
526.252	400.08505
526.459	459.205
526.666	438.08931
526.873	446.5354
527.08	459.205
527.287	383.19595
527.494	467.65171
527.701	459.205
527.907	501.44093
528.114	543.68269
528.321	364.197
528.528	503.55289
528.735	383.19595
528.941	459.205
529.148	442.31232
529.355	433.86636
529.562	497.21707
529.768	602.83037
529.975	482.43403
530.182	514.11286
530.388	482.43403
530.595	533.12172
530.802	501.44093
531.008	585.92998
531.215	490.88139
531.422	583.81748
531.628	539.45826
531.835	531.00957
532.042	560.58096
532.248	566.91803
532.455	526.78531
532.661	689.45734
532.868	444.42385
533.074	636.6336
533.281	471.87515
533.487	714.81528
533.694	535.23389
533.9	607.0556
534.107	495.10517
534.313	695.79667
534.52	647.19775
534.726	613.39353
534.933	638.7464
535.139	668.32696
535.345	670.43995
535.552	714.81528
535.758	649.31062
535.965	653.53639
536.171	611.28088
536.377	763.42234
536.584	664.10102
536.79	623.95701
536.996	757.08198
537.203	664.10102
537.409	750.74171
537.615	788.78469
537.821	661.98807
538.028	799.35276
538.234	729.60814
538.44	695.79667
538.646	630.29525
538.853	888.13345
539.059	719.04176
539.265	852.19655
539.471	773.98982
539.677	723.26828
539.883	799.35276
540.09	812.03474
540.296	788.78469
540.502	797.23912
540.708	733.83477
540.914	890.24746
541.12	801.4664
541.326	964.24265
541.532	782.44397
541.738	981.15708
541.944	877.56352
542.15	938.87185
542.356	932.52931
542.562	1012.87276
542.768	864.87988
542.974	945.21445
543.18	847.96884
543.386	993.84318
543.592	1008.64392
543.798	1067.84985
544.004	837.39972
544.21	1036.13182
544.415	983.27141
544.621	1021.33052
544.827	940.98604
545.033	1067.84985
545.239	968.47122
545.445	1093.22514
545.651	1025.55943
545.856	1211.65179
546.062	1069.96443
546.268	1053.04795
546.474	892.36148
546.679	976.92843
546.885	1025.55943
547.091	1247.60501
547.297	915.6162
547.502	1190.50327
547.708	1034.01733
547.914	1243.37517
548.119	1152.43685
548.325	1262.40951
548.531	1146.09257
548.736	1165.12552
548.942	1122.83055
549.147	1262.40951
549.353	1253.94978
549.559	1222.22617
549.764	1025.55943
549.97	1179.92914
550.175	1122.83055
550.381	1431.61033
550.586	1220.11129
550.792	1338.54874
550.997	1215.88153
551.203	1296.24884
551.408	1034.01733
551.614	1317.3987
551.819	1046.70436
552.025	1414.68993
552.23	1270.86929
552.435	1334.31872
552.641	1334.31872
552.846	1306.82375
553.052	1298.36382
553.257	1382.96428
553.462	1296.24884
553.668	1476.02642
553.873	1380.84924
554.078	1550.05281
554.283	1355.46888
554.489	1427.38022
554.694	1315.28371
554.899	1516.21229
555.105	1456.99095
555.31	1448.53074
555.515	1478.14147
555.72	1592.35299
555.925	1399.88461
556.131	1619.84774
556.336	1456.99095
556.541	1636.76741
556.746	1499.29195
556.951	1486.60167
557.156	1482.37157
557.361	1518.32733
557.567	1482.37157
557.772	1687.52549
557.977	1526.78748
558.182	1526.78748
558.387	1552.16783
558.592	1600.81295
558.797	1490.83176
559.002	1704.44448
559.207	1628.3076
559.412	1653.68694
559.617	1660.03172
559.822	1643.11225
560.027	1495.06186
560.232	1746.74107
560.437	1630.42255
560.642	1816.52717
560.847	1685.4106
561.051	1799.60974
561.256	1435.84043
561.461	1691.75525
561.666	1592.35299
561.871	1856.70491
562.076	1767.88883
562.281	1837.67356
562.485	1630.42255
562.69	1926.48299
562.895	1850.36117
563.1	1765.77408
563.305	1729.8226
563.509	2011.05412
563.714	1778.46257
563.919	1837.67356
564.123	1860.93404
564.328	1947.62668
564.533	1905.33873
564.737	1867.27771
564.942	1824.98578
565.147	1953.96967
565.351	1685.4106
565.556	2027.96713
565.761	1918.02535
565.965	1998.36909
566.17	1780.57731
566.374	2192.84455
566.579	2011.05412
566.784	1831.32969
566.988	1778.46257
567.193	2068.13377
567.397	1871.50679
567.602	2197.07155
567.806	1989.91227
568.011	2137.89062
568.215	1896.88087
568.42	2082.93136
568.624	1915.91093
568.828	2101.9563
569.033	2002.59746
569.237	2209.75232
569.442	2093.50084
569.646	2093.50084
569.85	2089.27307
570.055	2108.29781
570.259	2091.38696
570.463	2017.39655
570.668	1934.94053
570.872	2387.24864
571.076	2106.18398
571.281	2224.54617
571.485	2061.79183
571.689	2167.48189
571.893	2205.52543
572.098	2239.33959
572.302	2087.15917
572.506	2395.69913
572.71	2144.23174
572.914	2416.82462
573.119	2218.206
573.323	2446.39853
573.527	2042.76566
573.731	2302.73493
573.935	2285.83032
574.139	2530.88355
574.343	2152.68645
574.547	2302.73493
574.751	2281.60407
574.955	2539.33105
575.159	2309.074
575.364	2467.52145
575.568	2205.52543
575.772	2387.24864
575.976	2467.52145
576.18	2499.20377
576.383	2357.67065
576.587	2634.35239
576.791	2429.49941
576.995	2395.69913
577.199	2385.136
577.403	2583.67737
577.607	2440.06144
577.811	2674.46505
578.015	2387.24864
578.219	2541.4429
578.422	2287.94343
578.626	2790.55429
578.83	2463.29696
579.034	2598.45831
579.238	2513.98799
579.442	2623.79568
579.645	2585.78897
579.849	2701.90791
580.053	2484.419
580.257	2653.35369
580.46	2625.90704
580.664	2836.97858
580.868	2613.23865
581.071	2919.25942
581.275	2513.98799
581.479	2634.35239
581.682	2547.77837
581.886	2767.33966
582.09	2617.4615
582.293	2788.44394
582.497	2617.4615
582.7	2904.49267
582.904	2644.90879
583.107	2995.19127
583.311	2657.57606
583.515	2893.94456
583.718	2737.79141
583.922	3045.80164
584.125	2712.46227
584.329	2786.33357
584.532	2942.46286
584.735	2752.56586
584.939	2860.18819
585.142	2885.50581
585.346	2868.62763
585.549	3100.61948
585.753	2839.08862
585.956	3134.34823
586.159	2912.9309
586.363	2953.00928
586.566	3043.69305
586.769	3224.9737
586.973	2997.30021
587.176	2953.00928
587.379	2910.82136
587.582	3286.07589
587.786	2822.20794
587.989	3062.6698
588.192	3005.73582
588.395	3149.10326
588.599	3090.07841
588.802	3237.61669
589.005	2967.77366
589.208	3239.72379
589.411	2936.13482
589.615	3206.00808
589.818	3115.37631
590.021	3212.3301
590.224	3144.88762
590.427	3168.07286
590.63	3047.91022
590.833	3273.43522
591.036	3176.50337
591.239	3517.71036
591.442	3231.29527
591.645	3454.55864
591.848	3094.29489
592.051	3492.45163
592.254	3239.72379
592.457	3433.50446
592.66	3165.96519
592.863	3391.39076
593.066	3281.86241
593.269	3526.12935
593.472	3235.50956
593.675	3456.66396
593.878	3189.14864
594.081	3509.29108
594.284	3399.81407
594.486	3433.50446
594.689	3399.81407
594.892	3387.179
595.095	3349.27002
595.298	3509.29108
595.5	3418.76548
595.703	3568.21989
595.906	3492.45163
596.109	3690.24018
596.311	3536.65268
596.514	3662.89634
596.717	3639.75673
596.92	3728.09554
597.122	3475.61103
597.325	3561.90678
597.528	3728.09554
597.73	3915.17616
597.933	3576.63711
598.136	3728.09554
598.338	3536.65268
598.541	3778.5596
598.743	3776.45715
598.946	3908.87263
599.148	3643.9641
599.351	3637.65302
599.554	3753.32897
599.756	3898.36635
599.959	3669.20674
600.161	3976.10085
600.363	3740.71261
600.566	4053.80744
600.768	3803.78741
600.971	3868.94611
601.173	3667.1033
601.376	3934.08564
601.578	3633.44553
601.78	3988.70383
601.983	3780.66203
602.185	3837.42009
602.388	3744.91814
602.59	3717.58079
602.792	3797.48072
602.995	3829.01239
603.197	3803.78741
603.399	3971.8997
603.601	3858.43793
603.804	3988.70383
604.006	3896.26504
604.208	3952.99349
604.41	3955.09426
604.613	3992.90466
604.815	3711.27171
605.017	4118.89119
605.219	3997.1054
605.421	3885.75816
605.623	3948.79189
605.826	4032.80844
606.028	3854.23452
606.23	4013.90757
606.432	3946.69106
606.634	4131.48573
606.836	3768.04718
607.038	4129.38669
607.24	3826.91042
607.442	4299.34023
607.644	4190.25025
607.846	4081.10306
608.048	4041.20829
608.25	4165.06748
608.452	3910.97383
608.654	4355.96022
608.856	4144.07952
609.058	4070.60516
609.26	4125.18855
609.462	4047.50796
609.664	4049.60781
609.866	4049.60781
610.067	4043.3082
610.269	4372.73349
610.471	3913.075
610.673	4240.60664
610.875	4085.30208
611.077	4207.03707
611.278	4005.50665
611.48	4255.29161
611.682	4186.05333
611.884	4349.66989
612.085	3942.48933
612.287	4383.21608
612.489	4219.62629
612.69	4225.92062
612.892	3978.2014
613.094	4269.97553
613.295	3980.30193
613.497	4228.01869
613.699	4293.04815
613.9	4376.92659
614.102	4181.85633
614.304	4341.28248
614.505	4133.58475
614.707	4374.83005
614.908	4156.67254
615.11	4423.04493
615.311	4339.18557
615.513	4360.15367
615.714	4217.52814
615.916	4412.56442
616.117	4282.56092
616.319	4439.81262
616.52	4248.99818
616.722	4492.20259
616.923	4223.82253
617.124	4393.69812
617.326	4314.021
617.527	4498.48846
617.729	4339.18557
617.93	4448.19594
618.131	4425.14097
618.333	4584.37541
618.534	4320.31243
618.735	4542.48399
618.937	4412.56442
619.138	4730.92494
619.339	4402.08336
619.54	4622.07007
619.742	4324.50661
619.943	4550.86299
620.144	4364.34703
620.345	4534.10464
620.546	4575.99784
620.748	4628.3518
620.949	4529.91484
621.15	4626.25791
621.351	4454.4832
621.552	4521.53496
621.753	4483.82112
621.954	4728.83215
622.155	4387.40896
622.356	4408.37206
622.558	4441.90848
622.759	4655.57034
622.96	4508.96447
623.161	4749.75902
623.362	4460.77026
623.563	4678.59845
623.764	4552.95768
623.965	4795.79015
624.166	4674.41173
624.366	4797.88222
624.567	4276.26832
624.768	4785.3295
624.969	4462.8659
625.17	4668.13147
625.371	4448.19594
625.572	4810.43412
625.773	4575.99784
625.973	4923.36428
626.174	4703.71693
626.375	4766.49888
626.576	4525.72494
626.777	4770.68362
626.977	4555.05235
627.178	4799.97426
627.379	4542.48399
627.58	4709.99604
627.78	4626.25791
627.981	4693.25129
628.182	4536.19952
628.382	5075.92266
628.583	4676.5051
628.784	4931.72682
628.984	4552.95768
629.185	4735.11045
629.386	4617.88213
629.586	4885.7283
629.787	4835.53547
629.987	4860.63353
630.188	4787.42167
630.388	4829.26044
630.589	4584.37541
630.79	5023.69049
630.99	4739.29587
631.191	4896.18349
631.391	4894.0925
631.591	4971.44388
631.792	4906.6381
631.992	4912.91059
632.193	4776.96056
632.393	4988.16436
632.594	4712.08903
632.794	5006.97314
632.994	4753.94412
633.195	4812.52602
633.395	4760.2216
633.595	4994.43416
633.796	4850.1764
633.996	5192.87013
634.196	4885.7283
634.397	5157.37593
634.597	4885.7283
634.797	5109.34366
634.997	4958.90255
635.198	5088.45623
635.398	4854.35932
635.598	5313.91723
635.798	4852.26787
635.998	4889.91045
636.199	4942.17948
636.399	5136.49384
636.599	4791.60596
636.799	5194.95781
636.999	4749.75902
637.199	5057.12075
637.399	4868.99882
637.599	5050.85302
637.799	4885.7283
637.999	5142.75871
638.199	5044.58509
638.399	5203.30831
638.599	4873.18133
638.799	5169.90406
638.999	5117.69798
639.199	5303.48523
639.399	4927.5456
639.599	5180.34353
639.799	5063.38826
639.999	5086.36736
640.199	4927.5456
640.399	5213.74592
640.599	4827.16872
640.799	5512.01371
640.998	5199.13311
641.198	5209.57095
641.398	5128.14036
641.598	5397.35211
641.798	5092.6339
641.997	5309.7445
642.197	5240.88097
642.397	5403.60822
642.597	5247.14234
642.796	5278.44605
642.996	5240.88097
643.196	5397.35211
643.395	4994.43416
643.595	5220.00821
643.795	5130.22876
643.994	5286.79282
644.194	5174.07992
644.394	5432.80057
644.593	5341.03768
644.793	5472.41139
644.992	5320.17615
645.192	5230.44488
645.392	5290.96606
645.591	5589.10964
645.791	5353.55348
645.99	5428.63051
646.19	5113.52087
646.389	5487.00271
646.589	5330.60721
646.788	5512.01371
646.987	5155.28782
647.187	5599.52553
647.386	5205.39588
647.586	5472.41139
647.785	5190.78242
647.984	5334.77947
648.184	5286.79282
648.383	5491.17144
648.582	5407.77883
648.782	5699.48811
648.981	5447.39501
649.18	5524.51795
649.38	5374.41126
649.579	5716.14325
649.778	5484.9183
649.977	5709.89775
650.177	5451.56464
650.376	5599.52553
650.575	5336.86556
650.774	5457.81891
650.973	5422.37526
651.173	5797.31545
651.372	5257.5775
651.571	5514.09781
651.77	5313.91723
651.969	5753.61181
652.168	5345.20971
652.367	5589.10964
652.566	5666.17329
652.765	5736.96006
652.964	5461.98831
653.163	5770.26204
653.362	5464.07297
653.561	5562.02556
653.76	5564.10909
653.959	5589.10964
654.158	5963.7102
654.357	5686.99576
654.556	5318.08987
654.755	5813.96172
654.954	5539.10515
655.153	5828.52597
655.352	5797.31545
655.551	5857.65099
655.749	5761.93711
655.948	5705.73397
656.147	5639.10055
656.346	5953.31495
656.545	5505.76128
656.743	5870.13173
656.942	5847.24973
657.141	5855.57079
657.34	5639.10055
657.538	5824.36487
657.737	5597.4424
657.936	5963.7102
658.135	5791.07271
658.333	5861.81133
658.532	5736.96006
658.731	5999.04963
658.929	5622.43842
659.128	5686.99576
659.326	5695.32409
659.525	6013.59919
659.724	5816.0424
659.922	5820.20368
660.121	5766.09962
660.319	5805.63878
660.518	5637.01787
660.716	5816.0424
660.915	5739.04161
661.113	6003.20677
661.312	5805.63878
661.51	6007.36381
661.709	5859.73118
661.907	5832.68697
662.105	5826.44543
662.304	6007.36381
662.502	6011.52075
662.701	5944.99832
662.899	5901.32986
663.097	6140.33934
663.296	5726.55195
663.494	6140.33934
663.692	5774.42436
663.891	5907.56885
664.089	5697.40611
664.287	6051.00703
664.485	5757.77451
664.684	6138.26234
664.882	5741.12314
665.08	6021.9127
665.278	5899.25015
665.476	6102.94971
665.675	5857.65099
665.873	6102.94971
666.071	5797.31545
666.269	6163.18481
666.467	5849.33003
666.665	5928.36395
666.863	5778.58659
667.061	5999.04963
667.259	5944.99832
667.457	5907.56885
667.655	5832.68697
667.853	5920.04619
668.051	5876.37178
668.249	5947.07752
668.447	5886.77139
668.645	6080.09674
668.843	5974.10486
669.041	5969.94706
669.239	5999.04963
669.437	5953.31495
669.635	6040.61673
669.833	6129.9541
670.031	5641.18321
670.229	6144.49327
670.426	6071.78587
670.624	6053.08502
670.822	5703.65204
671.02	6013.59919
671.218	5849.33003
671.415	5965.78918
671.613	6007.36381
671.811	6252.46259
672.009	5963.7102
672.206	6237.93195
672.404	5899.25015
672.602	6152.80086
672.799	5959.55217
672.997	6044.77292
673.195	6169.4149
673.392	6059.31885
673.59	5932.52268
673.788	5932.52268
673.985	5886.77139
674.183	6154.87769
674.38	5928.36395
674.578	5992.81376
674.775	5828.52597
674.973	5963.7102
675.17	5895.09066
675.368	6011.52075
675.565	5882.61162
675.763	6188.1039
675.96	5947.07752
676.158	6163.18481
676.355	5911.72806
676.553	6323.02365
676.75	5876.37178
676.947	6030.22584
677.145	5872.21177
677.342	6063.47461
677.539	5566.1926
677.737	6401.85406
677.934	5928.36395
678.131	5913.80763
678.329	5778.58659
678.526	6422.59331
678.723	5957.47312
678.92	6337.54758
679.118	5670.33797
679.315	6152.80086
679.512	6030.22584
679.709	6046.85098
679.906	5803.55798
680.104	5994.89241
680.301	5907.56885
680.498	5893.01088
680.695	5951.23583
680.892	6121.64548
681.089	5982.42016
681.286	6142.41632
681.483	5668.25564
681.68	6028.14759
681.877	5936.68132
682.075	5978.26255
682.272	5855.57079
682.469	6123.72267
682.665	5780.66767
682.862	5988.65639
683.059	5878.45175
683.256	5807.71955
683.453	5851.41031
683.65	5994.89241
683.847	5861.81133
684.044	6030.22584
684.241	5861.81133
684.438	6044.77292
684.635	5944.99832
684.831	5944.99832
685.028	5832.68697
685.225	6055.16298
685.422	5972.02597
685.619	5978.26255
685.815	6046.85098
686.012	5836.84788
686.209	5722.38854
686.405	5849.33003
686.602	5741.12314
686.799	5811.88102
686.996	5820.20368
687.192	6005.2853
687.389	5772.34322
687.586	5863.89147
687.782	5555.77482
687.979	6042.69483
688.175	5824.36487
688.372	5926.28454
688.568	5795.23456
688.765	5897.17042
688.962	5761.93711
689.158	5755.69317
689.355	5772.34322
689.551	5843.08906
689.748	5549.52387
689.944	5845.16941
690.14	5845.16941
690.337	5913.80763
690.533	5709.89775
690.73	5853.49056
690.926	5753.61181
691.123	5816.0424
691.319	5776.50549
691.515	5984.49893
691.712	5641.18321
691.908	5805.63878
692.104	5707.81587
692.301	5905.48921
692.497	5624.52127
692.693	5855.57079
692.889	5811.88102
693.086	6036.46044
693.282	5784.82976
693.478	5753.61181
693.674	5739.04161
693.87	5830.60648
694.067	5728.63362
694.263	6055.16298
694.459	5578.69316
694.655	5832.68697
694.851	5578.69316
695.047	5753.61181
695.243	5672.42028
695.439	5872.21177
695.635	5518.26594
695.831	6003.20677
696.027	5676.58482
696.224	5795.23456
696.42	5637.01787
696.615	6069.70809
696.811	5678.66706
697.007	6086.32965
697.203	5824.36487
697.399	5811.88102
697.595	5739.04161
697.791	5953.31495
697.987	5691.15997
698.183	5957.47312
698.379	5647.43105
698.575	5953.31495
698.77	5770.26204
698.966	5612.02383
699.162	5597.4424
699.358	5745.28612
699.554	5603.69172
699.749	5857.65099
699.945	5616.18974
700.141	5786.91077
700.337	5770.26204
700.532	5805.63878
700.728	5682.83146
700.924	5795.23456
701.119	5655.76117
701.315	5911.72806
701.511	5526.6019
701.706	5836.84788
701.902	5630.76968
702.097	5757.77451
702.293	5834.76744
702.489	5853.49056
702.684	5470.32682
702.88	5524.51795
703.075	5487.00271
703.271	5691.15997
703.466	5572.44298
703.662	5672.42028
703.857	5553.69119
704.053	5793.15365
704.248	5443.22529
704.443	6007.36381
704.639	5372.32559
704.834	5886.77139
705.03	5645.34846
705.225	5678.66706
705.42	5434.88556
705.616	5699.48811
705.811	5514.09781
706.006	5684.91362
706.202	5459.90362
706.397	5843.08906
706.592	5668.25564
706.787	5641.18321
706.983	5709.89775
707.178	5678.66706
707.373	5532.85363
707.568	5595.35925
707.763	5380.66814
707.959	5801.47716
708.154	5605.77479
708.349	5711.97961
708.544	5728.63362
708.739	5805.63878
708.934	5609.94084
709.129	5897.17042
709.324	5466.15761
709.519	5761.93711
709.714	5512.01371
709.909	5557.85842
710.104	5582.85982
710.299	5657.84364
710.494	5461.98831
710.689	5834.76744
710.884	5466.15761
711.079	5497.42437
711.274	5457.81891
711.469	5478.66495
711.664	5537.02133
711.859	5764.01838
712.054	5574.5264
712.249	5684.91362
712.443	5680.74927
712.638	5703.65204
712.833	5372.32559
713.028	5882.61162
713.223	5422.37526
713.417	5701.57009
713.612	5549.52387
713.807	5751.53042
714.002	5374.41126
714.196	5628.6869
714.391	5566.1926
714.586	5747.36758
714.78	5445.31016
714.975	5553.69119
715.17	5616.18974
715.364	5641.18321
715.559	5374.41126
715.754	5528.68584
715.948	5445.31016
716.143	5395.2667
716.337	5397.35211
716.532	5890.93107
716.726	5468.24223
716.921	5589.10964
717.115	5436.97053
717.31	5655.76117
717.504	5380.66814
717.699	5461.98831
717.893	5461.98831
718.088	5695.32409
718.282	5345.20971
718.476	5424.46036
718.671	5029.95911
718.865	5213.74592
719.059	5249.22942
719.254	5453.64942
719.448	5272.18573
719.642	5530.76975
719.837	5378.58254
720.031	5386.92481
720.225	5261.75139
720.419	5372.32559
720.614	5186.60693
720.808	5453.64942
721.002	5326.43485
721.196	5474.49593
721.39	5132.31715
721.585	5295.13921
721.779	5232.53214
721.973	5459.90362
722.167	5019.51129
722.361	5466.15761
722.555	5374.41126
722.749	5384.83927
722.943	5334.77947
723.137	5357.72522
723.331	5282.61948
723.525	5428.63051
723.719	5084.27847
723.913	5487.00271
724.107	5245.05524
724.301	5407.77883
724.495	5261.75139
724.689	5539.10515
724.883	5217.9208
725.077	5278.44605
725.271	5363.98266
725.465	5549.52387
725.659	5297.22575
725.853	5382.75372
726.046	5157.37593
726.24	5353.55348
726.434	5134.40551
726.628	5401.52287
726.822	5017.42166
727.015	5368.15417
727.209	5345.20971
727.403	5461.98831
727.596	5316.00356
727.79	5455.73418
727.984	5280.53278
728.177	5674.50256
728.371	5416.11979
728.565	5270.09891
728.758	5332.69335
728.952	5355.63936
729.146	5115.60943
729.339	5355.63936
729.533	5105.16636
729.726	5209.57095
729.92	5157.37593
730.113	5499.50863
730.307	5286.79282
730.5	5445.31016
730.694	5297.22575
730.887	5520.34996
731.081	5278.44605
731.274	5374.41126
731.468	5113.52087
731.661	5268.01207
731.854	5222.09559
732.048	5574.5264
732.241	5161.55206
732.435	5113.52087
732.628	5240.88097
732.821	5372.32559
733.014	5149.02337
733.208	5316.00356
733.401	5253.4035
733.594	5418.20497
733.788	5178.25568
733.981	5487.00271
734.174	5349.38164
734.367	5297.22575
734.56	5180.34353
734.754	5190.78242
734.947	5230.44488
735.14	5249.22942
735.333	5436.97053
735.526	5578.69316
735.719	5217.9208
735.912	5357.72522
736.105	5270.09891
736.298	5169.90406
736.491	5178.25568
736.684	5309.7445
736.877	5069.65557
737.07	5288.87945
737.263	5057.12075
737.456	5357.72522
737.649	5253.4035
737.842	5098.90024
738.035	5061.29911
738.228	5249.22942
738.421	5188.69469
738.614	5589.10964
738.807	5316.00356
739	5428.63051
739.192	5169.90406
739.385	5493.25578
739.578	5186.60693
739.771	5303.48523
739.964	5090.54508
740.156	5551.60754
740.349	5044.58509
740.542	5257.5775
740.735	4986.07438
740.927	5103.07767
741.12	5103.07767
741.313	5025.78005
741.505	5211.65845
741.698	5040.40636
741.891	5107.25502
742.083	5071.74462
742.276	4988.16436
742.468	4988.16436
742.661	5019.51129
742.854	5103.07767
743.046	5155.28782
743.239	5119.7865
743.431	5171.992
743.624	5130.22876
743.816	5105.16636
744.009	5103.07767
744.201	5044.58509
744.393	5094.7227
744.586	5113.52087
744.778	5169.90406
744.971	5103.07767
745.163	4971.44388
745.355	4837.6271
745.548	5119.7865
745.74	5002.79357
745.932	4898.27445
746.125	4816.70976
746.317	5057.12075
746.509	4967.26353
746.702	5422.37526
746.894	5023.69049
747.086	5050.85302
747.278	5182.43135
747.471	5161.55206
747.663	5138.58215
747.855	5153.19969
748.047	5188.69469
748.239	5082.18955
748.431	5040.40636
748.623	5027.86959
748.815	5228.35759
749.008	5322.26241
749.2	5032.04861
749.392	5040.40636
749.584	4915.00137
749.776	5197.04547
749.968	5011.15262
750.16	5174.07992
750.352	4942.17948
750.544	5086.36736
750.736	4948.45081
750.928	5186.60693
751.12	4864.81622
751.311	4969.35371
751.503	4998.61391
751.695	5178.25568
751.887	5046.67443
752.079	5038.31696
752.271	5006.97314
752.463	5021.6009
752.654	4906.6381
752.846	5036.22753
753.038	4856.45075
753.23	4931.72682
753.421	4881.54607
753.613	4950.5412
753.805	4797.88222
753.997	4956.81224
754.188	4839.71871
754.38	5055.03153
754.572	4975.62414
754.763	4856.45075
754.955	4885.7283
755.146	4860.63353
755.338	4795.79015
755.53	4663.94452
755.721	4764.40648
755.913	4915.00137
756.104	4743.4812
756.296	4960.99283
756.487	4766.49888
756.679	4837.6271
756.87	4703.71693
757.062	4845.99339
757.253	4730.92494
757.445	4609.50598
757.636	4835.53547
757.827	5004.88337
758.019	4927.5456
758.21	4843.90185
758.401	4659.75748
758.593	4797.88222
758.784	4552.95768
758.975	4575.99784
759.167	4592.75262
759.358	4693.25129
759.549	4703.71693
759.74	4745.57383
759.932	4475.43929
760.123	4624.164
760.314	4467.05712
760.505	4760.2216
760.696	4563.43081
760.888	4605.31778
761.079	4661.85101
761.27	4682.78509
761.461	4532.00975
761.652	4481.72569
761.843	4680.69178
762.034	4571.80892
762.225	4488.0119
762.416	4695.34446
762.607	4661.85101
762.798	4617.88213
762.989	4536.19952
763.18	4682.78509
763.371	4387.40896
763.562	4626.25791
763.753	4529.91484
763.944	4494.2979
764.135	4425.14097
764.326	4613.6941
764.517	4391.60175
764.708	4469.1527
764.899	4504.77413
765.089	4448.19594
765.28	4272.07315
765.471	4366.44368
765.662	4236.41074
765.853	4542.48399
766.043	4358.05696
766.234	4651.38312
766.425	4425.14097
766.615	4437.71674
766.806	4267.87789
766.997	4297.24289
767.187	4154.57376
767.378	4305.63212
767.569	4228.01869
767.759	4295.14553
767.95	4190.25025
768.141	4324.50661
768.331	4181.85633
768.522	4232.21476
768.712	4055.90723
768.903	4274.17075
769.093	4261.58485
769.284	4475.43929
769.474	4406.27585
769.665	4230.11673
769.855	4081.10306
770.046	4425.14097
770.236	3971.8997
770.426	4167.16616
770.617	4167.16616
770.807	4223.82253
770.998	4097.89862
771.188	4183.95484
771.378	4106.2959
771.569	4293.04815
771.759	3892.06235
771.949	4066.40586
772.139	4049.60781
772.33	4047.50796
772.52	4009.70715
772.71	4274.17075
772.9	4307.72937
773.09	4181.85633
773.281	4081.10306
773.471	4097.89862
773.661	3984.50292
773.851	3931.98467
774.041	4020.20804
774.231	4041.20829
774.421	3978.2014
774.611	3833.21628
774.802	3877.3523
774.992	3917.27729
775.182	3963.49714
775.372	3955.09426
775.562	3835.31819
775.752	4022.30816
775.942	3774.35469
776.131	4093.69985
776.321	3843.72565
776.511	4066.40586
776.701	3643.9641
776.891	3919.37841
777.081	3786.96918
777.271	4053.80744
777.461	3704.96245
777.651	3854.23452
777.84	3603.99102
778.03	3810.09392
778.22	3643.9641
778.41	3805.8896
778.599	3715.47778
778.789	4001.30607
778.979	3561.90678
779.169	3898.36635
779.358	3694.44664
779.548	3929.88368
779.738	3576.63711
779.927	3845.82746
780.117	3744.91814
780.307	3627.13416
780.496	3627.13416
780.686	3812.19605
780.875	3770.1497
781.065	3765.94464
781.254	3658.68931
781.444	3814.29817
781.633	3395.60245
781.823	3780.66203
782.012	3452.45331
782.202	3635.54928
782.391	3500.8715
782.581	3509.29108
782.77	3502.97642
782.96	3507.18621
783.149	3395.60245
783.338	3629.23797
783.528	3593.47066
783.717	3738.60981
783.906	3498.76656
784.096	3559.80238
784.285	3606.09503
784.474	3532.4434
784.663	3467.19029
784.853	3393.49662
785.042	3227.0809
785.231	3648.1714
785.42	3481.92639
785.61	3519.81514
785.799	3507.18621
785.988	3673.41359
786.177	3374.5433
786.366	3353.4824
786.555	3494.55663
786.744	3660.79284
786.933	3319.78135
787.122	3380.86123
787.312	3206.00808
787.501	3391.39076
787.69	3286.07589
787.879	3475.61103
788.068	3332.41977
788.257	3326.10064
788.445	3214.43741
788.634	3149.10326
788.823	3265.00777
789.012	3286.07589
789.201	3197.57849
789.39	3302.92917
789.579	3113.26824
789.768	3294.50267
789.957	3182.82608
790.145	3378.75527
790.334	3309.24887
790.523	3157.53436
790.712	3142.77977
790.9	3307.14232
791.089	3033.14988
791.278	3290.28932
791.467	2986.75535
791.655	3376.6493
791.844	3041.58445
792.033	3176.50337
792.221	3058.45285
792.41	3121.70043
792.599	3075.32026
792.787	3142.77977
792.976	3009.95354
793.164	3178.61095
793.353	3144.88762
793.541	3180.71852
793.73	2963.55534
793.918	3182.82608
794.107	2955.11853
794.295	3119.5924
794.484	2877.06683
794.672	2971.99192
794.861	3161.7498
795.049	3296.60932
795.238	2883.39609
795.426	3157.53436
795.614	2986.75535
795.803	3130.13236
795.991	2974.10103
796.179	3064.77825
796.368	2885.50581
796.556	3037.36719
796.744	2699.797
796.932	2999.40913
797.121	2769.45015
797.309	2969.8828
797.497	2744.1234
797.685	3012.06237
797.874	2997.30021
798.062	3066.88668
798.25	2860.18819
798.438	2877.06683
798.626	2942.46286
798.814	2910.82136
799.002	2843.30864
799.19	3102.72765
799.378	2699.797
799.566	3121.70043
799.755	2775.78154
799.943	3016.27999
800.131	3071.1035
800.318	3016.27999
800.506	2877.06683
800.694	2955.11853
800.882	2843.30864
801.07	2995.19127
801.258	2729.34858
801.446	2893.94456
801.634	2710.35143
801.822	3016.27999
802.01	2801.10586
802.197	2948.79076
802.385	2805.32638
802.573	2902.38308
802.761	2718.79473
802.949	3184.93361
803.136	2801.10586
803.324	2889.72522
803.512	2967.77366
803.699	2978.31919
803.887	2929.80666
804.075	3054.23584
804.262	2817.98764
804.45	2731.4593
804.638	2885.50581
804.825	3073.21189
805.013	2931.91606
805.201	3039.47583
805.388	2883.39609
805.576	2999.40913
805.763	2750.45527
805.951	2898.16385
806.138	2735.68072
806.326	3081.64528
806.513	2953.00928
806.701	3047.91022
806.888	3031.0412
807.075	2990.97334
807.263	3047.91022
807.45	3161.7498
807.638	2828.5383
807.825	3014.17119
808.012	2908.71182
808.2	3136.45614
808.387	2921.3689
808.574	3121.70043
808.761	3041.58445
808.949	3189.14864
809.136	2912.9309
809.323	3054.23584
809.51	2969.8828
809.698	2948.79076
809.885	2786.33357
810.072	3058.45285
810.259	3041.58445
810.446	2944.57217
810.633	2845.41864
810.82	3174.39576
811.008	2931.91606
811.195	3239.72379
811.382	2853.85847
811.569	3028.9325
811.756	2940.35353
811.943	3028.9325
812.13	2969.8828
812.317	3104.8358
812.504	3146.99545
812.691	3132.2403
812.878	2744.1234
813.064	3146.99545
813.251	2851.74853
813.438	3031.0412
813.625	2754.67645
813.812	2982.5373
813.999	2767.33966
814.186	3087.97015
814.372	2965.66451
814.559	3090.07841
814.746	2948.79076
814.933	3081.64528
815.12	3022.60632
815.306	3132.2403
815.493	2761.00812
815.68	2978.31919
815.866	2955.11853
816.053	2898.16385
816.24	2777.89197
816.426	2923.47836
816.613	2963.55534
816.799	2851.74853
816.986	2834.86853
817.173	2796.88527
817.359	2820.0978
817.546	2936.13482
817.732	2980.42826
817.919	3066.88668
818.105	2919.25942
818.292	2995.19127
818.478	2746.23404
818.665	2834.86853
818.851	2885.50581
819.037	2988.86435
819.224	2843.30864
819.41	3020.49756
819.597	2733.57002
819.783	2792.66463
819.969	2744.1234
820.156	2961.44616
820.342	2822.20794
820.528	3031.0412
820.714	2777.89197
820.901	2976.21012
821.087	2708.24057
821.273	2841.19864
821.459	2767.33966
821.646	2915.04042
821.832	2680.79821
822.018	3052.12732
822.204	2670.24288
822.39	2826.4282
822.576	2617.4615
822.762	2767.33966
822.948	2581.56576
823.134	2746.23404
823.32	2606.90429
823.507	2936.13482
823.693	2750.45527
823.879	2758.89757
824.065	2600.56982
824.25	2822.20794
824.436	2670.24288
824.622	2710.35143
824.808	2657.57606
824.994	2965.66451
825.18	2526.65973
825.366	2836.97858
825.552	2577.3425
825.738	2843.30864
825.923	2558.33726
826.109	2820.0978
826.295	2558.33726
826.481	2775.78154
826.667	2577.3425
826.852	2777.89197
827.038	2729.34858
827.224	2883.39609
827.409	2560.449
827.595	2775.78154
827.781	2440.06144
827.966	2845.41864
828.152	2549.89017
828.338	2866.51779
828.523	2511.87599
828.709	2718.79473
828.894	2562.56073
829.08	2697.68607
829.266	2395.69913
829.451	2691.35322
829.637	2480.19468
829.822	2488.64328
830.008	2264.69872
830.193	2425.27452
830.378	2302.73493
830.564	2505.53993
830.749	2446.39853
830.935	2522.43586
831.12	2296.39577
831.305	2488.64328
831.491	2397.81173
831.676	2505.53993
831.861	2243.5662
832.047	2528.77164
832.232	2406.26201
832.417	2467.52145
832.602	2194.95805
832.788	2473.85812
832.973	2518.21195
833.158	2296.39577
833.343	2290.05653
833.528	2423.16206
833.714	2294.2827
833.899	2397.81173
834.084	2313.3
834.269	2442.17381
834.454	2313.3
834.639	2330.20361
834.824	2220.3194
835.009	2271.03829
835.194	2298.50883
835.379	2412.59961
835.564	2120.98063
835.749	2378.79799
835.934	2159.0274
836.119	2361.8962
836.304	2197.07155
836.489	2306.96098
836.674	2180.16337
836.859	2159.0274
837.044	2114.63926
837.228	2230.88626
837.413	2135.7769
837.598	2281.60407
837.783	2006.8258
837.968	2380.91067
838.152	1981.45535
838.337	2355.55786
838.522	2258.35906
838.707	2285.83032
838.891	2093.50084
839.076	2226.65954
839.261	2044.8797
839.445	2237.22627
839.63	1896.88087
839.815	2222.43279
839.999	1983.56959
840.184	2203.41197
840.368	1981.45535
840.553	2203.41197
840.737	1966.6555
840.922	2123.09441
841.106	2110.41163
841.291	2114.63926
841.475	1812.29784
841.66	2059.67784
841.844	1791.15092
842.029	2055.44984
842.213	1839.78817
842.397	2006.8258
842.582	1905.33873
842.766	1934.94053
842.951	2002.59746
843.135	2017.39655
843.319	1930.71177
843.504	1854.59033
843.688	1805.95381
843.872	1863.0486
844.056	1761.54455
844.241	1968.76978
844.425	1907.45318
844.609	1894.76639
844.793	1829.21506
844.977	1888.42293
845.161	1765.77408
845.346	1888.42293
845.53	1710.78906
845.714	2057.56384
845.898	1734.05224
846.082	1808.06849
846.266	1668.49139
846.45	1725.59295
846.634	1704.44448
846.818	1738.28187
847.002	1676.95101
847.186	2036.42347
847.37	1753.08544
847.554	1841.90278
847.738	1676.95101
847.922	1786.92149
848.106	1746.74107
848.29	1672.72121
848.473	1782.69204
848.657	1670.6063
848.841	1613.50283
849.025	1651.57201
849.209	1602.92793
849.392	1560.62791
849.576	1452.76085
849.76	1744.62628
849.944	1499.29195
850.127	1702.32962
850.311	1560.62791
850.495	1660.03172
850.678	1562.74293
850.862	1761.54455
851.046	1541.59271
851.229	1566.97295
851.413	1490.83176
851.596	1643.11225
851.78	1503.52204
851.964	1778.46257
852.147	1452.76085
852.331	1808.06849
852.514	1469.68126
852.698	1605.04292
852.881	1486.60167
853.065	1664.26156
853.248	1514.09725
853.431	1681.18081
853.615	1431.61033
853.798	1640.99731
853.982	1440.07053
854.165	1440.07053
854.348	1452.76085
854.532	1653.68694
854.715	1471.79631
854.898	1609.27288
855.081	1505.63708
855.265	1634.65246
855.448	1486.60167
855.631	1442.18558
855.814	1304.70876
855.997	1387.19436
856.181	1279.3291
856.364	1571.20298
856.547	1347.0088
856.73	1476.02642
856.913	1325.8587
857.096	1469.68126
857.279	1228.57084
857.462	1308.93873
857.645	1256.06471
857.828	1321.6287
858.011	1355.46888
858.194	1347.0088
858.377	1165.12552
858.56	1347.0088
858.743	1270.86929
858.926	1344.89378
859.109	1120.71585
859.292	1306.82375
859.475	1306.82375
859.658	1321.6287
859.841	1169.3551
860.023	1372.38911
860.206	1129.17468
860.389	1408.34479
860.572	1133.40413
860.755	1285.67399
860.937	1055.16249
861.12	1272.98424
861.303	1143.97782
861.486	1228.57084
861.668	1226.45595
861.851	1207.42206
862.034	1205.3072
862.216	1188.38843
862.399	1010.75834
862.581	1203.19234
862.764	1067.84985
862.947	1249.71993
863.129	1053.04795
863.312	1137.63359
863.494	1019.21607
863.677	1182.04396
863.859	1029.78837
864.042	1095.33978
864.224	1084.76663
864.406	1112.25708
864.589	1017.10163
864.771	1069.96443
864.954	1038.24632
865.136	991.72881
865.318	915.6162
865.501	1059.39158
865.683	1006.52951
865.865	1110.1424
866.048	943.10024
866.23	1000.18632
866.412	886.01945
866.594	968.47122
866.777	919.84443
866.959	964.24265
867.141	957.89985
867.323	1069.96443
867.505	1017.10163
867.687	934.64348
867.869	919.84443
868.052	1069.96443
868.234	805.69371
868.416	974.81412
868.598	812.03474
868.78	1008.64392
868.962	936.75766
869.144	993.84318
869.326	886.01945
869.508	934.64348
869.69	841.62734
869.872	1080.5374
870.054	966.35693
870.236	1029.78837
870.417	953.67136
870.599	896.58954
870.781	860.65207
870.963	890.24746
871.145	898.70358
871.327	776.10334
871.508	873.33561
871.69	877.56352
871.872	765.53582
872.054	881.79147
872.235	780.33042
872.417	953.67136
872.599	809.92106
872.78	957.89985
872.962	780.33042
873.144	864.87988
873.325	786.67111
873.507	945.21445
873.689	835.28592
873.87	896.58954
874.052	812.03474
874.233	938.87185
874.415	788.78469
874.596	1017.10163
874.778	864.87988
874.959	780.33042
875.141	841.62734
875.322	979.04275
875.503	826.83082
875.685	917.73031
875.866	835.28592
876.048	940.98604
876.229	902.93169
876.41	839.51352
876.592	866.9938
876.773	894.4755
876.954	809.92106
877.136	860.65207
877.317	778.21687
877.498	816.26215
877.679	695.79667
877.86	767.6493
878.042	689.45734
878.223	907.15983
878.404	809.92106
878.585	881.79147
878.766	776.10334
878.947	921.95856
879.128	814.14844
879.309	932.52931
879.49	822.60332
879.672	957.89985
879.853	864.87988
880.034	869.10773
880.215	835.28592
880.396	860.65207
880.576	818.37586
880.757	987.5001
880.938	763.42234
881.119	970.58551
881.3	860.65207
881.481	934.64348
881.662	763.42234
881.843	938.87185
882.023	856.42429
882.204	974.81412
882.385	828.94458
882.566	909.27391
882.747	915.6162
882.927	955.7856
883.108	854.31041
883.289	892.36148
883.469	945.21445
883.65	877.56352
883.831	852.19655
884.011	924.07269
884.192	1004.41511
884.373	991.72881
884.553	902.93169
884.734	1084.76663
884.914	812.03474
885.095	991.72881
885.275	805.69371
885.456	1008.64392
885.636	837.39972
885.817	1118.60115
885.997	964.24265
886.178	949.44289
886.358	1031.90285
886.538	966.35693
886.719	850.08269
886.899	938.87185
887.08	983.27141
887.26	1014.98719
887.44	881.79147
887.621	1012.87276
887.801	816.26215
887.981	847.96884
888.161	831.05835
888.342	837.39972
888.522	866.9938
888.702	972.69981
888.882	883.90545
889.062	991.72881
889.242	864.87988
889.423	979.04275
889.603	976.92843
889.783	1207.42206
889.963	845.85499
890.143	1002.30071
890.323	924.07269
890.503	1008.64392
890.683	890.24746
890.863	1000.18632
891.043	695.79667
891.223	909.27391
891.403	818.37586
891.583	915.6162
891.763	818.37586
891.943	890.24746
892.122	780.33042
892.302	879.67749
892.482	850.08269
892.662	934.64348
892.842	917.73031
893.022	915.6162
893.201	873.33561
893.381	962.12838
893.561	852.19655
893.741	919.84443
893.92	780.33042
894.1	907.15983
894.28	797.23912
894.459	877.56352
894.639	754.96854
894.819	902.93169
894.998	769.7628
895.178	1008.64392
895.357	738.06144
895.537	850.08269
895.716	765.53582
895.896	841.62734
896.075	714.81528
896.255	771.8763
896.434	738.06144
896.614	826.83082
896.793	647.19775
896.973	647.19775
897.152	681.00505
897.331	799.35276
897.511	761.30888
897.69	750.74171
897.87	695.79667
898.049	881.79147
898.228	664.10102
898.407	695.79667
898.587	735.9481
898.766	738.06144
898.945	645.0849
899.124	642.97205
899.304	661.98807
899.483	721.15502
899.662	661.98807
899.841	623.95701
900.02	636.6336
900.199	712.70206
900.378	581.70501
900.557	657.76221
900.737	573.25523
900.916	619.73158
901.095	613.39353
901.274	659.87514
901.453	459.205
901.632	611.28088
901.811	609.16823
901.989	645.0849
902.168	594.38007
902.347	649.31062
902.526	537.34607
902.705	708.47565
902.884	594.38007
903.063	611.28088
903.242	509.88883
903.42	562.6933
903.599	459.205
903.778	630.29525
903.957	581.70501
904.135	520.44902
904.314	509.88883
904.493	526.78531
904.672	495.10517
904.85	425.42065
905.029	514.11286
905.207	435.97783
905.386	402.19626
905.565	509.88883
905.743	454.98174
905.922	478.21043
906.1	324.09267
906.279	541.57047
906.457	492.99327
906.636	408.52999
906.814	362.08609
906.993	484.54585
907.171	431.75491
907.35	469.76342
907.528	319.87153
907.707	408.52999
907.885	298.76691
908.063	376.86282
908.242	372.64081
908.42	385.30703
908.598	311.42946
908.777	391.64037
908.955	357.86432
909.133	332.53516
909.311	385.30703
909.49	317.76099
909.668	334.64583
909.846	275.55393
910.024	345.19943
910.202	438.08931
910.38	435.97783
910.559	351.5318
910.737	378.97385
910.915	359.9752
911.093	340.97794
911.271	383.19595
911.449	476.09866
911.627	442.31232
911.805	355.75346
911.983	446.5354
912.161	332.53516
912.339	509.88883
912.517	435.97783
912.695	484.54585
912.872	340.97794
913.05	347.3102
913.228	366.30793
913.406	366.30793
913.584	374.75181
913.762	372.64081
913.939	340.97794
914.117	368.41887
914.295	317.76099
914.473	368.41887
914.65	343.08867
914.828	349.42099
915.006	429.64347
915.184	353.64262
915.361	364.197
915.539	423.30926
915.716	385.30703
915.894	440.20081
916.072	340.97794
916.249	402.19626
916.427	400.08505
916.604	385.30703
916.782	343.08867
916.959	402.19626
917.137	302.98769
917.314	433.86636
917.492	357.86432
917.669	397.97385
917.847	349.42099
918.024	378.97385
918.201	370.52983
918.379	425.42065
918.556	307.20854
918.733	353.64262
918.911	326.20327
919.088	324.09267
919.265	231.24458
919.442	324.09267
919.62	349.42099
919.797	262.89326
919.974	267.11341
920.151	340.97794
920.328	319.87153
920.506	340.97794
920.683	248.12334
920.86	340.97794
921.037	298.76691
921.214	343.08867
921.391	362.08609
921.568	309.31899
921.745	319.87153
921.922	349.42099
922.099	231.24458
922.276	324.09267
922.453	296.65654
922.63	298.76691
922.807	231.24458
922.984	302.98769
923.161	273.44377
923.338	237.57397
923.514	260.78321
923.691	321.98209
923.868	279.77431
924.045	229.13482
924.222	338.86722
924.399	309.31899
924.575	189.0532
924.752	254.45319
924.929	252.34322
925.105	227.02509
925.282	193.27198
925.459	224.91537
925.635	231.24458
925.812	273.44377
925.989	182.72519
926.165	208.03833
926.342	311.42946
926.518	241.79366
926.695	231.24458
926.871	283.99475
927.048	193.27198
927.224	235.46415
927.401	239.6838
927.577	220.69599
927.754	275.55393
927.93	281.88452
928.107	235.46415
928.283	178.50662
928.459	197.49084
928.636	182.72519
928.812	89.9361
928.988	296.65654
929.165	205.9288
929.341	222.80567
929.517	113.12946
929.693	227.02509
929.87	127.89025
930.046	155.30595
930.222	199.6003
930.398	216.47669
930.574	20.37242
930.751	197.49084
930.927	246.01343
931.103	182.72519
931.279	182.72519
931.455	163.74226
931.631	102.58669
931.807	167.96055
931.983	140.5432
932.159	87.82774
932.335	201.70978
932.511	49.88122
932.687	161.63315
932.863	121.56407
933.039	121.56407
933.215	178.50662
933.391	195.3814
933.566	148.97893
933.742	189.0532
933.918	138.43433
934.094	146.86997
934.27	172.17891
934.445	134.21663
934.621	121.56407
934.797	180.61589
934.973	24.58768
935.148	142.6521
935.324	146.86997
935.5	96.26129
935.675	104.6952
935.851	73.06989
936.027	96.26129
936.202	113.12946
936.378	102.58669
936.553	100.4782
936.729	64.63732
936.904	113.12946
937.08	62.52924
937.255	41.44967
937.431	129.99903
937.606	79.39455
937.782	28.80304
937.957	87.82774
938.133	11.94218
938.308	60.42118
938.483	87.82774
938.659	85.71941
938.834	98.36974
939.009	30.91075
939.185	45.6654
939.36	56.20513
939.535	87.82774
939.71	-30.20322
939.886	70.96171
940.061	73.06989
940.236	87.82774
940.411	92.04447
940.586	79.39455
940.761	144.76102
940.937	35.12624
941.112	14.04971
941.287	11.94218
941.462	33.01848
941.637	22.48004
941.812	47.77329
941.987	62.52924
942.162	16.15725
942.337	66.74543
942.512	56.20513
942.687	22.48004
942.862	-44.95179
943.037	3.51233
943.212	22.48004
943.386	87.82774
943.561	5.61975
943.736	28.80304
943.911	81.50281
944.086	24.58768
944.26	79.39455
944.435	75.17808
944.61	70.96171
944.785	49.88122
944.959	60.42118
945.134	64.63732
945.309	14.04971
945.483	54.09713
945.658	45.6654
945.833	37.23403
946.007	7.72721
946.182	45.6654
946.357	-9.13173
946.531	51.98916
946.706	37.23403
946.88	49.88122
947.055	66.74543
947.229	37.23403
947.404	104.6952
947.578	-0.70246
947.752	100.4782
947.927	108.91229
948.101	28.80304
948.276	75.17808
948.45	75.17808
948.624	-57.59244
948.799	22.48004
948.973	47.77329
949.147	70.96171
949.321	96.26129
949.496	24.58768
949.67	96.26129
949.844	98.36974
950.018	7.72721
950.193	-4.91714
950.367	66.74543
950.541	66.74543
950.715	49.88122
950.889	20.37242
951.063	-19.66778
951.237	45.6654
951.411	20.37242
951.585	20.37242
951.759	14.04971
951.933	37.23403
952.107	-4.91714
952.281	96.26129
952.455	123.67278
952.629	45.6654
952.803	18.26482
952.977	-38.63112
953.151	56.20513
953.325	16.15725
953.499	64.63732
953.672	92.04447
953.846	54.09713
954.02	58.31314
954.194	92.04447
954.368	33.01848
954.541	16.15725
954.715	-0.70246
954.889	70.96171
955.062	81.50281
955.236	49.88122
955.41	58.31314
955.583	68.85356
955.757	115.23808
955.93	92.04447
956.104	30.91075
956.278	92.04447
956.451	77.2863
956.625	28.80304
956.798	104.6952
956.972	73.06989
957.145	45.6654
957.319	70.96171
957.492	102.58669
957.665	51.98916
957.839	-30.20322
958.012	45.6654
958.185	87.82774
958.359	62.52924
958.532	58.31314
958.705	9.83468
958.879	64.63732
959.052	45.6654
959.225	106.80373
959.398	73.06989
959.572	62.52924
959.745	54.09713
959.918	20.37242
960.091	-59.69913
960.264	30.91075
960.438	18.26482
960.611	89.9361
960.784	121.56407
960.957	22.48004
961.13	14.04971
961.303	54.09713
961.476	33.01848
961.649	47.77329
961.822	56.20513
961.995	117.34672
962.168	54.09713
962.341	45.6654
962.514	37.23403
962.686	28.80304
962.859	-0.70246
963.032	129.99903
963.205	89.9361
963.378	7.72721
963.551	41.44967
963.723	87.82774
963.896	83.6111
964.069	7.72721
964.242	102.58669
964.414	-11.23899
964.587	92.04447
964.76	54.09713
964.932	60.42118
965.105	146.86997
965.278	22.48004
965.45	11.94218
965.623	81.50281
965.795	146.86997
965.968	30.91075
966.14	49.88122
966.313	87.82774
966.485	45.6654
966.658	47.77329
966.83	45.6654
967.003	43.55752
967.175	62.52924
967.348	68.85356
967.52	104.6952
967.692	64.63732
967.865	79.39455
968.037	83.6111
968.209	148.97893
968.382	79.39455
968.554	11.94218
968.726	-9.13173
968.898	81.50281
969.071	14.04971
969.243	-13.34623
969.415	-9.13173
969.587	16.15725
969.759	113.12946
969.932	79.39455
970.104	62.52924
970.276	45.6654
970.448	81.50281
970.62	28.80304
970.792	66.74543
970.964	68.85356
971.136	43.55752
971.308	113.12946
971.48	45.6654
971.652	62.52924
971.824	-0.70246
971.996	37.23403
972.168	75.17808
972.339	-34.41722
972.511	70.96171
972.683	92.04447
972.855	33.01848
973.027	70.96171
973.199	28.80304
973.37	47.77329
973.542	-11.23899
973.714	41.44967
973.886	62.52924
974.057	66.74543
974.229	62.52924
974.401	5.61975
974.572	108.91229
974.744	64.63732
974.915	60.42118
975.087	28.80304
975.259	58.31314
975.43	60.42118
975.602	22.48004
975.773	7.72721
975.945	22.48004
976.116	14.04971
976.288	30.91075
976.459	24.58768
976.63	-19.66778
976.802	45.6654
976.973	3.51233
977.145	66.74543
977.316	66.74543
977.487	56.20513
977.659	98.36974
977.83	104.6952
978.001	-13.34623
978.172	28.80304
978.344	11.94218
978.515	45.6654
978.686	54.09713
978.857	1.40492
979.028	58.31314
979.2	47.77329
979.371	-32.31023
979.542	24.58768
979.713	54.09713
979.884	45.6654
980.055	66.74543
980.226	39.34183
980.397	100.4782
980.568	64.63732
980.739	30.91075
980.91	81.50281
981.081	3.51233
981.252	51.98916
981.423	58.31314
981.594	81.50281
981.765	68.85356
981.936	28.80304
982.106	47.77329
982.277	30.91075
982.448	33.01848
982.619	-25.98912
982.79	45.6654
982.96	3.51233
983.131	33.01848
983.302	33.01848
983.472	16.15725
983.643	58.31314
983.814	-70.23219
983.984	14.04971
984.155	58.31314
984.326	64.63732
984.496	39.34183
984.667	148.97893
984.837	-28.09618
985.008	104.6952
985.178	54.09713
985.349	104.6952
985.519	-0.70246
985.69	3.51233
985.86	49.88122
986.031	-11.23899
986.201	77.2863
986.371	5.61975
986.542	30.91075
986.712	62.52924
986.882	-25.98912
987.053	58.31314
987.223	5.61975
987.393	37.23403
987.563	-7.02445
987.734	62.52924
987.904	18.26482
988.074	41.44967
988.244	-0.70246
988.414	-7.02445
988.585	62.52924
988.755	83.6111
988.925	3.51233
989.095	1.40492
989.265	22.48004
989.435	39.34183
989.605	20.37242
989.775	62.52924
989.945	35.12624
990.115	11.94218
990.285	-0.70246
990.455	28.80304
990.625	41.44967
990.795	-17.56062
990.965	7.72721
991.134	49.88122
991.304	-53.37899
991.474	-19.66778
991.644	41.44967
991.814	58.31314
991.984	56.20513
992.153	60.42118
992.323	16.15725
992.493	-0.70246
992.662	7.72721
992.832	45.6654
993.002	-0.70246
993.171	49.88122
993.341	62.52924
993.511	-2.80981
993.68	47.77329
993.85	24.58768
994.019	60.42118
994.189	100.4782
994.358	54.09713
994.528	45.6654
994.697	11.94218
994.867	11.94218
995.036	30.91075
995.206	-11.23899
995.375	3.51233
995.544	11.94218
995.714	39.34183
995.883	11.94218
996.052	73.06989
996.222	39.34183
996.391	37.23403
996.56	81.50281
996.73	33.01848
996.899	66.74543
997.068	47.77329
997.237	28.80304
997.406	14.04971
997.576	-4.91714
997.745	9.83468
997.914	-25.98912
998.083	24.58768
998.252	81.50281
998.421	-63.91243
998.59	30.91075
998.759	30.91075
998.928	3.51233
999.097	75.17808
999.266	64.63732
999.435	-30.20322
999.604	62.52924
999.773	87.82774
999.942	30.91075
1000.111	68.85356
1000.28	20.37242
1000.448	33.01848
1000.617	96.26129
1000.786	81.50281
1000.955	28.80304
1001.124	39.34183
1001.292	26.69535
1001.461	16.15725
1001.63	87.82774
1001.798	-38.63112
1001.967	16.15725
1002.136	-4.91714
1002.304	121.56407
1002.473	47.77329
1002.642	-4.91714
1002.81	22.48004
1002.979	45.6654
1003.147	45.6654
1003.316	-4.91714
1003.484	16.15725
1003.653	1.40492
1003.821	-25.98912
1003.99	79.39455
1004.158	3.51233
1004.327	45.6654
1004.495	-28.09618
1004.663	62.52924
1004.832	70.96171
1005	5.61975
1005.168	81.50281
1005.337	-2.80981
1005.505	33.01848
1005.673	-0.70246
1005.842	41.44967
1006.01	-34.41722
1006.178	54.09713
1006.346	43.55752
1006.514	47.77329
1006.683	-21.77492
1006.851	28.80304
1007.019	24.58768
1007.187	28.80304
1007.355	58.31314
1007.523	73.06989
1007.691	37.23403
1007.859	45.6654
1008.027	64.63732
1008.195	-13.34623
1008.363	54.09713
1008.531	-21.77492
1008.699	-9.13173
1008.867	-9.13173
1009.035	47.77329
1009.203	-11.23899
1009.37	75.17808
1009.538	-28.09618
1009.706	11.94218
1009.874	-38.63112
1010.042	20.37242
1010.209	45.6654
1010.377	54.09713
1010.545	62.52924
1010.713	81.50281
1010.88	37.23403
1011.048	41.44967
1011.216	1.40492
1011.383	47.77329
1011.551	-2.80981
1011.718	64.63732
1011.886	-72.33872
1012.054	-13.34623
1012.221	14.04971
1012.389	7.72721
1012.556	33.01848
1012.724	47.77329
1012.891	37.23403
1013.058	-2.80981
1013.226	16.15725
1013.393	-21.77492
1013.561	-4.91714
1013.728	64.63732
1013.895	58.31314
1014.063	83.6111
1014.23	89.9361
1014.397	7.72721
1014.565	3.51233
1014.732	-25.98912
1014.899	75.17808
1015.066	89.9361
1015.233	-28.09618
1015.401	96.26129
1015.568	-53.37899
1015.735	28.80304
1015.902	-4.91714
1016.069	41.44967
1016.236	14.04971
1016.403	47.77329
1016.57	22.48004
1016.737	54.09713
1016.904	77.2863
1017.071	5.61975
1017.238	54.09713
1017.405	22.48004
1017.572	-21.77492
1017.739	-51.27223
1017.906	47.77329
1018.073	85.71941
1018.24	5.61975
1018.407	20.37242
1018.573	22.48004
1018.74	49.88122
1018.907	35.12624
1019.074	3.51233
1019.241	43.55752
1019.407	-13.34623
1019.574	-30.20322
1019.741	24.58768
1019.907	22.48004
1020.074	3.51233
1020.241	16.15725
1020.407	7.72721
1020.574	5.61975
1020.74	28.80304
1020.907	37.23403
1021.073	56.20513
1021.24	30.91075
1021.406	54.09713
1021.573	127.89025
1021.739	-9.13173
1021.906	45.6654
1022.072	-25.98912
1022.239	49.88122
1022.405	14.04971
1022.571	-11.23899
1022.738	54.09713
1022.904	-21.77492
1023.07	-28.09618
1023.237	-2.80981
1023.403	98.36974
1023.569	-34.41722
1023.735	16.15725
1023.902	5.61975
1024.068	-0.70246
1024.234	-15.45344
1024.4	-23.88203
1024.566	41.44967
1024.732	-68.12563
1024.898	30.91075
1025.065	22.48004
1025.231	70.96171
1025.397	3.51233
1025.563	-0.70246
1025.729	83.6111
1025.895	7.72721
1026.061	20.37242
1026.227	-4.91714
1026.392	7.72721
1026.558	-4.91714
1026.724	5.61975
1026.89	45.6654
1027.056	14.04971
1027.222	-7.02445
1027.388	1.40492
1027.553	16.15725
1027.719	41.44967
1027.885	3.51233
1028.051	30.91075
1028.216	16.15725
1028.382	-70.23219
1028.548	9.83468
1028.713	20.37242
1028.879	3.51233
1029.045	30.91075
1029.21	5.61975
1029.376	-47.05863
1029.541	28.80304
1029.707	70.96171
1029.873	-30.20322
1030.038	56.20513
1030.204	56.20513
1030.369	-17.56062
1030.534	-13.34623
1030.7	75.17808
1030.865	-47.05863
1031.031	41.44967
1031.196	83.6111
1031.361	-0.70246
1031.527	62.52924
1031.692	-2.80981
1031.857	11.94218
1032.023	-4.91714
1032.188	30.91075
1032.353	56.20513
1032.518	-36.52418
1032.684	64.63732
1032.849	22.48004
1033.014	-38.63112
1033.179	70.96171
1033.344	-15.45344
1033.509	70.96171
1033.674	3.51233
1033.839	3.51233
1034.004	30.91075
1034.17	22.48004
1034.335	11.94218
1034.5	-28.09618
1034.664	-30.20322
1034.829	11.94218
1034.994	39.34183
1035.159	3.51233
1035.324	37.23403
1035.489	54.09713
1035.654	-11.23899
1035.819	24.58768
1035.984	30.91075
1036.148	28.80304
1036.313	37.23403
1036.478	35.12624
1036.643	28.80304
1036.807	11.94218
1036.972	20.37242
1037.137	-9.13173
1037.301	3.51233
1037.466	26.69535
1037.631	-2.80981
1037.795	64.63732
1037.96	28.80304
1038.124	87.82774
1038.289	20.37242
1038.454	39.34183
1038.618	60.42118
1038.783	-4.91714
1038.947	-4.91714
1039.111	-9.13173
1039.276	39.34183
1039.44	-9.13173
1039.605	-30.20322
1039.769	11.94218
1039.933	47.77329
1040.098	37.23403
1040.262	-2.80981
1040.426	73.06989
1040.591	-13.34623
1040.755	35.12624
1040.919	39.34183
1041.083	28.80304
1041.248	5.61975
1041.412	-38.63112
1041.576	-28.09618
1041.74	-11.23899
1041.904	7.72721
1042.068	47.77329
1042.232	-28.09618
1042.397	58.31314
1042.561	41.44967
1042.725	54.09713
1042.889	7.72721
1043.053	14.04971
1043.217	-4.91714
1043.381	22.48004
1043.544	37.23403
1043.708	-53.37899
1043.872	43.55752
1044.036	-84.97739
1044.2	33.01848
1044.364	28.80304
1044.528	11.94218
1044.691	-2.80981
1044.855	11.94218
1045.019	14.04971
1045.183	28.80304
1045.346	-2.80981
1045.51	-28.09618
1045.674	-19.66778
1045.837	3.51233
1046.001	37.23403
1046.165	-32.31023
1046.328	11.94218
1046.492	-32.31023
1046.655	3.51233
1046.819	18.26482
1046.983	11.94218
1047.146	-4.91714
1047.31	16.15725
1047.473	5.61975
1047.636	62.52924
1047.8	62.52924
1047.963	-4.91714
1048.127	-13.34623
1048.29	64.63732
