Data from mixed_try1_USB4F045381__32__00136.txt Node

Date: Thu Apr 03 20:02:26 EDT 2025
User: mmckonesweet
Spectrometer: USB4F04538
Trigger mode: 4
Integration Time (sec): 2.700000E-3
Scans to average: 1
Electric dark correction enabled: true
Nonlinearity correction enabled: true
Boxcar width: 0
XAxis mode: Wavelengths
Number of Pixels in Spectrum: 3648
>>>>>Begin Spectral Data<<<<<
345.52	-17.20943
345.736	-17.20943
345.952	-17.20943
346.168	-69.8811
346.384	16.50851
346.6	-10.88778
346.816	-17.20943
347.032	-27.74501
347.248	-25.63794
347.464	18.61609
347.68	35.47754
347.896	46.01671
348.112	64.98867
348.328	-23.53085
348.544	-27.74501
348.76	35.47754
348.975	-67.77453
349.191	-23.53085
349.407	-23.53085
349.623	29.15432
349.839	-65.66794
350.055	-59.34802
350.27	14.40096
350.486	8.07845
350.702	43.90883
350.918	33.36978
351.133	-27.74501
351.349	-10.88778
351.565	27.04663
351.781	-2.45859
351.996	-27.74501
352.212	-25.63794
352.428	46.01671
352.644	-48.81431
352.859	-6.67324
353.075	-25.63794
353.291	64.98867
353.506	10.18593
353.722	-76.20064
353.938	22.83131
354.153	8.07845
354.369	16.50851
354.584	31.26204
354.8	-12.99502
355.016	109.26371
355.231	56.55646
355.447	35.47754
355.662	-50.9211
355.878	111.37229
356.093	102.93811
356.309	-44.60065
356.524	1.75615
356.74	-10.88778
356.955	-12.99502
357.171	48.12461
357.386	-0.35123
357.602	-19.31659
357.817	-17.20943
358.033	-2.45859
358.248	31.26204
358.464	27.04663
358.679	18.61609
358.895	1.75615
359.11	-10.88778
359.325	1.75615
359.541	-25.63794
359.756	67.09678
359.972	-2.45859
360.187	37.58533
360.402	-31.95906
360.618	1.75615
360.833	14.40096
361.048	-15.10224
361.264	1.75615
361.479	41.80097
361.694	64.98867
361.909	64.98867
362.125	14.40096
362.34	48.12461
362.555	77.63768
362.77	-23.53085
362.986	-10.88778
363.201	48.12461
363.416	-57.24133
363.631	-10.88778
363.847	-8.78052
364.062	100.82962
364.277	-2.45859
364.492	20.72369
364.707	24.93896
364.922	31.26204
365.138	69.20492
365.353	-15.10224
365.568	22.83131
365.783	39.69314
365.998	24.93896
366.213	-15.10224
366.428	31.26204
366.643	-53.02787
366.858	31.26204
367.073	115.58952
367.288	24.93896
367.503	58.66448
367.718	-8.78052
367.933	35.47754
368.148	50.23254
368.363	10.18593
368.578	31.26204
368.793	27.04663
369.008	22.83131
369.223	56.55646
369.438	-27.74501
369.653	-17.20943
369.868	22.83131
370.083	-34.06606
370.298	33.36978
370.513	41.80097
370.728	-17.20943
370.943	16.50851
371.157	16.50851
371.372	1.75615
371.587	90.28749
371.802	86.0708
372.017	50.23254
372.232	-8.78052
372.446	3.86356
372.661	8.07845
372.876	-4.56592
373.091	56.55646
373.306	69.20492
373.52	24.93896
373.735	-40.38689
373.95	-48.81431
374.165	39.69314
374.379	48.12461
374.594	-27.74501
374.809	-8.78052
375.023	-36.17303
375.238	-19.31659
375.453	1.75615
375.667	14.40096
375.882	16.50851
376.097	43.90883
376.311	-38.27997
376.526	46.01671
376.741	-61.45468
376.955	54.44846
377.17	8.07845
377.384	-23.53085
377.599	14.40096
377.813	16.50851
378.028	-2.45859
378.242	3.86356
378.457	22.83131
378.672	-59.34802
378.886	-6.67324
379.101	-69.8811
379.315	14.40096
379.53	18.61609
379.744	-8.78052
379.958	-40.38689
380.173	-42.49378
380.387	67.09678
380.602	-34.06606
380.816	22.83131
381.031	-21.42373
381.245	37.58533
381.459	39.69314
381.674	-12.99502
381.888	18.61609
382.103	60.77252
382.317	-40.38689
382.531	92.39587
382.746	83.96248
382.96	48.12461
383.174	56.55646
383.388	18.61609
383.603	75.52945
383.817	52.34049
384.031	-145.70005
384.246	62.88058
384.46	16.50851
384.674	5.97099
384.888	22.83131
385.103	22.83131
385.317	39.69314
385.531	37.58533
385.745	10.18593
385.959	10.18593
386.174	14.40096
386.388	10.18593
386.602	-4.56592
386.816	-27.74501
387.03	24.93896
387.244	27.04663
387.458	54.44846
387.672	1.75615
387.887	39.69314
388.101	41.80097
388.315	31.26204
388.529	31.26204
388.743	31.26204
388.957	39.69314
389.171	14.40096
389.385	10.18593
389.599	88.17913
389.813	16.50851
390.027	-34.06606
390.241	75.52945
390.455	24.93896
390.669	35.47754
390.883	-36.17303
391.097	56.55646
391.311	-57.24133
391.525	16.50851
391.738	-10.88778
391.952	27.04663
392.166	41.80097
392.38	90.28749
392.594	46.01671
392.808	-50.9211
393.022	10.18593
393.236	41.80097
393.449	58.66448
393.663	81.85419
393.877	35.47754
394.091	-10.88778
394.305	52.34049
394.518	-19.31659
394.732	88.17913
394.946	31.26204
395.16	48.12461
395.373	-53.02787
395.587	48.12461
395.801	29.15432
396.015	14.40096
396.228	-6.67324
396.442	-2.45859
396.656	73.42125
396.869	-2.45859
397.083	77.63768
397.297	22.83131
397.51	12.29343
397.724	-21.42373
397.938	39.69314
398.151	92.39587
398.365	-23.53085
398.578	86.0708
398.792	-8.78052
399.005	56.55646
399.219	-25.63794
399.433	109.26371
399.646	27.04663
399.86	-8.78052
400.073	-90.94533
400.287	41.80097
400.5	75.52945
400.714	67.09678
400.927	18.61609
401.141	-12.99502
401.354	109.26371
401.567	86.0708
401.781	1.75615
401.994	8.07845
402.208	22.83131
402.421	22.83131
402.635	16.50851
402.848	24.93896
403.061	90.28749
403.275	46.01671
403.488	48.12461
403.701	24.93896
403.915	-2.45859
404.128	77.63768
404.341	-8.78052
404.555	5.97099
404.768	43.90883
404.981	98.72115
405.195	-48.81431
405.408	31.26204
405.621	-0.35123
405.834	39.69314
406.048	48.12461
406.261	16.50851
406.474	1.75615
406.687	31.26204
406.9	-55.13461
407.114	52.34049
407.327	27.04663
407.54	8.07845
407.753	52.34049
407.966	-10.88778
408.179	-17.20943
408.392	16.50851
408.605	-0.35123
408.819	41.80097
409.032	-36.17303
409.245	-6.67324
409.458	31.26204
409.671	58.66448
409.884	-19.31659
410.097	16.50851
410.31	31.26204
410.523	1.75615
410.736	41.80097
410.949	-2.45859
411.162	22.83131
411.375	39.69314
411.588	77.63768
411.801	46.01671
412.014	8.07845
412.227	37.58533
412.44	3.86356
412.653	31.26204
412.865	56.55646
413.078	39.69314
413.291	-17.20943
413.504	22.83131
413.717	31.26204
413.93	54.44846
414.143	24.93896
414.356	1.75615
414.568	16.50851
414.781	-6.67324
414.994	24.93896
415.207	-0.35123
415.42	27.04663
415.632	20.72369
415.845	22.83131
416.058	-61.45468
416.271	64.98867
416.483	69.20492
416.696	43.90883
416.909	22.83131
417.121	60.77252
417.334	-48.81431
417.547	-15.10224
417.759	56.55646
417.972	56.55646
418.185	-10.88778
418.397	3.86356
418.61	31.26204
418.823	39.69314
419.035	-25.63794
419.248	86.0708
419.46	8.07845
419.673	-10.88778
419.885	-0.35123
420.098	18.61609
420.311	5.97099
420.523	22.83131
420.736	-17.20943
420.948	-2.45859
421.161	157.7665
421.373	94.50427
421.586	-10.88778
421.798	98.72115
422.01	-10.88778
422.223	5.97099
422.435	-15.10224
422.648	-19.31659
422.86	-4.56592
423.073	56.55646
423.285	-19.31659
423.497	24.93896
423.71	43.90883
423.922	10.18593
424.134	-19.31659
424.347	-27.74501
424.559	5.97099
424.771	14.40096
424.984	18.61609
425.196	-12.99502
425.408	31.26204
425.621	12.29343
425.833	56.55646
426.045	1.75615
426.257	50.23254
426.47	43.90883
426.682	64.98867
426.894	43.90883
427.106	-25.63794
427.318	-17.20943
427.531	14.40096
427.743	-65.66794
427.955	64.98867
428.167	-8.78052
428.379	-12.99502
428.591	35.47754
428.804	46.01671
429.016	29.15432
429.228	41.80097
429.44	90.28749
429.652	52.34049
429.864	64.98867
430.076	48.12461
430.288	-6.67324
430.5	39.69314
430.712	41.80097
430.924	1.75615
431.136	-17.20943
431.348	75.52945
431.56	33.36978
431.772	14.40096
431.984	-0.35123
432.196	52.34049
432.408	35.47754
432.62	77.63768
432.832	16.50851
433.044	10.18593
433.256	8.07845
433.468	1.75615
433.679	48.12461
433.891	71.31307
434.103	50.23254
434.315	8.07845
434.527	62.88058
434.739	46.01671
434.95	31.26204
435.162	-27.74501
435.374	83.96248
435.586	50.23254
435.798	27.04663
436.009	-40.38689
436.221	60.77252
436.433	56.55646
436.645	64.98867
436.856	-0.35123
437.068	-15.10224
437.28	12.29343
437.491	33.36978
437.703	12.29343
437.915	35.47754
438.126	56.55646
438.338	88.17913
438.55	64.98867
438.761	67.09678
438.973	52.34049
439.184	86.0708
439.396	98.72115
439.608	39.69314
439.819	20.72369
440.031	-40.38689
440.242	-8.78052
440.454	20.72369
440.665	35.47754
440.877	56.55646
441.088	81.85419
441.3	33.36978
441.511	67.09678
441.723	-2.45859
441.934	27.04663
442.146	92.39587
442.357	14.40096
442.569	64.98867
442.78	-10.88778
442.991	48.12461
443.203	-8.78052
443.414	52.34049
443.626	54.44846
443.837	79.74592
444.048	-17.20943
444.26	50.23254
444.471	77.63768
444.682	73.42125
444.894	111.37229
445.105	64.98867
445.316	24.93896
445.528	31.26204
445.739	58.66448
445.95	73.42125
446.161	14.40096
446.373	115.58952
446.584	60.77252
446.795	-44.60065
447.006	48.12461
447.217	69.20492
447.429	62.88058
447.64	35.47754
447.851	69.20492
448.062	5.97099
448.273	64.98867
448.484	22.83131
448.695	35.47754
448.907	31.26204
449.118	90.28749
449.329	-0.35123
449.54	-19.31659
449.751	90.28749
449.962	73.42125
450.173	52.34049
450.384	-21.42373
450.595	58.66448
450.806	50.23254
451.017	27.04663
451.228	60.77252
451.439	35.47754
451.65	14.40096
451.861	10.18593
452.072	-19.31659
452.283	14.40096
452.494	46.01671
452.705	48.12461
452.915	73.42125
453.126	48.12461
453.337	-2.45859
453.548	77.63768
453.759	43.90883
453.97	31.26204
454.181	52.34049
454.391	-25.63794
454.602	126.13296
454.813	100.82962
455.024	98.72115
455.235	18.61609
455.445	157.7665
455.656	-17.20943
455.867	-57.24133
456.078	69.20492
456.288	35.47754
456.499	43.90883
456.71	52.34049
456.921	86.0708
457.131	31.26204
457.342	64.98867
457.553	48.12461
457.763	115.58952
457.974	75.52945
458.184	64.98867
458.395	-8.78052
458.606	8.07845
458.816	56.55646
459.027	5.97099
459.237	43.90883
459.448	94.50427
459.659	5.97099
459.869	73.42125
460.08	64.98867
460.29	100.82962
460.501	88.17913
460.711	81.85419
460.922	92.39587
461.132	24.93896
461.343	100.82962
461.553	14.40096
461.764	119.80683
461.974	56.55646
462.184	8.07845
462.395	69.20492
462.605	67.09678
462.816	119.80683
463.026	35.47754
463.236	22.83131
463.447	41.80097
463.657	98.72115
463.867	73.42125
464.078	81.85419
464.288	52.34049
464.498	73.42125
464.709	64.98867
464.919	98.72115
465.129	96.6127
465.339	-25.63794
465.55	16.50851
465.76	3.86356
465.97	64.98867
466.18	81.85419
466.391	113.4809
466.601	79.74592
466.811	98.72115
467.021	73.42125
467.231	86.0708
467.441	31.26204
467.651	-12.99502
467.862	56.55646
468.072	41.80097
468.282	48.12461
468.492	81.85419
468.702	58.66448
468.912	48.12461
469.122	50.23254
469.332	136.67694
469.542	69.20492
469.752	83.96248
469.962	56.55646
470.172	69.20492
470.382	143.00359
470.592	107.15516
470.802	43.90883
471.012	52.34049
471.222	128.24171
471.432	107.15516
471.642	69.20492
471.852	64.98867
472.062	111.37229
472.272	140.89469
472.482	138.7858
472.691	115.58952
472.901	159.87558
473.111	172.53045
473.321	121.91552
473.531	143.00359
473.741	166.20292
473.95	174.63967
474.16	117.69816
474.37	115.58952
474.58	183.07674
474.79	132.45929
474.999	132.45929
475.209	161.98467
475.419	140.89469
475.628	212.60907
475.838	161.98467
476.048	90.28749
476.258	233.70599
476.467	193.62355
476.677	157.7665
476.886	204.17086
477.096	174.63967
477.306	252.69488
477.515	225.26699
477.725	221.0476
477.935	168.31207
478.144	216.8283
478.354	275.90563
478.563	263.24494
478.773	145.11251
478.982	267.46509
479.192	278.01581
479.401	307.56028
479.611	271.68532
479.82	246.36508
480.03	166.20292
480.239	309.67074
480.449	263.24494
480.658	284.34646
480.868	320.22329
481.077	419.43842
481.287	311.78121
481.496	389.88109
481.705	242.1453
481.915	383.5478
482.124	375.10364
482.333	385.65888
482.543	351.8836
482.752	478.56239
482.961	499.68099
483.171	370.88166
483.38	385.65888
483.589	569.38248
483.799	377.21465
484.008	463.78027
484.217	423.66115
484.426	552.48376
484.636	404.65936
484.845	601.06987
485.054	537.6981
485.263	558.82068
485.472	531.3616
485.682	453.22206
485.891	567.2701
486.1	575.71972
486.309	624.30913
486.518	689.80952
486.727	632.76015
486.936	626.42187
487.146	632.76015
487.355	723.62049
487.564	746.86714
487.773	757.43422
487.982	725.73377
488.191	789.13696
488.4	740.52702
488.609	744.75376
488.818	719.39397
489.027	833.52443
489.236	909.62625
489.445	850.435
489.654	820.84188
489.863	888.48578
490.072	850.435
490.281	928.65334
490.49	911.74035
490.698	1019.56848
490.907	1053.40037
491.116	956.13798
491.325	947.68104
491.534	1070.31686
491.743	1036.48424
491.952	1066.0877
492.16	1091.46294
492.369	1176.05198
492.578	977.28082
492.787	1279.6816
492.996	1102.03617
493.204	1250.07242
493.413	1154.90408
493.622	1233.15312
493.831	1231.03822
494.039	1216.23401
494.248	1097.80687
494.457	1309.29123
494.665	1298.71631
494.874	1408.6973
495.083	1343.13127
495.291	1573.67049
495.5	1476.37892
495.709	1417.15749
495.917	1450.9983
496.126	1431.96284
496.335	1527.13999
496.543	1518.67984
496.752	1484.83912
496.96	1457.34346
497.169	1548.29029
497.377	1605.39541
497.586	1611.74035
497.794	1704.79696
498.003	1740.74914
498.211	1732.28989
498.42	1715.37123
498.628	1588.4755
498.837	1601.16545
499.045	1747.09354
499.254	1734.40471
499.462	1905.69114
499.671	1774.58555
499.879	1907.80559
500.087	1808.42094
500.296	1899.34776
500.504	1740.74914
500.713	1941.63603
500.921	1905.69114
501.129	2036.77582
501.338	1933.17855
501.546	1950.09341
501.754	1899.34776
501.962	1988.15042
502.171	1907.80559
502.379	2191.0833
502.587	2114.99156
502.795	2155.15239
503.004	2091.73927
503.212	2199.53728
503.42	2043.118
503.628	2231.23848
503.837	2021.97715
504.045	2400.27641
504.253	2254.48478
504.461	2205.87767
504.669	2144.58402
504.877	2313.65216
505.085	2273.50366
505.294	2469.98572
505.502	2488.9953
505.71	2383.37545
505.918	2250.25826
506.126	2501.66784
506.334	2398.16383
506.542	2624.14757
506.75	2347.45874
506.958	2406.6141
507.166	2349.57157
507.374	2465.76125
507.582	2442.52587
507.79	2710.70323
507.998	2491.10742
508.206	2662.15024
508.414	2674.81689
508.622	2727.58963
508.83	2562.91268
509.037	2930.15822
509.245	2486.88317
509.453	2839.44029
509.661	2691.70505
509.869	2818.33933
510.077	2600.92174
510.285	2727.58963
510.492	2702.25972
510.7	2822.55963
510.908	2676.92796
511.116	2930.15822
511.324	2736.03251
511.531	2951.25157
511.739	2695.92696
511.947	2879.52823
512.155	2989.21585
512.362	2991.32484
512.57	2919.611
512.778	2932.26763
512.985	2898.51545
513.193	3086.21326
513.401	2930.15822
513.608	2997.6517
513.816	3012.41384
514.024	3048.26164
514.231	3073.56328
514.439	3172.63942
514.646	3124.15976
514.854	3208.46666
515.061	2978.67071
515.269	3294.85378
515.477	2974.45254
515.684	3334.87716
515.892	3048.26164
516.099	3301.17367
516.307	3225.3249
516.514	3334.87716
516.722	3292.74711
516.929	3532.79418
517.136	3267.46581
517.344	3402.27081
517.551	3225.3249
517.759	3395.95342
517.966	3372.7883
518.173	3465.43593
518.381	3410.69376
518.588	3438.06635
518.796	3471.75156
519.003	3726.34312
519.21	3621.17327
519.418	3518.06116
519.625	3435.96088
519.832	3699.00355
520.039	3494.90746
520.247	3911.32402
520.454	3545.42177
520.661	3820.95472
520.868	3797.8311
521.076	3640.10735
521.283	3797.8311
521.49	3881.90551
521.697	3646.41837
521.904	3877.70255
522.112	3886.1084
522.319	3993.25472
522.526	3646.41837
522.733	3957.54514
522.94	3932.33483
523.147	3856.68652
523.354	4052.05761
523.561	4207.38678
523.768	4026.85834
523.975	4054.15741
524.183	3900.81786
524.39	4052.05761
524.597	4161.21984
524.804	4203.19021
525.011	4010.05719
525.218	4159.1211
525.425	4159.1211
525.632	4045.75807
525.838	4249.34782
526.045	4285.00798
526.252	4182.20608
526.459	4542.83313
526.666	4234.66242
526.873	4454.83248
527.08	4459.02387
527.287	4415.00992
527.494	4245.1521
527.701	4599.38433
527.907	4096.14914
528.114	4614.04311
528.321	4331.14723
528.528	4511.4088
528.735	4532.3589
528.941	4670.57382
529.148	4425.49031
529.355	4555.40146
529.562	4563.77991
529.768	4664.29343
529.975	4324.85613
530.182	4670.57382
530.388	4645.45107
530.595	4773.12468
530.802	4563.77991
531.008	4678.94734
531.215	4840.0673
531.422	4863.07344
531.628	4649.63842
531.835	4842.15889
532.042	4611.94906
532.248	5203.65624
532.455	4785.67819
532.661	5007.32143
532.868	4896.53198
533.074	4894.441
533.281	4917.44059
533.487	5101.33709
533.694	4965.52168
533.9	5255.83834
534.107	5080.44877
534.313	5113.86896
534.52	4959.25093
534.726	5097.15961
534.933	5155.63584
535.139	5343.47138
535.345	5312.17861
535.552	5422.72278
535.758	5097.15961
535.965	5381.01574
536.171	5191.13037
536.377	5280.88057
536.584	5257.92532
536.79	5316.35128
536.996	5320.52386
537.203	5460.25107
537.409	5335.12715
537.615	5462.33576
537.821	5372.6732
538.028	5533.20094
538.234	5629.03403
538.44	5470.67425
538.646	5376.84452
538.853	5445.65764
539.059	5554.03847
539.265	5701.91708
539.471	5468.58966
539.677	5847.59645
539.883	5820.55045
540.09	5724.81721
540.296	5651.94325
540.502	5839.27503
540.708	5699.83511
540.914	5976.53019
541.12	5672.76733
541.326	6032.65043
541.532	5839.27503
541.738	6097.06361
541.944	5741.47006
542.15	5976.53019
542.356	5972.37245
542.562	6138.60851
542.768	5901.67648
542.974	6124.06886
543.18	5914.15422
543.386	6178.06745
543.592	6146.91636
543.798	6175.99088
544.004	6178.06745
544.21	6441.60225
544.415	5941.18641
544.621	6381.45819
544.827	5993.1602
545.033	6398.05161
545.239	6051.35336
545.445	6395.97752
545.651	6358.63981
545.856	6387.6809
546.062	6462.33704
546.268	6418.79129
546.474	6337.89337
546.679	6431.23398
546.885	6302.61906
547.091	6433.30768
547.297	6246.58127
547.502	6454.0434
547.708	6398.05161
547.914	6472.70356
548.119	6665.41538
548.325	6735.8194
548.531	6202.98452
548.736	6549.39781
548.942	6539.03558
549.147	6570.12054
549.353	6495.50787
549.559	6754.45132
549.764	6565.97618
549.97	6785.50041
550.175	6799.98822
550.381	7025.44061
550.586	6698.54999
550.792	6994.43099
550.997	6686.1252
551.203	6812.40546
551.408	6561.83173
551.614	6876.54812
551.819	6729.60835
552.025	6988.22846
552.23	6862.0662
552.435	6897.23464
552.641	7091.5776
552.846	7219.65302
553.052	7077.1121
553.257	7287.78747
553.462	7062.64549
553.668	7353.83438
553.873	7008.90278
554.078	7324.94162
554.283	7223.78306
554.489	7380.65954
554.694	7039.91004
554.899	7174.21668
555.105	7157.69171
555.31	7260.94949
555.515	7207.26235
555.72	7669.31441
555.925	7403.35487
556.131	7630.16444
556.336	7157.69171
556.541	7564.21027
556.746	7244.43196
556.951	7438.4243
557.156	7395.10233
557.361	7566.27167
557.567	7368.27915
557.772	7492.0478
557.977	7479.67444
558.182	7522.97779
558.387	7681.67597
558.592	7652.83115
558.797	7529.16321
559.002	7819.66196
559.207	7355.89798
559.412	7786.71863
559.617	7512.66833
559.822	7762.00762
560.027	7520.91595
560.232	7805.24991
560.437	7339.38853
560.642	7801.13199
560.847	7533.28672
561.051	7885.53265
561.256	7871.12525
561.461	8072.73741
561.666	7685.79633
561.871	7722.87569
562.076	7601.31218
562.281	7856.71683
562.485	7858.77524
562.69	8074.79367
562.895	7591.00678
563.1	7782.60034
563.305	7632.22515
563.509	8019.26756
563.714	7694.03678
563.919	7967.8413
564.123	7780.54116
564.328	7974.01312
564.533	7885.53265
564.737	7951.38219
564.942	7947.26721
565.147	8138.52774
565.351	8043.94766
565.556	8130.30507
565.761	7912.28657
565.965	8321.3999
566.17	7936.97941
566.374	7990.47042
566.579	8122.08208
566.784	8105.63515
566.988	8346.0449
567.193	8280.31864
567.397	8078.90613
567.602	8350.15213
567.806	8015.15393
568.011	8452.80768
568.215	8157.02757
568.42	8265.93834
568.624	8220.73685
568.828	8278.26437
569.033	8253.61161
569.237	8343.99126
569.442	8274.15577
569.646	8434.33324
569.85	8294.69797
570.055	8657.97586
570.259	8370.68711
570.463	8376.84722
570.668	8343.99126
570.872	8491.8042
571.076	8228.95602
571.281	8541.05313
571.485	8430.2276
571.689	8737.94079
571.893	8645.67106
572.098	8686.68445
572.302	8512.32592
572.506	8518.48206
572.71	8483.59498
572.914	8746.14074
573.119	8616.95727
573.323	8686.68445
573.527	8516.43003
573.731	8942.85251
573.935	8653.87433
574.139	8770.73883
574.343	8582.08559
574.547	8824.02569
574.751	8893.69009
574.955	8918.27259
575.159	8742.0408
575.364	8805.58163
575.568	8780.98726
575.772	8869.10503
575.976	8946.94892
576.18	8883.44663
576.383	8987.90909
576.587	8963.33384
576.791	8623.11053
576.995	8916.22414
577.199	8912.1272
577.403	8969.47789
577.607	8996.10028
577.811	9184.42089
578.015	8910.07871
578.219	9030.90971
578.422	9002.24349
578.626	9266.25429
578.83	9073.90262
579.034	9178.2823
579.238	8830.17339
579.442	9180.32851
579.645	9292.84437
579.849	9178.2823
580.053	9442.10601
580.257	9319.43163
580.46	9311.25123
580.664	9397.13224
580.868	9135.30783
581.071	9384.8653
581.275	9123.02803
581.479	9321.47669
581.682	9458.45817
581.886	9470.72161
582.09	9474.80929
582.293	9599.45303
582.497	9495.24675
582.7	9687.28152
582.904	9521.81306
583.107	9770.99846
583.311	9472.76546
583.515	9576.98064
583.718	9362.37437
583.922	9542.24684
584.125	9507.50846
584.329	9574.93761
584.532	9388.95434
584.735	9556.54955
584.939	9487.07196
585.142	9572.89455
585.346	9397.13224
585.549	9866.93541
585.753	9842.44401
585.956	9760.79045
586.159	9795.49615
586.363	9871.01711
586.566	9813.86799
586.769	9901.62792
586.973	9871.01711
587.176	9817.95046
587.379	9834.27973
587.582	9919.99282
587.786	9842.44401
587.989	9997.5205
588.192	9924.07375
588.395	10013.83946
588.599	9960.79947
588.802	10242.21011
589.005	10130.08568
589.208	9981.20062
589.411	9924.07375
589.615	9809.78546
589.818	9999.56042
590.021	10093.3813
590.224	9879.18031
590.427	10081.1455
590.63	10068.90919
590.833	10095.42056
591.036	10042.39543
591.239	10270.74427
591.442	10313.54055
591.645	10407.26431
591.848	10195.32678
592.051	10423.56126
592.254	10291.12419
592.457	10327.80467
592.66	9956.71907
592.863	10631.27564
593.066	10635.34717
593.269	10676.05975
593.472	10437.8204
593.675	10830.72364
593.878	10411.33862
594.081	10657.73969
594.284	10494.85067
594.486	10855.13802
594.689	10470.41036
594.892	10800.20329
595.095	10655.70407
595.298	10840.8965
595.5	10623.13244
595.703	10625.16826
595.906	10598.70164
596.109	10610.91726
596.311	10830.72364
596.514	10747.29509
596.717	10883.61936
596.92	10952.779
597.122	10667.91762
597.325	10812.41175
597.528	10649.59713
597.73	10767.64535
597.933	10714.73219
598.136	10987.35392
598.338	10722.8732
598.541	10958.88069
598.743	10861.24135
598.946	10944.64325
599.148	10983.28645
599.351	11166.27919
599.554	10897.85919
599.756	11013.79138
599.959	11141.8852
600.161	11042.26041
600.363	11015.82496
600.566	11052.4274
600.768	11028.02617
600.971	11172.37744
601.173	10910.0643
601.376	11156.11521
601.578	11219.12761
601.78	11119.52271
601.983	11292.29076
602.185	11097.15892
602.388	11137.81939
602.59	11227.2575
602.792	11089.0263
602.995	11233.35482
603.197	11141.8852
603.399	11271.969
603.601	10993.45504
603.804	11229.28995
604.006	11162.21363
604.208	11231.32239
604.41	11282.13
604.613	11302.45126
604.815	11446.70342
605.017	11371.53599
605.219	11113.42362
605.421	11399.9793
605.623	11164.24641
605.826	11462.95408
606.028	11330.89932
606.23	11523.88862
606.432	11389.82119
606.634	11741.15392
606.836	11377.63114
607.038	11341.05886
607.24	11300.41918
607.442	11345.12261
607.644	11375.59944
607.846	11546.22915
608.048	11129.68764
608.25	11631.51901
608.452	11440.60926
608.654	11751.304
608.856	11306.51539
609.058	11511.7024
609.26	11515.76451
609.462	11450.76614
609.664	11651.82374
609.866	11635.58003
610.067	11629.48849
610.269	11682.27915
610.471	11566.53774
610.673	11615.27458
610.875	11495.45357
611.077	11446.70342
611.278	11402.01089
611.48	11611.21337
611.682	11339.02697
611.884	11846.70417
612.085	11680.24885
612.287	11783.78278
612.489	11300.41918
612.69	11848.73376
612.892	11659.94538
613.094	11820.31878
613.295	11489.3601
613.497	11625.42742
613.699	11408.1056
613.9	11915.70544
614.102	11950.2025
614.304	11842.64498
614.505	11513.73346
614.707	11791.90213
614.908	11601.06021
615.11	11822.34848
615.311	11706.64203
615.513	11641.67149
615.714	11529.9816
615.916	11852.79291
616.117	11617.30516
616.319	11800.02135
616.52	11787.84247
616.722	11895.41195
616.923	11684.30944
617.124	11938.02734
617.326	11460.92278
617.527	11832.49683
617.729	11800.02135
617.93	11942.08576
618.131	11812.19991
618.333	11804.0809
618.534	11832.49683
618.735	11795.96176
618.937	11836.55611
619.138	12002.9582
619.339	11818.28907
619.54	11812.19991
619.742	11919.76404
619.943	12025.2763
620.144	11860.9111
620.345	11927.88114
620.546	11806.11067
620.748	12061.79478
620.949	11795.96176
621.15	11722.88324
621.351	11773.6334
621.552	12055.70854
621.753	11678.21855
621.954	12112.51072
622.155	11611.21337
622.356	11972.52288
622.558	11911.64681
622.759	11978.61009
622.96	11854.82247
623.161	11769.57359
623.362	11804.0809
623.563	12244.35018
623.764	11826.40784
623.965	12082.08173
624.166	12025.2763
624.366	11814.22964
624.567	12041.50705
624.768	12031.36289
624.969	11810.17017
625.17	12215.95662
625.371	11856.85202
625.572	12130.76729
625.773	12017.16074
625.973	12094.25353
626.174	11984.69723
626.375	12412.65501
626.576	11877.14709
626.777	12120.62483
626.977	11875.11762
627.178	12130.76729
627.379	12031.36289
627.58	12268.68639
627.78	11950.2025
627.981	12120.62483
628.182	12071.93835
628.382	12463.34002
628.583	12293.02158
628.784	12280.85412
628.984	11895.41195
629.185	12215.95662
629.386	11992.8133
629.586	12226.09734
629.787	12112.51072
629.987	12193.64639
630.188	12329.52246
630.388	12301.13309
630.589	12065.85223
630.79	12284.90997
630.99	12047.59345
631.191	12288.96579
631.391	12469.42195
631.591	12325.46692
631.792	12276.79824
631.992	12457.25804
632.193	12284.90997
632.393	12430.90209
632.594	12230.15358
632.794	12349.79975
632.994	12424.81979
633.195	12530.23799
633.395	12187.56163
633.595	12629.55862
633.796	12357.91048
633.996	12453.20335
634.196	12295.04947
634.397	12449.14864
634.597	12278.82618
634.797	12505.91227
634.997	12445.09389
635.198	12615.37087
635.398	12329.52246
635.598	12807.89422
635.798	12213.92845
635.998	12503.88508
636.199	12542.40051
636.399	12453.20335
636.599	12374.13159
636.799	12617.39771
636.999	12422.79234
637.199	12451.176
637.399	12173.36359
637.599	12534.29219
637.799	12246.37824
637.999	12633.61221
638.199	12511.99379
638.399	12639.69255
638.599	12680.22675
638.799	12858.54971
638.999	12712.65241
639.199	12619.42454
639.399	12465.36734
639.599	12534.29219
639.799	12343.71664
639.999	12710.62585
640.199	12483.61288
640.399	12653.87979
640.599	12140.90957
640.799	13069.24118
640.998	12969.97999
641.198	12803.84163
641.398	12803.84163
641.598	12696.43977
641.798	12690.35993
641.997	12550.50872
642.197	12676.17344
642.397	12992.26416
642.597	12453.20335
642.796	12919.33183
642.996	12785.6047
643.196	12730.89118
643.395	12550.50872
643.595	12813.97306
643.795	12868.6804
643.994	13103.67599
644.194	12838.28792
644.394	13046.95909
644.593	12901.0977
644.793	13290.00596
644.992	12998.34155
645.192	12822.0781
645.392	12747.10303
645.591	12858.54971
645.791	13087.47154
645.99	12945.66928
646.19	12957.82472
646.389	13263.679
646.589	13121.90562
646.788	13105.70152
646.987	12803.84163
647.187	13393.28182
647.386	12980.10923
647.586	12741.02363
647.785	12943.64335
647.984	13267.72935
648.184	13111.77809
648.383	12988.21253
648.582	13097.59936
648.782	13028.72785
648.981	12939.59148
649.18	12909.20181
649.38	13263.679
649.579	13206.97229
649.778	13174.56689
649.977	13368.98257
650.177	13223.17456
650.376	13324.43244
650.575	12882.86314
650.774	13279.88029
650.973	13156.33834
651.173	12996.31576
651.372	13097.59936
651.571	13235.32608
651.77	12899.07166
651.969	13249.50264
652.168	13004.4189
652.367	13294.05619
652.566	13115.82912
652.765	13164.43997
652.964	13312.28205
653.163	13322.40738
653.362	13474.27522
653.561	13219.12402
653.76	13190.76974
653.959	13146.21121
654.158	13204.94699
654.357	13326.45748
654.556	13048.98476
654.755	13334.55764
654.954	13101.65045
655.153	13168.49075
655.352	13409.48099
655.551	13117.85463
655.749	13350.75775
655.948	13603.85227
656.147	13447.95304
656.346	13371.00753
656.545	13040.88205
656.743	13227.22508
656.942	13243.427
657.141	13059.11303
657.34	13204.94699
657.538	13121.90562
657.737	13152.28751
657.936	13763.77968
658.135	13389.23198
658.333	13573.48396
658.532	13383.1572
658.731	13543.11486
658.929	13257.60344
659.128	13393.28182
659.326	13298.10641
659.525	13885.23075
659.724	13468.20093
659.922	13464.15138
660.121	13595.75413
660.319	13468.20093
660.518	13125.9566
660.716	13174.56689
660.915	13198.87105
661.113	13553.23798
661.312	13470.22569
661.51	13745.56111
661.709	13609.92584
661.907	13559.31181
662.105	13476.29998
662.304	13887.25484
662.502	13480.34948
662.701	13727.34228
662.899	13460.10182
663.097	13389.23198
663.296	13458.07703
663.494	13427.70477
663.692	13522.86835
663.891	13605.8768
664.089	13308.23189
664.287	13553.23798
664.485	13535.0163
664.684	13668.63544
664.882	13652.43997
665.08	13595.75413
665.278	13547.16412
665.476	13520.84368
665.675	13304.18171
665.873	13786.0465
666.071	13680.7819
666.269	13387.20706
666.467	13620.04839
666.665	13901.42345
666.863	13302.15662
667.061	13668.63544
667.259	13557.28721
667.457	13648.39106
667.655	13492.49789
667.853	13565.38561
668.051	13502.62147
668.249	13591.70504
668.447	13494.52262
668.645	13664.58659
668.843	13454.02745
669.041	13385.18213
669.239	13387.20706
669.437	13437.82895
669.635	13571.45938
669.833	13719.24494
670.031	13510.72026
670.229	13779.97377
670.426	13535.0163
670.624	13624.09738
670.822	13593.72959
671.02	13713.17191
671.218	13583.60682
671.415	13597.77867
671.613	13257.60344
671.811	13701.02575
672.009	13502.62147
672.206	13573.48396
672.404	13618.02388
672.602	13354.80774
672.799	13482.37422
672.997	13555.2626
673.195	13346.70775
673.392	13532.99165
673.59	13304.18171
673.788	13532.99165
673.985	13160.38917
674.183	13458.07703
674.38	13227.22508
674.578	13237.35131
674.775	13093.54825
674.973	13366.95761
675.17	13563.36102
675.368	13312.28205
675.565	13364.93264
675.763	13375.05744
675.96	13241.40177
676.158	13464.15138
676.355	13105.70152
676.553	13607.90132
676.75	13263.679
676.947	13551.21337
677.145	13508.69557
677.342	13377.08238
677.539	13150.26208
677.737	13275.82999
677.934	13069.24118
678.131	13267.72935
678.329	13184.6937
678.526	13338.60769
678.723	13514.76964
678.92	13611.95036
679.118	13385.18213
679.315	13522.86835
679.512	13285.9557
679.709	13458.07703
679.906	13182.66835
680.104	13474.27522
680.301	13356.83273
680.498	13437.82895
680.695	13314.30713
680.892	13486.4237
681.089	13249.50264
681.286	13251.52785
681.483	13055.06174
681.68	13516.79432
681.877	13237.35131
682.075	13298.10641
682.272	13063.1643
682.469	13563.36102
682.665	13174.56689
682.862	13208.99759
683.059	13040.88205
683.256	13298.10641
683.453	13063.1643
683.65	13024.67641
683.847	13415.55562
684.044	13211.02288
684.241	12986.18672
684.438	13186.71905
684.635	13247.47743
684.831	13306.2068
685.028	13053.03608
685.225	13198.87105
685.422	12929.46172
685.619	13158.36376
685.815	12919.33183
686.012	13020.62494
686.209	13109.75258
686.405	13290.00596
686.602	13006.44467
686.799	12882.86314
686.996	12862.602
687.192	13053.03608
687.389	12931.48769
687.586	12949.72111
687.782	12801.81533
687.979	13095.5738
688.175	12949.72111
688.372	13089.49712
688.568	12876.78485
688.765	12670.09343
688.962	13225.19982
689.158	12886.9153
689.355	12915.27984
689.551	12899.07166
689.748	12749.12948
689.944	13109.75258
690.14	12524.15665
690.337	12757.23525
690.533	13028.72785
690.73	13053.03608
690.926	13055.06174
691.123	13073.29241
691.319	13168.49075
691.515	13200.89637
691.712	12986.18672
691.908	12965.92825
692.104	12639.69255
692.301	12840.31413
692.497	12941.61742
692.693	13075.31801
692.889	12943.64335
693.086	12736.97067
693.282	12647.79958
693.478	12714.67896
693.674	12603.2097
693.87	12773.4465
694.067	12659.95995
694.263	12998.34155
694.459	12651.85306
694.655	12716.70551
694.851	12911.22783
695.047	12757.23525
695.243	12734.94418
695.439	12836.26172
695.635	12741.02363
695.831	12566.72486
696.027	12607.26345
696.224	12860.57586
696.42	12493.74906
696.615	12690.35993
696.811	12736.97067
697.007	12899.07166
697.203	12809.9205
697.399	12850.44506
697.595	12524.15665
697.791	12779.52563
697.987	12811.94678
698.183	12856.52356
698.379	12714.67896
698.575	12787.63105
698.77	12424.81979
698.966	12743.0501
699.162	12451.176
699.358	12842.34032
699.554	12538.34636
699.749	12959.85061
699.945	12741.02363
700.141	12633.61221
700.337	12343.71664
700.532	12647.79958
700.728	12439.01173
700.924	12595.10213
701.119	12335.60572
701.315	12161.19355
701.511	12481.58562
701.706	12753.18238
701.902	12402.5175
702.097	12540.37344
702.293	12260.57444
702.489	12601.18282
702.684	12493.74906
702.88	12674.14677
703.075	12349.79975
703.271	12593.07522
703.466	12599.15593
703.662	12507.93945
703.857	12607.26345
704.053	12692.38655
704.248	12372.10398
704.443	12428.87466
704.639	12536.31928
704.834	12670.09343
705.03	12319.38356
705.225	12392.37983
705.42	12428.87466
705.616	12487.66737
705.811	12495.77628
706.006	12501.85789
706.202	12264.63043
706.397	12418.73743
706.592	12424.81979
706.787	12293.02158
706.983	12414.68249
707.178	12860.57586
707.373	12534.29219
707.568	12217.98478
707.763	11962.37738
707.959	12477.53109
708.154	12286.93788
708.349	12404.54502
708.544	12404.54502
708.739	12572.8058
708.934	12258.54643
709.129	12534.29219
709.324	12278.82618
709.519	12307.21664
709.714	12088.16766
709.909	12554.5628
710.104	12209.8721
710.299	12465.36734
710.494	12171.33527
710.689	12465.36734
710.884	12485.64013
711.079	12368.04873
711.274	12284.90997
711.469	12447.12127
711.664	12384.26957
711.859	12412.65501
712.054	12301.13309
712.249	12173.36359
712.443	11909.61748
712.638	12347.77206
712.833	11852.79291
713.028	12286.93788
713.223	11883.23545
713.417	12140.90957
713.612	11946.14415
713.807	12238.26596
714.002	11860.9111
714.196	12242.32211
714.391	11958.31912
714.586	12242.32211
714.78	12134.82422
714.975	12122.65333
715.17	11885.26489
715.364	12232.18168
715.559	12209.8721
715.754	11927.88114
715.948	12004.98716
716.143	12146.99484
716.337	11958.31912
716.532	12153.08005
716.726	12151.05165
716.921	12203.78751
717.115	11873.08815
717.31	12321.41135
717.504	11751.304
717.699	12197.70286
717.893	11891.35315
718.088	11994.84229
718.282	11830.46718
718.476	11887.29432
718.671	11670.09723
718.865	12088.16766
719.059	11432.48358
719.254	11562.4761
719.448	11495.45357
719.642	11755.36397
719.837	11501.54695
720.031	11795.96176
720.225	11487.32893
720.419	11552.32182
720.614	11444.67204
720.808	11850.76334
721.002	11483.26655
721.196	11753.33399
721.39	11806.11067
721.585	11726.94345
721.779	11627.45796
721.973	11684.30944
722.167	11460.92278
722.361	11619.33574
722.555	11458.89147
722.749	11371.53599
722.943	11519.82658
723.137	11430.45213
723.331	11562.4761
723.525	11623.39687
723.719	11828.43751
723.913	11596.99888
724.107	11491.39127
724.301	11578.72245
724.495	11302.45126
724.689	11519.82658
724.883	11422.32626
725.077	11546.22915
725.271	11255.71085
725.465	11233.35482
725.659	11239.45204
725.853	11479.20413
726.046	11182.54099
726.24	11434.51501
726.434	11095.12578
726.628	11627.45796
726.822	11353.24998
727.015	11489.3601
727.209	11217.0951
727.403	11566.53774
727.596	11180.5083
727.79	11432.48358
727.984	11278.06563
728.177	11420.29476
728.371	11215.06259
728.565	11383.72621
728.758	11469.04792
728.952	11416.23175
729.146	11389.82119
729.339	11552.32182
729.533	11503.57806
729.726	11584.81468
729.92	11491.39127
730.113	11379.66284
730.307	11259.77545
730.5	11296.35499
730.694	11339.02697
730.887	11432.48358
731.081	11487.32893
731.274	11495.45357
731.468	11269.93676
731.661	11320.73952
731.854	11137.81939
732.048	11517.79555
732.241	11243.51681
732.435	11568.56855
732.628	11357.31361
732.821	11221.1601
733.014	11267.90452
733.208	11345.12261
733.401	11375.59944
733.594	11682.27915
733.788	11241.48443
733.981	11345.12261
734.174	11332.93124
734.367	11554.3527
734.56	11341.05886
734.754	11473.11043
734.947	11312.61151
735.14	11389.82119
735.333	11365.44074
735.526	11377.63114
735.719	11310.57948
735.912	11221.1601
736.105	11184.57367
736.298	11147.98384
736.491	11066.66073
736.684	11194.73691
736.877	11050.39403
737.07	11414.20023
737.263	11215.06259
737.456	11302.45126
737.649	11023.95914
737.842	11491.39127
738.035	10985.32019
738.228	11202.86731
738.421	11060.5608
738.614	11074.79382
738.807	10969.04995
739	11194.73691
739.192	11113.42362
739.385	11298.38709
739.578	11345.12261
739.771	11198.80213
739.964	11062.59412
740.156	11544.19824
740.349	10948.71114
740.542	11217.0951
740.735	11182.54099
740.927	11150.0167
741.12	11044.29383
741.313	10956.8468
741.505	11312.61151
741.698	10926.33716
741.891	10871.41335
742.083	11243.51681
742.276	10924.30309
742.468	10844.96556
742.661	10714.73219
742.854	10901.9276
743.046	10871.41335
743.239	10995.48872
743.431	10975.15137
743.624	10842.93104
743.816	10948.71114
744.009	10991.42134
744.201	10928.37121
744.393	10952.779
744.586	10967.01612
744.778	10820.55048
744.971	10753.40029
745.163	11011.7578
745.355	11034.12663
745.548	10885.65366
745.74	10865.31019
745.932	11001.58971
746.125	10787.99442
746.317	10708.62631
746.509	10999.55606
746.702	10926.33716
746.894	10861.24135
747.086	10861.24135
747.278	10938.54132
747.471	11048.36064
747.663	10840.8965
747.855	10820.55048
748.047	10908.03015
748.239	10853.10355
748.431	10814.44645
748.623	10708.62631
748.815	10731.01402
749.008	10665.88206
749.2	10629.23986
749.392	10568.16063
749.584	10466.3368
749.776	10792.06409
749.968	10698.44959
750.16	10905.99598
750.352	10637.38291
750.544	10853.10355
750.736	10993.45504
750.928	11074.79382
751.12	10633.31141
751.311	10610.91726
751.503	10851.06907
751.695	10633.31141
751.887	10543.7258
752.079	10918.20082
752.271	10494.85067
752.463	11011.7578
752.654	10586.48557
752.846	10661.8109
753.038	10726.94364
753.23	10828.68903
753.421	10684.20168
753.613	10612.95316
753.805	10887.68794
753.997	10460.22636
754.188	10653.66843
754.38	10586.48557
754.572	10576.30517
754.763	10462.26318
754.955	10276.85839
755.146	10393.0038
755.338	10138.2416
755.53	10370.59312
755.721	10621.09661
755.913	10562.05209
756.104	10539.65315
756.296	10608.88136
756.487	10335.9553
756.679	10759.50539
756.87	10352.25593
757.062	10354.29345
757.253	10415.41289
757.445	10291.12419
757.636	10136.20264
757.827	10498.92388
758.019	10121.92955
758.21	10113.77319
758.401	9748.54033
758.593	10128.04667
758.784	9995.48057
758.975	10054.63285
759.167	10307.42716
759.358	10162.708
759.549	9764.8737
759.74	10081.1455
759.932	10044.43503
760.123	10015.87926
760.314	9877.13953
760.505	9895.50602
760.696	9958.75928
760.888	9958.75928
761.079	9817.95046
761.27	9993.44062
761.461	9913.87132
761.652	9891.42468
761.843	9871.01711
762.034	9887.34329
762.225	9707.70265
762.416	9468.67774
762.607	9873.05793
762.798	9913.87132
762.989	9868.97627
763.18	9791.41335
763.371	9744.45684
763.562	9754.66546
763.753	9813.86799
763.944	10168.82429
764.135	9679.11264
764.326	9913.87132
764.517	9793.45476
764.708	9675.0281
764.899	9642.3496
765.089	9554.50635
765.28	9450.28222
765.471	9482.98447
765.662	9646.43463
765.853	9576.98064
766.043	9485.02822
766.234	9789.37193
766.425	9215.11158
766.615	9679.11264
766.806	9609.66713
766.997	9558.59273
767.187	9225.34096
767.378	9493.20308
767.569	9274.43615
767.759	9752.62376
767.95	9532.03015
768.141	9597.41017
768.331	9540.20353
768.522	9395.08779
768.712	9462.54605
768.903	9348.06093
769.093	9233.52417
769.284	9151.67994
769.474	9253.981
769.665	9303.07057
769.855	9225.34096
770.046	9213.06565
770.236	9204.88177
770.426	9438.01781
770.617	9262.16326
770.807	9213.06565
770.998	9043.19418
771.188	9035.0046
771.378	9094.37275
771.569	9260.11772
771.759	9094.37275
771.949	9104.60716
772.139	9298.98014
772.33	9035.0046
772.52	8865.00727
772.71	8989.95692
772.9	8992.00472
773.09	9082.09088
773.281	8918.27259
773.471	9284.66311
773.661	8748.19068
773.851	8711.28893
774.041	8875.25154
774.231	9082.09088
774.421	8664.128
774.611	8760.48994
774.802	8762.53976
774.992	8647.72191
775.182	8746.14074
775.372	9041.14681
775.562	8865.00727
775.752	8473.33302
775.942	8452.80768
776.131	8623.11053
776.321	8278.26437
776.511	8774.83825
776.701	8387.11369
776.891	8596.44517
777.081	8360.41986
777.271	8793.28477
777.461	8372.7405
777.651	8461.01805
777.84	8491.8042
778.03	8493.85646
778.22	8467.17562
778.41	8582.08559
778.599	8253.61161
778.789	8516.43003
778.979	8280.31864
779.169	8422.01608
779.358	8352.20572
779.548	8471.28058
779.738	8341.9376
779.927	8481.54263
780.117	8487.69963
780.307	8452.80768
780.496	8307.02235
780.686	8795.33429
780.875	8245.39339
781.065	8680.53291
781.254	8243.33879
781.444	8409.69823
781.633	8163.19382
781.823	8442.54429
782.012	8150.86114
782.202	8534.89761
782.391	7992.52749
782.581	8261.82951
782.77	8048.06072
782.96	8226.90125
783.149	7867.00866
783.338	8080.96233
783.528	8041.89109
783.717	8134.41644
783.906	8056.28661
784.096	8066.56851
784.285	8085.07467
784.474	8008.98333
784.663	7821.72074
784.853	7899.93904
785.042	8017.21076
785.231	8095.35516
785.42	7797.01399
785.61	7827.89696
785.799	7862.89199
785.988	8163.19382
786.177	7801.13199
786.366	7776.42274
786.555	7982.24194
786.744	7762.00762
786.933	7646.64957
787.122	7762.00762
787.312	7718.7561
787.501	7778.48196
787.69	7623.98216
787.879	8080.96233
788.068	7696.09684
788.257	7901.99701
788.445	7512.66833
788.634	7679.61577
788.823	7702.27689
789.012	7714.63642
789.201	7541.53347
789.39	7803.19096
789.579	7568.33305
789.768	7809.36774
789.957	7473.48747
790.145	7683.73616
790.334	7467.30031
790.523	7347.64343
790.712	7448.73765
790.9	7520.91595
791.089	7572.45574
791.278	7467.30031
791.467	7339.38853
791.655	7593.0679
791.844	7506.4824
792.033	7417.79599
792.221	7265.07865
792.41	7327.00553
792.599	6971.68738
792.787	7306.36543
792.976	7252.6909
793.164	7343.51603
793.353	7091.5776
793.541	7485.86122
793.73	7006.83545
793.918	7390.97592
794.107	7097.77677
794.295	7287.78747
794.484	7298.10878
794.672	7335.26095
794.861	7223.78306
795.049	7318.74975
795.238	7095.71041
795.426	7502.35834
795.614	7110.17451
795.803	7289.85177
795.991	7153.56025
796.179	7163.88874
796.368	7056.44518
796.556	7232.04289
796.744	6992.3635
796.932	7116.37307
797.121	6955.14486
797.309	6905.50862
797.497	6992.3635
797.685	6872.41054
797.874	6855.85933
798.062	6888.96031
798.25	6677.84155
798.438	6951.009
798.626	6791.70961
798.814	6984.09332
799.002	6872.41054
799.19	6764.80159
799.378	6886.89166
799.566	6934.46467
799.755	6752.3812
799.943	6917.9189
800.131	6814.47492
800.318	6930.32837
800.506	6752.3812
800.694	6826.8912
800.882	6636.41777
801.07	6777.22115
801.258	6882.75431
801.446	6930.32837
801.634	6518.30937
801.822	6748.24089
802.01	6704.76207
802.197	6934.46467
802.385	6505.87254
802.573	6955.14486
802.761	6737.88971
802.949	6839.30666
803.136	6752.3812
803.324	7006.83545
803.512	6878.61687
803.699	6977.89045
803.887	6936.53279
804.075	6760.66155
804.262	6710.97395
804.45	6845.51408
804.638	6713.04453
804.825	6930.32837
805.013	6897.23464
805.201	6919.9872
805.388	6777.22115
805.576	7126.70357
805.763	6851.7213
805.951	7134.96756
806.138	6880.68561
806.326	7031.64193
806.513	6812.40546
806.701	6891.02892
806.888	6793.77929
807.075	7050.24467
807.263	6731.67872
807.45	7025.44061
807.638	6698.54999
807.825	6992.3635
808.012	6946.87305
808.2	6911.71386
808.387	6951.009
808.574	6831.02977
808.761	6619.84568
808.949	7064.71222
809.136	6802.05782
809.323	7019.23909
809.51	6977.89045
809.698	6913.78223
809.885	6802.05782
810.072	6917.9189
810.259	6922.05548
810.446	6953.07694
810.633	6837.23747
810.82	7120.50534
811.008	6638.48917
811.195	6990.29599
811.382	6686.1252
811.569	7066.77892
811.756	6760.66155
811.943	7132.9016
812.13	6919.9872
812.317	6979.9581
812.504	6969.61964
812.691	7066.77892
812.878	6768.94153
813.064	7025.44061
813.251	6951.009
813.438	7238.23752
813.625	6822.75253
813.812	6905.50862
813.999	6876.54812
814.186	7010.97008
814.372	6704.76207
814.559	6886.89166
814.746	6588.76903
814.933	6669.55753
815.12	6802.05782
815.306	6843.44496
815.493	6917.9189
815.68	6901.37168
815.866	6775.15128
816.053	7029.57485
816.24	6646.77458
816.426	6752.3812
816.613	6768.94153
816.799	6868.27287
816.986	6408.42174
817.173	6657.13081
817.359	6628.13191
817.546	6768.94153
817.732	6514.16385
817.919	6919.9872
818.105	6663.34427
818.292	6961.34847
818.478	6644.70326
818.665	6572.19269
818.851	6588.76903
819.037	6704.76207
819.224	6820.68316
819.41	6781.36083
819.597	6681.98342
819.783	6752.3812
819.969	6781.36083
820.156	6762.73158
820.342	6636.41777
820.528	6607.41564
820.714	6611.55908
820.901	6762.73158
821.087	6628.13191
821.273	6679.91249
821.459	6576.33691
821.646	6688.19606
821.832	6628.13191
822.018	6880.68561
822.204	6507.9454
822.39	6536.96306
822.576	6549.39781
822.762	6607.41564
822.948	6497.58085
823.134	6628.13191
823.32	6398.05161
823.507	6501.72674
823.693	6476.85001
823.879	6447.82293
824.065	6462.33704
824.25	6748.24089
824.436	6354.49071
824.622	6495.50787
824.808	6433.30768
824.994	6505.87254
825.18	6246.58127
825.366	6582.55307
825.552	6294.31825
825.738	6590.84097
825.923	6171.83765
826.109	6516.23662
826.295	6346.19222
826.481	6364.86328
826.667	6186.37352
826.852	6505.87254
827.038	6312.99456
827.224	6605.34389
827.409	6196.75557
827.595	6456.11684
827.781	6325.44439
827.966	6254.88425
828.152	6030.57221
828.338	6464.41039
828.523	6107.45072
828.709	6348.26688
828.894	6007.71022
829.08	6238.27793
829.266	5833.03372
829.451	6155.22383
829.637	6065.89877
829.822	6178.06745
830.008	6105.37334
830.193	6225.82221
830.378	5835.11418
830.564	6207.13704
830.749	5864.23816
830.935	6043.04118
831.12	5939.10715
831.305	6244.50547
831.491	6117.83723
831.676	6130.30028
831.861	6140.6855
832.047	5932.86924
832.232	5901.67648
832.417	5976.53019
832.602	5887.11804
832.788	5801.82397
832.973	5847.59645
833.158	6105.37334
833.343	5756.04006
833.528	6026.4157
833.714	5922.47224
833.899	5835.11418
834.084	5708.16285
834.269	5997.31747
834.454	5656.10825
834.639	5885.03817
834.824	5822.63106
835.009	5876.71845
835.194	5631.1168
835.379	5957.81963
835.564	5643.61295
835.749	5934.94857
835.934	5847.59645
836.119	5535.2848
836.304	5318.43758
836.489	5672.76733
836.674	5383.10131
836.859	5562.37281
837.044	5606.12196
837.228	5810.14709
837.413	5439.40296
837.598	5712.32658
837.783	5406.04109
837.968	5529.03316
838.152	5481.09684
838.337	5591.54007
838.522	5264.18613
838.707	5497.77175
838.891	5247.49019
839.076	5549.87115
839.261	5262.09922
839.445	5497.77175
839.63	5301.74651
839.815	5328.86874
839.999	5155.63584
840.184	5510.27695
840.368	5364.33029
840.553	5572.79022
840.737	5197.39341
840.922	5414.38212
841.106	4867.25608
841.291	5201.56866
841.475	5184.86712
841.66	5293.40041
841.844	5205.74381
842.029	5289.22722
842.213	5030.30736
842.397	5122.22308
842.582	5111.78037
842.766	5207.83135
842.951	5026.12831
843.135	5241.22883
843.319	4913.25905
843.504	5101.33709
843.688	5080.44877
843.872	5199.48105
844.056	4961.3412
844.241	5132.66521
844.425	4871.43863
844.609	5224.53084
844.793	4948.79921
844.977	4963.43146
845.161	4867.25608
845.346	5055.37973
845.53	4915.34984
845.714	5059.55814
845.898	4804.50693
846.082	4946.70879
846.266	4697.78647
846.45	5007.32143
846.634	4624.51299
846.818	5021.94917
847.002	4729.18095
847.186	4959.25093
847.37	4488.36112
847.554	4645.45107
847.738	4517.69406
847.922	4840.0673
848.106	4710.34487
848.29	4802.41494
848.473	4766.84761
848.657	4783.586
848.841	4678.94734
849.025	4620.3251
849.209	4429.68231
849.392	4773.12468
849.576	4368.88974
849.76	4706.15883
849.944	4578.44133
850.127	4758.47788
850.311	4454.83248
850.495	4720.80958
850.678	4486.26575
850.862	4714.53082
851.046	4557.49611
851.229	4580.53573
851.413	4431.77828
851.596	4745.92259
851.78	4335.34118
851.964	4576.34691
852.147	4354.21293
852.331	4486.26575
852.514	4477.88403
852.698	4335.34118
852.881	4320.66195
853.065	4236.7604
853.248	4318.56483
853.431	4496.7424
853.615	4190.59999
853.798	4438.06605
853.982	4219.97598
854.165	4381.46902
854.348	4096.14914
854.532	4333.24422
854.715	4324.85613
854.898	4500.93291
855.081	4142.33042
855.265	4452.73676
855.448	4234.66242
855.631	4268.2275
855.814	3911.32402
855.997	4054.15741
856.181	3938.63768
856.364	4045.75807
856.547	3923.93075
856.73	4167.51593
856.913	3951.24283
857.096	4259.83674
857.279	3902.91914
857.462	4005.8567
857.645	4085.65199
857.828	4125.5384
858.011	4066.7558
858.194	4146.52822
858.377	3997.45546
858.56	3944.94035
858.743	3835.66851
858.926	3976.45094
859.109	3871.39795
859.292	4062.55642
859.475	3808.34213
859.658	3757.88471
859.841	3640.10735
860.023	3715.82828
860.206	3471.75156
860.389	3722.13724
860.572	3465.43593
860.755	3442.27726
860.937	3537.00345
861.12	3764.1925
861.303	3579.09208
861.486	3656.93636
861.668	3892.41258
861.851	3671.66074
862.034	3587.50891
862.216	3747.37133
862.399	3233.75361
862.581	3646.41837
862.764	3307.49341
862.947	3600.13361
863.129	3448.59347
863.312	3629.5886
863.494	3379.10627
863.677	3362.25799
863.859	3259.03816
864.042	3484.38232
864.224	3292.74711
864.406	3621.17327
864.589	3374.8943
864.771	3404.37658
864.954	2997.6517
865.136	3478.06702
865.318	3221.11044
865.501	3303.28027
865.683	3159.99338
865.865	3282.21353
866.048	3185.28487
866.23	3320.13243
866.412	3166.31647
866.594	3419.11641
866.777	3166.31647
866.959	3444.38268
867.141	3166.31647
867.323	3242.18207
867.505	2991.32484
867.687	3204.25194
867.869	3056.69577
868.052	3463.33069
868.234	2972.34344
868.416	3111.5115
868.598	3039.82727
868.78	3254.82424
868.962	3166.31647
869.144	3288.53373
869.326	3054.58726
869.508	3041.93588
869.69	3149.45456
869.872	3157.88565
870.054	3159.99338
870.236	3073.56328
870.417	2966.01603
870.599	3187.39239
870.781	2934.37701
870.963	3166.31647
871.145	2862.64972
871.327	3060.91274
871.508	2866.86943
871.69	3119.94374
871.872	2795.12668
872.054	3128.37573
872.235	2841.55031
872.417	3065.12965
872.599	2801.45757
872.78	3048.26164
872.962	2672.70582
873.144	2921.72047
873.325	2831.00007
873.507	3033.50132
873.689	2951.25157
873.87	2900.62507
874.052	2822.55963
874.233	3020.84902
874.415	2890.07683
874.596	2955.47006
874.778	2695.92696
874.959	2736.03251
875.141	2833.11015
875.322	2807.78833
875.503	2668.48362
875.685	3073.56328
875.866	2782.46453
876.048	2887.96714
876.229	2676.92796
876.41	2868.97927
876.592	2759.24933
876.773	2862.64972
876.954	2719.14653
877.136	2837.33025
877.317	2657.92792
877.498	2938.59574
877.679	2603.03324
877.86	3029.28395
878.042	2676.92796
878.223	3138.91534
878.404	2807.78833
878.585	2959.6885
878.766	2719.14653
878.947	2828.88998
879.128	2940.70508
879.309	3022.95777
879.49	2856.32004
879.672	3048.26164
879.853	2904.84427
880.034	3001.86953
880.215	2695.92696
880.396	3124.15976
880.576	2949.1423
880.757	2963.90687
880.938	2966.01603
881.119	2879.52823
881.3	2993.4338
881.481	3117.8357
881.662	2989.21585
881.843	2972.34344
882.023	2917.50151
882.204	3282.21353
882.385	2761.35987
882.566	3039.82727
882.747	2731.81109
882.927	2999.76062
883.108	3033.50132
883.289	2982.88881
883.469	2856.32004
883.65	3134.69955
883.831	2896.40582
884.011	3060.91274
884.192	2913.28249
884.373	3305.38685
884.553	2925.93938
884.734	3227.4321
884.914	2736.03251
885.095	3309.59996
885.275	2949.1423
885.456	3170.53178
885.636	2932.26763
885.817	3100.97084
885.997	2885.85743
886.178	3008.19616
886.358	2925.93938
886.538	3016.63146
886.719	2719.14653
886.899	3014.52266
887.08	3012.41384
887.26	3016.63146
887.44	2959.6885
887.621	3269.57267
887.801	2723.36811
887.981	3041.93588
888.161	2887.96714
888.342	2947.03302
888.522	2963.90687
888.702	3056.69577
888.882	2993.4338
889.062	3206.35931
889.242	2928.04881
889.423	2839.44029
889.603	2839.44029
889.783	2995.54276
889.963	2763.4704
890.143	3288.53373
890.323	2980.77976
890.503	3225.3249
890.683	2778.24371
890.863	3090.42979
891.043	2816.22916
891.223	2951.25157
891.403	2852.10019
891.583	2991.32484
891.763	2790.90602
891.943	3117.8357
892.122	2873.19889
892.302	2972.34344
892.482	2736.03251
892.662	2934.37701
892.842	2714.92491
893.022	2769.8019
893.201	2833.11015
893.381	2864.75958
893.561	2645.26067
893.741	3048.26164
893.92	2803.56784
894.1	2845.7703
894.28	2626.25894
894.459	2854.21012
894.639	2763.4704
894.819	2778.24371
894.998	2689.59407
895.178	2993.4338
895.357	2763.4704
895.537	2746.58581
895.716	2495.33162
895.896	2896.40582
896.075	2571.35947
896.255	2607.25621
896.434	2474.21015
896.614	2651.59435
896.793	2436.18873
896.973	2704.37062
897.152	2362.24833
897.331	2571.35947
897.511	2465.76125
897.69	2719.14653
897.87	2527.01171
898.049	2676.92796
898.228	2474.21015
898.407	2727.58963
898.587	2330.55577
898.766	2398.16383
898.945	2406.6141
899.124	2653.70555
899.304	2334.78157
899.483	2368.58657
899.662	2313.65216
899.841	2431.96391
900.02	2140.35662
900.199	2358.02278
900.378	2009.29232
900.557	2273.50366
900.737	2237.57849
900.916	2400.27641
901.095	2197.4238
901.274	2313.65216
901.453	2182.62918
901.632	2041.00394
901.811	2026.20538
901.989	2087.51149
902.168	2043.118
902.347	2102.30861
902.526	1996.60726
902.705	2034.66174
902.884	2002.94982
903.063	2254.48478
903.242	1969.12216
903.42	2180.51563
903.599	1893.00432
903.778	2036.77582
903.957	1814.76495
904.135	1962.7793
904.314	1704.79696
904.493	2047.34608
904.672	1649.80956
904.85	1850.7136
905.029	1785.15922
905.207	1814.76495
905.386	1831.68213
905.565	1918.37775
905.743	1742.86394
905.922	1783.04449
906.1	1537.71515
906.279	1842.25521
906.457	1628.66009
906.636	1747.09354
906.814	1550.40531
906.993	1463.68862
907.171	1501.7595
907.35	1689.99285
907.528	1332.55621
907.707	1620.20024
907.885	1258.53213
908.063	1450.9983
908.242	1269.10683
908.42	1588.4755
908.598	1341.01625
908.777	1493.29932
908.955	1317.7512
909.133	1480.60903
909.311	1247.95749
909.49	1408.6973
909.668	1290.25642
909.846	1442.53809
910.024	1231.03822
910.202	1324.09619
910.38	1328.3262
910.559	1467.91872
910.737	1313.52121
910.915	1514.44976
911.093	1256.4172
911.271	1482.72408
911.449	1328.3262
911.627	1438.30799
911.805	1345.24629
911.983	1573.67049
912.161	1362.16646
912.339	1472.14882
912.517	1552.52034
912.695	1518.67984
912.872	1425.61768
913.05	1628.66009
913.228	1266.99189
913.406	1489.06922
913.584	1459.45851
913.762	1400.23711
913.939	1290.25642
914.117	1539.83018
914.295	1400.23711
914.473	1478.49398
914.65	1429.84778
914.828	1514.44976
915.006	1334.67122
915.184	1713.25638
915.361	1281.79656
915.539	1577.9005
915.716	1362.16646
915.894	1336.78623
916.072	1226.80843
916.249	1273.33673
916.427	1214.11914
916.604	1330.44121
916.782	1222.57865
916.959	1459.45851
917.137	1362.16646
917.314	1497.52941
917.492	1281.79656
917.669	1370.62658
917.847	1292.37139
918.024	1461.57356
918.201	1404.4672
918.379	1319.8662
918.556	1243.72766
918.733	1360.05143
918.911	1207.77453
919.088	1349.47632
919.265	1125.29771
919.442	1296.60134
919.62	1199.31511
919.797	1343.13127
919.974	1233.15312
920.151	1239.49783
920.328	1038.59873
920.506	1199.31511
920.683	1214.11914
920.86	1235.26802
921.037	1108.38017
921.214	1178.16679
921.391	1047.05678
921.568	1093.57758
921.745	973.05219
921.922	1154.90408
922.099	1036.48424
922.276	1078.77523
922.453	958.25223
922.63	1266.99189
922.807	1061.85857
922.984	1121.0683
923.161	852.54886
923.338	968.8236
923.514	776.4556
923.691	947.68104
923.868	833.52443
924.045	901.16997
924.222	827.18311
924.399	850.435
924.575	863.11829
924.752	968.8236
924.929	867.34612
925.105	956.13798
925.282	799.70503
925.459	911.74035
925.635	861.00439
925.812	1015.3396
925.989	861.00439
926.165	909.62625
926.342	873.68793
926.518	973.05219
926.695	715.16749
926.871	825.06936
927.048	715.16749
927.224	854.66273
927.401	668.67912
927.577	833.52443
927.754	727.84706
927.93	770.11505
928.107	630.64738
928.283	799.70503
928.459	708.82785
928.636	854.66273
928.812	613.74564
928.988	700.37515
929.165	628.53462
929.341	791.25055
929.517	675.01812
929.693	651.77565
929.87	624.30913
930.046	675.01812
930.222	563.04536
930.398	617.971
930.574	541.92251
930.751	679.24418
930.927	565.15772
931.103	630.64738
931.279	525.02522
931.455	645.43704
931.631	455.33367
931.807	594.73216
931.983	512.35284
932.159	487.00965
932.335	451.11047
932.511	554.59606
932.687	436.32974
932.863	539.8103
933.039	453.22206
933.215	525.02522
933.391	453.22206
933.566	362.43791
933.742	455.33367
933.918	360.32701
934.094	440.55273
934.27	480.67419
934.445	309.67074
934.621	402.54813
934.797	394.10337
934.973	370.88166
935.148	377.21465
935.324	263.24494
935.5	252.69488
935.675	278.01581
935.851	227.37671
936.027	318.11274
936.202	271.68532
936.378	199.95188
936.553	242.1453
936.729	227.37671
936.904	246.36508
937.08	278.01581
937.255	261.13489
937.431	278.01581
937.606	237.92561
937.782	254.80485
937.957	183.07674
938.133	212.60907
938.308	168.31207
938.483	195.73297
938.659	193.62355
938.834	98.72115
939.009	138.7858
939.185	155.65745
939.36	197.84241
939.535	145.11251
939.71	172.53045
939.886	136.67694
940.061	94.50427
940.236	124.02423
940.411	52.34049
940.586	170.42125
940.761	98.72115
940.937	149.33043
941.112	83.96248
941.287	92.39587
941.462	37.58533
941.637	100.82962
941.812	107.15516
941.987	24.93896
942.162	90.28749
942.337	-19.31659
942.512	132.45929
942.687	109.26371
942.862	100.82962
943.037	149.33043
943.212	117.69816
943.386	178.85816
943.561	14.40096
943.736	119.80683
943.911	100.82962
944.086	96.6127
944.26	22.83131
944.435	96.6127
944.61	117.69816
944.785	60.77252
944.959	100.82962
945.134	107.15516
945.309	69.20492
945.483	117.69816
945.658	39.69314
945.833	161.98467
946.007	73.42125
946.182	77.63768
946.357	90.28749
946.531	195.73297
946.706	69.20492
946.88	83.96248
947.055	64.98867
947.229	159.87558
947.404	143.00359
947.578	119.80683
947.752	117.69816
947.927	149.33043
948.101	58.66448
948.276	157.7665
948.45	132.45929
948.624	62.88058
948.799	5.97099
948.973	81.85419
949.147	115.58952
949.321	90.28749
949.496	117.69816
949.67	86.0708
949.844	69.20492
950.018	-0.35123
950.193	64.98867
950.367	60.77252
950.541	92.39587
950.715	115.58952
950.889	83.96248
951.063	60.77252
951.237	136.67694
951.411	48.12461
951.585	69.20492
951.759	77.63768
951.933	134.5681
952.107	98.72115
952.281	98.72115
952.455	100.82962
952.629	105.04662
952.803	178.85816
952.977	39.69314
953.151	157.7665
953.325	39.69314
953.499	1.75615
953.672	128.24171
953.846	98.72115
954.02	69.20492
954.194	90.28749
954.368	111.37229
954.541	86.0708
954.715	73.42125
954.889	143.00359
955.062	56.55646
955.236	115.58952
955.41	39.69314
955.583	67.09678
955.757	149.33043
955.93	174.63967
956.104	56.55646
956.278	128.24171
956.451	39.69314
956.625	60.77252
956.798	153.54842
956.972	124.02423
957.145	176.7489
957.319	83.96248
957.492	115.58952
957.665	52.34049
957.839	56.55646
958.012	67.09678
958.185	102.93811
958.359	117.69816
958.532	83.96248
958.705	90.28749
958.879	124.02423
959.052	60.77252
959.225	62.88058
959.398	147.22146
959.572	107.15516
959.745	60.77252
959.918	157.7665
960.091	183.07674
960.264	86.0708
960.438	60.77252
960.611	96.6127
960.784	102.93811
960.957	136.67694
961.13	67.09678
961.303	153.54842
961.476	64.98867
961.649	69.20492
961.822	151.43941
961.995	130.35049
962.168	69.20492
962.341	77.63768
962.514	140.89469
962.686	50.23254
962.859	79.74592
963.032	56.55646
963.205	86.0708
963.378	90.28749
963.551	83.96248
963.723	1.75615
963.896	75.52945
964.069	60.77252
964.242	102.93811
964.414	90.28749
964.587	60.77252
964.76	69.20492
964.932	92.39587
965.105	96.6127
965.278	121.91552
965.45	90.28749
965.623	98.72115
965.795	56.55646
965.968	86.0708
966.14	73.42125
966.313	107.15516
966.485	83.96248
966.658	92.39587
966.83	107.15516
967.003	52.34049
967.175	73.42125
967.348	102.93811
967.52	96.6127
967.692	117.69816
967.865	98.72115
968.037	115.58952
968.209	22.83131
968.382	75.52945
968.554	48.12461
968.726	81.85419
968.898	54.44846
969.071	48.12461
969.243	115.58952
969.415	43.90883
969.587	107.15516
969.759	126.13296
969.932	5.97099
970.104	24.93896
970.276	62.88058
970.448	81.85419
970.62	77.63768
970.792	20.72369
970.964	109.26371
971.136	132.45929
971.308	67.09678
971.48	56.55646
971.652	58.66448
971.824	58.66448
971.996	67.09678
972.168	35.47754
972.339	107.15516
972.511	48.12461
972.683	41.80097
972.855	43.90883
973.027	73.42125
973.199	140.89469
973.37	18.61609
973.542	71.31307
973.714	134.5681
973.886	8.07845
974.057	109.26371
974.229	69.20492
974.401	132.45929
974.572	39.69314
974.744	128.24171
974.915	16.50851
975.087	64.98867
975.259	56.55646
975.43	98.72115
975.602	81.85419
975.773	27.04663
975.945	54.44846
976.116	1.75615
976.288	31.26204
976.459	24.93896
976.63	62.88058
976.802	56.55646
976.973	96.6127
977.145	31.26204
977.316	73.42125
977.487	39.69314
977.659	5.97099
977.83	41.80097
978.001	22.83131
978.172	71.31307
978.344	52.34049
978.515	98.72115
978.686	86.0708
978.857	52.34049
979.028	39.69314
979.2	67.09678
979.371	20.72369
979.542	58.66448
979.713	56.55646
979.884	69.20492
980.055	81.85419
980.226	81.85419
980.397	81.85419
980.568	18.61609
980.739	14.40096
980.91	107.15516
981.081	102.93811
981.252	92.39587
981.423	64.98867
981.594	10.18593
981.765	24.93896
981.936	90.28749
982.106	48.12461
982.277	35.47754
982.448	132.45929
982.619	31.26204
982.79	33.36978
982.96	98.72115
983.131	35.47754
983.302	90.28749
983.472	10.18593
983.643	128.24171
983.814	-10.88778
983.984	56.55646
984.155	90.28749
984.326	100.82962
984.496	90.28749
984.667	43.90883
984.837	41.80097
985.008	88.17913
985.178	77.63768
985.349	90.28749
985.519	107.15516
985.69	109.26371
985.86	14.40096
986.031	119.80683
986.201	98.72115
986.371	14.40096
986.542	52.34049
986.712	22.83131
986.882	92.39587
987.053	128.24171
987.223	22.83131
987.393	64.98867
987.563	119.80683
987.734	18.61609
987.904	22.83131
988.074	83.96248
988.244	33.36978
988.414	22.83131
988.585	-8.78052
988.755	-2.45859
988.925	22.83131
989.095	1.75615
989.265	29.15432
989.435	92.39587
989.605	48.12461
989.775	64.98867
989.945	27.04663
990.115	29.15432
990.285	5.97099
990.455	75.52945
990.625	60.77252
990.795	117.69816
990.965	-29.85205
991.134	67.09678
991.304	22.83131
991.474	113.4809
991.644	56.55646
991.814	54.44846
991.984	73.42125
992.153	107.15516
992.323	-27.74501
992.493	56.55646
992.662	31.26204
992.832	48.12461
993.002	92.39587
993.171	29.15432
993.341	43.90883
993.511	-36.17303
993.68	73.42125
993.85	81.85419
994.019	10.18593
994.189	-29.85205
994.358	18.61609
994.528	18.61609
994.697	94.50427
994.867	100.82962
995.036	-29.85205
995.206	54.44846
995.375	43.90883
995.544	1.75615
995.714	56.55646
995.883	56.55646
996.052	22.83131
996.222	67.09678
996.391	-112.00696
996.56	58.66448
996.73	71.31307
996.899	5.97099
997.068	50.23254
997.237	56.55646
997.406	48.12461
997.576	33.36978
997.745	77.63768
997.914	41.80097
998.083	88.17913
998.252	52.34049
998.421	18.61609
998.59	69.20492
998.759	-0.35123
998.928	18.61609
999.097	-36.17303
999.266	81.85419
999.435	58.66448
999.604	64.98867
999.773	117.69816
999.942	75.52945
1000.111	92.39587
1000.28	77.63768
1000.448	52.34049
1000.617	22.83131
1000.786	56.55646
1000.955	-59.34802
1001.124	1.75615
1001.292	58.66448
1001.461	-15.10224
1001.63	64.98867
1001.798	48.12461
1001.967	39.69314
1002.136	90.28749
1002.304	-2.45859
1002.473	35.47754
1002.642	24.93896
1002.81	27.04663
1002.979	-2.45859
1003.147	50.23254
1003.316	75.52945
1003.484	48.12461
1003.653	81.85419
1003.821	10.18593
1003.99	-69.8811
1004.158	140.89469
1004.327	67.09678
1004.495	56.55646
1004.663	31.26204
1004.832	14.40096
1005	24.93896
1005.168	75.52945
1005.337	-34.06606
1005.505	50.23254
1005.673	14.40096
1005.842	-4.56592
1006.01	60.77252
1006.178	35.47754
1006.346	35.47754
1006.514	-2.45859
1006.683	-21.42373
1006.851	18.61609
1007.019	81.85419
1007.187	-8.78052
1007.355	14.40096
1007.523	24.93896
1007.691	50.23254
1007.859	48.12461
1008.027	58.66448
1008.195	67.09678
1008.363	64.98867
1008.531	79.74592
1008.699	-23.53085
1008.867	1.75615
1009.035	3.86356
1009.203	-23.53085
1009.37	-15.10224
1009.538	43.90883
1009.706	79.74592
1009.874	20.72369
1010.042	58.66448
1010.209	10.18593
1010.377	12.29343
1010.545	31.26204
1010.713	5.97099
1010.88	77.63768
1011.048	5.97099
1011.216	-17.20943
1011.383	86.0708
1011.551	-2.45859
1011.718	92.39587
1011.886	-29.85205
1012.054	16.50851
1012.221	5.97099
1012.389	31.26204
1012.556	64.98867
1012.724	39.69314
1012.891	41.80097
1013.058	75.52945
1013.226	-10.88778
1013.393	105.04662
1013.561	16.50851
1013.728	27.04663
1013.895	31.26204
1014.063	77.63768
1014.23	31.26204
1014.397	31.26204
1014.565	41.80097
1014.732	88.17913
1014.899	31.26204
1015.066	22.83131
1015.233	41.80097
1015.401	-78.3071
1015.568	8.07845
1015.735	56.55646
1015.902	75.52945
1016.069	56.55646
1016.236	83.96248
1016.403	-6.67324
1016.57	10.18593
1016.737	-2.45859
1016.904	79.74592
1017.071	35.47754
1017.238	69.20492
1017.405	48.12461
1017.572	41.80097
1017.739	48.12461
1017.906	48.12461
1018.073	1.75615
1018.24	-15.10224
1018.407	5.97099
1018.573	-42.49378
1018.74	35.47754
1018.907	16.50851
1019.074	56.55646
1019.241	27.04663
1019.407	100.82962
1019.574	-15.10224
1019.741	73.42125
1019.907	24.93896
1020.074	8.07845
1020.241	24.93896
1020.407	10.18593
1020.574	56.55646
1020.74	56.55646
1020.907	-53.02787
1021.073	43.90883
1021.24	73.42125
1021.406	-42.49378
1021.573	-31.95906
1021.739	90.28749
1021.906	35.47754
1022.072	18.61609
1022.239	-4.56592
1022.405	52.34049
1022.571	-27.74501
1022.738	39.69314
1022.904	5.97099
1023.07	-6.67324
1023.237	39.69314
1023.403	56.55646
1023.569	10.18593
1023.735	-31.95906
1023.902	48.12461
1024.068	98.72115
1024.234	-25.63794
1024.4	115.58952
1024.566	56.55646
1024.732	5.97099
1024.898	83.96248
1025.065	5.97099
1025.231	-2.45859
1025.397	56.55646
1025.563	-10.88778
1025.729	-17.20943
1025.895	-10.88778
1026.061	64.98867
1026.227	27.04663
1026.392	-36.17303
1026.558	-61.45468
1026.724	5.97099
1026.89	98.72115
1027.056	90.28749
1027.222	-65.66794
1027.388	12.29343
1027.553	-12.99502
1027.719	-27.74501
1027.885	18.61609
1028.051	39.69314
1028.216	-2.45859
1028.382	86.0708
1028.548	-31.95906
1028.713	39.69314
1028.879	75.52945
1029.045	22.83131
1029.21	8.07845
1029.376	81.85419
1029.541	-27.74501
1029.707	134.5681
1029.873	86.0708
1030.038	-10.88778
1030.204	-23.53085
1030.369	14.40096
1030.534	16.50851
1030.7	20.72369
1030.865	39.69314
1031.031	33.36978
1031.196	64.98867
1031.361	-10.88778
1031.527	35.47754
1031.692	33.36978
1031.857	77.63768
1032.023	83.96248
1032.188	111.37229
1032.353	48.12461
1032.518	22.83131
1032.684	105.04662
1032.849	16.50851
1033.014	31.26204
1033.179	39.69314
1033.344	33.36978
1033.509	56.55646
1033.674	-17.20943
1033.839	58.66448
1034.004	-2.45859
1034.17	64.98867
1034.335	81.85419
1034.5	90.28749
1034.664	90.28749
1034.829	27.04663
1034.994	90.28749
1035.159	1.75615
1035.324	-19.31659
1035.489	-21.42373
1035.654	3.86356
1035.819	73.42125
1035.984	-53.02787
1036.148	5.97099
1036.313	-17.20943
1036.478	48.12461
1036.643	12.29343
1036.807	-6.67324
1036.972	1.75615
1037.137	14.40096
1037.301	60.77252
1037.466	8.07845
1037.631	-27.74501
1037.795	48.12461
1037.96	52.34049
1038.124	18.61609
1038.289	-27.74501
1038.454	71.31307
1038.618	39.69314
1038.783	8.07845
1038.947	52.34049
1039.111	-36.17303
1039.276	50.23254
1039.44	48.12461
1039.605	77.63768
1039.769	41.80097
1039.933	50.23254
1040.098	54.44846
1040.262	-17.20943
1040.426	-4.56592
1040.591	-19.31659
1040.755	-6.67324
1040.919	33.36978
1041.083	98.72115
1041.248	5.97099
1041.412	-27.74501
1041.576	48.12461
1041.74	69.20492
1041.904	-25.63794
1042.068	-31.95906
1042.232	24.93896
1042.397	14.40096
1042.561	64.98867
1042.725	10.18593
1042.889	18.61609
1043.053	8.07845
1043.217	8.07845
1043.381	48.12461
1043.544	64.98867
1043.708	14.40096
1043.872	81.85419
1044.036	27.04663
1044.2	62.88058
1044.364	111.37229
1044.528	56.55646
1044.691	-53.02787
1044.855	48.12461
1045.019	-27.74501
1045.183	35.47754
1045.346	22.83131
1045.51	41.80097
1045.674	1.75615
1045.837	73.42125
1046.001	8.07845
1046.165	64.98867
1046.328	58.66448
1046.492	16.50851
1046.655	-19.31659
1046.819	39.69314
1046.983	-0.35123
1047.146	10.18593
1047.31	41.80097
1047.473	8.07845
1047.636	8.07845
1047.8	22.83131
1047.963	14.40096
1048.127	58.66448
1048.29	24.93896
