Data from mixed_try1_USB4F045381__37__00059.txt Node

Date: Thu Apr 03 19:38:34 EDT 2025
User: mmckonesweet
Spectrometer: USB4F04538
Trigger mode: 4
Integration Time (sec): 2.700000E-3
Scans to average: 1
Electric dark correction enabled: true
Nonlinearity correction enabled: true
Boxcar width: 0
XAxis mode: Wavelengths
Number of Pixels in Spectrum: 3648
>>>>>Begin Spectral Data<<<<<
345.52	-30.72997
345.736	-30.72997
345.952	-30.72997
346.168	80.97574
346.384	11.4153
346.6	-20.19457
346.816	-11.7658
347.032	-3.33665
347.248	0.87808
347.464	-39.15785
347.68	9.30781
347.896	45.13842
348.112	15.63036
348.328	-41.26476
348.544	-70.75882
348.76	85.19233
348.975	30.38382
349.191	-32.83698
349.407	28.27611
349.623	-47.58533
349.839	0.87808
350.055	0.87808
350.27	11.4153
350.486	17.73793
350.702	26.16843
350.918	89.40901
351.133	59.89417
351.349	24.06077
351.565	45.13842
351.781	-7.55127
351.996	9.30781
352.212	64.1103
352.428	-30.72997
352.644	-18.08741
352.859	21.95313
353.075	70.43467
353.291	9.30781
353.506	66.2184
353.722	34.5993
353.938	-13.87303
354.153	11.4153
354.369	15.63036
354.584	13.52282
354.8	55.67812
355.016	-58.11912
355.231	-7.55127
355.447	38.81488
355.662	17.73793
355.878	78.86748
356.093	17.73793
356.309	114.71092
356.524	17.73793
356.74	62.00222
356.955	-41.26476
357.171	47.24632
357.386	9.30781
357.602	59.89417
357.817	30.38382
358.033	43.03055
358.248	43.03055
358.464	30.38382
358.679	64.1103
358.895	34.5993
359.11	34.5993
359.325	38.81488
359.541	28.27611
359.756	9.30781
359.972	34.5993
360.187	21.95313
360.402	-11.7658
360.618	62.00222
360.833	36.70708
361.048	85.19233
361.264	-43.37164
361.479	17.73793
361.694	59.89417
361.909	26.16843
362.125	26.16843
362.34	83.08402
362.555	-28.62294
362.77	45.13842
362.986	32.49155
363.201	17.73793
363.416	53.57014
363.631	102.05957
363.847	74.65103
364.062	62.00222
364.277	68.32652
364.492	-13.87303
364.707	2.98547
364.922	26.16843
365.138	5.09289
365.353	93.62577
365.568	17.73793
365.783	-34.94396
365.998	-13.87303
366.213	59.89417
366.428	43.03055
366.643	68.32652
366.858	24.06077
367.073	110.49372
367.288	-32.83698
367.503	38.81488
367.718	114.71092
367.933	21.95313
368.148	-15.98024
368.363	93.62577
368.578	13.52282
368.793	15.63036
369.008	5.09289
369.223	26.16843
369.438	-37.05092
369.653	11.4153
369.868	-7.55127
370.083	13.52282
370.298	43.03055
370.513	68.32652
370.728	36.70708
370.943	123.1456
371.157	-24.40881
371.372	38.81488
371.587	43.03055
371.802	55.67812
372.017	26.16843
372.232	36.70708
372.446	47.24632
372.661	80.97574
372.876	93.62577
373.091	-22.3017
373.306	32.49155
373.52	5.09289
373.735	59.89417
373.95	85.19233
374.165	17.73793
374.379	26.16843
374.594	-7.55127
374.809	28.27611
375.023	9.30781
375.238	13.52282
375.453	9.30781
375.667	17.73793
375.882	43.03055
376.097	43.03055
376.311	104.16807
376.526	135.79826
376.741	38.81488
376.955	2.98547
377.17	9.30781
377.384	28.27611
377.599	0.87808
377.813	0.87808
378.028	47.24632
378.242	59.89417
378.457	59.89417
378.672	34.5993
378.886	51.46218
379.101	0.87808
379.315	9.30781
379.53	57.78613
379.744	70.43467
379.958	76.75925
380.173	13.52282
380.387	13.52282
380.602	-30.72997
380.816	72.54284
381.031	9.30781
381.245	57.78613
381.459	72.54284
381.674	118.92822
381.888	38.81488
382.103	26.16843
382.317	89.40901
382.531	114.71092
382.746	-32.83698
382.96	85.19233
383.174	167.43326
383.388	-26.51589
383.603	78.86748
383.817	13.52282
384.031	34.5993
384.246	99.95108
384.46	70.43467
384.674	47.24632
384.888	59.89417
385.103	95.73419
385.317	34.5993
385.531	59.89417
385.745	-49.69214
385.959	89.40901
386.174	-11.7658
386.388	15.63036
386.602	47.24632
386.816	26.16843
387.03	-20.19457
387.244	43.03055
387.458	70.43467
387.672	-3.33665
387.887	125.25432
388.101	43.03055
388.315	9.30781
388.529	21.95313
388.743	-13.87303
388.957	-41.26476
389.171	142.12488
389.385	40.92271
389.599	38.81488
389.813	-5.44397
390.027	80.97574
390.241	70.43467
390.455	104.16807
390.669	-18.08741
390.883	24.06077
391.097	2.98547
391.311	17.73793
391.525	30.38382
391.738	-7.55127
391.952	62.00222
392.166	45.13842
392.38	97.84262
392.594	26.16843
392.808	-5.44397
393.022	110.49372
393.236	114.71092
393.449	104.16807
393.663	34.5993
393.877	95.73419
394.091	74.65103
394.305	-7.55127
394.518	9.30781
394.732	53.57014
394.946	47.24632
395.16	13.52282
395.373	-1.2293
395.587	97.84262
395.801	5.09289
396.015	28.27611
396.228	9.30781
396.442	11.4153
396.656	89.40901
396.869	0.87808
397.083	-15.98024
397.297	68.32652
397.51	72.54284
397.724	38.81488
397.938	11.4153
398.151	45.13842
398.365	30.38382
398.578	104.16807
398.792	43.03055
399.005	21.95313
399.219	2.98547
399.433	36.70708
399.646	43.03055
399.86	-3.33665
400.073	51.46218
400.287	-11.7658
400.5	26.16843
400.714	7.20034
400.927	102.05957
401.141	26.16843
401.354	102.05957
401.567	34.5993
401.781	38.81488
401.994	102.05957
402.208	93.62577
402.421	68.32652
402.635	49.35423
402.848	9.30781
403.061	11.4153
403.275	17.73793
403.488	51.46218
403.701	51.46218
403.915	76.75925
404.128	68.32652
404.341	15.63036
404.555	53.57014
404.768	30.38382
404.981	-37.05092
405.195	-18.08741
405.408	-1.2293
405.621	-24.40881
405.834	-7.55127
406.048	53.57014
406.261	7.20034
406.474	43.03055
406.687	43.03055
406.9	140.01598
407.114	59.89417
407.327	43.03055
407.54	34.5993
407.753	62.00222
407.966	-34.94396
408.179	59.89417
408.392	26.16843
408.605	38.81488
408.819	-13.87303
409.032	64.1103
409.245	0.87808
409.458	45.13842
409.671	34.5993
409.884	85.19233
410.097	68.32652
410.31	68.32652
410.523	59.89417
410.736	59.89417
410.949	24.06077
411.162	15.63036
411.375	83.08402
411.588	21.95313
411.801	55.67812
412.014	85.19233
412.227	43.03055
412.44	2.98547
412.653	123.1456
412.865	80.97574
413.078	89.40901
413.291	93.62577
413.504	62.00222
413.717	-3.33665
413.93	15.63036
414.143	152.66967
414.356	68.32652
414.568	55.67812
414.781	72.54284
414.994	-49.69214
415.207	21.95313
415.42	-30.72997
415.632	97.84262
415.845	51.46218
416.058	114.71092
416.271	80.97574
416.483	78.86748
416.696	76.75925
416.909	64.1103
417.121	89.40901
417.334	38.81488
417.547	26.16843
417.759	53.57014
417.972	34.5993
418.185	21.95313
418.397	110.49372
418.61	49.35423
418.823	-49.69214
419.035	55.67812
419.248	93.62577
419.46	112.60231
419.673	26.16843
419.885	104.16807
420.098	70.43467
420.311	102.05957
420.523	26.16843
420.736	57.78613
420.948	74.65103
421.161	87.30066
421.373	85.19233
421.586	74.65103
421.798	85.19233
422.01	47.24632
422.223	72.54284
422.435	30.38382
422.648	55.67812
422.86	34.5993
423.073	76.75925
423.285	114.71092
423.497	45.13842
423.71	26.16843
423.922	59.89417
424.134	43.03055
424.347	57.78613
424.559	91.51738
424.771	106.2766
424.984	-5.44397
425.196	66.2184
425.408	68.32652
425.621	131.58062
425.833	64.1103
426.045	123.1456
426.257	72.54284
426.47	68.32652
426.682	99.95108
426.894	38.81488
427.106	47.24632
427.318	135.79826
427.531	70.43467
427.743	9.30781
427.955	87.30066
428.167	102.05957
428.379	40.92271
428.591	110.49372
428.804	43.03055
429.016	38.81488
429.228	95.73419
429.44	55.67812
429.652	91.51738
429.864	87.30066
430.076	135.79826
430.288	26.16843
430.5	74.65103
430.712	169.54242
430.924	34.5993
431.136	70.43467
431.348	114.71092
431.56	76.75925
431.772	0.87808
431.984	83.08402
432.196	57.78613
432.408	68.32652
432.62	83.08402
432.832	106.2766
433.044	55.67812
433.256	64.1103
433.468	49.35423
433.679	129.47183
433.891	85.19233
434.103	146.34273
434.315	123.1456
434.527	53.57014
434.739	106.2766
434.95	78.86748
435.162	127.36306
435.374	152.66967
435.586	194.85404
435.798	127.36306
436.009	137.90711
436.221	142.12488
436.433	70.43467
436.645	85.19233
436.856	36.70708
437.068	38.81488
437.28	116.81956
437.491	163.21498
437.703	173.76082
437.915	182.19786
438.126	135.79826
438.338	213.83967
438.55	146.34273
438.761	110.49372
438.973	140.01598
439.184	59.89417
439.396	171.65161
439.608	118.92822
439.819	137.90711
440.031	188.52586
440.242	163.21498
440.454	110.49372
440.665	133.68943
440.877	102.05957
441.088	135.79826
441.3	150.56067
441.511	156.88773
441.723	194.85404
441.934	173.76082
442.146	137.90711
442.357	213.83967
442.569	230.71714
442.78	112.60231
442.991	180.08857
443.203	156.88773
443.414	194.85404
443.626	228.60739
443.837	264.47581
444.048	196.96348
444.26	211.73008
444.471	114.71092
444.682	215.94929
444.894	152.66967
445.105	177.9793
445.316	287.68771
445.528	205.40141
445.739	169.54242
445.95	241.26619
446.161	186.41651
446.373	245.48595
446.584	192.74463
446.795	188.52586
447.006	177.9793
447.217	226.49765
447.429	262.36575
447.64	209.6205
447.851	232.82691
448.062	213.83967
448.273	232.82691
448.484	211.73008
448.695	203.2919
448.907	215.94929
449.118	224.38794
449.329	211.73008
449.54	279.24676
449.751	313.01233
449.962	234.9367
450.173	266.58589
450.384	304.5705
450.595	277.13656
450.806	308.79138
451.017	264.47581
451.228	279.24676
451.439	247.59586
451.65	323.56502
451.861	281.35697
452.072	283.46719
452.283	279.24676
452.494	239.15634
452.705	372.11307
452.915	376.33506
453.126	327.78622
453.337	363.66927
453.548	313.01233
453.759	382.66819
453.97	308.79138
454.181	304.5705
454.391	363.66927
454.602	408.00217
454.813	359.44748
455.024	435.44996
455.235	313.01233
455.445	351.00409
455.656	467.12378
455.867	422.78141
456.078	393.22373
456.288	359.44748
456.499	393.22373
456.71	441.78444
456.921	410.11344
457.131	500.91295
457.342	427.0042
457.553	484.01789
457.763	321.45445
457.974	418.55869
458.184	374.22406
458.395	534.70585
458.606	557.94055
458.816	534.70585
459.027	519.921
459.237	612.86537
459.448	553.71593
459.659	572.72712
459.869	574.83955
460.08	484.01789
460.29	794.5971
460.501	684.7029
460.711	629.76706
460.922	617.09072
461.132	663.57279
461.343	646.66954
461.553	710.06055
461.764	659.3469
461.974	684.7029
462.184	750.21336
462.395	830.52991
462.605	830.52991
462.816	669.9117
463.026	841.09888
463.236	798.82435
463.447	997.54333
463.657	790.36989
463.867	1033.48871
464.078	1048.29025
464.288	963.71408
464.498	1016.57302
464.709	1082.12336
464.919	997.54333
465.129	1156.1377
465.339	1154.02292
465.55	1181.51525
465.76	1069.43578
465.97	1134.99018
466.18	1198.43392
466.391	1263.99572
466.601	1141.33439
466.811	1505.10832
467.021	1232.27191
467.231	1378.20545
467.441	1263.99572
467.651	1589.70925
467.862	1534.71886
468.072	1589.70925
468.282	1591.82424
468.492	1623.54893
468.702	1606.62915
468.912	1983.04103
469.122	1570.67422
469.332	1820.22782
469.542	1676.42229
469.752	1900.58119
469.962	2025.3245
470.172	2080.28895
470.382	2031.66679
470.592	2097.20012
470.802	1923.83999
471.012	2156.38535
471.222	2306.43273
471.432	2327.56246
471.642	2137.36219
471.852	2405.73387
472.062	2346.5784
472.272	2612.71079
472.482	2422.63395
472.691	2648.60346
472.901	2566.25623
473.111	2557.80932
473.321	2711.93456
473.531	2815.34992
473.741	2701.38018
473.95	3074.79317
474.16	2903.96528
474.37	3232.87564
474.58	3190.72926
474.79	3321.36119
474.999	3129.60537
475.209	3161.22288
475.419	3253.94633
475.628	3502.45019
475.838	3369.80475
476.048	3430.87257
476.258	3489.82036
476.467	3836.89462
476.677	3799.05741
476.886	3960.87128
477.096	4084.7772
477.306	3876.82692
477.515	3870.5223
477.725	4347.04886
477.935	4088.97614
478.144	4179.23316
478.354	4233.78826
478.563	4405.75179
478.773	4347.04886
478.982	4472.8199
479.192	4558.71797
479.401	4749.23587
479.611	4669.70155
479.82	5037.7946
480.03	4866.38471
480.239	4918.66019
480.449	4784.80645
480.658	5309.2229
480.868	5142.23665
481.077	5371.80417
481.287	5123.44136
481.496	5336.34404
481.705	5409.34279
481.915	5467.72107
482.124	5788.47151
482.333	5753.09146
482.543	5721.86811
482.752	5934.08218
482.961	5990.21541
483.171	6175.12563
483.38	6000.60857
483.589	6231.18519
483.799	6343.25309
484.008	6436.59099
484.217	6033.86272
484.426	6453.17946
484.636	6409.63155
484.845	6766.00908
485.054	6647.98283
485.263	6852.92823
485.472	6921.1937
485.682	7045.24967
485.891	6912.92041
486.1	7070.05115
486.309	6972.89355
486.518	7243.57163
486.727	7231.1825
486.936	7404.55834
487.146	7255.95997
487.355	7293.12021
487.564	7493.25072
487.773	7693.17841
487.982	7724.07722
488.191	7775.56473
488.4	7969.04139
488.609	7616.941
488.818	7792.03796
489.027	8100.66655
489.236	8100.66655
489.445	8160.282
489.654	8084.21794
489.863	8330.81325
490.072	8289.73378
490.281	8285.62541
490.49	8478.63509
490.698	8552.50879
490.907	8421.16069
491.116	8923.56431
491.325	8534.04267
491.534	8894.88514
491.743	8810.87591
491.952	8950.19186
492.16	9103.75431
492.369	9377.87969
492.578	9175.38346
492.787	9253.12866
492.996	9316.53443
493.204	9177.4297
493.413	9246.99177
493.622	9684.3884
493.831	9441.25431
494.039	9837.51145
494.248	9498.48253
494.457	10055.82257
494.665	9706.8518
494.874	9841.59357
495.083	9731.35522
495.291	9951.78851
495.5	9970.15018
495.709	10324.91794
495.917	10125.15804
496.126	10180.20706
496.335	10335.10629
496.543	10514.36766
496.752	10198.55449
496.96	10441.0456
497.169	10349.36942
497.377	10632.46317
497.586	10555.09501
497.794	10709.81357
498.003	10500.11189
498.211	10815.63335
498.42	10738.30668
498.628	11025.14536
498.837	11039.37972
499.045	11134.93942
499.254	10911.25089
499.462	11340.21224
499.671	11080.04634
499.879	11116.6426
500.087	11289.4119
500.296	11380.848
500.504	11287.37976
500.713	11206.08554
500.921	11482.42021
501.129	11466.17029
501.338	11303.63664
501.546	11758.57809
501.754	11563.66075
501.962	11791.05637
502.171	11567.72238
502.379	12050.80569
502.587	11782.93701
502.795	12077.17912
503.004	11880.3604
503.212	12036.60406
503.42	12131.95057
503.628	12018.34427
503.837	12026.45981
504.045	12229.30853
504.253	12426.00246
504.461	12334.76083
504.669	12290.14873
504.877	12221.19601
505.085	12604.39205
505.294	12476.68639
505.502	12265.81342
505.71	12644.92835
505.918	12677.35566
506.126	12900.25352
506.334	12616.55319
506.542	13052.19206
506.75	12559.79927
506.958	12853.65316
507.166	12956.9806
507.374	13033.96093
507.582	13090.6787
507.79	13159.54525
507.998	13196.00184
508.206	13311.43827
508.414	12920.51366
508.622	13054.21771
508.83	13208.15372
509.037	13465.3325
509.245	13143.34184
509.453	13374.21371
509.661	13566.56663
509.869	13756.8634
510.077	13580.73868
510.285	13613.13132
510.492	13582.76325
510.7	13625.27833
510.908	13793.3
511.116	13534.1727
511.324	13607.05777
511.531	13801.39689
511.739	13722.45015
511.947	13819.61473
512.155	13965.34925
512.362	14068.56976
512.57	13809.49374
512.778	14161.66546
512.985	14054.40261
513.193	13971.42122
513.401	14013.92439
513.608	14266.89878
513.816	14104.99907
514.024	14161.66546
514.231	14017.97226
514.439	14368.07994
514.646	14459.1395
514.854	14487.46853
515.061	14353.91483
515.269	14616.96946
515.477	14307.37177
515.684	14623.0397
515.892	14461.16301
516.099	14614.94605
516.307	14691.83508
516.514	15072.2181
516.722	15060.07845
516.929	15118.75337
517.136	15201.70747
517.344	15062.10172
517.551	14995.33351
517.759	14999.38008
517.966	15064.125
518.173	14997.35679
518.381	15468.78128
518.588	15138.98608
518.796	15058.05517
519.003	15513.29429
519.21	15559.83094
519.418	15638.74179
519.625	15442.47827
519.832	15695.3965
520.039	15695.3965
520.247	15689.32632
520.454	15691.34971
520.661	16168.90323
520.868	15968.56464
521.076	16059.62581
521.283	15802.63783
521.49	15687.30293
521.697	15881.55321
521.904	16203.30635
522.112	15879.52972
522.319	16312.5902
522.526	15946.30568
522.733	16393.54465
522.94	16438.07092
523.147	16322.70934
523.354	16199.2589
523.561	16124.38224
523.768	16357.11477
523.975	16614.16194
524.183	16217.47249
524.39	16727.51675
524.597	16628.33089
524.804	16468.4303
525.011	16695.12892
525.218	16822.65957
525.425	16717.39549
525.632	16929.95489
525.838	16996.76509
526.045	16921.85687
526.252	17150.64225
526.459	17300.48577
526.666	17318.71108
526.873	17424.0177
527.08	17409.84133
527.287	17245.81128
527.494	17100.02299
527.701	17421.99249
527.907	17448.32041
528.114	17835.20107
528.321	17638.70743
528.528	17553.63739
528.735	17658.96305
528.941	17673.14219
529.148	17760.24615
529.355	17818.99421
529.562	17462.4972
529.768	17642.75853
529.975	17614.40112
530.182	17654.9119
530.388	17417.94209
530.595	17944.60321
530.802	17675.16779
531.008	18360.02119
531.215	18013.49128
531.422	18437.04261
531.628	17938.52504
531.835	18248.55245
532.042	18420.82712
532.248	18293.13859
532.455	18347.86041
532.661	18678.27709
532.868	18384.34315
533.074	18860.76014
533.281	18593.12924
533.487	19049.35996
533.694	18603.26553
533.9	18992.57355
534.107	18582.99305
534.313	19162.94233
534.52	18801.95654
534.726	19045.30368
534.933	18769.5146
535.139	19014.88211
535.345	19262.33743
535.552	19173.08424
535.758	19148.74383
535.965	19438.83881
536.171	19436.80988
536.377	19457.09936
536.584	19615.3716
536.79	19367.82874
536.996	19680.31115
537.203	19710.75304
537.409	19377.97273
537.615	19737.13677
537.821	19627.54744
538.028	19954.32213
538.234	19883.2749
538.44	20124.8565
538.646	19850.79788
538.853	20007.1034
539.059	19781.78778
539.265	20124.8565
539.471	20011.16362
539.677	19887.3346
539.883	20289.32847
540.09	20591.94758
540.296	20394.92994
540.502	20480.23171
540.708	20405.08452
540.914	20717.89696
541.12	20149.22098
541.326	20571.63466
541.532	20608.19821
541.738	20801.19484
541.944	20600.07286
542.15	20799.16311
542.356	20677.26638
542.562	20870.27642
542.768	20919.04276
542.974	21008.45387
543.18	20953.58702
543.386	21337.71744
543.592	21620.31781
543.798	21599.98429
544.004	21303.1601
544.21	21581.68446
544.415	21166.97488
544.621	21433.26435
544.827	21358.04583
545.033	21538.9861
545.239	21608.11765
545.445	21929.43527
545.651	21565.41822
545.856	21567.45148
546.062	21477.99148
546.268	21648.7854
546.474	21591.851
546.679	21587.78437
546.885	21630.48472
547.091	21844.0123
547.297	21496.28949
547.502	21880.62132
547.708	21886.72294
547.914	22002.66033
548.119	22222.36484
548.325	22069.78762
548.531	21587.78437
548.736	21923.33341
548.942	21964.01316
549.147	21754.52886
549.353	22222.36484
549.559	22637.47919
549.764	22301.71325
549.97	21974.18333
550.175	22033.17222
550.381	22688.36128
550.586	22466.53157
550.792	22291.54006
550.997	22124.71299
551.203	22495.02109
551.408	22503.16108
551.614	22863.41227
551.819	22995.73502
552.025	22857.30541
552.23	23138.25226
552.435	23191.19134
552.641	23457.9559
552.846	23126.03586
553.052	23258.38641
553.257	23282.82186
553.462	23366.31308
553.668	23005.91429
553.873	23207.48073
554.078	23282.82186
554.283	23543.49489
554.489	23474.24862
554.694	23484.43167
554.899	23618.85515
555.105	23464.06565
555.31	23889.77855
555.515	23541.45819
555.72	23838.84913
555.925	23688.10877
556.131	24026.27823
556.336	23912.18807
556.541	24156.67776
556.746	24146.48989
556.951	23749.21778
557.156	23315.40316
557.361	23863.29503
557.567	24321.7307
557.772	24164.8281
557.977	24028.31563
558.182	24201.5052
558.387	24117.96422
558.592	24547.94248
558.797	24384.90375
559.002	24307.46618
559.207	24177.05371
559.412	24203.54284
559.617	24260.59793
559.822	24645.77351
560.027	24609.0862
560.232	24664.11747
560.437	24166.8657
560.642	24283.013
560.847	24395.09318
561.051	24704.88253
561.256	24572.39969
561.461	24517.37147
561.666	24592.78099
561.871	24902.60679
562.076	24857.76015
562.281	25143.16689
562.485	24586.66657
562.69	24611.12436
562.895	24666.1557
563.1	24763.99361
563.305	24935.22324
563.509	24878.14485
563.714	25116.66297
563.919	25020.84424
564.123	24867.95247
564.328	24890.37578
564.533	24796.60748
564.737	24547.94248
564.942	25143.16689
565.147	25438.8124
565.351	24935.22324
565.556	24918.91494
565.761	25542.80853
565.965	25116.66297
566.17	25294.04244
566.374	25289.96457
566.579	25387.83586
566.784	25428.61699
566.988	25271.61424
567.193	25536.69097
567.397	25453.08607
567.602	25824.23566
567.806	25718.18632
568.011	25681.47814
568.215	25999.636
568.42	25593.78894
568.624	25781.40742
568.828	25671.28154
569.033	25483.67283
569.237	26046.54767
569.442	25832.39351
569.646	25948.64613
569.85	26275.00029
570.055	26419.83388
570.259	26560.59544
570.463	26646.28003
570.668	26079.18242
570.872	26052.66665
571.076	26087.34118
571.281	26144.45328
571.485	26481.03363
571.689	26085.30149
571.893	26219.92492
572.098	26430.03373
572.302	26497.3538
572.506	26723.8065
572.71	26701.3644
572.914	26748.28899
573.119	26321.9173
573.323	26658.5209
573.527	26550.39507
573.731	27015.56983
573.935	27176.76608
574.139	26911.51101
574.343	26689.12333
574.547	26946.19687
574.751	26925.79337
574.955	27056.3782
575.159	27109.4299
575.364	27180.84711
575.568	27178.80659
575.772	27237.98205
575.976	26876.82555
576.18	26764.61077
576.383	26719.7261
576.587	26978.84277
576.791	26909.47067
576.995	27113.51084
577.199	26821.73775
577.403	27023.73146
577.607	27576.73143
577.811	27676.73028
578.015	27203.29286
578.219	27372.66134
578.422	27213.49552
578.626	27382.86455
578.83	27542.03864
579.034	27574.69067
579.238	27760.40499
579.442	27564.48688
579.645	27499.18333
579.849	27556.32386
580.053	28009.39992
580.257	27762.44587
580.46	27499.18333
580.664	27960.41596
580.868	27646.11808
581.071	27742.0372
581.275	27856.32723
581.479	28103.28766
581.682	28056.34349
581.886	27782.85465
582.09	27623.6693
582.293	27891.02314
582.497	28250.24709
582.7	28321.68776
582.904	28256.37053
583.107	28072.67183
583.311	28005.3179
583.515	28350.26439
583.718	28405.37708
583.922	28756.48344
584.125	28689.1176
584.329	28495.19201
584.532	28440.07805
584.735	28642.16632
584.939	28470.69682
585.142	28693.20035
585.346	28313.52304
585.549	28613.58756
585.753	28309.44069
585.956	28707.48999
586.159	28860.59653
586.363	29023.91661
586.566	29215.8262
586.769	28948.38025
586.973	29289.32592
587.176	29193.36822
587.379	28574.80242
587.582	29368.95215
587.786	28825.89187
587.989	29256.65921
588.192	29268.90919
588.395	29348.53501
588.599	28848.34779
588.802	29260.74253
589.005	29270.95086
589.208	29754.85592
589.411	29305.65937
589.615	29128.03663
589.818	29632.34264
590.021	29456.74702
590.224	29842.65952
590.427	29524.1258
590.63	29805.90428
590.833	29781.40098
591.036	29781.40098
591.239	29971.30571
591.442	29560.87836
591.645	29540.46023
591.848	29736.47868
592.051	29744.64633
592.254	29524.1258
592.457	30171.43095
592.66	29838.57559
592.863	30200.02118
593.066	30396.07477
593.269	30481.85175
593.472	30261.28674
593.675	30708.55884
593.878	30418.53995
594.081	30377.69427
594.284	30606.43656
594.486	30479.80941
594.689	30573.75811
594.892	30655.45484
595.095	30692.21905
595.298	30669.75199
595.5	30916.89869
595.703	31063.97087
595.906	30835.19509
596.109	30871.96144
596.311	30906.68562
596.514	30632.98804
596.717	30714.68628
596.92	31386.73969
597.122	30722.85622
597.325	30453.25918
597.528	30933.23968
597.73	30841.32278
597.933	30649.32752
598.136	30939.36757
598.338	30581.92769
598.541	31247.82182
598.743	31080.31269
598.946	30669.75199
599.148	30988.39119
599.351	31027.20213
599.554	30890.34478
599.756	31184.494
599.959	31223.30765
600.161	31333.62317
600.363	31325.4515
600.566	31501.14823
600.768	31403.08346
600.971	31640.07993
601.173	31429.64229
601.376	31821.92924
601.578	31501.14823
601.78	31917.96786
601.983	31374.48194
602.185	31605.34627
602.388	31535.88042
602.59	31725.89469
602.792	31396.95453
602.995	32042.62
603.197	31578.78556
603.399	31664.59812
603.601	31952.70626
603.804	31556.31135
604.006	31750.41377
604.208	31454.15839
604.41	31754.50031
604.613	32024.22824
604.815	31766.75997
605.017	32020.14121
605.219	32355.30507
605.421	32020.14121
605.623	31793.32278
605.826	31374.48194
606.028	31582.87181
606.23	31834.18926
606.432	31756.54358
606.634	32688.48335
606.836	31787.19288
607.038	32105.9706
607.24	31770.84653
607.442	31950.66281
607.644	31973.14087
607.846	32359.39279
608.048	32195.89093
608.25	32412.53386
608.452	32275.59638
608.654	32637.37838
608.856	32073.27328
609.058	32416.6217
609.26	32322.60368
609.462	32340.99814
609.664	32369.61211
609.866	32371.65598
610.067	32381.87537
610.269	32293.99041
610.471	31950.66281
610.673	32408.44603
610.875	32520.86457
611.077	32067.14259
611.278	32240.85259
611.48	32075.31685
611.682	31860.75286
611.884	32888.82962
612.085	32330.77897
612.287	32700.74876
612.489	32435.01707
612.69	32514.73247
612.892	32633.29004
613.094	32604.67198
613.295	32097.79622
613.497	32457.50056
613.699	32050.79416
613.9	32287.85905
614.102	32296.0342
614.304	32719.14705
614.505	32044.66354
614.707	32355.30507
614.908	32553.56944
615.11	32373.69985
615.311	32788.65349
615.513	32267.42132
615.714	32322.60368
615.916	32588.31901
616.117	32244.94006
616.319	32659.86438
616.52	32175.45414
616.722	32531.08478
616.923	31997.66266
617.124	32324.6475
617.326	31922.0547
617.527	32663.95277
617.729	32629.20172
617.93	32616.93681
618.131	32641.46672
618.333	32907.22998
618.534	32688.48335
618.735	33052.39582
618.937	32917.45249
619.138	32604.67198
619.339	32688.48335
619.54	32755.94422
619.742	32868.38501
619.943	32355.30507
620.144	32576.05437
620.345	33070.79808
620.546	32962.43232
620.748	33299.82282
620.949	32868.38501
621.15	33369.35528
621.351	32833.62977
621.552	32698.70452
621.753	32030.35881
621.954	32745.72271
622.155	32890.87409
622.356	33207.7997
622.558	33277.32774
622.759	32999.23495
622.96	32563.78983
623.161	32437.06102
623.362	32727.32413
623.563	32847.94067
623.764	32770.25445
623.965	32708.92576
624.166	33003.32418
624.366	32745.72271
624.567	32330.77897
624.768	33050.35114
624.969	32533.12882
625.17	33074.8875
625.371	32704.83725
625.572	33260.9679
625.773	32948.12042
625.973	33189.39577
626.174	32498.38031
626.375	32954.25408
626.576	33218.02421
626.777	33586.1553
626.977	32780.47611
627.178	33549.33777
627.379	32676.21802
627.58	32772.29878
627.78	33091.2453
627.981	33078.97694
628.182	33181.21632
628.382	33081.02166
628.583	32825.45218
628.784	33115.78232
628.984	32590.36312
629.185	33109.64803
629.386	32289.90283
629.586	32937.89771
629.787	32860.20724
629.987	32764.12148
630.188	32899.05201
630.388	33038.0831
630.589	32821.36339
630.79	32899.05201
630.99	33064.66397
631.191	32770.25445
631.391	33592.29166
631.591	33160.76789
631.792	32917.45249
631.992	33661.83903
632.193	33299.82282
632.393	33297.77779
632.594	33166.90239
632.794	33436.84596
632.994	32939.94225
633.195	32884.74067
633.395	33340.72386
633.595	33164.85756
633.796	33123.96142
633.996	33483.88686
634.196	33344.81402
634.397	33798.89924
634.597	33553.42855
634.797	33729.34445
634.997	33878.68746
635.198	33395.94213
635.398	33440.93641
635.598	33882.7793
635.798	34138.54739
635.998	33780.48731
636.199	33596.38258
636.399	33512.52124
636.599	33242.56331
636.799	33780.48731
636.999	33479.79628
637.199	33134.18535
637.399	33389.80666
637.599	33757.98419
637.799	33561.61017
637.999	33995.31042
638.199	33733.4358
638.399	33670.02132
638.599	33880.73338
638.799	34154.91846
638.999	34234.73086
639.199	34220.40514
639.399	33768.21283
639.599	33948.25067
639.799	33305.9579
639.999	33790.71613
640.199	33729.34445
640.399	34032.1411
640.599	32927.67507
640.799	34582.6998
640.998	34304.31558
641.198	34312.50231
641.398	33655.70235
641.598	34226.54471
641.798	33880.73338
641.997	34347.2966
642.197	34107.85225
642.397	33825.49474
642.597	33860.27433
642.796	33657.7479
642.996	33600.47351
643.196	34152.87206
643.395	33557.51935
643.595	33715.02482
643.795	33960.52695
643.994	34394.37302
644.194	34075.11169
644.394	34167.19692
644.593	34083.29674
644.793	34580.65259
644.992	34341.15635
645.192	34314.54901
645.392	34068.97293
645.591	34077.15795
645.791	34007.58718
645.99	34095.57443
646.19	33635.24695
646.389	33978.9416
646.589	34173.3362
646.788	34335.01614
646.987	34042.37205
647.187	34414.84168
647.386	34345.24985
647.586	34484.43809
647.785	34627.73959
647.984	34906.21324
648.184	34711.68281
648.383	34494.67325
648.582	34226.54471
648.782	34484.43809
648.981	34109.89857
649.18	34255.1965
649.38	34979.94051
649.579	35377.35311
649.778	34781.29969
649.977	34582.6998
650.177	34461.9211
650.376	34830.44405
650.575	34392.32618
650.774	34584.74702
650.973	34326.82924
651.173	34660.49708
651.372	34285.89567
651.571	34535.61489
651.77	34441.45153
651.969	35000.42135
652.168	34292.03561
652.367	34850.92161
652.566	34500.81439
652.765	34533.56777
652.964	35111.02588
653.163	34355.48366
653.362	34680.97105
653.561	34400.51358
653.76	34566.3222
653.959	34410.74792
654.158	34809.96693
654.357	34701.44545
654.556	34175.38264
654.755	35072.10793
654.954	34732.15784
655.153	34703.49291
655.352	34809.96693
655.551	34797.68087
655.749	35053.67369
655.948	35221.64416
656.147	35127.4129
656.346	35131.5097
656.545	35281.05607
656.743	34701.44545
656.942	34380.0452
657.141	34642.07086
657.34	34910.30905
657.538	34723.96778
657.737	35059.8184
657.936	35682.70962
658.135	35264.66616
658.333	35365.05926
658.532	35313.83681
658.731	35080.30104
658.929	34861.16056
659.128	34351.39012
659.326	34586.79425
659.525	35252.37394
659.724	34697.35053
659.922	34644.1182
660.121	34932.8363
660.319	35111.02588
660.518	34648.21289
660.716	34934.88426
660.915	35629.41757
661.113	35473.66123
661.312	35158.13937
661.51	35350.71666
661.709	35094.63917
661.907	34945.12412
662.105	34797.68087
662.304	34967.65222
662.502	35088.49423
662.701	35395.79423
662.899	35076.20447
663.097	35285.15359
663.296	35346.61882
663.494	35799.55494
663.692	35291.29991
663.891	35510.54818
664.089	35270.81234
664.287	35231.8873
664.485	34672.78141
664.684	34928.7404
664.882	35115.12261
665.08	35147.8971
665.278	35332.27653
665.476	35264.66616
665.675	35162.23632
665.873	35322.03219
666.071	35262.61745
666.269	35084.39763
666.467	35422.43211
666.665	35151.99399
666.863	34623.64498
667.061	34947.17211
667.259	35252.37394
667.457	35195.01256
667.655	34832.49178
667.853	34793.58555
668.051	34662.54445
668.249	34654.35497
668.447	34566.3222
668.645	34738.30044
668.843	34783.34733
669.041	34513.09679
669.239	34480.34405
669.437	34079.20421
669.635	34754.68088
669.833	34478.29704
670.031	34242.91707
670.229	34355.48366
670.426	34224.49818
670.624	34629.7869
670.822	34588.84147
671.02	34885.73448
671.218	34566.3222
671.415	34736.2529
671.613	34613.40853
671.811	34478.29704
672.009	34918.50071
672.206	34754.68088
672.404	34615.45581
672.602	34547.8977
672.799	34476.25004
672.997	34680.97105
673.195	34470.10904
673.392	34910.30905
673.59	34865.25617
673.788	34427.12306
673.985	33837.76978
674.183	34592.93594
674.38	34576.55817
674.578	34484.43809
674.775	34324.78252
674.973	34443.49846
675.17	34689.16076
675.368	34793.58555
675.565	34437.35766
675.763	34484.43809
675.96	34541.75628
676.158	34330.92268
676.355	33911.42259
676.553	34834.53953
676.75	34136.50102
676.947	33847.99907
677.145	33735.48149
677.342	34275.66252
677.539	34781.29969
677.737	34384.13884
677.934	34206.0796
678.131	34351.39012
678.329	34549.94485
678.526	34504.90851
678.723	34539.70914
678.92	34914.40487
679.118	34795.6332
679.315	34032.1411
679.512	34451.68626
679.709	34646.16554
679.906	34306.36226
680.104	34367.76436
680.301	33940.06655
680.498	33663.88459
680.695	33412.30352
680.892	33882.7793
681.089	33749.80135
681.286	33698.65973
681.483	33667.97574
681.68	33602.51898
681.877	33629.11039
682.075	33698.65973
682.272	33643.42907
682.469	34185.61486
682.665	33434.80074
682.862	33784.57882
683.059	33788.67036
683.256	33727.29878
683.453	33504.33992
683.65	33757.98419
683.847	33987.12598
684.044	33330.49849
684.241	32888.82962
684.438	33635.24695
684.635	33160.76789
684.831	33780.48731
685.028	33688.43165
685.225	33647.52015
685.422	33639.338
685.619	33796.85346
685.815	33191.44064
686.012	33903.23872
686.209	33330.49849
686.405	33651.61124
686.602	33332.54355
686.799	33430.71031
686.996	33659.79346
687.192	33872.54972
687.389	33371.40041
687.586	33602.51898
687.782	33283.46273
687.979	33647.52015
688.175	33275.28275
688.372	33338.67878
688.568	32952.20952
688.765	33070.79808
688.962	32537.21693
689.158	32623.06925
689.355	32755.94422
689.551	32633.29004
689.748	32737.54554
689.944	32324.6475
690.14	32616.93681
690.337	32700.74876
690.533	32578.09847
690.73	32997.19034
690.926	33516.61191
691.123	32698.70452
691.319	32508.6004
691.515	32854.07394
691.712	32770.25445
691.908	32643.51089
692.104	32061.01191
692.301	32653.7318
692.497	32285.81526
692.693	32522.90861
692.889	32868.38501
693.086	32653.7318
693.282	32886.78514
693.478	33015.59195
693.674	32557.65759
693.87	32375.74373
694.067	32073.27328
694.263	32338.9543
694.459	31973.14087
694.655	32281.72771
694.851	32169.32315
695.047	32488.16029
695.243	32249.02754
695.439	32069.18615
695.635	32224.50278
695.831	32353.26122
696.027	31991.53218
696.224	32024.22824
696.42	31995.61916
696.615	31993.57567
696.811	31952.70626
697.007	32257.20253
697.203	32061.01191
697.399	32385.96314
697.595	32007.88015
697.791	32316.47223
697.987	32283.77148
698.183	32267.42132
698.379	31742.24072
698.575	32289.90283
698.77	31729.98119
698.966	32273.55261
699.162	32461.58849
699.358	32302.16558
699.554	31967.01046
699.749	32402.31431
699.945	32212.24051
700.141	31844.40599
700.337	32063.05547
700.532	32128.45032
700.728	32367.56824
700.924	32300.12179
701.119	31754.50031
701.315	31421.47031
701.511	31086.4409
701.706	31492.97602
701.902	31452.11537
702.097	31425.5563
702.293	31450.07236
702.489	31441.90031
702.684	31740.19746
702.88	31776.9764
703.075	31323.40858
703.271	31215.13631
703.466	31490.93297
703.662	31066.0136
703.857	31319.32276
704.053	31088.48363
704.248	31206.965
704.443	31858.7095
704.639	32144.79935
704.834	31791.27948
705.03	31578.78556
705.225	31362.22424
705.42	31392.86859
705.616	31147.72368
705.811	30988.39119
706.006	31233.52186
706.202	31474.58865
706.397	31162.0232
706.592	31856.66614
706.787	31262.12186
706.983	31200.83653
707.178	31813.75593
707.373	31188.57963
707.568	30904.64301
707.763	30606.43656
707.959	30706.51636
708.154	30733.06868
708.349	30579.8853
708.544	31390.82563
708.739	31211.05065
708.934	30843.36535
709.129	31041.50103
709.324	30637.0729
709.519	30761.66373
709.714	30124.46179
709.909	30673.83689
710.104	30081.57743
710.299	30477.76708
710.494	30771.87632
710.689	30426.70915
710.884	30882.17439
711.079	31209.00782
711.274	30953.66604
711.469	31635.99359
711.664	30796.38665
711.859	30867.87627
712.054	30263.32894
712.249	30588.05489
712.443	30618.69106
712.638	30624.81833
712.833	29581.29659
713.028	29734.43677
713.223	29530.25121
713.417	30275.58219
713.612	30567.63094
713.807	30820.89719
714.002	30630.94561
714.196	30773.91884
714.391	30471.64009
714.586	30943.45284
714.78	30706.51636
714.975	30737.15367
715.17	30657.49729
715.364	30616.64864
715.559	30412.41307
715.754	30381.77881
715.948	30575.80051
716.143	29871.24718
716.337	29609.8823
716.532	30408.32849
716.726	30287.83548
716.921	30702.43141
717.115	30494.10578
717.31	30516.57163
717.504	30255.16013
717.699	30441.00529
717.893	29910.04507
718.088	29787.52679
718.282	30052.98815
718.476	30022.35702
718.671	29538.41842
718.865	29399.57804
719.059	29567.00382
719.254	29221.95112
719.448	29034.12434
719.642	29475.12294
719.837	29275.0342
720.031	29397.53631
720.225	29117.82867
720.419	29172.95198
720.614	29048.4152
720.808	29056.58142
721.002	28568.67848
721.196	29223.99277
721.39	29199.49311
721.585	29397.53631
721.779	29362.827
721.973	29826.32382
722.167	28981.04445
722.361	29160.70229
722.555	29350.57672
722.749	29023.91661
722.943	28960.62929
723.137	28629.91825
723.331	28629.91825
723.525	29005.54277
723.719	29281.15922
723.913	29221.95112
724.107	28658.49714
724.301	28970.83686
724.495	28952.46326
724.689	28785.06324
724.883	28250.24709
725.077	28352.30559
725.271	28495.19201
725.465	28536.01766
725.659	28799.35321
725.853	28891.21854
726.046	28807.51893
726.24	28284.94668
726.434	27964.49793
726.628	28462.53179
726.822	28297.19367
727.015	28523.76992
727.209	28717.69691
727.403	29130.07823
727.596	28985.12749
727.79	29030.04124
727.984	29034.12434
728.177	29015.75045
728.371	28876.92824
728.565	28352.30559
728.758	28325.77012
728.952	28266.57627
729.146	28625.83557
729.339	28605.42223
729.533	28648.29037
729.726	28927.96526
729.92	28738.11083
730.113	28791.1875
730.307	28838.14054
730.5	28672.78666
730.694	28907.55037
730.887	29017.79199
731.081	28725.86246
731.274	28478.86187
731.468	28119.6162
731.661	27821.63166
731.854	27723.66951
732.048	28097.16447
732.241	27831.8362
732.435	28256.37053
732.628	27954.29301
732.821	27897.14599
733.014	28613.58756
733.208	28384.96488
733.401	28903.46741
733.594	28595.2156
733.788	28387.0061
733.981	28244.12367
734.174	28438.03681
734.367	28368.6352
734.56	28474.77934
734.754	28709.53137
734.947	28658.49714
735.14	28480.90313
735.333	28321.68776
735.526	28238.00026
735.719	27799.18176
735.912	27346.13316
736.105	27513.46837
736.298	27682.85275
736.491	27668.567
736.684	27570.60915
736.877	27860.40909
737.07	27654.2813
737.263	28278.8232
737.456	27809.38624
737.649	27446.12513
737.842	27493.06118
738.035	27360.41754
738.228	27642.03647
738.421	27754.28239
738.614	27660.40374
738.807	27605.30223
739	27221.65768
739.192	27344.09254
739.385	27860.40909
739.578	27733.87377
739.771	27558.36461
739.964	27262.46877
740.156	28011.44093
740.349	27795.09997
740.542	27568.56839
740.735	27529.79421
740.927	27727.75121
741.12	27484.89834
741.313	27405.31171
741.505	27625.71009
741.698	27170.64455
741.891	27411.43369
742.083	27195.13075
742.276	27372.66134
742.468	26978.84277
742.661	26927.83372
742.854	27019.65064
743.046	27184.92814
743.239	27182.88762
743.431	27288.99627
743.624	26680.96265
743.816	27378.78326
744.009	27554.28311
744.201	27576.73143
744.393	27144.11805
744.586	27062.4995
744.778	26921.71269
744.971	26958.43904
745.163	26927.83372
745.355	26872.74494
745.548	27023.73146
745.74	27409.39303
745.932	26913.55134
746.125	27056.3782
746.317	27072.7017
746.509	27062.4995
746.702	27007.40822
746.894	26913.55134
747.086	26587.11657
747.278	26750.32921
747.471	26666.68152
747.663	27335.93007
747.855	27062.4995
748.047	27064.53994
748.239	27276.75278
748.431	26676.88232
748.623	26872.74494
748.815	26413.71398
749.008	26972.72163
749.2	27170.64455
749.392	26668.72168
749.584	26564.67559
749.776	27111.47037
749.968	26756.44987
750.16	26758.49009
750.352	26668.72168
750.544	26997.20624
750.736	26927.83372
750.928	27060.45907
751.12	26048.58733
751.311	26311.71788
751.503	26277.04014
751.695	26560.59544
751.887	26544.27487
752.079	27464.49133
752.271	26489.1937
752.463	26587.11657
752.654	26507.55396
752.846	26352.51583
753.038	26042.46835
753.23	25846.66982
753.421	26011.87374
753.613	26060.82532
753.805	26576.9161
753.997	26444.3136
754.188	26079.18242
754.38	25581.55353
754.572	25659.04568
754.763	25895.61788
754.955	25416.38256
755.146	25926.21095
755.338	25834.43298
755.53	25924.1714
755.721	25801.80172
755.913	25979.23992
756.104	25703.91085
756.296	25911.93413
756.487	26060.82532
756.679	26156.69177
756.87	25777.32859
757.062	25502.02511
757.253	25298.12032
757.445	25216.56432
757.636	25216.56432
757.827	25347.05556
758.019	25473.47719
758.21	25043.26945
758.401	25577.47508
758.593	25332.78266
758.784	24939.30034
758.975	24800.68426
759.167	24935.22324
759.358	24729.34204
759.549	24384.90375
759.74	24158.71534
759.932	24533.67593
760.123	24947.45456
760.314	24741.57193
760.505	24680.42338
760.696	24647.81172
760.888	24800.68426
761.079	24684.49988
761.27	24914.83789
761.461	24802.72265
761.652	24494.95309
761.843	24441.96543
762.034	24556.09484
762.225	23918.29981
762.416	24327.84411
762.607	24617.23887
762.798	24812.91465
762.989	24439.92747
763.18	24511.25733
763.371	24203.54284
763.562	24452.15523
763.753	24227.99476
763.944	24429.73775
764.135	24089.43908
764.326	24378.79011
764.517	24148.52746
764.708	24032.39045
764.899	23767.551
765.089	23732.92178
765.28	23327.62136
765.471	23789.9586
765.662	23494.6148
765.853	24160.75293
766.043	23468.13883
766.234	23612.7447
766.425	23286.89447
766.615	23686.07185
766.806	23590.33997
766.997	23561.82538
767.187	23488.50492
767.378	23844.96057
767.569	23417.22498
767.759	23816.44076
767.95	23565.89886
768.141	23419.26149
768.331	23380.56821
768.522	23771.62508
768.712	23730.8848
768.903	23521.0913
769.093	23472.21202
769.284	23097.5314
769.474	23071.06354
769.665	23073.09951
769.855	23040.5244
770.046	22845.09179
770.236	22698.53796
770.426	22533.68657
770.617	22665.97289
770.807	22631.37349
770.998	22969.26933
771.188	22834.91386
771.378	22944.83997
771.569	22857.30541
771.759	22507.2311
771.949	22613.05657
772.139	22665.97289
772.33	22326.12927
772.52	22845.09179
772.71	22826.77158
772.9	22680.22
773.09	22700.57331
773.281	22541.82683
773.471	22462.46169
773.661	22136.919
773.851	21878.58745
774.041	22071.82184
774.231	22352.58055
774.421	21986.38767
774.611	22014.86498
774.802	22236.60645
774.992	22153.19389
775.182	22012.83087
775.372	21821.64074
775.562	21915.19764
775.752	21778.93269
775.942	21728.092
776.131	21713.85705
776.321	21616.25108
776.511	21648.7854
776.701	21532.88648
776.891	21793.16852
777.081	21543.05254
777.271	21597.95096
777.461	21902.99411
777.651	21510.5215
777.84	21498.32262
778.03	21234.04891
778.22	20957.65113
778.41	21264.53856
778.599	21018.61473
778.789	21500.35576
778.979	21498.32262
779.169	21175.10483
779.358	21059.25918
779.548	21547.11899
779.738	21419.0334
779.927	21201.52762
780.117	21563.38495
780.307	21059.25918
780.496	21225.91849
780.686	21215.75555
780.875	20957.65113
781.065	21209.65784
781.254	20703.67607
781.444	20628.51188
781.633	20498.51162
781.823	20508.66728
782.012	20839.79867
782.202	20557.41587
782.391	20350.25101
782.581	20470.07635
782.77	20433.51792
782.96	20457.89006
783.149	20173.58606
783.338	20439.6109
783.528	20350.25101
783.717	20378.68282
783.906	20384.77546
784.096	20007.1034
784.285	20171.55561
784.474	20224.34859
784.663	20435.54891
784.853	20258.86861
785.042	20470.07635
785.231	20520.8542
785.42	19960.41213
785.61	19984.77252
785.799	20132.97792
785.988	20299.48196
786.177	20076.12936
786.366	20204.04326
786.555	19879.21521
786.744	20098.46233
786.933	20015.22385
787.122	19992.89278
787.312	20029.4348
787.501	19771.63965
787.69	19586.9619
787.879	19625.51813
788.068	19507.82488
788.257	19315.08169
788.445	19446.95457
788.634	19576.81577
788.823	19349.56983
789.012	19296.82374
789.201	19083.83897
789.39	19037.19117
789.579	19240.02338
789.768	19706.69407
789.957	19655.95832
790.145	19716.84153
790.334	19337.39741
790.523	19215.68136
790.712	19522.0285
790.9	19102.09304
791.089	18964.18153
791.278	19126.43232
791.467	18714.77114
791.655	18822.23326
791.844	18806.01185
792.033	18885.09365
792.221	18787.76307
792.41	18822.23326
792.599	18272.87194
792.787	18303.27206
792.976	18331.64626
793.164	18824.26096
793.353	18978.37744
793.541	18566.77535
793.73	18347.86041
793.918	18449.20438
794.107	17867.61546
794.295	18376.23577
794.484	18461.3663
794.672	18171.54425
794.861	18386.37001
795.049	18345.83363
795.238	18084.40977
795.426	18372.1821
795.614	18238.41949
795.803	17999.3081
795.991	18262.73876
796.179	18228.28662
796.368	18258.68551
796.556	18203.96811
796.744	17940.55109
796.932	18400.5581
797.121	17924.34279
797.309	17875.7192
797.497	17843.30459
797.685	18120.88385
797.874	17979.04673
798.062	18258.68551
798.25	17806.8392
798.438	18137.09493
798.626	18313.40562
798.814	18226.26006
799.002	18043.88438
799.19	17934.47295
799.378	17863.56362
799.566	18100.62032
799.755	17804.81338
799.943	17861.5377
800.131	17543.51038
800.318	17719.73191
800.506	17460.47193
800.694	17808.86503
800.882	17804.81338
801.07	18153.30624
801.258	17916.23872
801.446	18264.76539
801.634	17622.50317
801.822	17932.44691
802.01	17640.73298
802.197	18104.673
802.385	17928.39484
802.573	17646.80964
802.761	17695.42401
802.949	17665.03981
803.136	17735.93744
803.324	17873.69326
803.512	17893.95281
803.699	17904.08272
803.887	17972.96839
804.075	18110.75204
804.262	18120.88385
804.45	17752.14319
804.638	17507.05382
804.825	18054.01559
805.013	17650.86077
805.201	18009.43892
805.388	17642.75853
805.576	17598.19717
805.763	17559.71363
805.951	17294.41072
806.138	17359.21265
806.326	17614.40112
806.513	17255.93602
806.701	17452.3709
806.888	17059.52885
807.075	17452.3709
807.263	16948.17557
807.45	17624.52869
807.638	17306.56085
807.825	17397.69027
808.012	17424.0177
808.2	17788.60692
808.387	17492.87655
808.574	17748.09174
808.761	17438.19423
808.949	17262.0109
809.136	17077.75108
809.323	17239.73647
809.51	17340.9868
809.698	17166.84078
809.885	17713.65489
810.072	17944.60321
810.259	17946.62927
810.446	17889.90087
810.633	17614.40112
810.82	17571.8662
811.008	17511.1045
811.195	17754.16893
811.382	17440.21946
811.569	17656.93748
811.756	17535.40883
811.943	17835.20107
812.13	17581.99343
812.317	17760.24615
812.504	17474.64885
812.691	17936.499
812.878	17733.91174
813.064	17768.34916
813.251	17511.1045
813.438	17581.99343
813.625	17284.2857
813.812	17424.0177
813.999	17802.78756
814.186	17780.50378
814.372	17417.94209
814.559	17355.16244
814.746	17377.43875
814.933	17304.53582
815.12	17138.49347
815.306	16853.02544
815.493	17168.86561
815.68	17391.61478
815.866	17322.76119
816.053	17401.74061
816.24	17247.83622
816.426	17551.61198
816.613	17215.43749
816.799	17464.52246
816.986	16848.97663
817.173	17596.17169
817.359	17411.86651
817.546	17509.07916
817.732	16962.34735
817.919	17468.57301
818.105	17102.04773
818.292	17796.71012
818.478	17343.01188
818.665	17421.99249
818.851	17444.26993
819.037	17553.63739
819.224	16848.97663
819.41	17201.26328
819.597	16747.75945
819.783	17187.08921
819.969	17027.13432
820.156	16834.80585
820.342	17071.67697
820.528	17253.91107
820.714	17012.96194
820.901	17158.74149
821.087	17178.9898
821.273	17189.11407
821.459	17043.3315
821.646	17304.53582
821.832	17355.16244
822.018	17365.28799
822.204	16678.93523
822.39	16622.25847
822.576	16332.82852
822.762	16460.33442
822.948	16259.9714
823.134	16429.97516
823.32	16156.76106
823.507	16660.7175
823.693	16565.58348
823.879	16705.25005
824.065	16826.70832
824.25	16622.25847
824.436	16464.38236
824.622	16227.59121
824.808	16666.79006
824.994	16660.7175
825.18	16682.98363
825.366	16757.8809
825.552	16328.78084
825.738	16504.86217
825.923	16707.27428
826.109	16857.07427
826.295	16628.33089
826.481	16610.11368
826.667	16626.30675
826.852	16648.57245
827.038	16419.85551
827.224	16417.83158
827.409	16512.95823
827.595	16197.23518
827.781	15986.77665
827.966	15841.08357
828.152	15893.6942
828.338	16140.5716
828.523	15897.74121
828.709	15760.14564
828.894	15363.5697
829.08	15422.24524
829.266	15201.70747
829.451	15727.77095
829.637	15444.50157
829.822	15804.66128
830.008	15727.77095
830.193	15972.61175
830.378	15367.61628
830.564	15832.98969
830.749	15810.73164
830.935	15586.13443
831.12	15353.45326
831.305	15786.45028
831.491	15284.66169
831.676	15375.70944
831.861	15408.08214
832.047	15266.4522
832.232	15343.33683
832.417	15274.54531
832.602	15456.64142
832.788	15873.45925
832.973	15632.67168
833.158	15705.51349
833.343	15634.69505
833.528	15361.54641
833.714	15325.12728
833.899	15268.47548
834.084	14934.63483
834.269	15379.75602
834.454	14867.86583
834.639	15207.77728
834.824	14894.16884
835.009	15290.73152
835.194	14669.57788
835.379	15193.61439
835.564	14780.86284
835.749	14699.92859
835.934	14513.77382
836.119	14481.39804
836.304	14679.69481
836.489	14736.34916
836.674	14442.95135
836.859	14780.86284
837.044	14726.23236
837.228	14793.00286
837.413	14505.67991
837.598	15003.42664
837.783	14788.95619
837.968	14714.09218
838.152	14181.90306
838.337	14521.86771
838.522	14230.47246
838.707	14525.91465
838.891	14432.83372
839.076	14357.96202
839.261	14169.76053
839.445	14378.19782
839.63	14489.49202
839.815	14629.10993
839.999	14513.77382
840.184	14813.23619
840.368	14566.38375
840.553	14918.44846
840.737	14457.11598
840.922	14390.33923
841.106	14011.90046
841.291	13939.0371
841.475	13898.55601
841.66	13999.75679
841.844	13748.76625
842.029	14119.16583
842.213	13704.231
842.397	13904.62824
842.582	13509.87664
842.766	14009.87652
842.951	13617.18034
843.135	13639.4497
843.319	13722.45015
843.504	13293.2124
843.688	13837.83233
843.872	13841.88065
844.056	13469.38204
844.241	13657.66978
844.425	13485.58006
844.609	13406.61241
844.793	13501.77784
844.977	13694.10914
845.161	13459.25816
845.346	13876.29095
845.53	13434.96044
845.714	13779.13033
845.898	13007.62637
846.082	13402.56263
846.266	13317.51349
846.45	13528.09873
846.634	13372.18875
846.818	13453.18378
847.002	13252.70922
847.186	13467.35727
847.37	13366.11387
847.554	13445.08456
847.738	13230.43173
847.922	13473.43157
848.106	13483.55532
848.29	13392.4381
848.473	13121.06167
848.657	12963.05826
848.841	12667.22229
849.025	12742.20574
849.209	12468.57724
849.392	12555.74523
849.576	12468.57724
849.76	12578.04213
849.944	12567.90727
850.127	12752.33803
850.311	12657.08877
850.495	13003.57483
850.678	12831.36502
850.862	13025.85808
851.046	12792.86576
851.229	12665.1956
851.413	12486.82269
851.596	12975.21345
851.78	12592.23068
851.964	12657.08877
852.147	12638.84806
852.331	12900.25352
852.514	12667.22229
852.698	12213.08338
852.881	12152.23488
853.065	11754.51815
853.248	11858.03593
853.431	12065.00693
853.615	11803.23516
853.798	12182.65996
853.982	11823.53246
854.165	11910.80126
854.348	11935.1526
854.532	12146.14967
854.715	11927.03562
854.898	11961.53191
855.081	12146.14967
855.265	11916.8892
855.448	11752.48816
855.631	11791.05637
855.814	11661.12978
855.997	12006.17072
856.181	11571.78397
856.364	11872.24253
856.547	11717.9771
856.73	11815.41364
856.913	11563.66075
857.096	11636.76449
857.279	11673.31193
857.462	11922.97708
857.645	11878.33095
857.828	11537.25923
858.011	11565.69157
858.194	11462.10771
858.377	10990.57396
858.56	11059.71358
858.743	11191.85735
858.926	11250.7994
859.109	11110.54346
859.292	10917.35328
859.475	10931.59178
859.658	11173.5632
859.841	10978.37153
860.023	11189.82471
860.206	10803.42501
860.389	11116.6426
860.572	10628.39161
860.755	10799.35547
860.937	10528.62281
861.12	10840.04877
861.303	10754.5874
861.486	10758.65746
861.668	10734.23638
861.851	10905.1484
862.034	10426.7866
862.216	10589.7093
862.399	10377.89374
862.581	10292.31298
862.764	10314.72926
862.947	10703.7076
863.129	10220.97761
863.312	10632.46317
863.494	10555.09501
863.677	10909.21674
863.859	10648.74893
864.042	10595.81733
864.224	10449.19332
864.406	10326.95564
864.589	10190.40021
864.771	10400.3039
864.954	9772.18937
865.136	9851.79862
865.318	10045.6248
865.501	9923.22356
865.683	9984.43067
865.865	10231.1694
866.048	9913.0211
866.23	9886.49299
866.412	9898.73704
866.594	9890.5744
866.777	9884.45226
866.959	9780.35547
867.141	10141.46992
867.323	9666.00787
867.505	9625.15776
867.687	9821.18237
867.869	9794.64557
868.052	9986.47068
868.234	9690.51497
868.416	9766.06463
868.598	9757.89811
868.78	9766.06463
868.962	9535.26548
869.144	9959.94939
869.326	9616.98699
869.508	9743.6061
869.69	9565.914
869.872	9943.62738
870.054	9600.6447
870.236	9900.77767
870.417	9755.85644
870.599	9757.89811
870.781	9400.36925
870.963	9559.78458
871.145	9592.47318
871.327	9651.71104
871.508	9567.95711
871.69	9514.83115
871.872	9422.85684
872.054	9502.56978
872.235	9273.58389
872.417	9126.26859
872.599	9034.1515
872.78	9431.03365
872.962	9021.86657
873.144	9404.45805
873.325	9204.02927
873.507	9375.83509
873.689	9085.33199
873.87	9228.58018
874.052	9003.43798
874.233	9226.53436
874.415	9302.2184
874.596	9332.89462
874.778	8835.46711
874.959	9068.95541
875.141	9097.61369
875.322	9396.28039
875.503	9030.05659
875.685	9318.57952
875.866	9189.70678
876.048	9118.08182
876.229	9400.36925
876.41	9128.31524
876.592	8980.91223
876.773	9185.61449
876.954	9044.38847
877.136	9269.49298
877.317	8972.72052
877.498	9392.19146
877.679	9028.00911
877.86	9140.59478
878.042	9144.68782
878.223	9300.17319
878.404	9011.62864
878.585	9118.08182
878.766	9204.02927
878.947	9330.84966
879.128	9025.96162
879.309	9126.26859
879.49	8980.91223
879.672	9113.98833
879.853	9021.86657
880.034	9238.80901
880.215	8978.86433
880.396	9179.47592
880.576	8872.34904
880.757	9152.8737
880.938	9134.45509
881.119	9361.52241
881.3	8933.80603
881.481	9719.10379
881.662	9334.93957
881.843	9590.43026
882.023	9441.25431
882.204	9437.1661
882.385	9154.92013
882.566	9011.62864
882.747	8995.24705
882.927	9253.12866
883.108	9073.04966
883.289	9036.19893
883.469	8866.20246
883.65	9296.08271
883.831	9330.84966
884.011	9424.90107
884.192	9471.91386
884.373	9339.02942
884.553	9030.05659
884.734	9240.85472
884.914	9032.10406
885.095	9302.2184
885.275	9167.19833
885.456	9502.56978
885.636	9173.3372
885.817	9478.04533
885.997	9555.69822
886.178	9357.43292
886.358	9437.1661
886.538	9422.85684
886.719	9449.43054
886.899	9588.38732
887.08	9373.79047
887.26	9549.56856
887.44	9228.58018
887.621	9439.21021
887.801	9175.38346
887.981	9312.44422
888.161	9120.12854
888.342	9240.85472
888.522	9120.12854
888.702	9441.25431
888.882	9259.26541
889.062	9242.90042
889.242	8966.57655
889.423	9465.78224
889.603	9289.94687
889.783	9177.4297
889.963	8675.57739
890.143	9068.95541
890.323	9120.12854
890.503	9232.67176
890.683	9201.98325
890.863	9105.80115
891.043	9199.93721
891.223	9445.34246
891.403	9185.61449
891.583	9341.07432
891.763	8972.72052
891.943	9146.73432
892.122	9071.00255
892.302	9322.66963
892.482	8829.31955
892.662	9079.1909
892.842	8507.36668
893.022	8835.46711
893.201	8685.83008
893.381	8823.17183
893.561	9015.72386
893.741	9424.90107
893.92	8864.15356
894.1	9195.84509
894.28	8655.07062
894.459	8665.32423
894.639	8737.08661
894.819	9028.00911
894.998	8562.76708
895.178	8896.93376
895.357	8700.18307
895.537	8970.67255
895.716	9046.43581
895.896	8839.56539
896.075	8671.47618
896.255	8925.61269
896.434	8626.35802
896.614	8755.53615
896.793	8642.76566
896.973	8653.01984
897.152	8544.30181
897.331	8843.6636
897.511	8433.4779
897.69	8443.74171
897.87	8577.1279
898.049	8269.19111
898.228	8026.63762
898.407	8217.82582
898.587	8172.61413
898.766	8388.31141
898.945	8396.5242
899.124	8191.11098
899.304	7888.79133
899.483	7880.55878
899.662	7985.49908
899.841	8010.18318
900.02	7666.3956
900.199	7713.77815
900.378	7476.75284
900.557	7833.21522
900.737	7608.69738
900.916	7604.57544
901.095	7544.79771
901.274	7697.29853
901.453	7352.97454
901.632	7472.62816
901.811	7592.20911
901.989	7559.22847
902.168	7243.57163
902.347	7625.18428
902.526	7070.05115
902.705	7340.59239
902.884	7243.57163
903.063	7398.369
903.242	7317.88975
903.42	7520.05684
903.599	7208.46703
903.778	7474.69051
903.957	7169.22491
904.135	7063.85109
904.314	6948.07938
904.493	7295.18446
904.672	6757.72897
904.85	6838.4445
905.029	6666.62352
905.207	6730.81607
905.386	6349.47709
905.565	6710.1112
905.743	6384.74243
905.922	6600.33705
906.1	6289.30299
906.279	6326.65474
906.457	6048.40951
906.636	6523.66386
906.814	6264.39761
906.993	6193.81405
907.171	6060.87727
907.35	6166.81905
907.528	5842.56897
907.707	5996.45138
907.885	5790.55247
908.063	5904.9693
908.242	5786.39052
908.42	5875.85179
908.598	5688.55735
908.777	5973.58514
908.955	5869.61172
909.133	5992.29409
909.311	5803.03778
909.49	5846.72965
909.668	5653.15805
909.846	5859.21113
910.024	5717.7046
910.202	6054.64349
910.38	5763.49807
910.559	5919.52632
910.737	5896.65048
910.915	6181.35531
911.093	5888.33129
911.271	5946.55772
911.449	5817.60289
911.627	5626.08339
911.805	5480.22831
911.983	5736.43967
912.161	5709.37728
912.339	6085.81025
912.517	5746.84722
912.695	6208.34817
912.872	5977.74285
913.05	6297.60403
913.228	5942.3993
913.406	6029.70628
913.584	5959.03241
913.762	5971.50625
913.939	5832.16685
914.117	6054.64349
914.295	5740.60276
914.473	6040.0972
914.65	5990.21541
914.828	6179.27878
915.006	5809.28011
915.184	6133.589
915.361	5884.17155
915.539	5773.90408
915.716	5519.82896
915.894	5805.11858
916.072	5419.76884
916.249	5805.11858
916.427	5344.68821
916.604	5582.33899
916.782	5542.75177
916.959	5557.33752
917.137	5501.07182
917.314	5667.73506
917.492	5380.14674
917.669	5375.9755
917.847	5292.53101
918.024	5626.08339
918.201	5244.53346
918.379	5359.2896
918.556	5035.70517
918.733	5417.68367
918.911	4931.20418
919.088	5165.20611
919.265	5094.20051
919.442	5257.05575
919.62	5173.55794
919.797	5453.12823
919.974	5192.3482
920.151	5392.6599
920.328	4964.65076
920.506	5369.71847
920.683	5050.3307
920.86	4809.91114
921.037	4682.26177
921.214	4778.52976
921.391	4745.05067
921.568	5062.86598
921.745	4843.37896
921.922	5067.04421
922.099	4732.49451
922.276	5108.8215
922.453	4970.92134
922.63	5004.36092
922.807	4546.14985
922.984	4682.26177
923.161	4632.01606
923.338	4778.52976
923.514	4632.01606
923.691	4837.10419
923.868	4625.73444
924.045	4715.75171
924.222	4514.72604
924.399	4652.95334
924.575	4479.10639
924.752	4753.42099
924.929	4397.3667
925.105	4544.05508
925.282	4198.11924
925.459	4258.96269
925.635	4160.34537
925.812	4265.25581
925.989	4344.95201
926.165	4349.14569
926.342	3895.73971
926.518	4229.59222
926.695	3925.15637
926.871	4164.5428
927.048	3927.25741
927.224	4000.78099
927.401	3626.6082
927.577	3712.849
927.754	3641.3345
927.93	3834.79272
928.107	3790.64828
928.283	3904.14487
928.459	3838.99649
928.636	4015.48271
928.812	3725.4669
928.988	3954.56907
929.165	3653.95631
929.341	3817.97681
929.517	3805.36406
929.693	3698.12723
929.87	3283.44247
930.046	3563.48508
930.222	3203.37387
930.398	3641.3345
930.574	3321.36119
930.751	3382.44069
930.927	3399.28762
931.103	3578.21531
931.279	3319.25474
931.455	3405.60493
931.631	3131.71331
931.807	3435.08359
931.983	3068.46799
932.159	3104.30876
932.335	2912.40352
932.511	3142.25281
932.687	2878.64916
932.863	3135.92916
933.039	2918.73205
933.215	3169.6536
933.391	2998.8819
933.566	3140.14494
933.742	2705.60197
933.918	2657.04827
934.094	2519.79592
934.27	2756.25938
934.445	2768.92253
934.621	2752.03822
934.797	2384.60783
934.973	2530.35557
935.148	2118.3384
935.324	2346.5784
935.5	2150.04437
935.675	2255.71751
935.851	2082.40288
936.027	2181.74854
936.202	1955.55541
936.378	1991.49793
936.553	1615.08906
936.729	1805.42514
936.904	1581.24925
937.08	1788.50753
937.255	1481.8428
937.431	1492.41805
937.606	1228.04212
937.782	1293.60512
937.957	1192.08939
938.133	1253.42105
938.308	1103.26973
938.483	1115.95778
938.659	908.74539
938.834	1025.03082
939.009	925.6583
939.185	976.39985
939.36	896.06103
939.535	1094.81112
939.71	786.14272
939.886	866.46532
940.061	769.23442
940.236	836.87127
940.411	767.12093
940.586	743.87318
940.761	703.72099
940.937	781.91558
941.112	606.52744
941.287	745.98656
941.462	686.81598
941.637	667.79872
941.812	570.61472
941.987	636.1054
942.162	595.96448
942.337	505.13686
942.512	456.56545
942.687	536.81802
942.862	433.33849
943.037	528.3694
943.212	481.90607
943.386	475.57071
943.561	549.49137
943.736	446.00751
943.911	488.24157
944.086	479.79427
944.26	416.44736
944.435	448.11907
944.61	446.00751
944.785	355.22575
944.959	507.24884
945.134	507.24884
945.309	433.33849
945.483	492.4653
945.658	410.11344
945.833	348.89329
946.007	519.921
946.182	357.33661
946.357	389.00146
946.531	416.44736
946.706	416.44736
946.88	456.56545
947.055	422.78141
947.229	456.56545
947.404	372.11307
947.578	439.67293
947.752	477.68249
947.927	494.57719
948.101	549.49137
948.276	549.49137
948.45	458.67709
948.624	703.72099
948.799	452.34223
948.973	500.91295
949.147	429.11561
949.321	570.61472
949.496	465.01208
949.67	490.35343
949.844	458.67709
950.018	543.15464
950.193	340.45025
950.367	441.78444
950.541	439.67293
950.715	490.35343
950.889	490.35343
951.063	576.95198
951.237	511.47284
951.411	665.68575
951.585	532.59368
951.759	583.28936
951.933	557.94055
952.107	604.41482
952.281	585.40185
952.455	564.27757
952.629	380.55713
952.803	600.18963
952.977	469.23549
953.151	553.71593
953.325	549.49137
953.499	633.9926
953.672	570.61472
953.846	475.57071
954.02	477.68249
954.194	570.61472
954.368	492.4653
954.541	585.40185
954.715	545.26687
954.889	583.28936
955.062	517.80894
955.236	576.95198
955.41	450.23064
955.583	595.96448
955.757	583.28936
955.93	619.20341
956.104	553.71593
956.278	503.0249
956.451	431.22705
956.625	492.4653
956.798	490.35343
956.972	494.57719
957.145	367.89113
957.319	644.55668
957.492	458.67709
957.665	515.69689
957.839	498.80101
958.012	536.81802
958.185	439.67293
958.359	621.31611
958.532	473.45896
958.705	541.04242
958.879	547.37911
959.052	541.04242
959.225	526.25728
959.398	617.09072
959.572	498.80101
959.745	526.25728
959.918	479.79427
960.091	551.60365
960.264	437.56144
960.438	456.56545
960.611	473.45896
960.784	471.34722
960.957	517.80894
961.13	570.61472
961.303	549.49137
961.476	498.80101
961.649	450.23064
961.822	568.50232
961.995	458.67709
962.168	486.12972
962.341	473.45896
962.514	513.58486
962.686	378.44609
962.859	490.35343
963.032	403.77968
963.205	443.89597
963.378	479.79427
963.551	435.44996
963.723	376.33506
963.896	490.35343
964.069	500.91295
964.242	422.78141
964.414	414.33604
964.587	448.11907
964.76	342.56099
964.932	490.35343
965.105	346.78251
965.278	448.11907
965.45	458.67709
965.623	427.0042
965.795	522.03308
965.968	475.57071
966.14	317.23335
966.313	456.56545
966.485	405.89092
966.658	465.01208
966.83	399.55725
967.003	465.01208
967.175	401.66845
967.348	500.91295
967.52	471.34722
967.692	536.81802
967.865	401.66845
968.037	500.91295
968.209	321.45445
968.382	452.34223
968.554	346.78251
968.726	363.66927
968.898	382.66819
969.071	367.89113
969.243	298.23931
969.415	412.22473
969.587	304.5705
969.759	376.33506
969.932	332.0075
970.104	399.55725
970.276	275.02639
970.448	308.79138
970.62	249.70578
970.792	315.12283
970.964	465.01208
971.136	340.45025
971.308	264.47581
971.48	372.11307
971.652	275.02639
971.824	287.68771
971.996	275.02639
972.168	380.55713
972.339	294.01862
972.511	313.01233
972.683	361.55837
972.855	310.90184
973.027	298.23931
973.199	338.33954
973.37	275.02639
973.542	329.89685
973.714	270.8061
973.886	313.01233
974.057	315.12283
974.229	220.16857
974.401	289.79799
974.572	220.16857
974.744	232.82691
974.915	230.71714
975.087	260.25571
975.259	224.38794
975.43	211.73008
975.602	245.48595
975.773	245.48595
975.945	317.23335
976.116	222.27825
976.288	256.03568
976.459	177.9793
976.63	234.9367
976.802	247.59586
976.973	289.79799
977.145	190.63523
977.316	258.14568
977.487	241.26619
977.659	190.63523
977.83	173.76082
978.001	196.96348
978.172	114.71092
978.344	226.49765
978.515	175.87005
978.686	245.48595
978.857	123.1456
979.028	220.16857
979.2	194.85404
979.371	239.15634
979.542	207.51095
979.713	177.9793
979.884	215.94929
980.055	161.10588
980.226	182.19786
980.397	215.94929
980.568	239.15634
980.739	182.19786
980.91	127.36306
981.081	241.26619
981.252	182.19786
981.423	306.68093
981.594	205.40141
981.765	201.1824
981.936	140.01598
982.106	194.85404
982.277	213.83967
982.448	194.85404
982.619	152.66967
982.79	167.43326
982.96	205.40141
983.131	194.85404
983.302	205.40141
983.472	169.54242
983.643	129.47183
983.814	184.30718
983.984	102.05957
984.155	161.10588
984.326	97.84262
984.496	222.27825
984.667	182.19786
984.837	148.45169
985.008	163.21498
985.178	87.30066
985.349	97.84262
985.519	129.47183
985.69	127.36306
985.86	112.60231
986.031	36.70708
986.201	154.77869
986.371	62.00222
986.542	177.9793
986.712	93.62577
986.882	104.16807
987.053	171.65161
987.223	199.07293
987.393	125.25432
987.563	144.23379
987.734	171.65161
987.904	64.1103
988.074	76.75925
988.244	106.2766
988.414	116.81956
988.585	156.88773
988.755	112.60231
988.925	118.92822
989.095	97.84262
989.265	135.79826
989.435	85.19233
989.605	78.86748
989.775	83.08402
989.945	51.46218
990.115	76.75925
990.285	106.2766
990.455	97.84262
990.625	177.9793
990.795	62.00222
990.965	95.73419
991.134	45.13842
991.304	102.05957
991.474	135.79826
991.644	135.79826
991.814	161.10588
991.984	171.65161
992.153	131.58062
992.323	110.49372
992.493	72.54284
992.662	-15.98024
992.832	123.1456
993.002	30.38382
993.171	85.19233
993.341	87.30066
993.511	93.62577
993.68	68.32652
993.85	80.97574
994.019	68.32652
994.189	64.1103
994.358	66.2184
994.528	102.05957
994.697	70.43467
994.867	9.30781
995.036	95.73419
995.206	51.46218
995.375	78.86748
995.544	76.75925
995.714	97.84262
995.883	68.32652
996.052	55.67812
996.222	110.49372
996.391	24.06077
996.56	110.49372
996.73	5.09289
996.899	43.03055
997.068	80.97574
997.237	0.87808
997.406	110.49372
997.576	55.67812
997.745	144.23379
997.914	34.5993
998.083	0.87808
998.252	102.05957
998.421	80.97574
998.59	95.73419
998.759	167.43326
998.928	97.84262
999.097	140.01598
999.266	78.86748
999.435	15.63036
999.604	112.60231
999.773	116.81956
999.942	43.03055
1000.111	51.46218
1000.28	64.1103
1000.448	59.89417
1000.617	76.75925
1000.786	80.97574
1000.955	76.75925
1001.124	156.88773
1001.292	76.75925
1001.461	53.57014
1001.63	34.5993
1001.798	76.75925
1001.967	51.46218
1002.136	80.97574
1002.304	102.05957
1002.473	43.03055
1002.642	110.49372
1002.81	43.03055
1002.979	127.36306
1003.147	76.75925
1003.316	87.30066
1003.484	74.65103
1003.653	34.5993
1003.821	-28.62294
1003.99	72.54284
1004.158	38.81488
1004.327	112.60231
1004.495	106.2766
1004.663	85.19233
1004.832	17.73793
1005	59.89417
1005.168	97.84262
1005.337	51.46218
1005.505	2.98547
1005.673	17.73793
1005.842	76.75925
1006.01	85.19233
1006.178	11.4153
1006.346	59.89417
1006.514	83.08402
1006.683	68.32652
1006.851	129.47183
1007.019	64.1103
1007.187	-5.44397
1007.355	93.62577
1007.523	43.03055
1007.691	-15.98024
1007.859	72.54284
1008.027	53.57014
1008.195	45.13842
1008.363	17.73793
1008.531	93.62577
1008.699	59.89417
1008.867	68.32652
1009.035	47.24632
1009.203	93.62577
1009.37	121.0369
1009.538	80.97574
1009.706	36.70708
1009.874	30.38382
1010.042	80.97574
1010.209	43.03055
1010.377	53.57014
1010.545	11.4153
1010.713	-32.83698
1010.88	78.86748
1011.048	70.43467
1011.216	87.30066
1011.383	11.4153
1011.551	78.86748
1011.718	76.75925
1011.886	-28.62294
1012.054	70.43467
1012.221	26.16843
1012.389	-32.83698
1012.556	68.32652
1012.724	51.46218
1012.891	-20.19457
1013.058	-3.33665
1013.226	38.81488
1013.393	68.32652
1013.561	5.09289
1013.728	34.5993
1013.895	32.49155
1014.063	19.84552
1014.23	-30.72997
1014.397	45.13842
1014.565	26.16843
1014.732	26.16843
1014.899	-28.62294
1015.066	0.87808
1015.233	76.75925
1015.401	36.70708
1015.568	26.16843
1015.735	45.13842
1015.902	38.81488
1016.069	47.24632
1016.236	72.54284
1016.403	68.32652
1016.57	21.95313
1016.737	51.46218
1016.904	34.5993
1017.071	146.34273
1017.238	-32.83698
1017.405	38.81488
1017.572	53.57014
1017.739	64.1103
1017.906	59.89417
1018.073	34.5993
1018.24	9.30781
1018.407	59.89417
1018.573	0.87808
1018.74	13.52282
1018.907	45.13842
1019.074	-5.44397
1019.241	0.87808
1019.407	0.87808
1019.574	114.71092
1019.741	76.75925
1019.907	38.81488
1020.074	43.03055
1020.241	2.98547
1020.407	28.27611
1020.574	34.5993
1020.74	70.43467
1020.907	26.16843
1021.073	-5.44397
1021.24	36.70708
1021.406	55.67812
1021.573	70.43467
1021.739	43.03055
1021.906	38.81488
1022.072	70.43467
1022.239	-49.69214
1022.405	43.03055
1022.571	102.05957
1022.738	13.52282
1022.904	-39.15785
1023.07	9.30781
1023.237	40.92271
1023.403	17.73793
1023.569	85.19233
1023.735	-7.55127
1023.902	26.16843
1024.068	11.4153
1024.234	70.43467
1024.4	26.16843
1024.566	0.87808
1024.732	34.5993
1024.898	70.43467
1025.065	-7.55127
1025.231	13.52282
1025.397	57.78613
1025.563	0.87808
1025.729	62.00222
1025.895	-18.08741
1026.061	36.70708
1026.227	38.81488
1026.392	62.00222
1026.558	30.38382
1026.724	-22.3017
1026.89	-15.98024
1027.056	-11.7658
1027.222	47.24632
1027.388	45.13842
1027.553	-7.55127
1027.719	45.13842
1027.885	55.67812
1028.051	97.84262
1028.216	-53.90568
1028.382	2.98547
1028.548	47.24632
1028.713	62.00222
1028.879	85.19233
1029.045	11.4153
1029.21	76.75925
1029.376	53.57014
1029.541	70.43467
1029.707	17.73793
1029.873	59.89417
1030.038	76.75925
1030.204	59.89417
1030.369	59.89417
1030.534	68.32652
1030.7	55.67812
1030.865	-24.40881
1031.031	45.13842
1031.196	47.24632
1031.361	17.73793
1031.527	30.38382
1031.692	21.95313
1031.857	-7.55127
1032.023	17.73793
1032.188	9.30781
1032.353	2.98547
1032.518	30.38382
1032.684	76.75925
1032.849	85.19233
1033.014	-15.98024
1033.179	53.57014
1033.344	43.03055
1033.509	26.16843
1033.674	76.75925
1033.839	26.16843
1034.004	34.5993
1034.17	34.5993
1034.335	89.40901
1034.5	9.30781
1034.664	66.2184
1034.829	59.89417
1034.994	64.1103
1035.159	59.89417
1035.324	93.62577
1035.489	30.38382
1035.654	64.1103
1035.819	30.38382
1035.984	-15.98024
1036.148	104.16807
1036.313	36.70708
1036.478	-11.7658
1036.643	11.4153
1036.807	-43.37164
1036.972	11.4153
1037.137	-32.83698
1037.301	68.32652
1037.466	68.32652
1037.631	5.09289
1037.795	-41.26476
1037.96	51.46218
1038.124	11.4153
1038.289	87.30066
1038.454	34.5993
1038.618	19.84552
1038.783	-15.98024
1038.947	13.52282
1039.111	-9.65855
1039.276	-39.15785
1039.44	70.43467
1039.605	78.86748
1039.769	-7.55127
1039.933	0.87808
1040.098	24.06077
1040.262	30.38382
1040.426	17.73793
1040.591	78.86748
1040.755	15.63036
1040.919	-15.98024
1041.083	59.89417
1041.248	47.24632
1041.412	53.57014
1041.576	70.43467
1041.74	85.19233
1041.904	47.24632
1042.068	43.03055
1042.232	26.16843
1042.397	49.35423
1042.561	106.2766
1042.725	-11.7658
1042.889	-22.3017
1043.053	32.49155
1043.217	26.16843
1043.381	34.5993
1043.544	7.20034
1043.708	13.52282
1043.872	2.98547
1044.036	-28.62294
1044.2	0.87808
1044.364	30.38382
1044.528	78.86748
1044.691	2.98547
1044.855	76.75925
1045.019	-60.2258
1045.183	68.32652
1045.346	-3.33665
1045.51	49.35423
1045.674	13.52282
1045.837	-41.26476
1046.001	36.70708
1046.165	43.03055
1046.328	-20.19457
1046.492	2.98547
1046.655	95.73419
1046.819	30.38382
1046.983	11.4153
1047.146	36.70708
1047.31	121.0369
1047.473	28.27611
1047.636	53.57014
1047.8	47.24632
1047.963	9.30781
1048.127	45.13842
1048.29	30.38382
