Data from mixed_try1_USB4F045381__22__00044.txt Node

Date: Thu Apr 03 19:34:07 EDT 2025
User: mmckonesweet
Spectrometer: USB4F04538
Trigger mode: 4
Integration Time (sec): 2.700000E-3
Scans to average: 1
Electric dark correction enabled: true
Nonlinearity correction enabled: true
Boxcar width: 0
XAxis mode: Wavelengths
Number of Pixels in Spectrum: 3648
>>>>>Begin Spectral Data<<<<<
345.52	27.92483
345.736	27.92483
345.952	27.92483
346.168	0.52684
346.384	-20.54576
346.6	-3.68787
346.816	-18.43861
347.032	80.62436
347.248	-5.79519
347.464	49.00291
347.68	4.74166
347.896	-52.15005
348.112	-37.40208
348.328	-10.00976
348.544	8.95656
348.76	-20.54576
348.975	4.74166
349.191	0.52684
349.407	-10.00976
349.623	-7.90249
349.839	-75.32294
350.055	44.78711
350.27	15.2791
350.486	53.21881
350.702	120.68545
350.918	-50.04327
351.133	-16.33143
351.349	-7.90249
351.565	-73.21644
351.781	32.14026
351.996	-54.2568
352.212	-24.75999
352.428	-10.00976
352.644	-7.90249
352.859	-54.2568
353.075	57.4348
353.291	-58.47023
353.506	-66.89679
353.722	4.74166
353.938	-14.22423
354.153	21.60186
354.369	-62.68356
354.584	19.49425
354.8	-33.18815
355.016	13.17157
355.231	13.17157
355.447	-12.11701
355.662	-3.68787
355.878	49.00291
356.093	-7.90249
356.309	-5.79519
356.524	-41.61591
356.74	-50.04327
356.955	-39.50901
357.171	-56.36353
357.386	-1.58052
357.602	-62.68356
357.817	25.81715
358.033	42.67924
358.248	-83.74867
358.464	-10.00976
358.679	59.54283
358.895	-35.29512
359.11	4.74166
359.325	-7.90249
359.541	-20.54576
359.756	17.38667
359.972	-45.82964
360.187	-45.82964
360.402	-47.93647
360.618	46.895
360.833	-62.68356
361.048	-50.04327
361.264	46.895
361.479	-7.90249
361.694	-12.11701
361.909	25.81715
362.125	19.49425
362.34	-52.15005
362.555	4.74166
362.77	13.17157
362.986	-92.17399
363.201	-31.08114
363.416	8.95656
363.631	-39.50901
363.847	-20.54576
364.062	-39.50901
364.277	59.54283
364.492	-37.40208
364.707	-3.68787
364.922	-3.68787
365.138	-41.61591
365.353	-56.36353
365.568	19.49425
365.783	-77.42941
365.998	19.49425
366.213	-58.47023
366.428	-14.22423
366.643	-22.65289
366.858	-45.82964
367.073	-26.86706
367.288	4.74166
367.503	-64.79019
367.718	-22.65289
367.933	-33.18815
368.148	-20.54576
368.363	21.60186
368.578	-18.43861
368.793	17.38667
369.008	8.95656
369.223	-1.58052
369.438	6.8491
369.653	2.63424
369.868	-35.29512
370.083	-16.33143
370.298	-16.33143
370.513	0.52684
370.728	-20.54576
370.943	13.17157
371.157	-14.22423
371.372	0.52684
371.587	30.03253
371.802	4.74166
372.017	-12.11701
372.232	-3.68787
372.446	13.17157
372.661	-31.08114
372.876	-22.65289
373.091	8.95656
373.306	-22.65289
373.52	34.24801
373.735	-5.79519
373.95	25.81715
374.165	15.2791
374.379	-50.04327
374.594	-3.68787
374.809	6.8491
375.023	-33.18815
375.238	13.17157
375.453	-24.75999
375.667	-14.22423
375.882	36.35578
376.097	17.38667
376.311	0.52684
376.526	2.63424
376.741	-10.00976
376.955	-24.75999
377.17	76.40788
377.384	-41.61591
377.599	-12.11701
377.813	-100.5989
378.028	59.54283
378.242	44.78711
378.457	-24.75999
378.672	-22.65289
378.886	19.49425
379.101	-7.90249
379.315	42.67924
379.53	-58.47023
379.744	44.78711
379.958	17.38667
380.173	6.8491
380.387	17.38667
380.602	30.03253
380.816	59.54283
381.031	-14.22423
381.245	-37.40208
381.459	13.17157
381.674	-16.33143
381.888	-24.75999
382.103	-20.54576
382.317	-14.22423
382.531	-54.2568
382.746	-3.68787
382.96	-39.50901
383.174	-3.68787
383.388	51.11085
383.603	-28.97412
383.817	-24.75999
384.031	44.78711
384.246	0.52684
384.46	-41.61591
384.674	-58.47023
384.888	-33.18815
385.103	6.8491
385.317	-50.04327
385.531	40.5714
385.745	-24.75999
385.959	-41.61591
386.174	46.895
386.388	-41.61591
386.602	-20.54576
386.816	15.2791
387.03	-28.97412
387.244	2.63424
387.458	21.60186
387.672	21.60186
387.887	23.70949
388.101	-10.00976
388.315	-7.90249
388.529	27.92483
388.743	-37.40208
388.957	-28.97412
389.171	23.70949
389.385	-54.2568
389.599	-60.57691
389.813	55.32679
390.027	19.49425
390.241	0.52684
390.455	11.06405
390.669	-18.43861
390.883	-10.00976
391.097	-14.22423
391.311	-5.79519
391.525	-5.79519
391.738	44.78711
391.952	-64.79019
392.166	36.35578
392.38	-75.32294
392.594	-16.33143
392.808	36.35578
393.022	-64.79019
393.236	21.60186
393.449	25.81715
393.663	-31.08114
393.877	-64.79019
394.091	-5.79519
394.305	38.46358
394.518	-50.04327
394.732	-7.90249
394.946	-22.65289
395.16	-22.65289
395.373	-43.72279
395.587	30.03253
395.801	13.17157
396.015	53.21881
396.228	13.17157
396.442	-16.33143
396.656	-37.40208
396.869	-14.22423
397.083	30.03253
397.297	8.95656
397.51	-58.47023
397.724	21.60186
397.938	-24.75999
398.151	-58.47023
398.365	38.46358
398.578	4.74166
398.792	4.74166
399.005	-22.65289
399.219	-14.22423
399.433	-54.2568
399.646	-45.82964
399.86	-16.33143
400.073	17.38667
400.287	13.17157
400.5	-39.50901
400.714	-132.18854
400.927	51.11085
401.141	-39.50901
401.354	51.11085
401.567	76.40788
401.781	2.63424
401.994	34.24801
402.208	-64.79019
402.421	-41.61591
402.635	89.05761
402.848	-24.75999
403.061	-5.79519
403.275	30.03253
403.488	-24.75999
403.701	19.49425
403.915	-41.61591
404.128	30.03253
404.341	-14.22423
404.555	2.63424
404.768	-10.00976
404.981	34.24801
405.195	70.08331
405.408	8.95656
405.621	76.40788
405.834	-64.79019
406.048	76.40788
406.261	-31.08114
406.474	-22.65289
406.687	13.17157
406.9	-14.22423
407.114	-50.04327
407.327	-58.47023
407.54	34.24801
407.753	51.11085
407.966	-33.18815
408.179	-12.11701
408.392	36.35578
408.605	38.46358
408.819	21.60186
409.032	46.895
409.245	-96.3865
409.458	25.81715
409.671	-47.93647
409.884	-37.40208
410.097	-20.54576
410.31	30.03253
410.523	70.08331
410.736	17.38667
410.949	-14.22423
411.162	6.8491
411.375	-14.22423
411.588	2.63424
411.801	-24.75999
412.014	63.75895
412.227	0.52684
412.44	11.06405
412.653	-96.3865
412.865	17.38667
413.078	8.95656
413.291	-12.11701
413.504	32.14026
413.717	-33.18815
413.93	-16.33143
414.143	-7.90249
414.356	19.49425
414.568	34.24801
414.781	-33.18815
414.994	44.78711
415.207	63.75895
415.42	34.24801
415.632	-20.54576
415.845	-28.97412
416.058	-69.00336
416.271	44.78711
416.483	11.06405
416.696	13.17157
416.909	-16.33143
417.121	72.19148
417.334	17.38667
417.547	-62.68356
417.759	-16.33143
417.972	-16.33143
418.185	25.81715
418.397	4.74166
418.61	34.24801
418.823	91.16598
419.035	-12.11701
419.248	-24.75999
419.46	36.35578
419.673	59.54283
419.885	86.94927
420.098	25.81715
420.311	36.35578
420.523	-16.33143
420.736	-66.89679
420.948	-14.22423
421.161	0.52684
421.373	30.03253
421.586	21.60186
421.798	63.75895
422.01	19.49425
422.223	-24.75999
422.435	-81.64228
422.648	4.74166
422.86	17.38667
423.073	-1.58052
423.285	76.40788
423.497	51.11085
423.71	2.63424
423.922	-39.50901
424.134	51.11085
424.347	-10.00976
424.559	0.52684
424.771	-35.29512
424.984	38.46358
425.196	0.52684
425.408	-92.17399
425.621	-1.58052
425.833	-22.65289
426.045	-28.97412
426.257	-28.97412
426.47	72.19148
426.682	42.67924
426.894	-14.22423
427.106	23.70949
427.318	40.5714
427.531	42.67924
427.743	-31.08114
427.955	-16.33143
428.167	0.52684
428.379	25.81715
428.591	59.54283
428.804	93.27437
429.016	2.63424
429.228	13.17157
429.44	27.92483
429.652	-28.97412
429.864	-58.47023
430.076	67.97517
430.288	-41.61591
430.5	-12.11701
430.712	-33.18815
430.924	19.49425
431.136	-50.04327
431.348	8.95656
431.56	93.27437
431.772	49.00291
431.984	-54.2568
432.196	19.49425
432.408	-47.93647
432.62	13.17157
432.832	-43.72279
433.044	-24.75999
433.256	8.95656
433.468	25.81715
433.679	-24.75999
433.891	76.40788
434.103	-41.61591
434.315	11.06405
434.527	2.63424
434.739	38.46358
434.95	-7.90249
435.162	51.11085
435.374	-16.33143
435.586	13.17157
435.798	0.52684
436.009	-1.58052
436.221	2.63424
436.433	13.17157
436.645	51.11085
436.856	84.84094
437.068	61.65088
437.28	-12.11701
437.491	78.51611
437.703	17.38667
437.915	2.63424
438.126	0.52684
438.338	76.40788
438.55	89.05761
438.761	-16.33143
438.973	30.03253
439.184	53.21881
439.396	-16.33143
439.608	34.24801
439.819	-16.33143
440.031	-22.65289
440.242	2.63424
440.454	36.35578
440.665	13.17157
440.877	0.52684
441.088	15.2791
441.3	0.52684
441.511	-31.08114
441.723	-22.65289
441.934	8.95656
442.146	17.38667
442.357	30.03253
442.569	-7.90249
442.78	-37.40208
442.991	44.78711
443.203	-47.93647
443.414	-5.79519
443.626	38.46358
443.837	80.62436
444.048	61.65088
444.26	59.54283
444.471	8.95656
444.682	2.63424
444.894	19.49425
445.105	13.17157
445.316	61.65088
445.528	-31.08114
445.739	32.14026
445.95	17.38667
446.161	17.38667
446.373	36.35578
446.584	-54.2568
446.795	30.03253
447.006	19.49425
447.217	25.81715
447.429	19.49425
447.64	65.86705
447.851	44.78711
448.062	105.92518
448.273	-3.68787
448.484	-10.00976
448.695	44.78711
448.907	2.63424
449.118	46.895
449.329	67.97517
449.54	133.33796
449.751	32.14026
449.962	11.06405
450.173	51.11085
450.384	25.81715
450.595	2.63424
450.806	42.67924
451.017	-3.68787
451.228	0.52684
451.439	67.97517
451.65	59.54283
451.861	78.51611
452.072	13.17157
452.283	61.65088
452.494	103.81665
452.705	0.52684
452.915	8.95656
453.126	51.11085
453.337	80.62436
453.548	114.35949
453.759	-41.61591
453.97	-12.11701
454.181	59.54283
454.391	67.97517
454.602	93.27437
454.813	89.05761
455.024	19.49425
455.235	42.67924
455.445	70.08331
455.656	51.11085
455.867	53.21881
456.078	61.65088
456.288	101.70815
456.499	59.54283
456.71	13.17157
456.921	13.17157
457.131	11.06405
457.342	53.21881
457.553	-16.33143
457.763	30.03253
457.974	135.44678
458.184	78.51611
458.395	38.46358
458.606	67.97517
458.816	84.84094
459.027	97.49122
459.237	99.59967
459.448	27.92483
459.659	44.78711
459.869	93.27437
460.08	67.97517
460.29	51.11085
460.501	116.46812
460.711	0.52684
460.922	-3.68787
461.132	158.64528
461.343	59.54283
461.553	72.19148
461.764	101.70815
461.974	46.895
462.184	103.81665
462.395	84.84094
462.605	53.21881
462.816	59.54283
463.026	36.35578
463.236	152.31817
463.447	95.38278
463.657	76.40788
463.867	59.54283
464.078	164.97259
464.288	46.895
464.498	177.62776
464.709	116.46812
464.919	137.55563
465.129	103.81665
465.339	186.06495
465.55	205.04983
465.76	131.22915
465.97	141.77339
466.18	169.1909
466.391	169.1909
466.601	152.31817
466.811	171.30008
467.021	129.12037
467.231	200.83082
467.441	84.84094
467.651	167.08173
467.862	95.38278
468.072	213.48807
468.282	266.2342
468.492	186.06495
468.702	245.1343
468.912	148.10019
469.122	129.12037
469.332	150.20917
469.542	232.47528
469.752	264.12413
469.962	202.94032
470.172	240.91455
470.382	247.24421
470.592	247.24421
470.802	312.66058
471.012	245.1343
471.222	308.43963
471.432	236.69488
471.642	283.11549
471.852	329.54508
472.062	348.54149
472.272	270.45441
472.482	363.31745
472.691	325.32385
472.901	304.21876
473.111	356.9848
473.321	323.21326
473.531	386.5385
473.741	384.42741
473.95	409.76156
474.16	405.53904
474.37	475.21875
474.58	432.98659
474.79	449.87871
474.999	458.32515
475.209	432.98659
475.419	422.42952
475.628	559.70082
475.838	498.44903
476.048	663.22063
476.258	608.28796
476.467	578.71235
476.677	646.31739
476.886	760.42827
477.096	709.70835
477.306	678.01157
477.515	697.02933
477.725	720.27449
477.935	658.99475
478.144	844.97423
478.354	735.06755
478.563	942.21932
478.773	937.99093
478.982	944.33353
479.192	838.63277
479.401	1107.14661
479.611	1041.59428
479.82	988.73347
480.03	1064.8542
480.239	1107.14661
480.449	1086.00015
480.658	1191.73692
480.868	1100.80262
481.077	1102.91728
481.287	1066.96877
481.496	1399.00334
481.705	1259.41335
481.915	1420.1538
482.124	1403.23343
482.333	1487.83544
482.543	1413.80866
482.752	1623.19644
482.961	1462.45484
483.171	1792.3845
483.38	1481.4903
483.589	1750.08949
483.799	1864.28209
484.008	1650.69078
484.217	1688.75917
484.426	1895.99984
484.636	1750.08949
484.845	1931.94516
485.054	1978.46016
485.263	2054.569
485.472	1879.08385
485.682	2158.14672
485.891	1944.63136
486.1	2134.89618
486.309	1972.11738
486.518	2194.07743
486.727	2183.50982
486.936	2268.04461
487.146	2257.47854
487.355	2253.25205
487.564	2200.41789
487.773	2618.69315
487.982	2555.3456
488.191	2561.68084
488.4	2610.24744
488.609	2508.88397
488.818	2527.89168
489.027	2608.13598
489.236	2616.58174
489.445	2747.46523
489.654	2690.47365
489.863	2893.06554
490.072	2802.33685
490.281	2973.22223
490.49	3034.37993
490.698	3186.163
490.907	2958.45813
491.116	2918.38047
491.325	2960.56733
491.534	3253.59516
491.743	3061.79127
491.952	3367.34769
492.16	3272.55738
492.369	3287.30482
492.578	3141.9015
492.787	3434.73267
492.996	3401.04244
493.204	3371.55978
493.413	3499.99444
493.622	3640.98389
493.831	3304.15801
494.039	3651.50212
494.248	3445.25993
494.457	3796.60478
494.665	3750.35017
494.874	3828.13657
495.083	3708.29236
495.291	3523.14766
495.5	3765.06857
495.709	4048.73287
495.917	3901.6934
496.126	4197.76951
496.335	4094.9245
496.543	4149.50161
496.752	3943.71485
496.96	4115.91737
497.169	4237.63455
497.377	4145.30387
497.586	4195.67114
497.794	4136.90815
498.003	4057.1321
498.211	4352.98981
498.42	4250.22191
498.628	4589.78574
498.837	4413.78717
499.045	4497.61543
499.254	4311.04997
499.462	4702.84481
499.671	4552.08489
499.879	4817.93
500.087	4644.22975
500.296	4748.88711
500.504	4529.04195
500.713	4773.99648
500.921	4836.75559
501.129	4761.4422
501.338	4690.28592
501.546	5058.33945
501.754	4771.90415
501.962	4974.75326
502.171	5010.2819
502.379	5127.27018
502.587	4968.4828
502.795	5133.53536
503.004	4970.57298
503.212	5183.64924
503.42	5150.24147
503.628	5160.68204
503.837	5049.98249
504.045	5192.00025
504.253	5354.77025
504.461	5498.64019
504.669	5346.42653
504.877	5469.45824
505.085	5471.54282
505.294	5450.69598
505.502	5542.40447
505.71	5623.65342
505.918	5544.48823
506.126	5808.93332
506.334	5452.78077
506.542	5821.41737
506.75	5808.93332
506.958	5808.93332
507.166	5636.15008
507.374	5975.31753
507.582	5819.33676
507.79	5854.70403
507.998	5902.54301
508.206	6095.85174
508.414	5756.90729
508.622	6031.43814
508.83	5858.86444
509.037	6039.75084
509.245	5835.98103
509.453	6002.34071
509.661	5944.13199
509.869	6108.31628
510.077	6000.26214
510.285	6149.85863
510.492	6195.54436
510.7	6305.55885
510.908	6110.39362
511.116	6320.08415
511.324	6384.39672
511.531	6531.60895
511.739	6201.77336
511.947	6407.21192
512.155	6380.2482
512.362	6589.63234
512.57	6434.17171
512.778	6608.27886
512.985	6620.70884
513.193	6544.04406
513.401	6749.10346
513.608	6802.92014
513.816	6558.55064
514.024	6755.31387
514.231	6666.27833
514.439	6844.30709
514.646	6614.49396
514.854	6850.51435
515.061	6705.62485
515.269	6817.40661
515.477	6699.41279
515.684	6749.10346
515.892	6734.61171
516.099	6989.08993
516.307	6999.42733
516.514	7220.51345
516.722	6976.68431
516.929	7420.71846
517.136	7028.36904
517.344	7135.82837
517.551	7028.36904
517.759	7137.89431
517.966	7201.92724
518.173	7257.68051
518.381	7292.77617
518.588	7301.03305
518.796	7162.68378
519.003	7398.02514
519.21	7270.06794
519.418	7492.90703
519.625	7319.60974
519.832	7565.06919
520.039	7482.596
520.247	7606.29292
520.454	7511.46553
520.661	7867.86629
520.868	7738.15178
521.076	7680.47419
521.283	7626.90159
521.49	7748.44961
521.697	7915.20185
521.904	7855.51609
522.112	7598.04886
522.319	8092.09972
522.526	7787.5766
522.733	8096.21184
522.94	7839.04799
523.147	8190.76847
523.354	7972.81306
523.561	8246.24947
523.768	7995.44164
523.975	8211.31867
524.183	8120.88287
524.39	8320.2018
524.597	8242.14026
524.804	8149.66209
525.011	8223.64784
525.218	8554.21853
525.425	8367.43586
525.632	8390.02244
525.838	8482.39778
526.045	8297.60796
526.252	8584.99177
526.459	8724.4444
526.666	8439.29412
526.873	8775.69229
527.08	9105.46001
527.287	8880.20277
527.494	8504.97252
527.701	8790.03966
527.907	8667.03313
528.114	8839.22387
528.321	8945.75414
528.528	8894.5437
528.735	8773.6426
528.941	8790.03966
529.148	8910.93225
529.355	9226.19339
529.562	8775.69229
529.768	9064.5199
529.975	8824.87955
530.182	8863.81207
530.388	8790.03966
530.595	9301.87753
530.802	8908.88374
531.008	9365.27104
531.215	9201.64225
531.422	9158.67187
531.628	9211.87219
531.835	9359.13688
532.042	9545.1415
532.248	9845.33547
532.455	9432.73713
532.661	9682.00581
532.868	9712.63753
533.074	9845.33547
533.281	9508.35994
533.487	9786.13965
533.694	9804.51211
533.9	10037.12638
534.107	9673.83677
534.313	9763.68275
534.52	9628.90261
534.726	9837.17127
534.933	9669.75216
535.139	9855.54037
535.345	10210.44574
535.552	10185.98322
535.758	9906.55935
535.965	10041.20565
536.171	9963.68972
536.377	10436.63217
536.584	10300.1249
536.79	10289.9354
536.996	10291.97333
537.203	10139.09116
537.409	10106.46626
537.615	10420.33589
537.821	10214.52264
538.028	10491.62602
538.234	10450.89073
538.44	10619.90903
538.646	10304.2006
538.853	10538.46528
539.059	10328.65371
539.265	10573.08132
539.471	10589.36996
539.677	10532.35619
539.883	10723.72122
540.09	10701.33302
540.296	10546.61056
540.502	10811.22483
540.708	10799.01634
540.914	10941.4228
541.12	10815.29424
541.326	11114.27072
541.532	10833.60598
541.738	11268.75129
541.944	10955.66036
542.15	11116.30376
542.356	11148.83087
542.562	11201.68163
542.768	10961.76201
542.974	11108.17155
543.18	11158.99503
543.386	11376.44598
543.592	11453.64388
543.798	11644.54799
544.004	11725.75923
544.21	11612.05946
544.415	11293.13748
544.621	11589.72224
544.827	11339.87359
545.033	11378.47769
545.239	11380.50938
545.445	11831.31287
545.651	11697.33691
545.856	11829.28321
546.062	11744.0298
546.268	11575.50707
546.474	11640.48705
546.679	11746.05982
546.885	11490.20642
547.091	11815.07536
547.297	11768.38947
547.502	11782.5987
547.708	11691.24619
547.914	11898.28691
548.119	12076.84101
548.325	12226.94239
548.531	11717.63874
548.736	12068.72624
548.942	11579.56859
549.147	11989.6007
549.353	12093.07017
549.559	12287.78284
549.764	12164.06706
549.97	12198.54795
550.175	12202.60439
550.381	12460.1301
550.586	12034.23709
550.792	12048.43877
550.997	12172.1804
551.203	12415.52727
551.408	12299.95016
551.614	12606.08111
551.819	12784.42267
552.025	12622.29588
552.23	12782.39631
552.435	12713.49681
552.641	12624.3227
552.846	12674.99122
553.052	12561.48844
553.257	12604.05423
553.462	12784.42267
553.668	12818.86987
553.873	12756.05316
554.078	13102.49442
554.283	12835.07976
554.489	13248.32127
554.694	13021.469
554.899	13110.59654
555.105	13080.2132
555.31	13416.39932
555.515	13203.76556
555.72	13199.71493
555.925	13114.64757
556.131	13276.67381
556.336	12964.74649
556.541	13300.97531
556.746	13331.35134
556.951	13533.83525
557.156	13110.59654
557.361	13720.08842
557.567	13550.03234
557.772	13471.06935
557.977	13527.76129
558.182	13695.79612
558.387	13819.27736
558.592	13997.39551
558.797	13464.99504
559.002	13499.41568
559.207	13744.38027
559.412	13649.23459
559.617	13679.601
559.822	13971.08389
560.027	13657.33237
560.232	13845.59161
560.437	13454.87111
560.642	13377.92611
560.847	13390.0757
561.051	13954.89191
561.256	13841.54329
561.461	13882.02592
561.666	13827.3741
561.871	14005.49131
562.076	13884.05002
562.281	14137.04277
562.485	13606.72035
562.69	13958.93992
562.895	13960.96392
563.1	14189.66075
563.305	13875.9536
563.509	13918.45934
563.714	14104.66177
563.919	14408.21398
564.123	14347.50678
564.328	14278.70348
564.533	14274.65616
564.737	14181.56577
564.942	14258.46682
565.147	14428.44939
565.351	14220.01664
565.556	14230.13518
565.761	14458.80224
565.965	14402.14332
566.17	14137.04277
566.374	14543.78856
566.579	14440.59057
566.784	14642.93652
566.988	14470.94329
567.193	15019.27568
567.397	14529.62434
567.602	14733.98858
567.806	14677.33419
568.011	14689.47448
568.215	14711.73158
568.42	14891.80831
568.624	14667.21726
568.828	14691.49785
569.033	14693.52123
569.237	14986.90316
569.442	14992.97301
569.646	14861.45867
569.85	14792.66564
570.055	14984.87987
570.259	14958.57713
570.463	15136.6256
570.668	14891.80831
570.872	14922.15784
571.076	15189.23063
571.281	15367.27907
571.485	15164.95139
571.689	14986.90316
571.893	14980.8333
572.098	15347.04619
572.302	15332.8832
572.506	15260.04517
572.71	15302.53398
572.914	15517.00372
573.119	15154.83503
573.323	15523.0737
573.527	15100.20671
573.731	15385.48868
573.935	15601.98403
574.139	15411.79152
574.343	15318.72022
574.547	15298.48742
574.751	15881.21596
574.955	15640.42793
575.159	15618.1709
575.364	15925.73314
575.568	15547.35369
575.772	15626.26435
575.976	15610.07746
576.18	15743.62102
576.383	15810.3944
576.587	15638.40456
576.791	15986.43939
576.995	15802.30059
577.199	15695.05927
577.403	15691.01248
577.607	16103.80841
577.811	16237.37268
578.015	15986.43939
578.219	16221.18268
578.422	16196.89789
578.626	16154.40009
578.83	16310.22907
579.034	16277.84816
579.238	16180.70817
579.442	16209.04026
579.645	16245.46772
579.849	15854.91064
580.053	16423.56604
580.257	16328.44354
580.46	16132.13963
580.664	16650.25926
580.868	16370.94455
581.071	16472.14092
581.275	16237.37268
581.479	16500.47682
581.682	16577.39063
581.886	16512.6209
582.09	16320.3482
582.293	16587.5111
582.497	16634.06598
582.7	16798.02988
582.904	16565.24613
583.107	16866.85897
583.311	16518.69297
583.515	16717.05811
583.718	16921.51946
583.922	16789.93253
584.125	17038.94475
584.329	16834.46845
584.532	16650.25926
584.735	17142.20558
584.939	16885.07893
585.142	17067.29014
585.346	16634.06598
585.549	17166.50331
585.753	17024.77225
585.956	17215.10001
586.159	17006.55066
586.363	17247.49873
586.566	17433.80624
586.769	17360.90024
586.973	17204.97556
587.176	17500.64027
587.379	17148.27998
587.582	17304.19831
587.786	17512.79228
587.989	17674.83019
588.192	17512.79228
588.395	17516.84298
588.599	17427.73059
588.802	17646.47205
589.005	17273.82325
589.208	17597.85959
589.411	17535.07127
589.615	17549.24901
589.818	17666.7278
590.021	17727.49703
590.224	17603.93604
590.427	17816.63072
590.63	17917.92706
590.833	18049.62539
591.036	17956.42195
591.239	18041.52044
591.442	17691.03513
591.645	17648.49761
591.848	18067.86173
592.051	17970.6046
592.254	17723.44566
592.457	17966.55239
592.66	18094.20362
592.863	18436.70478
593.066	18207.6834
593.269	18469.13648
593.472	17948.31766
593.675	18298.88088
593.878	18404.27405
594.081	18529.94857
594.284	18408.32784
594.486	18919.22912
594.689	18840.1447
594.892	18894.89481
595.095	18635.36442
595.298	18564.41029
595.5	18582.65518
595.703	18759.03878
595.906	18459.00147
596.109	18313.06783
596.311	18461.02847
596.514	18450.89353
596.717	18598.87313
596.92	18726.59819
597.122	18746.87344
597.325	18430.62395
597.528	18663.7474
597.73	19140.29244
597.933	18454.94749
598.136	18724.57068
598.338	18651.58317
598.541	18911.11762
598.743	18976.01144
598.946	18996.29161
599.148	18619.14591
599.351	18643.47376
599.554	18830.00612
599.756	18529.94857
599.959	19308.65756
600.161	19414.15378
600.363	19166.66102
600.566	19211.28633
600.768	18978.03944
600.971	19377.63459
601.173	19316.77226
601.376	19495.31235
601.578	19146.37744
601.78	19414.15378
601.983	19247.79943
602.185	19519.66121
602.388	19397.92286
602.59	19294.457
602.792	19223.45722
602.995	19487.19619
603.197	19406.03829
603.399	19592.71141
603.601	19308.65756
603.804	19369.5194
604.006	19497.3414
604.208	19462.84812
604.41	19351.26046
604.613	19466.90609
604.815	19513.57394
605.017	19740.85761
605.219	19905.26515
605.421	19767.24215
605.623	19517.63212
605.826	19375.60579
606.028	19270.11365
606.23	19399.95171
606.432	19203.17249
606.634	19655.62009
606.836	19493.2833
607.038	19667.79643
607.24	19651.56134
607.442	20063.60959
607.644	19704.32634
607.846	19836.25123
608.048	19779.41987
608.25	19682.00234
608.452	19785.50879
608.654	19884.96644
608.856	19598.79918
609.058	19943.83388
609.26	19751.00543
609.462	19960.07379
609.664	19874.81723
609.866	20252.43832
610.067	20128.57881
610.269	19970.22388
610.471	19939.77394
610.673	20209.7964
610.875	20033.15675
611.077	20284.92865
611.278	20230.10184
611.48	20002.70485
611.682	19858.57873
611.884	20353.97417
612.085	20297.1128
612.287	20039.24724
612.489	19753.035
612.69	19939.77394
612.892	20238.22414
613.094	20420.99358
613.295	19935.71402
613.497	19783.47915
613.699	19726.65085
613.9	20157.0042
614.102	20110.30578
614.304	20110.30578
614.505	20262.59143
614.707	20077.82124
614.908	19799.71641
615.11	20372.25174
615.311	20063.60959
615.513	20250.40771
615.714	20246.3465
615.916	20364.12833
616.117	20154.97379
616.319	19862.63833
616.52	20037.21707
616.722	19909.32495
616.923	19951.9538
617.124	20057.51894
617.326	20002.70485
617.527	20195.58283
617.729	20136.70027
617.93	20418.96262
618.131	20337.72773
618.333	20394.59145
618.534	20479.8932
618.735	20796.79275
618.937	20230.10184
619.138	20175.2781
619.339	20226.04072
619.54	20644.42454
619.742	20396.62236
619.943	20388.49875
620.144	20260.5608
620.345	20392.56055
620.546	20595.67166
620.748	20857.74656
620.949	20733.81106
621.15	20792.72929
621.351	20201.67433
621.552	20303.20493
621.753	20120.45742
621.954	20173.24765
622.155	20341.78932
622.356	20469.73784
622.558	20485.98646
622.759	20691.14831
622.96	20410.83883
623.161	20583.48381
623.362	20295.0821
623.563	20475.83104
623.764	20520.51567
623.965	20939.0241
624.166	20741.9375
624.366	20528.64037
624.567	20429.11746
624.768	20827.26919
624.969	20550.98362
625.17	20620.0478
625.371	20709.43212
625.572	20794.76102
625.773	20750.06402
625.973	20987.79378
626.174	20802.88796
626.375	20859.77842
626.576	20802.88796
626.777	20999.98657
626.977	20615.98507
627.178	21085.34023
627.379	20727.71627
627.58	20849.61917
627.78	21040.63027
627.981	21176.79858
628.182	20821.17383
628.382	20713.49523
628.583	20496.14199
628.784	20725.68468
628.984	20571.29612
629.185	20861.81028
629.386	20506.29761
629.586	20934.96007
629.787	21030.46919
629.987	21099.56654
630.188	20898.38451
630.388	20833.36459
630.589	20821.17383
630.79	20618.01643
630.99	21067.04955
631.191	21119.89019
631.391	21382.10161
631.591	21113.79306
631.792	21349.57562
631.992	21310.95234
632.193	21384.13452
632.393	21211.35165
632.594	20713.49523
632.794	20959.34451
632.994	20880.09723
633.195	21052.8237
633.395	20811.01497
633.595	21002.01872
633.796	20833.36459
633.996	21077.211
634.196	20912.60818
634.397	21376.00291
634.597	21436.99154
634.797	21591.51211
634.997	21095.50186
635.198	21128.01977
635.398	21396.33205
635.598	21652.51335
635.798	21683.0153
635.998	21768.42542
636.199	21290.62488
636.399	21603.71208
636.599	21095.50186
636.799	21697.24984
636.999	21319.08343
637.199	21447.15666
637.399	21713.51812
637.599	21953.50408
637.799	21343.47711
637.999	22138.61429
638.199	21583.37888
638.399	21536.61402
638.599	21502.05004
638.799	21933.16421
638.999	21575.24571
639.199	21522.38166
639.399	21554.91307
639.599	21984.01459
639.799	21648.44649
639.999	21957.57209
640.199	21333.31301
640.399	21561.01282
640.599	20796.79275
640.799	22333.92894
640.998	22049.10655
641.198	21857.91002
641.398	21843.67333
641.598	22185.40532
641.798	22030.79904
641.997	21827.40307
642.197	21589.4788
642.397	21615.91218
642.597	21599.6454
642.796	21760.29082
642.996	21369.90424
643.196	21691.1493
643.395	21782.6611
643.595	21709.45103
643.795	21864.01152
643.994	22067.41436
644.194	21835.53817
644.394	21774.5264
644.593	21644.37965
644.793	21973.84432
644.992	21984.01459
645.192	22067.41436
645.392	22097.92805
645.591	22136.57995
645.791	21886.38396
645.99	22128.44259
646.19	22018.59421
646.389	22283.06248
646.589	22128.44259
646.788	21912.82472
646.987	21735.88742
647.187	22541.48765
647.386	22036.90151
647.586	22297.30486
647.785	22287.13171
647.984	22626.96384
648.184	22252.5437
648.383	22108.09947
648.582	22224.06026
648.782	22323.75547
648.981	22321.72078
649.18	22272.88946
649.38	22274.92405
649.579	22413.28518
649.778	22576.0844
649.977	22567.9439
650.177	22307.47809
650.376	22124.37394
650.575	22295.27022
650.774	22653.42201
650.973	22224.06026
651.173	22429.56407
651.372	22283.06248
651.571	22553.69815
651.77	22433.63383
651.969	22397.00653
652.168	22547.59289
652.367	22287.13171
652.566	22354.27617
652.765	22549.62797
652.964	22543.52273
653.163	22763.33154
653.362	22557.76835
653.561	22649.35148
653.76	22559.80345
653.959	22299.3395
654.158	22863.073
654.357	22594.40074
654.556	22152.85483
654.755	22661.56311
654.954	22340.03307
655.153	22321.72078
655.352	22667.66897
655.551	22812.18347
655.749	22883.42941
655.948	22926.17897
656.147	22812.18347
656.346	23288.5914
656.545	22875.2868
656.743	22700.23409
656.942	22742.97716
657.141	22755.18975
657.34	22802.00582
657.538	22470.2623
657.737	22966.89423
657.936	23166.41829
658.135	22747.04801
658.333	23341.53667
658.532	23127.73258
658.731	22993.35987
658.929	23025.93375
659.128	22899.71478
659.326	22543.52273
659.525	22920.0718
659.724	22710.41087
659.922	22950.60797
660.121	22671.73956
660.319	22645.28097
660.518	22413.28518
660.716	22765.367
660.915	23376.15589
661.113	23082.94007
661.312	23030.00554
661.51	23111.44421
661.709	22506.89193
661.907	22777.57981
662.105	22730.7647
662.304	22930.25044
662.502	22631.03429
662.701	22924.14325
662.899	22427.5292
663.097	22975.03745
663.296	23260.0833
663.494	23170.49054
663.692	23111.44421
663.891	23376.15589
664.089	23221.39475
664.287	23109.40818
664.485	22708.37551
664.684	22993.35987
664.882	23015.75432
665.08	23323.20922
665.278	23174.5628
665.476	23272.30098
665.675	22893.60774
665.873	22791.82826
666.071	23040.18508
666.269	23023.89785
666.467	22856.96614
666.665	23109.40818
666.863	22944.50067
667.061	23225.46718
667.259	22799.9703
667.457	23064.61633
667.655	22561.83856
667.853	23074.79615
668.051	22443.80829
668.249	22920.0718
668.447	22966.89423
668.645	22714.48161
668.843	22970.96583
669.041	22578.11954
669.239	22252.5437
669.437	22584.22496
669.635	22740.94174
669.833	22799.9703
670.031	22584.22496
670.229	22622.8934
670.426	22529.27728
670.624	22624.92862
670.822	22977.07326
671.02	23089.04805
671.218	22777.57981
671.415	22647.31623
671.613	22730.7647
671.811	23276.37357
672.009	23091.08405
672.206	23023.89785
672.404	22462.12254
672.602	22850.85932
672.799	22732.8001
672.997	23203.069
673.195	23078.86811
673.392	23070.72421
673.59	22840.68134
673.788	22696.1634
673.985	22604.57661
674.183	22612.71737
674.38	23056.47253
674.578	22975.03745
674.775	22745.01258
674.973	23127.73258
675.17	22854.93053
675.368	23076.83213
675.565	22787.75726
675.763	23034.07735
675.96	22920.0718
676.158	22415.32003
676.355	22567.9439
676.553	22909.89325
676.75	22413.28518
676.947	22771.47339
677.145	22694.12806
677.342	23282.48247
677.539	22612.71737
677.737	22624.92862
677.934	22787.75726
678.131	22877.32245
678.329	22970.96583
678.526	22916.00037
678.723	23087.01205
678.92	23170.49054
679.118	22663.59839
679.315	22755.18975
679.512	22808.1124
679.709	22738.90632
679.906	22771.47339
680.104	23032.04144
680.301	22643.24572
680.498	22319.6861
680.695	22226.09476
680.892	22346.13723
681.089	22213.88778
681.286	22093.85951
681.483	22079.61974
681.68	22309.51275
681.877	22167.09555
682.075	22262.71653
682.272	22224.06026
682.469	22283.06248
682.665	22250.50914
682.862	22085.72247
683.059	22285.09709
683.256	22272.88946
683.453	22626.96384
683.65	22586.26011
683.847	22490.61195
684.044	22128.44259
684.241	21851.80856
684.438	22081.65398
684.635	22148.78609
684.831	22590.33042
685.028	22126.40826
685.225	22462.12254
685.422	22150.82046
685.619	22030.79904
685.815	21823.33554
686.012	22331.89424
686.209	22087.75673
686.405	22399.04135
686.602	21855.8762
686.799	21935.19818
686.996	22494.68192
687.192	22500.78691
687.389	22506.89193
687.586	22244.4055
687.782	22055.20912
687.979	22246.44004
688.175	21876.21461
688.372	22006.38951
688.568	21664.71402
688.765	21739.95461
688.962	21977.91242
689.158	21898.58731
689.355	22217.95676
689.551	21693.18281
689.748	21563.04608
689.944	21719.61879
690.14	21721.65236
690.337	21772.49273
690.533	22219.99125
690.73	22112.16807
690.926	22421.4246
691.123	22020.62834
691.319	21973.84432
691.515	22348.17196
691.712	21884.35008
691.908	21916.89259
692.104	21626.07905
692.301	21772.49273
692.497	21626.07905
692.693	21914.85865
692.889	21778.59374
693.086	21912.82472
693.282	22038.93568
693.478	22095.89378
693.674	21699.28336
693.87	21815.20053
694.067	21441.05758
694.263	21703.35042
694.459	21585.41218
694.655	21774.5264
694.851	21802.99813
695.047	21569.14588
695.243	21615.91218
695.439	21843.67333
695.635	21581.34558
695.831	21894.51951
696.027	21721.65236
696.224	21306.88681
696.42	21487.81815
696.615	21491.88438
696.811	21811.13304
697.007	21502.05004
697.203	21221.51454
697.399	21599.6454
697.595	21969.77624
697.791	21790.79586
697.987	21603.71208
698.183	21672.84788
698.379	21315.01788
698.575	21203.22141
698.77	21217.44937
698.966	21668.78095
699.162	21872.1469
699.358	21707.41749
699.554	21280.4613
699.749	21339.41146
699.945	21418.69457
700.141	21497.98377
700.337	21678.94832
700.532	21872.1469
700.728	21654.54679
700.924	21925.02837
701.119	21272.33051
701.315	21160.53871
701.511	20859.77842
701.706	21213.38422
701.902	21140.21425
702.097	21312.98511
702.293	21288.59216
702.489	21408.52973
702.684	21459.35494
702.88	21552.87982
703.075	21426.82652
703.271	21221.51454
703.466	21339.41146
703.662	21103.63124
703.857	20963.40864
704.053	21518.3153
704.248	21207.28652
704.443	21319.08343
704.639	21193.0587
704.834	21420.72755
705.03	20916.67212
705.225	20951.2163
705.42	20890.25679
705.616	21207.28652
705.811	20790.69757
706.006	20991.85803
706.202	21197.12377
706.397	21317.05065
706.592	21536.61402
706.787	21347.54278
706.983	21018.27603
707.178	21544.74689
707.373	20752.09565
707.568	20886.19295
707.763	20743.96912
707.959	20741.9375
708.154	20766.31724
708.349	20788.66586
708.544	21022.3404
708.739	20981.69744
708.934	20691.14831
709.129	20943.08815
709.324	20205.73536
709.519	21008.11518
709.714	20356.005
709.909	20557.07733
710.104	20611.92235
710.299	20664.73895
710.494	20715.5268
710.689	21117.85781
710.884	20949.18425
711.079	20959.34451
711.274	21256.06912
711.469	21408.52973
711.664	20865.87402
711.859	20912.60818
712.054	20707.40057
712.249	20607.85965
712.443	20502.23535
712.638	20825.2374
712.833	20106.24515
713.028	20542.85875
713.223	20258.53018
713.417	20733.81106
713.612	20819.14205
713.807	20819.14205
714.002	20727.71627
714.196	20882.12913
714.391	20843.52367
714.586	21095.50186
714.78	20802.88796
714.975	20670.83336
715.17	20437.2414
715.364	21040.63027
715.559	20815.0785
715.754	20658.64458
715.948	20524.57801
716.143	20538.79633
716.337	20284.92865
716.532	20693.17982
716.726	20636.29889
716.921	21083.30792
717.115	21121.92258
717.31	20945.12018
717.504	20932.92805
717.699	20609.891
717.893	20420.99358
718.088	20467.70678
718.282	20683.02228
718.476	20475.83104
718.671	19951.9538
718.865	20161.06504
719.059	19852.48936
719.254	20228.07128
719.448	19856.54894
719.642	20152.94338
719.837	19639.38521
720.031	19937.74398
720.225	19949.92381
720.419	20094.06337
720.614	20067.67004
720.808	19984.43417
721.002	19700.26739
721.196	19801.74608
721.39	19984.43417
721.585	20264.62207
721.779	20087.97254
721.973	20228.07128
722.167	20018.94575
722.361	19844.37026
722.555	19671.85524
722.749	19726.65085
722.943	19519.66121
723.137	19353.28921
723.331	19308.65756
723.525	19558.21481
723.719	20090.00282
723.913	20171.2172
724.107	19690.1201
724.301	19357.34673
724.495	19481.10912
724.689	19610.97481
724.883	19355.31797
725.077	19472.99308
725.271	19462.84812
725.465	19773.33099
725.659	19763.18295
725.853	19799.71641
726.046	19645.47326
726.24	19268.08506
726.434	19519.66121
726.628	19521.69031
726.822	19454.73223
727.015	19330.97314
727.209	19584.59446
727.403	19864.66814
727.596	19511.54486
727.79	19759.12376
727.984	19552.1273
728.177	19783.47915
728.371	19742.88717
728.565	19406.03829
728.758	19546.03983
728.952	19592.71141
729.146	19475.02208
729.339	19763.18295
729.533	19805.80545
729.726	19891.05601
729.92	19613.0041
730.113	20033.15675
730.307	19706.35582
730.5	19789.56809
730.694	19805.80545
730.887	19842.3405
731.081	20185.43041
731.274	19726.65085
731.468	18886.7835
731.661	19215.34328
731.854	19004.40379
732.048	19067.27538
732.241	19138.26412
732.435	19531.83587
732.628	19377.63459
732.821	19564.30236
733.014	19663.73763
733.208	19889.02615
733.401	19903.23526
733.594	19519.66121
733.788	19570.38995
733.981	19625.17991
734.174	19576.47757
734.367	19606.91625
734.56	19775.36062
734.754	19566.33155
734.947	19470.96408
735.14	19546.03983
735.333	19541.98153
735.526	19318.80094
735.719	19243.74236
735.912	18907.06189
736.105	18848.25565
736.298	18978.03944
736.491	18927.34069
736.684	18844.20017
736.877	19207.22941
737.07	19249.82798
737.263	19365.46183
737.456	19172.74617
737.649	19251.85653
737.842	18963.84354
738.035	19059.16269
738.228	18896.92264
738.421	19178.83136
738.614	18943.56402
738.807	18834.06154
739	19126.09427
739.192	18939.50816
739.385	19219.40024
739.578	19059.16269
739.771	18884.75568
739.964	19036.85315
740.156	19657.64947
740.349	18951.67578
740.542	19235.62825
740.735	18882.72786
740.927	19122.03768
741.12	19103.78325
741.313	18827.97841
741.505	18791.48039
741.698	18809.72924
741.891	18578.60073
742.083	18963.84354
742.276	19000.34769
742.468	18732.68072
742.661	18574.5463
742.854	18698.21349
743.046	18611.03675
743.239	18422.51622
743.431	18852.31114
743.624	18777.28706
743.816	18647.52846
744.009	18757.01121
744.201	18724.57068
744.393	18830.00612
744.586	18653.61053
744.778	18694.1586
744.971	18692.13116
745.163	18592.79137
745.355	18556.30155
745.548	18550.22003
745.74	18574.5463
745.932	18588.73688
746.125	18238.08173
746.317	18564.41029
746.509	18637.39175
746.702	18834.06154
746.894	18400.22028
747.086	18645.50111
747.278	18602.92765
747.471	18712.40574
747.663	19085.52915
747.855	18921.25701
748.047	18582.65518
748.239	18823.92301
748.431	18459.00147
748.623	18992.23554
748.815	18444.81261
749.008	18386.0322
749.2	18138.7836
749.392	18686.04886
749.584	18193.4978
749.776	18511.70458
749.968	18586.70964
750.16	18742.81836
750.352	18684.02144
750.544	18351.57619
750.736	18221.86918
750.928	18359.68339
751.12	18015.17976
751.311	18077.99315
751.503	18092.1773
751.695	18165.12714
751.887	18467.10947
752.079	18980.06744
752.271	18373.87113
752.463	18345.49584
752.654	18225.9223
752.846	18256.32112
753.038	18096.22994
753.23	18069.888
753.421	18037.46799
753.613	18298.88088
753.805	18426.57007
753.997	18282.66744
754.188	18270.50752
754.38	17838.91518
754.572	18094.20362
754.763	17682.93263
754.955	17678.8814
755.146	17998.97041
755.338	17780.16615
755.53	17719.3943
755.721	18065.83545
755.913	17919.95307
756.104	17847.01872
756.296	17976.68293
756.487	17729.52273
756.679	17822.70826
756.87	17680.90702
757.062	17464.18492
757.253	18082.04575
757.445	17711.29161
757.636	17707.24029
757.827	17421.65496
758.019	17689.0095
758.21	17605.96154
758.401	17863.22596
758.593	17646.47205
758.784	17172.57781
758.975	17225.22453
759.167	17071.33953
759.358	17089.5619
759.549	17075.38892
759.74	16994.40306
759.932	16885.07893
760.123	17290.0232
760.314	17439.88192
760.505	16804.10292
760.696	17207.00044
760.888	17504.69093
761.079	17273.82325
761.27	17142.20558
761.461	16976.18184
761.652	17383.17665
761.843	16988.3293
762.034	17138.156
762.225	16743.37351
762.416	16937.71552
762.607	16848.63923
762.798	17330.52392
762.989	17298.12325
763.18	17095.63607
763.371	16557.14985
763.562	16931.64198
763.753	16723.13086
763.944	17144.23038
764.135	16959.98538
764.326	16955.93629
764.517	16557.14985
764.708	16925.56846
764.899	16583.4629
765.089	16441.78149
765.28	16209.04026
765.471	16443.80543
765.662	16296.06237
765.853	16395.23123
766.043	16138.21065
766.234	16310.22907
766.425	16059.28854
766.615	16443.80543
766.806	16391.18343
766.997	16512.6209
767.187	16464.04503
767.378	16777.78657
767.569	16312.25289
767.759	16632.04183
767.95	16555.12578
768.141	16281.89575
768.331	16431.66178
768.522	16409.39859
768.712	16595.60751
768.903	16625.96939
769.093	16136.18697
769.284	16182.73188
769.474	16012.74581
769.665	15680.89553
769.855	15852.88716
770.046	15935.85076
770.236	15488.67721
770.426	15589.8439
770.617	15632.33445
770.807	15972.27449
770.998	16071.43025
771.188	15893.35695
771.378	15919.66258
771.569	16089.64292
771.759	15397.62845
771.949	15826.58206
772.139	15903.47447
772.33	15589.8439
772.52	15929.78018
772.71	15840.74632
772.9	15703.15286
773.09	16073.45388
773.281	15650.5448
773.471	15747.66786
773.661	15593.89061
773.851	15549.37703
774.041	15084.02053
774.231	15405.72163
774.421	15389.53527
774.611	15492.72385
774.802	15249.92879
774.992	14903.94814
775.182	14992.97301
775.372	15290.39431
775.562	15373.34893
775.752	15381.4421
775.942	14841.2255
776.131	15351.09276
776.321	15015.22912
776.511	15055.69468
776.701	14772.43224
776.891	14825.03893
777.081	14893.83162
777.271	14962.62371
777.461	14897.87823
777.651	15187.20736
777.84	14889.78501
778.03	14733.98858
778.22	14782.54895
778.41	14642.93652
778.599	14774.45559
778.789	15079.97398
778.979	15007.13599
779.169	14972.74015
779.358	14667.21726
779.548	15162.92812
779.738	14719.82505
779.927	15011.18256
780.117	14709.70821
780.307	14632.81951
780.496	14764.33887
780.686	14966.67029
780.875	14357.62475
781.065	15007.13599
781.254	14339.41238
781.444	14703.6381
781.633	14487.13128
781.823	14584.25745
782.012	14727.9185
782.202	14691.49785
782.391	14266.5615
782.581	14169.42323
782.77	14120.85234
782.96	14262.51416
783.149	14027.75456
783.338	14307.0345
783.528	14037.87412
783.717	14209.89806
783.906	13940.72379
784.096	14064.1847
784.285	14379.88413
784.474	14531.6478
784.663	14367.74268
784.853	14226.08777
785.042	14288.82174
785.231	14329.29434
785.42	13952.8679
785.61	14056.08918
785.799	14086.4472
785.988	14135.01898
786.177	13584.45039
786.366	13827.3741
786.555	13924.5315
786.744	14201.80316
786.933	13934.6517
787.122	13946.79585
787.312	14033.8263
787.501	14102.63793
787.69	13720.08842
787.879	13744.38027
788.068	13379.95105
788.257	13527.76129
788.445	13294.89999
788.634	13655.30793
788.823	13639.11228
789.012	13833.44663
789.201	13430.5733
789.39	13379.95105
789.579	13311.10076
789.768	13803.08374
789.957	13493.34153
790.145	13576.35211
790.334	13509.53919
790.523	13610.76939
790.712	13224.01842
790.9	13323.25115
791.089	13179.46153
791.278	13140.97882
791.467	12877.62906
791.655	13554.08157
791.844	13155.15685
792.033	12972.84995
792.221	12831.02732
792.41	13230.09419
792.599	12820.89612
792.787	12934.35779
792.976	12683.09784
793.164	13035.64901
793.353	12952.59115
793.541	13138.95336
793.73	13057.9314
793.918	12831.02732
794.107	12802.65962
794.295	12770.23805
794.484	12948.53933
794.672	12841.15838
794.861	12484.45757
795.049	12575.67734
795.238	12583.78515
795.426	12624.3227
795.614	12604.05423
795.803	12393.22464
795.991	12397.27973
796.179	12865.47236
796.368	12508.7841
796.556	12814.81734
796.744	12634.45671
796.932	12646.61731
797.121	12506.75693
797.309	12571.6234
797.497	12464.18474
797.685	12754.02673
797.874	12608.10797
798.062	12531.08262
798.25	12123.49854
798.438	12802.65962
798.626	12549.32628
798.814	12577.7043
799.002	12338.47835
799.19	12439.85648
799.378	12089.01293
799.566	12423.63711
799.755	12147.84001
799.943	12439.85648
800.131	12356.72767
800.318	12435.80168
800.506	12070.75494
800.694	12228.97051
800.882	12504.72975
801.07	12758.07959
801.258	12360.783
801.446	12689.17774
801.634	12212.74535
801.822	12354.7
802.01	12216.80168
802.197	12595.94667
802.385	12314.14505
802.573	12492.56652
802.761	12449.99337
802.949	12496.62095
803.136	12413.49979
803.324	12249.25131
803.512	12328.3396
803.699	12492.56652
803.887	12468.23936
804.075	12579.73126
804.262	12774.29083
804.45	12275.61527
804.638	12273.58731
804.825	12573.65038
805.013	12496.62095
805.201	12545.27218
805.388	12417.55474
805.576	12681.07119
805.763	12129.58401
805.951	12285.75493
806.138	12328.3396
806.326	12447.96601
806.513	12070.75494
806.701	12474.32124
806.888	12249.25131
807.075	12374.97643
807.263	12198.54795
807.45	12330.36736
807.638	12474.32124
807.825	12468.23936
808.012	12279.67115
808.2	12476.34851
808.387	12563.51545
808.574	12577.7043
808.761	12539.19098
808.949	12099.15599
809.136	12011.91937
809.323	12139.72631
809.51	12230.99862
809.698	12595.94667
809.885	12458.10276
810.072	12691.20436
810.259	12502.70256
810.446	12525.00128
810.633	12105.24173
810.82	12492.56652
811.008	12320.22847
811.195	12541.21805
811.382	12352.67231
811.569	12577.7043
811.756	12417.55474
811.943	12731.73556
812.13	12476.34851
812.317	12474.32124
812.504	12415.52727
812.691	12525.00128
812.878	12222.88613
813.064	12393.22464
813.251	12543.24512
813.438	12522.97416
813.625	12141.75475
813.812	12346.58923
813.999	12520.94703
814.186	12545.27218
814.372	12415.52727
814.559	12372.94882
814.746	12188.40674
814.933	12107.27029
815.12	11924.66814
815.306	11685.15539
815.493	11802.89687
815.68	12056.55385
815.866	11967.28106
816.053	12210.71717
816.24	12099.15599
816.426	12032.20824
816.613	12188.40674
816.799	12334.42287
816.986	12143.78318
817.173	12370.9212
817.359	12032.20824
817.546	12164.06706
817.732	12082.927
817.919	12456.07543
818.105	12277.64321
818.292	12216.80168
818.478	12076.84101
818.665	12222.88613
818.851	12097.12739
819.037	12200.57617
819.224	11936.84363
819.41	11910.46303
819.597	12095.09879
819.783	12291.83865
819.969	11825.22387
820.156	12099.15599
820.342	12091.04155
820.528	12119.44153
820.714	11959.16459
820.901	12084.95565
821.087	12011.91937
821.273	12362.81065
821.459	12166.09541
821.646	12147.84001
821.832	12145.8116
822.018	12235.05482
822.204	11729.81941
822.39	11877.9927
822.576	11530.82785
822.762	11681.09481
822.948	11459.73785
823.134	11618.15124
823.32	11569.41471
823.507	11815.07536
823.693	12018.00612
823.879	11853.63856
824.065	11784.62855
824.25	11506.45545
824.436	11449.58118
824.622	11634.39557
824.808	11711.54829
824.994	11863.78627
825.18	11788.68824
825.366	11851.60899
825.552	11490.20642
825.738	11675.00388
825.923	11482.08168
826.109	11790.71807
826.295	11595.81432
826.481	11589.72224
826.667	11670.94321
826.852	11719.66888
827.038	11429.26712
827.224	11473.95679
827.409	11319.5542
827.595	11207.77934
827.781	11207.77934
827.966	11179.32256
828.152	10799.01634
828.338	11370.35081
828.523	11055.308
828.709	11303.29796
828.894	10917.01426
829.08	10801.05112
829.266	10799.01634
829.451	10904.80937
829.637	10546.61056
829.822	10896.67255
830.008	10819.36359
830.193	11217.94198
830.378	10921.08246
830.564	11079.70747
830.749	11037.00736
830.935	11028.87346
831.12	10898.70678
831.305	11297.2017
831.491	11000.40341
831.676	11226.0719
831.861	10750.17811
832.047	11051.24127
832.232	10636.1954
832.417	10782.73769
832.602	10705.40371
832.788	10862.08903
832.973	10902.77519
833.158	10925.15062
833.343	10969.89738
833.528	10617.87318
833.714	10687.08523
833.899	10725.75643
834.084	10359.2174
834.269	10623.9807
834.454	10326.61602
834.639	10611.76555
834.824	10573.08132
835.009	10558.8281
835.194	10342.91713
835.379	10534.39257
835.564	10432.55817
835.749	10495.69926
835.934	10302.16275
836.119	10416.26169
836.304	10079.95588
836.489	10281.78356
836.674	10216.56107
836.859	10139.09116
837.044	10086.07387
837.228	10338.84193
837.413	10308.27625
837.598	10188.02184
837.783	10167.63502
837.968	10253.25043
838.152	9786.13965
838.337	9988.17068
838.522	10018.76896
838.707	10418.29879
838.891	9992.25064
839.076	10037.12638
839.261	9886.15287
839.445	10194.13761
839.63	10084.03456
839.815	10377.55418
839.999	9822.88336
840.184	10285.85951
840.368	10249.17405
840.553	10289.9354
840.737	9910.64047
840.922	9975.93046
841.106	9888.19358
841.291	9961.64955
841.475	9806.55342
841.66	9986.13068
841.844	9530.83817
842.029	9682.00581
842.213	9963.68972
842.397	9955.52894
842.582	9594.1756
842.766	9632.98784
842.951	9406.1617
843.135	9571.70276
843.319	9369.3604
843.504	9371.40506
843.688	9512.44704
843.872	9641.15812
844.056	9449.08987
844.241	9771.84911
844.425	9447.04584
844.609	9324.37382
844.793	9293.69657
844.977	9604.38989
845.161	9483.83603
845.346	9598.26136
845.53	9453.1779
845.714	9498.14193
845.898	9209.82623
846.082	9428.64878
846.266	9481.79227
846.45	9379.58352
846.634	9207.78026
846.818	9330.50883
847.002	9445.00178
847.186	9371.40506
847.37	9185.27346
847.554	9479.74849
847.738	9299.83232
847.922	9404.11732
848.106	9330.50883
848.29	9318.23867
848.473	8999.00126
848.657	8730.59475
848.841	8861.76316
849.025	8994.90575
849.209	8773.6426
849.392	8701.8917
849.576	8744.94493
849.76	8691.63973
849.944	8611.65849
850.127	8882.25153
850.311	8937.56122
850.495	9087.03782
850.678	8810.53435
850.862	9101.36631
851.046	8792.08921
851.229	8884.30027
851.413	8667.03313
851.596	9054.28379
851.78	8943.70594
851.964	9019.47776
852.147	8683.43783
852.331	8775.69229
852.514	8572.68298
852.698	8367.43586
852.881	8250.3586
853.065	8219.5382
853.248	8141.43985
853.431	8272.95742
853.615	8028.35155
853.798	8344.84695
853.982	8112.65952
854.165	8001.61265
854.348	8209.26374
854.532	8254.46766
854.715	8254.46766
854.898	8139.38425
855.081	8190.76847
855.265	8266.79434
855.448	8108.54772
855.631	8067.42531
855.814	8034.52158
855.997	8231.86689
856.181	7869.92459
856.364	8332.52473
856.547	8011.89725
856.73	7937.83674
856.913	7902.8545
857.096	8209.26374
857.279	7880.21575
857.462	8240.08563
857.645	7985.15623
857.828	8174.32687
858.011	7824.63731
858.194	7857.57451
858.377	7721.67415
858.56	7701.07523
858.743	7649.56867
858.926	7828.75475
859.109	7544.45411
859.292	7651.62919
859.475	7589.80445
859.658	7867.86629
859.841	7542.39249
860.023	7731.97282
860.206	7420.71846
860.389	7701.07523
860.572	7441.34647
860.755	7538.26917
860.937	7414.52964
861.12	7412.46665
861.303	7455.78479
861.486	7639.26577
861.668	7088.30574
861.851	7494.96917
862.034	7179.20832
862.216	7329.92936
862.399	6910.5073
862.581	7259.74513
862.764	6978.75197
862.947	7321.67371
863.129	7406.27756
863.312	7323.73766
863.494	7243.2275
863.677	7523.83689
863.859	7123.4323
864.042	7276.26136
864.224	6982.88722
864.406	6904.30202
864.589	6987.02238
864.771	7212.25313
864.954	6564.76739
865.136	6819.47602
865.318	6738.75233
865.501	6614.49396
865.683	6825.68409
865.865	6889.82223
866.048	6703.55418
866.23	6720.11884
866.412	6672.49149
866.594	6643.49498
866.777	6771.87394
866.959	6823.61476
867.141	6483.93331
867.323	6788.43255
867.505	6647.63762
867.687	6732.54137
867.869	6614.49396
868.052	6937.3945
868.234	6581.34439
868.416	6956.00648
868.598	6616.56561
868.78	6749.10346
868.962	6645.56631
869.144	6811.19826
869.326	6521.24573
869.508	6450.7604
869.69	6529.53635
869.872	6738.75233
870.054	6635.20944
870.236	6682.8463
870.417	6440.39264
870.599	6562.69516
870.781	6400.98988
870.963	6521.24573
871.145	6382.32247
871.327	6701.4835
871.508	6332.53349
871.69	6614.49396
871.872	6151.9355
872.054	6589.63234
872.235	6259.90044
872.417	6245.37039
872.599	5983.63278
872.78	6376.09958
872.962	6390.61933
873.144	6253.67342
873.325	6091.69671
873.507	6257.82479
873.689	6237.06699
873.87	6318.00917
874.052	5929.57692
874.233	6318.00917
874.415	6239.14288
874.596	6224.61119
874.778	6018.96838
874.959	5927.49753
875.141	5852.62379
875.322	6164.39623
875.503	6220.45907
875.685	6347.05667
875.866	6249.52195
876.048	6409.28589
876.229	6195.54436
876.41	6413.43376
876.592	6193.46799
876.773	6257.82479
876.954	5975.31753
877.136	6191.39158
877.317	5991.94765
877.498	6257.82479
877.679	6216.30685
877.86	6315.93418
878.042	6021.04673
878.223	6313.85916
878.404	6068.84234
878.585	6284.80643
878.766	5991.94765
878.947	6278.58025
879.128	6174.77953
879.309	6257.82479
879.49	5977.39638
879.672	6249.52195
879.853	5933.73563
880.034	6166.47294
880.215	6104.16153
880.396	6403.06392
880.576	5852.62379
880.757	6274.42935
880.938	5985.71153
881.119	6307.63396
881.3	6072.99789
881.481	6481.86017
881.662	6367.80207
881.843	6564.76739
882.023	6481.86017
882.204	6374.02524
882.385	6108.31628
882.566	6095.85174
882.747	6041.82896
882.927	6145.70482
883.108	6008.57626
883.289	6344.982
883.469	6039.75084
883.65	6446.61337
883.831	6093.77424
884.011	6577.20028
884.192	6392.69349
884.373	6247.44619
884.553	6286.88178
884.734	6473.56741
884.914	6259.90044
885.095	6494.29862
885.275	6214.23071
885.456	6616.56561
885.636	6597.91991
885.817	6858.79038
885.997	6486.00642
886.178	6577.20028
886.358	6359.50419
886.538	6494.29862
886.719	6178.93268
886.899	6800.85056
887.08	6475.64064
887.26	6463.20094
887.44	6232.91515
887.621	6425.87681
887.801	6087.54158
887.981	6392.69349
888.161	6178.93268
888.342	6216.30685
888.522	6268.20281
888.702	6394.76762
888.882	6239.14288
889.062	6664.20724
889.242	6295.18293
889.423	6400.98988
889.603	6392.69349
889.783	6374.02524
889.963	6141.55091
890.143	6409.28589
890.323	6097.92923
890.503	6450.7604
890.683	6334.6083
890.863	6541.9716
891.043	6224.61119
891.223	6693.20053
891.403	6398.91581
891.583	6407.21192
891.763	6116.6255
891.943	6243.29458
892.122	6210.07835
892.302	6251.5977
892.482	6060.53095
892.662	6291.0324
892.842	5931.65629
893.022	5829.7396
893.201	5808.93332
893.381	6129.08863
893.561	6108.31628
893.741	6382.32247
893.92	6068.84234
894.1	6259.90044
894.28	6000.26214
894.459	6110.39362
894.639	5838.06146
894.819	5991.94765
894.998	5867.18497
895.178	6060.53095
895.357	5994.02631
895.537	6151.9355
895.716	6045.98512
895.896	6075.07563
896.075	5794.36752
896.255	5991.94765
896.434	5917.10023
896.614	6197.62072
896.793	5792.28659
896.973	6083.38636
897.152	5604.90685
897.331	5775.63836
897.511	5933.73563
897.69	5838.06146
897.87	5825.57854
898.049	5588.24162
898.228	5396.48319
898.407	5467.37364
898.587	5402.73933
898.766	5833.90058
898.945	5377.71353
899.124	5496.55592
899.304	5352.68435
899.483	5567.40797
899.662	5267.14254
899.841	5319.30687
900.02	5141.8886
900.199	5300.52939
900.378	5160.68204
900.557	5043.71453
900.737	5192.00025
900.916	5275.48982
901.095	4886.9481
901.274	5208.70115
901.453	4916.22099
901.632	4949.6702
901.811	4932.94633
901.989	5112.65062
902.168	4813.74629
902.347	5106.38475
902.526	4859.76212
902.705	4851.39643
902.884	4863.94483
903.063	5125.18174
903.242	4658.88516
903.42	4891.13022
903.599	4748.88711
903.778	4832.57228
903.957	4591.88001
904.135	4907.85776
904.314	4543.70595
904.493	4702.84481
904.672	4258.61306
904.85	4493.42486
905.029	4287.97939
905.207	4472.47065
905.386	4220.85021
905.565	4327.82695
905.743	4107.52047
905.922	4187.27744
906.1	3960.52116
906.279	4155.79805
906.457	3868.07045
906.636	4204.0645
906.814	3849.1553
906.993	4023.53322
907.171	3819.72853
907.35	4059.23185
907.528	3535.77575
907.707	3842.84989
907.885	3758.7608
908.063	3796.60478
908.242	3539.98497
908.42	3910.09833
908.598	3537.88037
908.777	3659.91637
908.955	3691.46708
909.133	3800.80928
909.311	3491.57455
909.49	3729.32223
909.668	3441.04908
909.846	3695.67351
910.024	3510.51891
910.202	3744.04199
910.38	3573.65605
910.559	3832.34048
910.737	3676.74395
910.915	3998.3306
911.093	3842.84989
911.271	3859.66391
911.449	3565.23872
911.627	3714.60152
911.805	3321.01011
911.983	3598.90624
912.161	3485.25943
912.339	3952.11816
912.517	3725.11641
912.695	4013.03249
912.872	3855.46053
913.05	4027.73337
913.228	3800.80928
913.406	4078.12871
913.584	3670.43375
913.762	3878.57817
913.939	3567.34308
914.117	3674.64057
914.295	3539.98497
914.473	3865.96885
914.65	3857.56223
914.828	3996.23025
915.006	3800.80928
915.184	3811.32017
915.361	3598.90624
915.539	3691.46708
915.716	3356.81716
915.894	3491.57455
916.072	3415.78248
916.249	3497.8895
916.427	3422.09937
916.604	3598.90624
916.782	3495.78453
916.959	3622.04988
917.137	3249.38115
917.314	3643.08757
917.492	3245.16708
917.669	3565.23872
917.847	3331.54212
918.024	3634.67272
918.201	3181.94793
918.379	3476.83903
918.556	3034.37993
918.733	3156.65613
918.911	3025.94515
919.088	3203.02263
919.265	3186.163
919.442	3441.04908
919.62	3238.84584
919.797	3590.48981
919.974	3304.15801
920.151	3388.40744
920.328	3009.07485
920.506	3245.16708
920.683	3036.48859
920.86	3148.22501
921.037	2768.57078
921.214	2888.84618
921.391	2667.25214
921.568	2977.44041
921.745	2975.33133
921.922	3247.27412
922.099	2874.07798
922.276	3025.94515
922.453	2952.13043
922.63	3044.92307
922.807	2671.47435
922.984	2800.22657
923.161	2783.34387
923.338	2924.70887
923.514	2764.34978
923.691	2768.57078
923.868	2728.4691
924.045	2831.87927
924.222	2654.58522
924.399	2654.58522
924.575	2587.02073
924.752	2753.79704
924.929	2536.33925
925.105	2869.85836
925.282	2295.51532
925.459	2555.3456
925.635	2367.35414
925.812	2665.14102
925.989	2403.26922
926.165	2289.17607
926.342	2255.3653
926.518	2407.49433
926.695	2327.21031
926.871	2344.11341
927.048	2071.48087
927.224	2215.21201
927.401	1910.80105
927.577	2234.23239
927.754	2109.53087
927.93	2367.35414
928.107	2172.94201
928.283	2519.44393
928.459	2096.84781
928.636	2261.705
928.812	1989.03134
928.988	2101.07553
929.165	2105.30322
929.341	2103.18938
929.517	1906.57216
929.693	2033.42853
929.87	1794.49921
930.046	2073.59482
930.222	1752.20428
930.398	2092.62006
930.574	1860.05297
930.751	2056.68301
930.927	1853.70926
931.103	1967.88883
931.279	1750.08949
931.455	1860.05297
931.631	1589.35675
931.807	1868.51119
931.983	1572.43673
932.159	1678.18471
932.335	1570.32172
932.511	1652.80572
932.687	1500.52573
932.863	1557.63163
933.039	1610.50661
933.215	1762.77816
933.391	1568.20671
933.566	1614.73656
933.742	1447.64947
933.918	1451.87957
934.094	1272.10301
934.27	1352.4726
934.445	1318.63245
934.621	1479.37525
934.797	1145.21142
934.973	1289.02269
935.148	1149.44094
935.324	1115.60533
935.5	1018.33505
935.675	1083.88554
935.851	912.62122
936.027	1031.02181
936.202	847.08807
936.378	855.54351
936.553	844.97423
936.729	751.97453
936.904	781.56332
937.08	847.08807
937.255	667.44655
937.431	718.16124
937.606	517.45693
937.782	604.06272
937.957	525.90526
938.133	466.77183
938.308	371.76124
938.483	477.33052
938.659	473.107
938.834	371.76124
939.009	390.76073
939.185	447.76714
939.36	392.87187
939.535	430.87514
939.71	449.87871
939.886	342.2092
940.061	361.20655
940.236	348.54149
940.411	356.9848
940.586	247.24421
940.761	295.77723
940.937	329.54508
941.112	297.88759
941.287	356.9848
941.462	253.57403
941.637	329.54508
941.812	219.81696
941.987	274.6747
942.162	236.69488
942.337	259.90403
942.512	186.06495
942.687	190.28367
942.862	181.84631
943.037	249.35413
943.212	219.81696
943.386	205.04983
943.561	127.01161
943.736	183.95562
943.911	177.62776
944.086	192.39306
944.26	169.1909
944.435	173.40929
944.61	202.94032
944.785	152.31817
944.959	173.40929
945.134	255.68401
945.309	137.55563
945.483	148.10019
945.658	141.77339
945.833	179.73703
946.007	118.57677
946.182	219.81696
946.357	160.75436
946.531	247.24421
946.706	145.99124
946.88	171.30008
947.055	137.55563
947.229	211.37848
947.404	169.1909
947.578	211.37848
947.752	281.00526
947.927	186.06495
948.101	169.1909
948.276	228.25576
948.45	232.47528
948.624	177.62776
948.799	264.12413
948.973	266.2342
949.147	179.73703
949.321	230.36551
949.496	164.97259
949.67	262.01407
949.844	200.83082
950.018	211.37848
950.193	234.58507
950.367	234.58507
950.541	245.1343
950.715	262.01407
950.889	186.06495
951.063	177.62776
951.237	253.57403
951.411	219.81696
951.585	253.57403
951.759	228.25576
951.933	262.01407
952.107	211.37848
952.281	105.92518
952.455	175.51851
952.629	177.62776
952.803	243.02442
952.977	251.46407
953.151	278.89506
953.325	232.47528
953.499	179.73703
953.672	211.37848
953.846	221.92663
954.02	156.53622
954.194	152.31817
954.368	173.40929
954.541	230.36551
954.715	205.04983
954.889	266.2342
955.062	247.24421
955.236	257.79401
955.41	209.26891
955.583	283.11549
955.757	224.03632
955.93	278.89506
956.104	211.37848
956.278	253.57403
956.451	133.33796
956.625	219.81696
956.798	152.31817
956.972	249.35413
957.145	213.48807
957.319	198.72135
957.492	253.57403
957.665	304.21876
957.839	245.1343
958.012	192.39306
958.185	205.04983
958.359	245.1343
958.532	205.04983
958.705	219.81696
958.879	202.94032
959.052	209.26891
959.225	234.58507
959.398	287.336
959.572	221.92663
959.745	194.50247
959.918	186.06495
960.091	194.50247
960.264	236.69488
960.438	247.24421
960.611	228.25576
960.784	264.12413
960.957	228.25576
961.13	247.24421
961.303	188.1743
961.476	283.11549
961.649	230.36551
961.822	228.25576
961.995	80.62436
962.168	232.47528
962.341	173.40929
962.514	160.75436
962.686	257.79401
962.859	251.46407
963.032	175.51851
963.205	171.30008
963.378	173.40929
963.551	262.01407
963.723	143.8823
963.896	245.1343
964.069	152.31817
964.242	228.25576
964.414	198.72135
964.587	190.28367
964.76	171.30008
964.932	162.86346
965.105	112.25088
965.278	177.62776
965.45	221.92663
965.623	169.1909
965.795	209.26891
965.968	194.50247
966.14	152.31817
966.313	154.42718
966.485	160.75436
966.658	264.12413
966.83	169.1909
967.003	209.26891
967.175	181.84631
967.348	211.37848
967.52	89.05761
967.692	160.75436
967.865	167.08173
968.037	245.1343
968.209	211.37848
968.382	86.94927
968.554	110.14229
968.726	143.8823
968.898	103.81665
969.071	154.42718
969.243	171.30008
969.415	177.62776
969.587	76.40788
969.759	148.10019
969.932	110.14229
970.104	154.42718
970.276	169.1909
970.448	164.97259
970.62	114.35949
970.792	65.86705
970.964	116.46812
971.136	97.49122
971.308	127.01161
971.48	213.48807
971.652	89.05761
971.824	160.75436
971.996	93.27437
972.168	122.79415
972.339	152.31817
972.511	114.35949
972.683	135.44678
972.855	89.05761
973.027	143.8823
973.199	152.31817
973.37	129.12037
973.542	82.73264
973.714	118.57677
973.886	154.42718
974.057	86.94927
974.229	95.38278
974.401	91.16598
974.572	76.40788
974.744	120.68545
974.915	171.30008
975.087	78.51611
975.259	76.40788
975.43	6.8491
975.602	171.30008
975.773	103.81665
975.945	95.38278
976.116	72.19148
976.288	110.14229
976.459	40.5714
976.63	131.22915
976.802	131.22915
976.973	95.38278
977.145	97.49122
977.316	110.14229
977.487	122.79415
977.659	145.99124
977.83	44.78711
978.001	70.08331
978.172	167.08173
978.344	101.70815
978.515	114.35949
978.686	30.03253
978.857	51.11085
979.028	-1.58052
979.2	40.5714
979.371	2.63424
979.542	76.40788
979.713	-20.54576
979.884	95.38278
980.055	80.62436
980.226	53.21881
980.397	42.67924
980.568	36.35578
980.739	135.44678
980.91	59.54283
981.081	23.70949
981.252	21.60186
981.423	34.24801
981.594	17.38667
981.765	2.63424
981.936	70.08331
982.106	72.19148
982.277	51.11085
982.448	36.35578
982.619	40.5714
982.79	30.03253
982.96	46.895
983.131	51.11085
983.302	61.65088
983.472	129.12037
983.643	76.40788
983.814	53.21881
983.984	101.70815
984.155	46.895
984.326	120.68545
984.496	120.68545
984.667	89.05761
984.837	59.54283
985.008	55.32679
985.178	70.08331
985.349	34.24801
985.519	74.29967
985.69	51.11085
985.86	103.81665
986.031	34.24801
986.201	21.60186
986.371	36.35578
986.542	42.67924
986.712	114.35949
986.882	-7.90249
987.053	36.35578
987.223	-7.90249
987.393	67.97517
987.563	93.27437
987.734	4.74166
987.904	36.35578
988.074	-33.18815
988.244	38.46358
988.414	34.24801
988.585	-39.50901
988.755	27.92483
988.925	91.16598
989.095	76.40788
989.265	38.46358
989.435	72.19148
989.605	-14.22423
989.775	-14.22423
989.945	70.08331
990.115	21.60186
990.285	76.40788
990.455	42.67924
990.625	30.03253
990.795	110.14229
990.965	124.90287
991.134	13.17157
991.304	8.95656
991.474	78.51611
991.644	55.32679
991.814	84.84094
991.984	59.54283
992.153	93.27437
992.323	38.46358
992.493	19.49425
992.662	101.70815
992.832	99.59967
993.002	27.92483
993.171	-18.43861
993.341	19.49425
993.511	34.24801
993.68	-20.54576
993.85	42.67924
994.019	84.84094
994.189	0.52684
994.358	42.67924
994.528	13.17157
994.697	-14.22423
994.867	8.95656
995.036	-16.33143
995.206	-3.68787
995.375	-39.50901
995.544	8.95656
995.714	-20.54576
995.883	25.81715
996.052	-7.90249
996.222	2.63424
996.391	70.08331
996.56	46.895
996.73	2.63424
996.899	46.895
997.068	25.81715
997.237	19.49425
997.406	57.4348
997.576	21.60186
997.745	34.24801
997.914	21.60186
998.083	-28.97412
998.252	53.21881
998.421	108.03372
998.59	13.17157
998.759	8.95656
998.928	-3.68787
999.097	-47.93647
999.266	25.81715
999.435	-50.04327
999.604	13.17157
999.773	-54.2568
999.942	34.24801
1000.111	-54.2568
1000.28	25.81715
1000.448	4.74166
1000.617	57.4348
1000.786	42.67924
1000.955	61.65088
1001.124	17.38667
1001.292	30.03253
1001.461	95.38278
1001.63	25.81715
1001.798	65.86705
1001.967	25.81715
1002.136	25.81715
1002.304	17.38667
1002.473	59.54283
1002.642	0.52684
1002.81	-20.54576
1002.979	49.00291
1003.147	-22.65289
1003.316	-41.61591
1003.484	-3.68787
1003.653	51.11085
1003.821	25.81715
1003.99	23.70949
1004.158	42.67924
1004.327	-12.11701
1004.495	-31.08114
1004.663	27.92483
1004.832	25.81715
1005	27.92483
1005.168	17.38667
1005.337	-7.90249
1005.505	4.74166
1005.673	63.75895
1005.842	-28.97412
1006.01	-56.36353
1006.178	-12.11701
1006.346	61.65088
1006.514	-45.82964
1006.683	-7.90249
1006.851	-7.90249
1007.019	44.78711
1007.187	34.24801
1007.355	-16.33143
1007.523	-33.18815
1007.691	40.5714
1007.859	38.46358
1008.027	-7.90249
1008.195	-33.18815
1008.363	25.81715
1008.531	-35.29512
1008.699	59.54283
1008.867	17.38667
1009.035	17.38667
1009.203	19.49425
1009.37	27.92483
1009.538	0.52684
1009.706	-20.54576
1009.874	72.19148
1010.042	25.81715
1010.209	-26.86706
1010.377	-7.90249
1010.545	30.03253
1010.713	-33.18815
1010.88	-33.18815
1011.048	-24.75999
1011.216	-24.75999
1011.383	44.78711
1011.551	51.11085
1011.718	42.67924
1011.886	-31.08114
1012.054	76.40788
1012.221	51.11085
1012.389	30.03253
1012.556	53.21881
1012.724	42.67924
1012.891	25.81715
1013.058	30.03253
1013.226	-33.18815
1013.393	13.17157
1013.561	-56.36353
1013.728	4.74166
1013.895	-14.22423
1014.063	8.95656
1014.23	0.52684
1014.397	36.35578
1014.565	25.81715
1014.732	95.38278
1014.899	38.46358
1015.066	-22.65289
1015.233	51.11085
1015.401	42.67924
1015.568	-43.72279
1015.735	34.24801
1015.902	-14.22423
1016.069	0.52684
1016.236	-22.65289
1016.403	0.52684
1016.57	-7.90249
1016.737	-54.2568
1016.904	-16.33143
1017.071	25.81715
1017.238	110.14229
1017.405	-75.32294
1017.572	13.17157
1017.739	-37.40208
1017.906	-33.18815
1018.073	-37.40208
1018.24	-14.22423
1018.407	55.32679
1018.573	11.06405
1018.74	46.895
1018.907	-5.79519
1019.074	-5.79519
1019.241	-22.65289
1019.407	-16.33143
1019.574	4.74166
1019.741	-12.11701
1019.907	-75.32294
1020.074	13.17157
1020.241	8.95656
1020.407	-20.54576
1020.574	25.81715
1020.74	17.38667
1020.907	34.24801
1021.073	-33.18815
1021.24	-3.68787
1021.406	-5.79519
1021.573	-26.86706
1021.739	-33.18815
1021.906	0.52684
1022.072	-33.18815
1022.239	-18.43861
1022.405	-1.58052
1022.571	-7.90249
1022.738	-12.11701
1022.904	-5.79519
1023.07	38.46358
1023.237	13.17157
1023.403	21.60186
1023.569	-22.65289
1023.735	93.27437
1023.902	2.63424
1024.068	4.74166
1024.234	-3.68787
1024.4	-73.21644
1024.566	-54.2568
1024.732	8.95656
1024.898	63.75895
1025.065	-16.33143
1025.231	59.54283
1025.397	0.52684
1025.563	63.75895
1025.729	34.24801
1025.895	-26.86706
1026.061	-10.00976
1026.227	-41.61591
1026.392	27.92483
1026.558	74.29967
1026.724	0.52684
1026.89	-50.04327
1027.056	-7.90249
1027.222	-35.29512
1027.388	59.54283
1027.553	32.14026
1027.719	17.38667
1027.885	30.03253
1028.051	-56.36353
1028.216	-41.61591
1028.382	0.52684
1028.548	-47.93647
1028.713	-1.58052
1028.879	32.14026
1029.045	8.95656
1029.21	-54.2568
1029.376	19.49425
1029.541	6.8491
1029.707	2.63424
1029.873	-50.04327
1030.038	-3.68787
1030.204	-62.68356
1030.369	-41.61591
1030.534	0.52684
1030.7	-24.75999
1030.865	30.03253
1031.031	-79.53586
1031.196	-3.68787
1031.361	19.49425
1031.527	-52.15005
1031.692	-18.43861
1031.857	63.75895
1032.023	0.52684
1032.188	8.95656
1032.353	-14.22423
1032.518	-33.18815
1032.684	-24.75999
1032.849	17.38667
1033.014	25.81715
1033.179	-16.33143
1033.344	0.52684
1033.509	21.60186
1033.674	30.03253
1033.839	17.38667
1034.004	-3.68787
1034.17	-92.17399
1034.335	44.78711
1034.5	53.21881
1034.664	59.54283
1034.829	-10.00976
1034.994	-3.68787
1035.159	2.63424
1035.324	-28.97412
1035.489	-26.86706
1035.654	0.52684
1035.819	-12.11701
1035.984	86.94927
1036.148	-14.22423
1036.313	-14.22423
1036.478	-24.75999
1036.643	4.74166
1036.807	-22.65289
1036.972	2.63424
1037.137	-73.21644
1037.301	17.38667
1037.466	-31.08114
1037.631	6.8491
1037.795	25.81715
1037.96	34.24801
1038.124	51.11085
1038.289	23.70949
1038.454	-7.90249
1038.618	-12.11701
1038.783	0.52684
1038.947	-31.08114
1039.111	-5.79519
1039.276	-28.97412
1039.44	-20.54576
1039.605	44.78711
1039.769	13.17157
1039.933	8.95656
1040.098	-58.47023
1040.262	-54.2568
1040.426	-3.68787
1040.591	0.52684
1040.755	2.63424
1040.919	-16.33143
1041.083	-24.75999
1041.248	-50.04327
1041.412	25.81715
1041.576	27.92483
1041.74	8.95656
1041.904	-37.40208
1042.068	0.52684
1042.232	25.81715
1042.397	-39.50901
1042.561	-31.08114
1042.725	74.29967
1042.889	4.74166
1043.053	-58.47023
1043.217	8.95656
1043.381	4.74166
1043.544	8.95656
1043.708	-64.79019
1043.872	-24.75999
1044.036	51.11085
1044.2	-73.21644
1044.364	-79.53586
1044.528	-54.2568
1044.691	-66.89679
1044.855	-14.22423
1045.019	-20.54576
1045.183	25.81715
1045.346	67.97517
1045.51	-75.32294
1045.674	-47.93647
1045.837	-12.11701
1046.001	-37.40208
1046.165	34.24801
1046.328	-50.04327
1046.492	112.25088
1046.655	84.84094
1046.819	-83.74867
1046.983	-73.21644
1047.146	-28.97412
1047.31	-18.43861
1047.473	-58.47023
1047.636	25.81715
1047.8	-22.65289
1047.963	-20.54576
1048.127	25.81715
1048.29	-35.29512
