Data from mixed_try1_USB4F045381__7__00029.txt Node

Date: Thu Apr 03 19:32:37 EDT 2025
User: mmckonesweet
Spectrometer: USB4F04538
Trigger mode: 4
Integration Time (sec): 2.700000E-3
Scans to average: 1
Electric dark correction enabled: true
Nonlinearity correction enabled: true
Boxcar width: 0
XAxis mode: Wavelengths
Number of Pixels in Spectrum: 3648
>>>>>Begin Spectral Data<<<<<
345.52	-81.81781
345.736	-81.81781
345.952	-81.81781
346.168	-8.0781
346.384	15.10348
346.6	-24.93558
346.816	-117.62295
347.032	-1.75614
347.248	19.31862
347.464	-35.47071
347.68	36.18013
347.896	86.77357
348.112	-10.18537
348.328	4.56604
348.544	6.67348
348.76	8.78094
348.975	27.74919
349.191	-16.50703
349.407	-3.86348
349.623	-39.68458
349.839	-18.61421
350.055	6.67348
350.27	-14.39983
350.486	-27.04265
350.702	-27.04265
350.918	-56.53909
351.133	19.31862
351.349	-69.17891
351.565	19.31862
351.781	-27.04265
351.996	15.10348
352.212	-16.50703
352.428	-10.18537
352.644	15.10348
352.859	-16.50703
353.075	-33.36373
353.291	46.71934
353.506	-1.75614
353.722	-24.93558
353.938	-27.04265
354.153	-75.49848
354.369	50.93519
354.584	19.31862
354.8	42.50359
355.016	-14.39983
355.231	61.47521
355.447	59.36716
355.662	40.39575
355.878	-1.75614
356.093	42.50359
356.309	-14.39983
356.524	31.96461
356.74	-24.93558
356.955	25.64151
357.171	-35.47071
357.386	31.96461
357.602	76.23219
357.817	-77.60495
358.033	99.42397
358.248	-5.9708
358.464	-33.36373
358.679	76.23219
358.895	27.74919
359.11	8.78094
359.325	17.21104
359.541	-3.86348
359.756	6.67348
359.972	-18.61421
360.187	-10.18537
360.402	0.35123
360.618	44.61145
360.833	17.21104
361.048	-8.0781
361.264	23.53386
361.479	-5.9708
361.694	55.15113
361.909	23.53386
362.125	76.23219
362.34	-27.04265
362.555	-27.04265
362.77	-35.47071
362.986	42.50359
363.201	-27.04265
363.416	50.93519
363.631	23.53386
363.847	0.35123
364.062	-33.36373
364.277	-22.82848
364.492	42.50359
364.707	-52.32561
364.922	2.45862
365.138	59.36716
365.353	59.36716
365.568	57.25913
365.783	2.45862
365.998	-27.04265
366.213	42.50359
366.428	6.67348
366.643	25.64151
366.858	-5.9708
367.073	8.78094
367.288	53.04315
367.503	2.45862
367.718	-14.39983
367.933	38.28793
368.148	-67.07234
368.363	-18.61421
368.578	23.53386
368.793	-52.32561
369.008	-16.50703
369.223	-18.61421
369.438	-24.93558
369.653	74.12398
369.868	34.07236
370.083	15.10348
370.298	-86.03057
370.513	-43.89836
370.728	38.28793
370.943	10.88843
371.157	-35.47071
371.372	31.96461
371.587	72.0158
371.802	53.04315
372.017	-10.18537
372.232	48.82725
372.446	-16.50703
372.661	-1.75614
372.876	-8.0781
373.091	-54.43236
373.306	46.71934
373.52	63.58328
373.735	-1.75614
373.95	48.82725
374.165	-8.0781
374.379	27.74919
374.594	6.67348
374.809	107.85801
375.023	8.78094
375.238	-10.18537
375.453	12.99594
375.667	31.96461
375.882	6.67348
376.097	40.39575
376.311	-27.04265
376.526	31.96461
376.741	17.21104
376.955	48.82725
377.17	36.18013
377.384	-1.75614
377.599	-1.75614
377.813	74.12398
378.028	-5.9708
378.242	-33.36373
378.457	50.93519
378.672	-5.9708
378.886	10.88843
379.101	-27.04265
379.315	36.18013
379.53	31.96461
379.744	17.21104
379.958	17.21104
380.173	50.93519
380.387	-18.61421
380.602	44.61145
380.816	4.56604
381.031	53.04315
381.245	-33.36373
381.459	40.39575
381.674	50.93519
381.888	84.66525
382.103	-41.79148
382.317	-1.75614
382.531	27.74919
382.746	-50.21884
382.96	86.77357
383.174	-18.61421
383.388	76.23219
383.603	57.25913
383.817	12.99594
384.031	-8.0781
384.246	80.44868
384.46	17.21104
384.674	21.42623
384.888	61.47521
385.103	-16.50703
385.317	0.35123
385.531	-24.93558
385.745	42.50359
385.959	12.99594
386.174	-5.9708
386.388	-35.47071
386.602	17.21104
386.816	-14.39983
387.03	0.35123
387.244	44.61145
387.458	31.96461
387.672	-10.18537
387.887	8.78094
388.101	48.82725
388.315	63.58328
388.529	19.31862
388.743	36.18013
388.957	-22.82848
389.171	101.53244
389.385	-1.75614
389.599	15.10348
389.813	-39.68458
390.027	-27.04265
390.241	0.35123
390.455	95.20708
390.669	29.85689
390.883	-20.72135
391.097	65.69137
391.311	19.31862
391.525	-50.21884
391.738	-16.50703
391.952	101.53244
392.166	-58.64579
392.38	8.78094
392.594	-43.89836
392.808	-24.93558
393.022	38.28793
393.236	15.10348
393.449	50.93519
393.663	-46.00521
393.877	-1.75614
394.091	23.53386
394.305	-77.60495
394.518	23.53386
394.732	-16.50703
394.946	-35.47071
395.16	-43.89836
395.373	27.74919
395.587	15.10348
395.801	-27.04265
396.015	-5.9708
396.228	17.21104
396.442	8.78094
396.656	-48.11204
396.869	10.88843
397.083	67.79949
397.297	-10.18537
397.51	67.79949
397.724	8.78094
397.938	59.36716
398.151	-8.0781
398.365	-54.43236
398.578	-52.32561
398.792	34.07236
399.005	23.53386
399.219	31.96461
399.433	-27.04265
399.646	38.28793
399.86	27.74919
400.073	31.96461
400.287	-10.18537
400.5	25.64151
400.714	-48.11204
400.927	-10.18537
401.141	31.96461
401.354	31.96461
401.567	-43.89836
401.781	-8.0781
401.994	-12.29261
402.208	31.96461
402.421	44.61145
402.635	-75.49848
402.848	-24.93558
403.061	82.55695
403.275	57.25913
403.488	-39.68458
403.701	-22.82848
403.915	-22.82848
404.128	29.85689
404.341	65.69137
404.555	25.64151
404.768	31.96461
404.981	-8.0781
405.195	-35.47071
405.408	8.78094
405.621	-16.50703
405.834	-8.0781
406.048	-35.47071
406.261	10.88843
406.474	42.50359
406.687	0.35123
406.9	-14.39983
407.114	50.93519
407.327	84.66525
407.54	65.69137
407.753	-18.61421
407.966	8.78094
408.179	23.53386
408.392	-22.82848
408.605	-29.1497
408.819	-14.39983
409.032	4.56604
409.245	34.07236
409.458	-62.85911
409.671	-18.61421
409.884	40.39575
410.097	19.31862
410.31	-27.04265
410.523	-18.61421
410.736	23.53386
410.949	57.25913
411.162	17.21104
411.375	31.96461
411.588	-5.9708
411.801	10.88843
412.014	-41.79148
412.227	-46.00521
412.44	-46.00521
412.653	-69.17891
412.865	25.64151
413.078	23.53386
413.291	25.64151
413.504	31.96461
413.717	-10.18537
413.93	17.21104
414.143	17.21104
414.356	19.31862
414.568	6.67348
414.781	-24.93558
414.994	-35.47071
415.207	-31.25673
415.42	-10.18537
415.632	-1.75614
415.845	15.10348
416.058	-24.93558
416.271	34.07236
416.483	-1.75614
416.696	40.39575
416.909	0.35123
417.121	-43.89836
417.334	19.31862
417.547	36.18013
417.759	19.31862
417.972	59.36716
418.185	65.69137
418.397	65.69137
418.61	0.35123
418.823	23.53386
419.035	63.58328
419.248	63.58328
419.46	-27.04265
419.673	25.64151
419.885	38.28793
420.098	65.69137
420.311	23.53386
420.523	-67.07234
420.736	-58.64579
420.948	59.36716
421.161	25.64151
421.373	17.21104
421.586	86.77357
421.798	15.10348
422.01	6.67348
422.223	-18.61421
422.435	-5.9708
422.648	15.10348
422.86	-27.04265
423.073	31.96461
423.285	93.09867
423.497	-46.00521
423.71	-1.75614
423.922	-1.75614
424.134	0.35123
424.347	2.45862
424.559	44.61145
424.771	17.21104
424.984	31.96461
425.196	-18.61421
425.408	-16.50703
425.621	44.61145
425.833	-16.50703
426.045	6.67348
426.257	29.85689
426.47	8.78094
426.682	-67.07234
426.894	23.53386
427.106	34.07236
427.318	-10.18537
427.531	-60.75247
427.743	-33.36373
427.955	31.96461
428.167	15.10348
428.379	74.12398
428.591	15.10348
428.804	10.88843
429.016	15.10348
429.228	-16.50703
429.44	-16.50703
429.652	-48.11204
429.864	34.07236
430.076	-18.61421
430.288	-12.29261
430.5	8.78094
430.712	42.50359
430.924	-24.93558
431.136	-1.75614
431.348	-18.61421
431.56	17.21104
431.772	-18.61421
431.984	-14.39983
432.196	-22.82848
432.408	-10.18537
432.62	69.90763
432.832	-31.25673
433.044	-16.50703
433.256	57.25913
433.468	15.10348
433.679	40.39575
433.891	36.18013
434.103	19.31862
434.315	-14.39983
434.527	-37.57766
434.739	19.31862
434.95	40.39575
435.162	-27.04265
435.374	31.96461
435.586	-1.75614
435.798	15.10348
436.009	-14.39983
436.221	36.18013
436.433	-12.29261
436.645	6.67348
436.856	19.31862
437.068	59.36716
437.28	-35.47071
437.491	15.10348
437.703	57.25913
437.915	2.45862
438.126	15.10348
438.338	8.78094
438.55	31.96461
438.761	-27.04265
438.973	17.21104
439.184	2.45862
439.396	-8.0781
439.608	93.09867
439.819	-10.18537
440.031	23.53386
440.242	78.34042
440.454	48.82725
440.665	48.82725
440.877	36.18013
441.088	36.18013
441.3	0.35123
441.511	-18.61421
441.723	-12.29261
441.934	40.39575
442.146	23.53386
442.357	50.93519
442.569	48.82725
442.78	-10.18537
442.991	48.82725
443.203	-10.18537
443.414	4.56604
443.626	6.67348
443.837	23.53386
444.048	31.96461
444.26	10.88843
444.471	93.09867
444.682	-31.25673
444.894	21.42623
445.105	59.36716
445.316	15.10348
445.528	27.74919
445.739	21.42623
445.95	-3.86348
446.161	34.07236
446.373	4.56604
446.584	-10.18537
446.795	95.20708
447.006	36.18013
447.217	29.85689
447.429	-1.75614
447.64	23.53386
447.851	59.36716
448.062	-48.11204
448.273	19.31862
448.484	-62.85911
448.695	31.96461
448.907	23.53386
449.118	50.93519
449.329	-1.75614
449.54	-10.18537
449.751	38.28793
449.962	-33.36373
450.173	8.78094
450.384	82.55695
450.595	-43.89836
450.806	27.74919
451.017	6.67348
451.228	-18.61421
451.439	23.53386
451.65	25.64151
451.861	6.67348
452.072	61.47521
452.283	15.10348
452.494	-37.57766
452.705	-48.11204
452.915	15.10348
453.126	15.10348
453.337	-5.9708
453.548	2.45862
453.759	27.74919
453.97	57.25913
454.181	19.31862
454.391	-22.82848
454.602	-27.04265
454.813	0.35123
455.024	53.04315
455.235	31.96461
455.445	-24.93558
455.656	40.39575
455.867	-1.75614
456.078	63.58328
456.288	-16.50703
456.499	42.50359
456.71	57.25913
456.921	-35.47071
457.131	23.53386
457.342	57.25913
457.553	38.28793
457.763	40.39575
457.974	-27.04265
458.184	-10.18537
458.395	61.47521
458.606	-18.61421
458.816	-33.36373
459.027	65.69137
459.237	-22.82848
459.448	61.47521
459.659	-1.75614
459.869	10.88843
460.08	6.67348
460.29	-8.0781
460.501	2.45862
460.711	8.78094
460.922	48.82725
461.132	21.42623
461.343	31.96461
461.553	34.07236
461.764	27.74919
461.974	34.07236
462.184	57.25913
462.395	-10.18537
462.605	42.50359
462.816	6.67348
463.026	-69.17891
463.236	6.67348
463.447	-56.53909
463.657	6.67348
463.867	31.96461
464.078	-20.72135
464.288	-43.89836
464.498	61.47521
464.709	19.31862
464.919	-50.21884
465.129	23.53386
465.339	90.99028
465.55	-1.75614
465.76	15.10348
465.97	-20.72135
466.18	40.39575
466.391	44.61145
466.601	19.31862
466.811	2.45862
467.021	36.18013
467.231	31.96461
467.441	15.10348
467.651	0.35123
467.862	48.82725
468.072	-10.18537
468.282	-14.39983
468.492	31.96461
468.702	-37.57766
468.912	-43.89836
469.122	57.25913
469.332	44.61145
469.542	44.61145
469.752	10.88843
469.962	95.20708
470.172	42.50359
470.382	31.96461
470.592	40.39575
470.802	-58.64579
471.012	-39.68458
471.222	6.67348
471.432	-5.9708
471.642	-10.18537
471.852	65.69137
472.062	36.18013
472.272	44.61145
472.482	-1.75614
472.691	-1.75614
472.901	8.78094
473.111	65.69137
473.321	-50.21884
473.531	-24.93558
473.741	15.10348
473.95	21.42623
474.16	86.77357
474.37	84.66525
474.58	109.96657
474.79	25.64151
474.999	-107.09281
475.209	23.53386
475.419	-16.50703
475.628	4.56604
475.838	67.79949
476.048	2.45862
476.258	19.31862
476.467	19.31862
476.677	34.07236
476.886	0.35123
477.096	31.96461
477.306	-5.9708
477.515	-16.50703
477.725	-37.57766
477.935	10.88843
478.144	23.53386
478.354	74.12398
478.563	10.88843
478.773	-43.89836
478.982	-27.04265
479.192	15.10348
479.401	23.53386
479.611	29.85689
479.82	34.07236
480.03	-10.18537
480.239	57.25913
480.449	-48.11204
480.658	40.39575
480.868	-20.72135
481.077	118.40105
481.287	2.45862
481.496	-8.0781
481.705	34.07236
481.915	31.96461
482.124	31.96461
482.333	6.67348
482.543	17.21104
482.752	-52.32561
482.961	78.34042
483.171	-27.04265
483.38	15.10348
483.589	-24.93558
483.799	74.12398
484.008	8.78094
484.217	6.67348
484.426	-10.18537
484.636	17.21104
484.845	-41.79148
485.054	-1.75614
485.263	23.53386
485.472	109.96657
485.682	-24.93558
485.891	8.78094
486.1	15.10348
486.309	-24.93558
486.518	48.82725
486.727	34.07236
486.936	-16.50703
487.146	44.61145
487.355	82.55695
487.564	-1.75614
487.773	-35.47071
487.982	2.45862
488.191	8.78094
488.4	109.96657
488.609	65.69137
488.818	101.53244
489.027	6.67348
489.236	-8.0781
489.445	-52.32561
489.654	-58.64579
489.863	42.50359
490.072	65.69137
490.281	31.96461
490.49	17.21104
490.698	-18.61421
490.907	40.39575
491.116	44.61145
491.325	-48.11204
491.534	-8.0781
491.743	-5.9708
491.952	21.42623
492.16	8.78094
492.369	61.47521
492.578	19.31862
492.787	19.31862
492.996	2.45862
493.204	61.47521
493.413	15.10348
493.622	8.78094
493.831	46.71934
494.039	78.34042
494.248	-39.68458
494.457	-3.86348
494.665	31.96461
494.874	48.82725
495.083	31.96461
495.291	36.18013
495.5	8.78094
495.709	-27.04265
495.917	-5.9708
496.126	122.61842
496.335	107.85801
496.543	17.21104
496.752	2.45862
496.96	-10.18537
497.169	78.34042
497.377	12.99594
497.586	31.96461
497.794	-33.36373
498.003	93.09867
498.211	-3.86348
498.42	124.72714
498.628	8.78094
498.837	-1.75614
499.045	69.90763
499.254	-24.93558
499.462	2.45862
499.671	109.96657
499.879	-8.0781
500.087	-3.86348
500.296	17.21104
500.504	-16.50703
500.713	27.74919
500.921	78.34042
501.129	36.18013
501.338	36.18013
501.546	2.45862
501.754	57.25913
501.962	84.66525
502.171	36.18013
502.379	44.61145
502.587	63.58328
502.795	57.25913
503.004	86.77357
503.212	78.34042
503.42	31.96461
503.628	-10.18537
503.837	59.36716
504.045	15.10348
504.253	27.74919
504.461	67.79949
504.669	-8.0781
504.877	59.36716
505.085	2.45862
505.294	59.36716
505.502	-43.89836
505.71	-10.18537
505.918	48.82725
506.126	46.71934
506.334	84.66525
506.542	65.69137
506.75	27.74919
506.958	40.39575
507.166	133.16222
507.374	-8.0781
507.582	69.90763
507.79	72.0158
507.998	15.10348
508.206	76.23219
508.414	12.99594
508.622	15.10348
508.83	-29.1497
509.037	65.69137
509.245	86.77357
509.453	48.82725
509.661	67.79949
509.869	112.07516
510.077	67.79949
510.285	93.09867
510.492	93.09867
510.7	8.78094
510.908	40.39575
511.116	31.96461
511.324	-10.18537
511.531	19.31862
511.739	23.53386
511.947	150.03342
512.155	65.69137
512.362	84.66525
512.57	34.07236
512.778	48.82725
512.985	15.10348
513.193	44.61145
513.401	82.55695
513.608	46.71934
513.816	19.31862
514.024	2.45862
514.231	34.07236
514.439	50.93519
514.646	31.96461
514.854	34.07236
515.061	105.74946
515.269	63.58328
515.477	36.18013
515.684	40.39575
515.892	65.69137
516.099	-60.75247
516.307	93.09867
516.514	53.04315
516.722	57.25913
516.929	88.88192
517.136	53.04315
517.344	21.42623
517.551	88.88192
517.759	101.53244
517.966	31.96461
518.173	97.31551
518.381	6.67348
518.588	86.77357
518.796	118.40105
519.003	90.99028
519.21	48.82725
519.418	107.85801
519.625	74.12398
519.832	-1.75614
520.039	65.69137
520.247	27.74919
520.454	78.34042
520.661	99.42397
520.868	78.34042
521.076	67.79949
521.283	67.79949
521.49	128.94464
521.697	76.23219
521.904	74.12398
522.112	36.18013
522.319	42.50359
522.526	31.96461
522.733	53.04315
522.94	76.23219
523.147	65.69137
523.354	124.72714
523.561	19.31862
523.768	137.37989
523.975	179.56125
524.183	50.93519
524.39	107.85801
524.597	31.96461
524.804	65.69137
525.011	61.47521
525.218	122.61842
525.425	152.14241
525.632	61.47521
525.838	42.50359
526.045	78.34042
526.252	76.23219
526.459	141.59765
526.666	59.36716
526.873	74.12398
527.08	175.34274
527.287	90.99028
527.494	160.57861
527.701	15.10348
527.907	120.50972
528.114	103.64094
528.321	90.99028
528.528	34.07236
528.735	99.42397
528.941	99.42397
529.148	95.20708
529.355	72.0158
529.562	185.88917
529.768	82.55695
529.975	82.55695
530.182	84.66525
530.388	187.99852
530.595	48.82725
530.802	53.04315
531.008	69.90763
531.215	61.47521
531.422	137.37989
531.628	116.2924
531.835	141.59765
532.042	61.47521
532.248	114.18377
532.455	99.42397
532.661	101.53244
532.868	44.61145
533.074	76.23219
533.281	59.36716
533.487	78.34042
533.694	169.01513
533.9	103.64094
534.107	126.83588
534.313	65.69137
534.52	69.90763
534.726	99.42397
534.933	112.07516
535.139	69.90763
535.345	183.77985
535.552	166.90597
535.758	133.16222
535.965	141.59765
536.171	118.40105
536.377	109.96657
536.584	133.16222
536.79	74.12398
536.996	90.99028
537.203	160.57861
537.409	74.12398
537.615	69.90763
537.821	219.64116
538.028	120.50972
538.234	169.01513
538.44	141.59765
538.646	135.27105
538.853	202.76452
539.059	158.46953
539.265	99.42397
539.471	169.01513
539.677	116.2924
539.883	126.83588
540.09	112.07516
540.296	219.64116
540.502	133.16222
540.708	133.16222
540.914	137.37989
541.12	107.85801
541.326	221.75083
541.532	171.12431
541.738	150.03342
541.944	133.16222
542.15	133.16222
542.356	158.46953
542.562	107.85801
542.768	124.72714
542.974	97.31551
543.18	122.61842
543.386	141.59765
543.592	145.81549
543.798	192.21728
544.004	179.56125
544.21	90.99028
544.415	145.81549
544.621	192.21728
544.827	217.53151
545.033	204.87403
545.239	183.77985
545.445	238.62888
545.651	225.97022
545.856	82.55695
546.062	158.46953
546.268	162.68771
546.474	253.3982
546.679	185.88917
546.885	160.57861
547.091	206.98356
547.297	118.40105
547.502	105.74946
547.708	213.31227
547.914	225.97022
548.119	225.97022
548.325	185.88917
548.531	228.07995
548.736	194.32669
548.942	196.43612
549.147	259.7282
549.353	206.98356
549.559	194.32669
549.764	251.28824
549.97	225.97022
550.175	251.28824
550.381	225.97022
550.586	211.20268
550.792	257.61818
550.997	162.68771
551.203	240.73873
551.408	194.32669
551.614	308.26376
551.819	301.93248
552.025	145.81549
552.23	200.65503
552.435	221.75083
552.641	266.05836
552.846	215.42188
553.052	221.75083
553.257	344.14405
553.462	259.7282
553.668	363.14154
553.873	230.1897
554.078	219.64116
554.283	213.31227
554.489	272.3887
554.694	295.60137
554.899	386.36258
555.105	329.36919
555.31	339.92257
555.515	333.59049
555.72	331.47983
555.925	272.3887
556.131	329.36919
556.336	306.15332
556.541	344.14405
556.746	219.64116
556.951	297.71172
557.156	308.26376
557.361	420.14221
557.567	230.1897
557.772	337.81186
557.977	276.60902
558.182	386.36258
558.387	342.0333
558.592	278.71921
558.797	291.38072
559.002	361.03064
559.207	297.71172
559.412	329.36919
559.617	424.36495
559.822	348.36559
560.027	367.3634
560.232	386.36258
560.437	369.47435
560.642	339.92257
560.847	361.03064
561.051	373.69631
561.256	411.69691
561.461	329.36919
561.666	382.14042
561.871	348.36559
562.076	388.47368
562.281	420.14221
562.485	339.92257
562.69	475.04277
562.895	314.5952
563.1	479.26632
563.305	365.25246
563.509	472.93102
563.714	418.03086
563.919	479.26632
564.123	401.14065
564.328	386.36258
564.533	352.58721
564.737	405.3631
564.942	369.47435
565.147	460.26082
565.351	365.25246
565.556	430.69919
565.761	407.47436
565.965	487.7136
566.17	369.47435
566.374	563.74948
566.579	517.28093
566.784	485.60176
566.988	437.03357
567.193	472.93102
567.397	453.92593
567.602	449.70275
567.806	513.05685
568.011	540.51437
568.215	523.61715
568.42	468.70756
568.624	534.1778
568.828	538.40216
569.033	441.25656
569.237	479.26632
569.442	458.14918
569.646	491.93733
569.85	460.26082
570.055	418.03086
570.259	589.09874
570.463	519.39299
570.668	508.83283
570.872	582.76124
571.076	403.25187
571.281	698.96638
571.485	496.16112
571.689	485.60176
571.893	521.50506
572.098	593.3238
572.302	557.41247
572.506	625.01338
572.71	498.27303
572.914	536.28998
573.119	580.64877
573.323	622.90065
573.527	584.87373
573.731	635.5772
573.935	561.63713
574.139	762.36561
574.343	510.94483
574.547	698.96638
574.751	555.30016
574.955	605.99929
575.159	625.01338
575.364	709.53225
575.568	593.3238
575.772	705.30587
575.976	605.99929
576.18	741.23147
576.383	582.76124
576.587	656.70575
576.791	627.12612
576.995	758.1387
577.199	631.35163
577.403	711.64545
577.607	709.53225
577.811	749.685
578.015	618.67523
578.219	682.06158
578.422	591.21126
578.626	694.74011
578.83	635.5772
579.034	775.04658
579.238	665.1575
579.442	836.34282
579.645	764.47908
579.849	777.16011
580.053	791.95509
580.257	830.00146
580.46	749.685
580.664	791.95509
580.868	775.04658
581.071	986.44292
581.275	745.45822
581.479	830.00146
581.682	758.1387
581.886	849.02576
582.09	728.55149
582.293	1011.81555
582.497	819.43272
582.7	783.50075
582.904	923.01562
583.107	794.0687
583.311	770.81955
583.515	819.43272
583.718	766.59256
583.922	897.64656
584.125	838.45662
584.329	918.78737
584.532	855.36735
584.735	952.61424
584.939	872.27863
585.142	963.18551
585.346	912.44504
585.549	897.64656
585.753	977.98559
585.956	935.70057
586.159	878.6205
586.363	1011.81555
586.566	813.09159
586.769	1039.30357
586.973	927.24391
587.176	1071.02172
587.379	999.12912
587.582	1121.7732
587.786	994.90036
587.989	1045.6471
588.192	954.72848
588.395	1049.87614
588.599	1043.53258
588.802	1111.19974
589.005	882.84846
589.208	1079.4801
589.411	984.32858
589.615	1121.7732
589.818	1051.99068
590.021	1223.28361
590.224	1094.28246
590.427	1263.46698
590.63	1100.6264
590.833	1172.5273
591.036	1011.81555
591.239	1191.56068
591.442	1109.08506
591.645	1147.14995
591.848	1147.14995
592.051	1193.67552
592.254	1121.7732
592.457	1293.07638
592.66	1113.31442
592.863	1189.44585
593.066	1161.95334
593.269	1276.15667
593.472	1174.64211
593.675	1400.94213
593.878	1219.05385
594.081	1451.70332
594.284	1208.47949
594.486	1269.81181
594.689	1324.8012
594.892	1284.61651
595.095	1197.90521
595.298	1362.87147
595.5	1367.10153
595.703	1529.96003
595.906	1246.54755
596.109	1369.21656
596.311	1333.26121
596.514	1422.0926
596.717	1255.00724
596.92	1367.10153
597.122	1386.13684
597.325	1362.87147
597.528	1343.83627
597.73	1411.51736
597.933	1301.53629
598.136	1502.46452
598.338	1354.41137
598.541	1620.90523
598.743	1441.12806
598.946	1536.30513
599.148	1390.36692
599.351	1377.67669
599.554	1487.65919
599.756	1519.38485
599.959	1553.22534
600.161	1447.47322
600.363	1477.08394
600.566	1597.64047
600.768	1574.37549
600.971	1724.53553
601.173	1466.50869
601.376	1694.92757
601.578	1407.28726
601.78	1578.6055
601.983	1432.66785
602.185	1612.44534
602.388	1460.16353
602.59	1580.7205
602.792	1436.89795
602.995	1606.10041
603.197	1578.6055
603.399	1587.0655
603.601	1557.45538
603.804	1688.58293
604.006	1536.30513
604.208	1521.49989
604.41	1546.88027
604.613	1800.66709
604.815	1606.10041
605.017	1798.55239
605.219	1532.07507
605.421	1781.63467
605.623	1635.70994
605.826	1857.76219
606.028	1542.65022
606.23	1713.96133
606.432	1548.9953
606.634	1885.25118
606.836	1608.21539
607.038	1849.30387
607.24	1631.48003
607.442	1834.50163
607.644	1743.56888
607.846	1760.48716
608.048	1713.96133
608.25	1790.09357
608.452	1620.90523
608.654	1866.22043
608.856	1709.73163
609.058	1834.50163
609.26	1726.65036
609.462	1866.22043
609.664	1749.91326
609.866	1819.69916
610.067	1732.99483
610.269	1925.42579
610.471	1861.99132
610.673	2037.48051
610.875	1745.68368
611.077	1834.50163
611.278	1747.79847
611.48	1832.387
611.682	1929.65458
611.884	1984.62671
612.085	1847.18928
612.287	1872.56406
612.489	1845.07468
612.69	1908.5104
612.892	1978.28398
613.094	2092.4439
613.295	1823.92846
613.497	2064.96281
613.699	1768.94621
613.9	2149.51595
614.102	1980.39823
614.304	2242.50955
614.505	1775.29046
614.707	2157.97058
614.908	1853.53304
615.11	2128.37881
615.311	1978.28398
615.513	2145.28859
615.714	1883.13667
615.916	2048.05076
616.117	1959.25546
616.319	2037.48051
616.52	2009.99704
616.722	1950.79818
616.923	1891.59467
617.124	2185.44723
617.326	1967.71264
617.527	2098.78552
617.729	2079.76047
617.93	2103.01322
618.131	1976.16972
618.333	2039.59457
618.534	1967.71264
618.735	2274.20805
618.937	2026.91008
619.138	2081.8744
619.339	2016.33948
619.54	2155.85694
619.742	1874.67859
619.943	2179.10659
620.144	2035.36643
620.345	2236.16961
620.546	2200.24177
620.748	2231.94293
620.949	2022.68186
621.15	2115.69616
621.351	2238.28293
621.552	2168.53869
621.753	2145.28859
621.954	2255.1892
622.155	2170.65229
622.356	2189.67429
622.558	2062.84883
622.759	2227.71623
622.96	2077.64654
623.161	2267.86851
623.362	2056.50684
623.563	2350.27584
623.764	2229.82958
623.965	2394.64283
624.166	2037.48051
624.366	2538.27512
624.567	2164.31147
624.768	2212.92247
624.969	2191.7878
625.17	2403.09317
625.371	2341.82449
625.572	2455.90398
625.773	2198.12829
625.973	2360.83982
626.174	2145.28859
626.375	2341.82449
626.576	2316.46947
626.777	2375.62896
626.977	2086.10222
627.178	2375.62896
627.379	2187.56076
627.58	2396.75543
627.78	2240.39624
627.981	2485.47507
628.182	2384.07967
628.382	2616.40579
628.583	2234.05627
628.784	2529.8276
628.984	2265.75532
629.185	2415.76837
629.386	2365.06534
629.586	2449.56704
629.787	2308.01749
629.987	2561.50486
630.188	2348.16302
630.388	2553.05785
630.589	2272.09488
630.79	2470.6898
630.99	2434.78046
631.191	2381.96701
631.391	2458.01627
631.591	2527.71569
631.792	2460.12855
631.992	2654.40929
632.193	2540.38698
632.393	2578.39832
632.594	2559.39313
632.794	2795.83012
632.994	2432.66805
633.195	2696.6306
633.395	2343.93734
633.595	2584.73317
633.796	2595.29102
633.996	2540.38698
634.196	2669.18733
634.397	2648.07565
634.597	2542.49882
634.797	2664.96509
634.997	2525.60376
635.198	2686.07575
635.398	2434.78046
635.598	2880.23148
635.798	2466.46533
635.998	2686.07575
636.199	2586.84477
636.399	2852.8035
636.599	2859.13325
636.799	2863.35301
636.999	2567.84
637.199	2673.40951
637.399	2584.73317
637.599	2787.38876
637.799	2527.71569
637.999	2857.02335
638.199	2593.17947
638.399	2892.88973
638.599	2439.00525
638.799	2806.38151
638.999	2656.52047
639.199	3124.86243
639.399	2787.38876
639.599	2951.95466
639.799	2614.29437
639.999	2907.65703
640.199	2724.0717
640.399	2878.12172
640.599	2483.36292
640.799	3048.9645
640.998	2819.04272
641.198	2791.60947
641.398	2854.91343
641.598	2987.80985
641.798	2920.31416
641.997	2764.1739
642.197	2808.49174
642.397	2907.65703
642.597	2797.94042
642.796	2989.91885
642.996	2681.85372
643.196	2829.59335
643.395	2964.60993
643.595	3089.02428
643.795	2890.78006
643.994	3116.43034
644.194	2838.0336
644.394	3042.63875
644.593	2846.47363
644.793	3116.43034
644.992	2916.09518
645.192	3065.83246
645.392	2975.15557
645.591	3076.37444
645.791	2857.02335
645.99	3167.01903
646.19	2876.01195
646.389	3276.59545
646.589	2920.31416
646.788	3333.47294
646.987	3091.13254
647.187	3386.12605
647.386	3074.26607
647.586	3032.09554
647.785	3196.52478
647.984	3289.23597
648.184	3105.88987
648.383	3261.84741
648.582	3084.80773
648.782	3421.9239
648.981	3126.97041
649.18	3238.67024
649.38	3196.52478
649.579	3198.63221
649.778	3145.94153
649.977	3514.55316
650.177	3141.72584
650.376	3426.13508
650.575	3135.40218
650.774	3306.08904
650.973	3188.09489
651.173	3312.40866
651.372	3091.13254
651.571	3226.0273
651.77	3301.87587
651.969	3303.98246
652.168	3234.456
652.367	3413.50134
652.566	3306.08904
652.765	3335.57927
652.964	3280.80902
653.163	3381.9142
653.362	3236.56313
653.561	3442.97907
653.76	3280.80902
653.959	3522.97226
654.158	3501.92396
654.357	3394.54954
654.556	3219.7056
654.755	3478.76873
654.954	3335.57927
655.153	3522.97226
655.352	3360.85392
655.551	3464.03244
655.749	3287.12926
655.948	3411.39565
656.147	3417.71266
656.346	3497.71408
656.545	3386.12605
656.743	3447.18988
656.942	3352.42931
657.141	3596.62682
657.34	3449.29527
657.538	3525.07699
657.737	3478.76873
657.936	3691.29181
658.135	3493.50413
658.333	3541.91417
658.532	3489.29411
658.731	3575.58498
658.929	3407.18423
659.128	3466.13768
659.326	3318.72812
659.525	3600.83496
659.724	3470.3481
659.922	3621.87456
660.121	3436.6627
660.319	3546.12328
660.518	3362.96002
660.716	3613.45894
660.915	3352.42931
661.113	3693.39504
661.312	3588.2103
661.51	3815.34921
661.709	3451.40063
661.907	3680.77537
662.105	3411.39565
662.304	3575.58498
662.502	3407.18423
662.701	3541.91417
662.899	3413.50134
663.097	3809.04285
663.296	3396.65536
663.494	3722.83823
663.692	3548.22781
663.891	3733.35274
664.089	3634.49741
664.287	3809.04285
664.485	3609.25102
664.684	3775.40592
664.882	3613.45894
665.08	3708.1171
665.278	3771.20096
665.476	3857.38709
665.675	3638.70488
665.873	3659.74107
666.071	3706.01401
666.269	3792.22502
666.467	3535.60037
666.665	3790.1227
666.863	3621.87456
667.061	3722.83823
667.259	3655.53399
667.457	4019.15798
667.655	3733.35274
667.853	3798.53185
668.051	3777.50838
668.249	3926.73215
668.447	3758.58558
668.645	3901.51829
668.843	3762.79079
669.041	3857.38709
669.239	3531.39107
669.437	3775.40592
669.635	3495.60912
669.833	3659.74107
670.031	3682.8787
670.229	3806.94069
670.426	3701.80776
670.624	3790.1227
670.822	3769.09844
671.02	4035.95842
671.218	3920.42896
671.415	3893.11303
671.613	3756.48295
671.811	4017.05783
672.009	3893.11303
672.206	3987.65361
672.404	3689.18856
672.602	3809.04285
672.799	3756.48295
672.997	4008.65703
673.195	3848.98015
673.392	4128.33717
673.59	3769.09844
673.788	3853.18366
673.985	3739.66121
674.183	3951.9431
674.38	3663.94809
674.578	3880.50453
674.775	3655.53399
674.973	3865.79371
675.17	3815.34921
675.368	3922.53004
675.565	3802.73631
675.763	3792.22502
675.96	3769.09844
676.158	4075.85418
676.355	3720.73527
676.553	4098.9483
676.75	3621.87456
676.947	3960.3461
677.145	3682.8787
677.342	3840.57289
677.539	3750.17494
677.737	3903.61956
677.934	3893.11303
678.131	4109.44479
678.329	3731.24987
678.526	3903.61956
678.723	3886.80887
678.92	4143.03006
679.118	3735.45558
679.315	3945.64063
679.512	3809.04285
679.709	4042.25825
679.906	3848.98015
680.104	3945.64063
680.301	3775.40592
680.498	3962.4468
680.695	3703.91089
680.892	3966.64814
681.089	3861.59044
681.286	3937.23706
681.483	3796.42959
681.68	3817.4513
681.877	3838.47103
682.075	4038.05838
682.272	3706.01401
682.469	3949.8423
682.665	3731.24987
682.862	3933.03516
683.059	3834.26724
683.256	3916.22673
683.453	3899.41701
683.65	3811.14499
683.847	3764.89336
684.044	4027.55836
684.241	3935.13612
684.438	4065.35602
684.635	3727.04409
684.831	4178.70852
685.028	3844.77656
685.225	4077.95375
685.422	3918.32785
685.619	4145.12896
685.815	3653.43041
686.012	4052.75754
686.209	3844.77656
686.405	4138.8322
686.602	3830.06337
686.799	3996.05522
686.996	3811.14499
687.192	3989.75404
687.389	3853.18366
687.586	4077.95375
687.782	3657.63754
687.979	4025.4583
688.175	3796.42959
688.372	3998.15558
688.568	3647.11958
688.765	3743.86676
688.962	3586.10613
689.158	3939.33799
689.355	3811.14499
689.551	3954.04388
689.748	3739.66121
689.944	3899.41701
690.14	3874.20002
690.337	3684.982
690.533	3804.83851
690.73	4153.52436
690.926	3918.32785
691.123	3983.45268
691.319	3869.9969
691.515	4086.35182
691.712	3891.01166
691.908	3943.53977
692.104	3842.67474
692.301	3954.04388
692.497	3752.27763
692.693	4084.25233
692.889	3916.22673
693.086	4040.15833
693.282	3781.71323
693.478	3966.64814
693.674	3815.34921
693.87	3924.6311
694.067	3943.53977
694.263	4111.54403
694.459	3834.26724
694.655	3945.64063
694.851	3933.03516
695.047	3865.79371
695.243	3769.09844
695.439	3977.15113
695.635	3623.97841
695.831	3954.04388
696.027	3748.07224
696.224	3958.24538
696.42	3809.04285
696.615	4069.55534
696.811	3731.24987
697.007	3998.15558
697.203	3684.982
697.399	4029.65841
697.595	3756.48295
697.791	4067.45569
697.987	3798.53185
698.183	4010.75726
698.379	3737.5584
698.575	4067.45569
698.77	3785.918
698.966	4067.45569
699.162	3912.02442
699.358	3956.14464
699.554	3859.48878
699.749	3918.32785
699.945	3752.27763
700.141	4306.68074
700.337	3901.51829
700.532	3960.3461
700.728	4052.75754
700.924	3981.35218
701.119	3773.30345
701.315	4071.65498
701.511	3731.24987
701.706	3832.16531
701.902	3851.08191
702.097	4025.4583
702.293	3815.34921
702.489	4054.85734
702.684	4017.05783
702.88	3935.13612
703.075	3966.64814
703.271	3855.28538
703.466	3941.43889
703.662	3916.22673
703.857	3926.73215
704.053	3926.73215
704.248	3903.61956
704.443	4044.35815
704.639	3800.63409
704.834	4077.95375
705.03	3882.606
705.225	4103.14696
705.42	3899.41701
705.616	4101.04764
705.811	3947.74148
706.006	4075.85418
706.202	3773.30345
706.397	3916.22673
706.592	3960.3461
706.787	3983.45268
706.983	3842.67474
707.178	4042.25825
707.373	4014.95766
707.568	3991.85446
707.763	3657.63754
707.959	3909.92323
708.154	3701.80776
708.349	4029.65841
708.544	3945.64063
708.739	3964.54748
708.934	3762.79079
709.129	4052.75754
709.324	3947.74148
709.519	4136.73323
709.714	3722.83823
709.909	3993.95485
710.104	3773.30345
710.299	3922.53004
710.494	3598.7309
710.689	3989.75404
710.884	3750.17494
711.079	4000.25591
711.274	3817.4513
711.469	4239.55767
711.664	3991.85446
711.859	3954.04388
712.054	3848.98015
712.249	3924.6311
712.443	3930.93418
712.638	3983.45268
712.833	3638.70488
713.028	3966.64814
713.223	3756.48295
713.417	4077.95375
713.612	3832.16531
713.807	4025.4583
714.002	3781.71323
714.196	4126.2381
714.391	3844.77656
714.586	4176.60996
714.78	3891.01166
714.975	4094.74955
715.17	3781.71323
715.364	4197.59465
715.559	3916.22673
715.754	4143.03006
715.948	3916.22673
716.143	3985.55315
716.337	3863.69209
716.532	4019.15798
716.726	3832.16531
716.921	4002.35622
717.115	4004.45651
717.31	4161.91942
717.504	3886.80887
717.699	4172.41277
717.893	4002.35622
718.088	3966.64814
718.282	3987.65361
718.476	3966.64814
718.671	3798.53185
718.865	3853.18366
719.059	3718.63229
719.254	3975.05057
719.448	3613.45894
719.642	3800.63409
719.837	3514.55316
720.031	3840.57289
720.225	3769.09844
720.419	3876.30154
720.614	3865.79371
720.808	3947.74148
721.002	3663.94809
721.196	3907.82203
721.39	3661.84459
721.585	3975.05057
721.779	3891.01166
721.973	4035.95842
722.167	3714.42627
722.361	3958.24538
722.555	3733.35274
722.749	3901.51829
722.943	3859.48878
723.137	3809.04285
723.331	3504.02888
723.525	3769.09844
723.719	3619.77068
723.913	3800.63409
724.107	3554.54128
724.301	3987.65361
724.495	3602.939
724.689	4059.05687
724.883	3699.70461
725.077	3836.36914
725.271	3752.27763
725.465	3840.57289
725.659	3680.77537
725.853	3947.74148
726.046	3748.07224
726.24	3731.24987
726.434	3451.40063
726.628	3766.99591
726.822	3840.57289
727.015	3928.83317
727.209	3623.97841
727.403	3949.8423
727.596	3815.34921
727.79	4044.35815
727.984	4117.84161
728.177	4084.25233
728.371	3991.85446
728.565	3857.38709
728.758	3884.70744
728.952	3935.13612
729.146	3769.09844
729.339	4000.25591
729.533	3823.75742
729.726	3899.41701
729.92	3796.42959
730.113	4071.65498
730.307	4021.25811
730.5	3880.50453
730.694	3933.03516
730.887	4046.45803
731.081	3891.01166
731.274	3926.73215
731.468	3588.2103
731.661	3825.85943
731.854	3844.77656
732.048	4050.65773
732.241	3790.1227
732.435	4017.05783
732.628	3752.27763
732.821	3945.64063
733.014	3766.99591
733.208	3792.22502
733.401	3630.28987
733.594	3853.18366
733.788	3809.04285
733.981	3962.4468
734.174	3888.91028
734.367	3867.89532
734.56	3857.38709
734.754	4012.85747
734.947	3954.04388
735.14	3832.16531
735.333	3790.1227
735.526	4021.25811
735.719	3579.79349
735.912	3891.01166
736.105	3928.83317
736.298	4008.65703
736.491	3710.22018
736.684	3811.14499
736.877	3706.01401
737.07	3741.764
737.263	3682.8787
737.456	3731.24987
737.649	3840.57289
737.842	3834.26724
738.035	3815.34921
738.228	3916.22673
738.421	3920.42896
738.614	4027.55836
738.807	3939.33799
739	3949.8423
739.192	3781.71323
739.385	4107.34553
739.578	3766.99591
739.771	3975.05057
739.964	3977.15113
740.156	4134.63425
740.349	3907.82203
740.542	3844.77656
740.735	3857.38709
740.927	4096.84894
741.12	3794.32731
741.313	3647.11958
741.505	3745.96951
741.698	3876.30154
741.891	3943.53977
742.083	4067.45569
742.276	3907.82203
742.468	3865.79371
742.661	3613.45894
742.854	3865.79371
743.046	3531.39107
743.239	3815.34921
743.431	3794.32731
743.624	3823.75742
743.816	3874.20002
744.009	4044.35815
744.201	3739.66121
744.393	3920.42896
744.586	3851.08191
744.778	4008.65703
744.971	3680.77537
745.163	3756.48295
745.355	3607.14704
745.548	3788.02036
745.74	3716.52929
745.932	3716.52929
746.125	3760.68819
746.317	3970.8494
746.509	3684.982
746.702	3802.73631
746.894	3451.40063
747.086	3806.94069
747.278	4042.25825
747.471	3741.764
747.663	3977.15113
747.855	3933.03516
748.047	3941.43889
748.239	4025.4583
748.431	4147.22784
748.623	4033.85844
748.815	3794.32731
749.008	3949.8423
749.2	3806.94069
749.392	3962.4468
749.584	3739.66121
749.776	3901.51829
749.968	3937.23706
750.16	3970.8494
750.352	3703.91089
750.544	3918.32785
750.736	3832.16531
750.928	3882.606
751.12	3844.77656
751.311	3794.32731
751.503	3800.63409
751.695	3859.48878
751.887	3552.43681
752.079	3865.79371
752.271	3678.67203
752.463	3714.42627
752.654	3552.43681
752.846	3775.40592
753.038	3571.37638
753.23	3724.94117
753.421	3682.8787
753.613	3573.48069
753.805	3714.42627
753.997	3546.12328
754.188	3678.67203
754.38	3537.70499
754.572	3562.95898
754.763	3663.94809
754.955	3642.91227
755.146	3493.50413
755.338	3701.80776
755.53	3636.60115
755.721	3672.36188
755.913	4008.65703
756.104	3941.43889
756.296	3891.01166
756.487	3760.68819
756.679	3659.74107
756.87	3607.14704
757.062	3466.13768
757.253	3584.00194
757.445	3504.02888
757.636	3436.6627
757.827	3596.62682
758.019	3714.42627
758.21	3504.02888
758.401	3436.6627
758.593	3634.49741
758.784	3504.02888
758.975	3663.94809
759.167	3525.07699
759.358	3605.04303
759.549	3394.54954
759.74	3699.70461
759.932	3520.86752
760.123	3421.9239
760.314	3461.92718
760.505	3516.65797
760.696	3457.71662
760.888	3674.46528
761.079	3455.61131
761.27	3748.07224
761.461	3445.08448
761.652	3731.24987
761.843	3413.50134
762.034	3588.2103
762.225	3474.55845
762.416	3453.50598
762.607	3447.18988
762.798	3575.58498
762.989	3600.83496
763.18	3575.58498
763.371	3537.70499
763.562	3554.54128
763.753	3525.07699
763.944	3613.45894
764.135	3457.71662
764.326	3600.83496
764.517	3253.41958
764.708	3546.12328
764.899	3497.71408
765.089	3348.21691
765.28	3211.27644
765.471	3472.45328
765.662	3219.7056
765.853	3375.5963
766.043	3268.1681
766.234	3558.75016
766.425	3230.24168
766.615	3550.33231
766.806	3274.48864
766.997	3426.13508
767.187	3272.38181
767.378	3457.71662
767.569	3381.9142
767.759	3373.4903
767.95	3255.52656
768.141	3268.1681
768.331	3175.44957
768.522	3344.00443
768.712	3202.84702
768.903	3405.07849
769.093	3126.97041
769.284	3234.456
769.474	3164.91135
769.665	3213.38376
769.855	3194.41733
770.046	3430.34618
770.236	3126.97041
770.426	3301.87587
770.617	3295.556
770.807	3278.70224
770.998	3219.7056
771.188	3230.24168
771.378	2973.04647
771.569	3044.74735
771.759	3051.07305
771.949	3133.29426
772.139	3219.7056
772.33	2998.35467
772.52	3000.46359
772.71	3247.09854
772.9	3040.53014
773.09	3198.63221
773.281	2956.17314
773.471	3044.74735
773.661	3057.39861
773.851	2958.28236
774.041	2901.32828
774.231	3114.32228
774.421	2840.14363
774.611	3107.99799
774.802	2981.48278
774.992	2964.60993
775.182	2994.13679
775.372	3076.37444
775.562	3055.2901
775.752	3167.01903
775.942	2859.13325
776.131	3061.61557
776.321	2937.1895
776.511	2920.31416
776.701	2747.28935
776.891	3057.39861
777.081	2956.17314
777.271	3135.40218
777.461	2975.15557
777.651	3175.44957
777.84	2694.51966
778.03	2831.70343
778.22	2791.60947
778.41	2776.83676
778.599	2903.43788
778.789	2825.37314
778.979	2863.35301
779.169	2975.15557
779.358	2852.8035
779.548	3164.91135
779.738	2941.40819
779.927	3048.9645
780.117	2783.168
780.307	3000.46359
780.496	2871.79236
780.686	3194.41733
780.875	2812.71218
781.065	2947.73612
781.254	2789.49912
781.444	2827.48325
781.633	2728.29321
781.823	2848.5836
782.012	2825.37314
782.202	2973.04647
782.391	2728.29321
782.581	2802.16099
782.77	2643.85316
782.96	2816.93255
783.149	2491.81145
783.338	2768.39491
783.528	2863.35301
783.717	2719.85013
783.906	2719.85013
784.096	2781.0576
784.285	2620.6286
784.474	2787.38876
784.663	2616.40579
784.853	2764.1739
785.042	2740.95742
785.231	2951.95466
785.42	2569.95169
785.61	2778.94718
785.799	2578.39832
785.988	2504.48391
786.177	2477.02641
786.366	2447.4547
786.555	2559.39313
786.744	2749.39997
786.933	2569.95169
787.122	2857.02335
787.312	2614.29437
787.501	2755.73173
787.69	2599.51407
787.879	2747.28935
788.068	2614.29437
788.257	2574.17503
788.445	2719.85013
788.634	2534.05138
788.823	2523.49183
789.012	2660.74281
789.201	2578.39832
789.39	2664.96509
789.579	2500.2598
789.768	2584.73317
789.957	2458.01627
790.145	2555.16962
790.334	2500.2598
790.523	2517.15596
790.712	2534.05138
790.9	2487.58721
791.089	2377.74165
791.278	2350.27584
791.467	2377.74165
791.655	2487.58721
791.844	2373.51625
792.033	2510.81999
792.221	2153.74328
792.41	2477.02641
792.599	2267.86851
792.787	2553.05785
792.976	2413.65586
793.164	2381.96701
793.353	2365.06534
793.541	2660.74281
793.73	2274.20805
793.918	2559.39313
794.107	2331.26007
794.295	2472.80201
794.484	2441.11763
794.672	2356.61426
794.861	2434.78046
795.049	2544.61065
795.238	2316.46947
795.426	2565.7283
795.614	2390.4176
795.803	2474.91422
795.991	2322.80836
796.179	2394.64283
796.368	2343.93734
796.556	2331.26007
796.744	2181.22015
796.932	2274.20805
797.121	2240.39624
797.309	2392.53022
797.497	2375.62896
797.685	2466.46533
797.874	2257.30244
798.062	2386.19232
798.25	2155.85694
798.438	2434.78046
798.626	2466.46533
798.814	2455.90398
799.002	2445.34235
799.19	2419.99335
799.378	2176.99303
799.566	2181.22015
799.755	2094.55778
799.943	2449.56704
800.131	2318.58244
800.318	2217.1493
800.506	2037.48051
800.694	2215.03589
800.882	2155.85694
801.07	2443.23
801.258	2424.21829
801.446	2280.5475
801.634	2149.51595
801.822	2525.60376
802.01	2200.24177
802.197	2415.76837
802.385	2210.80904
802.573	2242.50955
802.761	2250.96268
802.949	2534.05138
803.136	2124.15129
803.324	2284.77376
803.512	2215.03589
803.699	2409.43082
803.887	2327.03423
804.075	2441.11763
804.262	2117.80995
804.45	2394.64283
804.638	2305.90447
804.825	2527.71569
805.013	2196.0148
805.201	2379.85433
805.388	2246.73613
805.576	2362.95258
805.763	2096.67165
805.951	2263.64211
806.138	2031.13827
806.326	2381.96701
806.513	2234.05627
806.701	2314.35649
806.888	2037.48051
807.075	2185.44723
807.263	2221.3761
807.45	2403.09317
807.638	2386.19232
807.825	2449.56704
808.012	2341.82449
808.2	2502.37186
808.387	2263.64211
808.574	2521.37989
808.761	2272.09488
808.949	2331.26007
809.136	2327.03423
809.323	2428.44319
809.51	2508.70797
809.698	2221.3761
809.885	2265.75532
810.072	2544.61065
810.259	2409.43082
810.446	2474.91422
810.633	2417.88087
810.82	2694.51966
811.008	2569.95169
811.195	2696.6306
811.382	2491.81145
811.569	2614.29437
811.756	2297.4523
811.943	2481.25076
812.13	2362.95258
812.317	2373.51625
812.504	2377.74165
812.691	2515.04398
812.878	2293.22616
813.064	2654.40929
813.251	2381.96701
813.438	2477.02641
813.625	2255.1892
813.812	2381.96701
813.999	2297.4523
814.186	2474.91422
814.372	2261.5289
814.559	2669.18733
814.746	2240.39624
814.933	2432.66805
815.12	2229.82958
815.306	2274.20805
815.493	2358.72704
815.68	2419.99335
815.866	2280.5475
816.053	2352.38866
816.24	2248.84941
816.426	2308.01749
816.613	2240.39624
816.799	2460.12855
816.986	2119.92374
817.173	2261.5289
817.359	2240.39624
817.546	2305.90447
817.732	2263.64211
817.919	2449.56704
818.105	2246.73613
818.292	2443.23
818.478	2365.06534
818.665	2422.10583
818.851	2291.11307
819.037	2394.64283
819.224	2221.3761
819.41	2318.58244
819.597	2255.1892
819.783	2504.48391
819.969	2170.65229
820.156	2451.67936
820.342	2403.09317
820.528	2352.38866
820.714	2329.14716
820.901	2415.76837
821.087	2200.24177
821.273	2540.38698
821.459	2248.84941
821.646	2529.8276
821.832	2248.84941
822.018	2365.06534
822.204	2229.82958
822.39	2487.58721
822.576	2255.1892
822.762	2308.01749
822.948	2143.17489
823.134	2124.15129
823.32	2012.1112
823.507	2274.20805
823.693	2107.2409
823.879	2373.51625
824.065	2185.44723
824.25	2339.71162
824.436	1942.34081
824.622	2263.64211
824.808	2242.50955
824.994	2255.1892
825.18	2223.48948
825.366	2365.06534
825.552	2179.10659
825.738	2424.21829
825.923	2212.92247
826.109	2515.04398
826.295	2079.76047
826.481	2472.80201
826.667	2162.19785
826.852	2229.82958
827.038	2183.33369
827.224	2386.19232
827.409	2155.85694
827.595	2303.79144
827.781	2185.44723
827.966	2196.0148
828.152	2029.02418
828.338	2162.19785
828.523	2009.99704
828.709	2145.28859
828.894	2035.36643
829.08	2210.80904
829.266	1967.71264
829.451	2193.90131
829.637	1902.16704
829.822	1974.05546
830.008	2001.54037
830.193	2083.98831
830.378	1993.08359
830.564	2250.96268
830.749	2054.39283
830.935	2172.76588
831.12	1995.19779
831.305	2267.86851
831.491	1868.33498
831.676	2060.73484
831.861	1929.65458
832.047	2198.12829
832.232	1851.41846
832.417	1997.31199
832.602	1883.13667
832.788	1995.19779
832.973	1815.46984
833.158	1959.25546
833.343	1809.12583
833.528	1967.71264
833.714	1809.12583
833.899	2048.05076
834.084	1764.71669
834.269	2096.67165
834.454	1773.17572
834.639	1893.70915
834.824	1722.4207
835.009	1967.71264
835.194	1832.387
835.379	2009.99704
835.564	1815.46984
835.749	1925.42579
835.934	1747.79847
836.119	2048.05076
836.304	1756.25761
836.489	1876.79312
836.674	1637.82489
836.859	1819.69916
837.044	1631.48003
837.228	2012.1112
837.413	1859.87676
837.598	1919.08256
837.783	1766.83146
837.968	1845.07468
838.152	1762.60193
838.337	1667.43393
838.522	1656.85933
838.707	1826.0431
838.891	1546.88027
839.076	1730.88001
839.261	1758.37239
839.445	1815.46984
839.63	1644.16972
839.815	1872.56406
839.999	1673.77866
840.184	1851.41846
840.368	1783.7494
840.553	1925.42579
840.737	1650.51454
840.922	1802.78178
841.106	1688.58293
841.291	1790.09357
841.475	1620.90523
841.66	1775.29046
841.844	1692.81269
842.029	1716.07618
842.213	1555.34036
842.397	1627.25012
842.582	1498.23443
842.766	1807.01115
842.951	1513.03973
843.135	1701.27219
843.319	1483.42909
843.504	1705.50191
843.688	1565.91545
843.872	1422.0926
844.056	1426.3227
844.241	1650.51454
844.425	1603.98543
844.609	1671.66375
844.793	1529.96003
844.977	1760.48716
845.161	1271.92676
845.346	1639.93984
845.53	1570.14547
845.714	1561.68542
845.898	1441.12806
846.082	1603.98543
846.266	1413.63241
846.45	1603.98543
846.634	1559.5704
846.818	1597.64047
847.002	1508.80965
847.186	1637.82489
847.37	1555.34036
847.554	1701.27219
847.738	1477.08394
847.922	1570.14547
848.106	1485.54414
848.29	1642.05478
848.473	1377.67669
848.657	1472.85384
848.841	1464.39363
849.025	1455.93342
849.209	1269.81181
849.392	1502.46452
849.576	1337.49123
849.76	1403.05717
849.944	1307.88124
850.127	1451.70332
850.311	1244.43263
850.495	1441.12806
850.678	1447.47322
850.862	1777.4052
851.046	1445.35816
851.229	1400.94213
851.413	1293.07638
851.596	1424.20765
851.78	1453.81837
851.964	1591.29549
852.147	1403.05717
852.331	1597.64047
852.514	1223.28361
852.698	1371.33159
852.881	1104.85572
853.065	1345.95129
853.248	1206.36463
853.431	1233.85809
853.615	1096.3971
853.798	1250.77739
853.982	1056.21976
854.165	1176.75692
854.348	1206.36463
854.532	1223.28361
854.715	1164.06812
854.898	1303.65127
855.081	1066.79256
855.265	1312.11122
855.448	1157.72378
855.631	1271.92676
855.814	1011.81555
855.997	1265.58192
856.181	969.52836
856.364	1214.82409
856.547	1071.02172
856.73	1229.62829
856.913	1037.18907
857.096	1240.2028
857.279	1083.70932
857.462	1011.81555
857.645	948.38578
857.828	1164.06812
858.011	1117.5438
858.194	1013.92998
858.377	1054.10521
858.56	1206.36463
858.743	1060.44886
858.926	1244.43263
859.109	887.07645
859.292	1164.06812
859.475	1007.58672
859.658	1132.34677
859.841	1024.5022
860.023	1214.82409
860.206	1035.07458
860.389	1079.4801
860.572	952.61424
860.755	1090.05319
860.937	1003.35791
861.12	1032.96009
861.303	821.54645
861.486	1073.1363
861.668	1064.67799
861.851	1128.11733
862.034	863.82293
862.216	1005.47231
862.399	882.84846
862.581	1045.6471
862.764	884.96245
862.947	1098.51175
863.129	988.55727
863.312	1037.18907
863.494	821.54645
863.677	1030.84561
863.859	946.27156
864.042	1041.41807
864.224	935.70057
864.406	1056.21976
864.589	929.35806
864.771	967.41407
864.954	724.32492
865.136	889.19045
865.318	923.01562
865.501	980.09991
865.683	711.64545
865.865	851.13962
866.048	889.19045
866.23	806.75054
866.412	656.70575
866.594	853.25348
866.777	859.59512
866.959	859.59512
867.141	808.86421
867.323	878.6205
867.505	726.4382
867.687	751.79841
867.869	770.81955
868.052	853.25348
868.234	701.07953
868.416	817.319
868.598	800.40958
868.78	766.59256
868.962	766.59256
869.144	724.32492
869.326	720.09839
869.508	768.70605
869.69	791.95509
869.872	783.50075
870.054	800.40958
870.236	842.68425
870.417	688.40079
870.599	884.96245
870.781	686.28771
870.963	863.82293
871.145	732.77811
871.327	842.68425
871.508	783.50075
871.69	741.23147
871.872	842.68425
872.054	884.96245
872.235	696.85324
872.417	842.68425
872.599	791.95509
872.78	770.81955
872.962	715.8719
873.144	851.13962
873.325	749.685
873.507	787.7279
873.689	724.32492
873.87	830.00146
874.052	817.319
874.233	887.07645
874.415	688.40079
874.596	791.95509
874.778	690.51389
874.959	775.04658
875.141	673.60945
875.322	808.86421
875.503	650.36706
875.685	810.9779
875.866	703.19269
876.048	764.47908
876.229	601.77407
876.41	779.27365
876.592	717.98514
876.773	775.04658
876.954	682.06158
877.136	817.319
877.317	694.74011
877.498	775.04658
877.679	641.91564
877.86	749.685
878.042	804.63688
878.223	834.22902
878.404	737.00477
878.585	844.79808
878.766	686.28771
878.947	827.8877
879.128	737.00477
879.309	724.32492
879.49	760.25215
879.672	893.41849
879.853	694.74011
880.034	775.04658
880.215	690.51389
880.396	751.79841
880.576	656.70575
880.757	798.29594
880.938	618.67523
881.119	846.91191
881.3	684.17464
881.481	876.50654
881.662	827.8877
881.843	861.70902
882.023	808.86421
882.204	971.64266
882.385	819.43272
882.566	770.81955
882.747	760.25215
882.927	887.07645
883.108	751.79841
883.289	889.19045
883.469	703.19269
883.65	815.20529
883.831	675.72246
884.011	825.77394
884.192	753.91183
884.373	798.29594
884.553	648.25418
884.734	912.44504
884.914	749.685
885.095	863.82293
885.275	698.96638
885.456	878.6205
885.636	832.11524
885.817	920.90149
885.997	787.7279
886.178	880.73448
886.358	808.86421
886.538	876.50654
886.719	798.29594
886.899	859.59512
887.08	791.95509
887.26	942.04314
887.44	878.6205
887.621	730.6648
887.801	758.1387
887.981	901.87466
888.161	667.27047
888.342	813.09159
888.522	821.54645
888.702	868.05076
888.882	753.91183
889.062	791.95509
889.242	777.16011
889.423	785.61432
889.603	737.00477
889.783	821.54645
889.963	694.74011
890.143	859.59512
890.323	707.41905
890.503	768.70605
890.683	726.4382
890.863	825.77394
891.043	726.4382
891.223	887.07645
891.403	698.96638
891.583	929.35806
891.763	743.34484
891.943	808.86421
892.122	658.81867
892.302	844.79808
892.482	698.96638
892.662	872.27863
892.842	701.07953
893.022	931.47222
893.201	667.27047
893.381	969.52836
893.561	749.685
893.741	1005.47231
893.92	813.09159
894.1	808.86421
894.28	641.91564
894.459	800.40958
894.639	650.36706
894.819	688.40079
894.998	597.54891
895.178	749.685
895.357	660.9316
895.537	758.1387
895.716	690.51389
895.896	794.0687
896.075	690.51389
896.255	692.62699
896.434	665.1575
896.614	715.8719
896.793	692.62699
896.973	756.02526
897.152	717.98514
897.331	715.8719
897.511	690.51389
897.69	796.18231
897.87	656.70575
898.049	715.8719
898.228	580.64877
898.407	580.64877
898.587	625.01338
898.766	559.52479
898.945	472.93102
899.124	663.04455
899.304	572.19902
899.483	652.47994
899.662	508.83283
899.841	578.53632
900.02	483.48993
900.199	517.28093
900.378	572.19902
900.557	673.60945
900.737	631.35163
900.916	639.80281
901.095	462.37249
901.274	525.72925
901.453	599.66148
901.632	479.26632
901.811	485.60176
901.989	542.62658
902.168	502.49691
902.347	582.76124
902.526	447.59118
902.705	515.16888
902.884	515.16888
903.063	513.05685
903.242	453.92593
903.42	529.9535
903.599	483.48993
903.778	481.37812
903.957	390.5848
904.135	489.82546
904.314	418.03086
904.493	462.37249
904.672	521.50506
904.85	428.58776
905.029	456.03755
905.207	445.47962
905.386	386.36258
905.565	327.25857
905.743	363.14154
905.922	405.3631
906.1	335.70117
906.279	382.14042
906.457	422.25357
906.636	464.48416
906.814	382.14042
906.993	352.58721
907.171	316.70572
907.35	460.26082
907.528	394.80709
907.707	413.80821
907.885	301.93248
908.063	361.03064
908.242	439.14506
908.42	377.91833
908.598	361.03064
908.777	358.91976
908.955	361.03064
909.133	301.93248
909.311	344.14405
909.49	352.58721
909.668	238.62888
909.846	344.14405
910.024	327.25857
910.202	358.91976
910.38	291.38072
910.559	352.58721
910.737	272.3887
910.915	308.26376
911.093	299.82209
911.271	320.92681
911.449	287.16014
911.627	318.81625
911.805	299.82209
911.983	354.69804
912.161	320.92681
912.339	318.81625
912.517	287.16014
912.695	276.60902
912.872	280.82941
913.05	432.81063
913.228	295.60137
913.406	320.92681
913.584	282.93964
913.762	329.36919
913.939	346.25481
914.117	320.92681
914.295	329.36919
914.473	407.47436
914.65	356.80889
914.828	352.58721
915.006	411.69691
915.184	348.36559
915.361	335.70117
915.539	356.80889
915.716	234.40925
915.894	331.47983
916.072	221.75083
916.249	384.25149
916.427	276.60902
916.604	304.04289
916.782	301.93248
916.959	339.92257
917.137	297.71172
917.314	272.3887
917.492	282.93964
917.669	365.25246
917.847	312.48471
918.024	259.7282
918.201	240.73873
918.379	335.70117
918.556	278.71921
918.733	280.82941
918.911	179.56125
919.088	312.48471
919.265	280.82941
919.442	236.51906
919.62	238.62888
919.797	242.84859
919.974	306.15332
920.151	293.49103
920.328	263.94829
920.506	263.94829
920.683	244.95848
920.86	228.07995
921.037	225.97022
921.214	259.7282
921.391	242.84859
921.568	312.48471
921.745	327.25857
921.922	268.16846
922.099	323.03738
922.276	306.15332
922.453	295.60137
922.63	234.40925
922.807	209.09311
922.984	295.60137
923.161	209.09311
923.338	255.50818
923.514	213.31227
923.691	187.99852
923.868	192.21728
924.045	242.84859
924.222	217.53151
924.399	249.1783
924.575	217.53151
924.752	173.23352
924.929	291.38072
925.105	272.3887
925.282	285.04988
925.459	166.90597
925.635	116.2924
925.812	133.16222
925.989	152.14241
926.165	171.12431
926.342	196.43612
926.518	211.20268
926.695	135.27105
926.871	185.88917
927.048	162.68771
927.224	179.56125
927.401	133.16222
927.577	175.34274
927.754	192.21728
927.93	194.32669
928.107	183.77985
928.283	183.77985
928.459	211.20268
928.636	217.53151
928.812	158.46953
928.988	152.14241
929.165	128.94464
929.341	213.31227
929.517	162.68771
929.693	128.94464
929.87	59.36716
930.046	175.34274
930.222	124.72714
930.398	234.40925
930.574	145.81549
930.751	164.79683
930.927	103.64094
931.103	200.65503
931.279	116.2924
931.455	99.42397
931.631	90.99028
931.807	141.59765
931.983	211.20268
932.159	50.93519
932.335	160.57861
932.511	158.46953
932.687	158.46953
932.863	160.57861
933.039	82.55695
933.215	158.46953
933.391	116.2924
933.566	76.23219
933.742	112.07516
933.918	67.79949
934.094	15.10348
934.27	90.99028
934.445	103.64094
934.621	137.37989
934.797	93.09867
934.973	86.77357
935.148	15.10348
935.324	118.40105
935.5	12.99594
935.675	82.55695
935.851	124.72714
936.027	101.53244
936.202	57.25913
936.378	124.72714
936.553	84.66525
936.729	145.81549
936.904	57.25913
937.08	42.50359
937.255	82.55695
937.431	17.21104
937.606	90.99028
937.782	65.69137
937.957	19.31862
938.133	90.99028
938.308	19.31862
938.483	46.71934
938.659	69.90763
938.834	27.74919
939.009	-35.47071
939.185	61.47521
939.36	72.0158
939.535	141.59765
939.71	42.50359
939.886	38.28793
940.061	82.55695
940.236	46.71934
940.411	124.72714
940.586	44.61145
940.761	44.61145
940.937	36.18013
941.112	42.50359
941.287	10.88843
941.462	48.82725
941.637	57.25913
941.812	40.39575
941.987	-18.61421
942.162	48.82725
942.337	95.20708
942.512	67.79949
942.687	50.93519
942.862	95.20708
943.037	44.61145
943.212	99.42397
943.386	65.69137
943.561	67.79949
943.736	67.79949
943.911	76.23219
944.086	27.74919
944.26	8.78094
944.435	40.39575
944.61	23.53386
944.785	65.69137
944.959	65.69137
945.134	67.79949
945.309	6.67348
945.483	141.59765
945.658	-39.68458
945.833	29.85689
946.007	-5.9708
946.182	116.2924
946.357	78.34042
946.531	48.82725
946.706	65.69137
946.88	55.15113
947.055	53.04315
947.229	31.96461
947.404	116.2924
947.578	141.59765
947.752	53.04315
947.927	53.04315
948.101	59.36716
948.276	48.82725
948.45	40.39575
948.624	42.50359
948.799	15.10348
948.973	53.04315
949.147	59.36716
949.321	25.64151
949.496	90.99028
949.67	99.42397
949.844	48.82725
950.018	82.55695
950.193	31.96461
950.367	36.18013
950.541	2.45862
950.715	15.10348
950.889	0.35123
951.063	19.31862
951.237	59.36716
951.411	-18.61421
951.585	42.50359
951.759	116.2924
951.933	67.79949
952.107	19.31862
952.281	-35.47071
952.455	-27.04265
952.629	67.79949
952.803	6.67348
952.977	-10.18537
953.151	8.78094
953.325	57.25913
953.499	95.20708
953.672	27.74919
953.846	93.09867
954.02	55.15113
954.194	8.78094
954.368	65.69137
954.541	-5.9708
954.715	82.55695
954.889	82.55695
955.062	63.58328
955.236	23.53386
955.41	84.66525
955.583	40.39575
955.757	2.45862
955.93	42.50359
956.104	90.99028
956.278	6.67348
956.451	2.45862
956.625	29.85689
956.798	116.2924
956.972	82.55695
957.145	84.66525
957.319	-12.29261
957.492	50.93519
957.665	61.47521
957.839	74.12398
958.012	50.93519
958.185	59.36716
958.359	34.07236
958.532	48.82725
958.705	27.74919
958.879	31.96461
959.052	90.99028
959.225	57.25913
959.398	8.78094
959.572	50.93519
959.745	31.96461
959.918	57.25913
960.091	93.09867
960.264	67.79949
960.438	90.99028
960.611	10.88843
960.784	-16.50703
960.957	160.57861
961.13	25.64151
961.303	12.99594
961.476	42.50359
961.649	57.25913
961.822	6.67348
961.995	21.42623
962.168	57.25913
962.341	59.36716
962.514	17.21104
962.686	17.21104
962.859	-1.75614
963.032	38.28793
963.205	65.69137
963.378	53.04315
963.551	31.96461
963.723	31.96461
963.896	65.69137
964.069	-27.04265
964.242	27.74919
964.414	57.25913
964.587	61.47521
964.76	40.39575
964.932	15.10348
965.105	57.25913
965.278	31.96461
965.45	99.42397
965.623	25.64151
965.795	61.47521
965.968	82.55695
966.14	31.96461
966.313	50.93519
966.485	84.66525
966.658	25.64151
966.83	48.82725
967.003	150.03342
967.175	12.99594
967.348	88.88192
967.52	76.23219
967.692	25.64151
967.865	74.12398
968.037	29.85689
968.209	67.79949
968.382	74.12398
968.554	67.79949
968.726	-14.39983
968.898	99.42397
969.071	65.69137
969.243	72.0158
969.415	-20.72135
969.587	40.39575
969.759	19.31862
969.932	36.18013
970.104	150.03342
970.276	-5.9708
970.448	8.78094
970.62	-27.04265
970.792	-18.61421
970.964	67.79949
971.136	69.90763
971.308	84.66525
971.48	53.04315
971.652	57.25913
971.824	0.35123
971.996	57.25913
972.168	36.18013
972.339	10.88843
972.511	36.18013
972.683	65.69137
972.855	-10.18537
973.027	-41.79148
973.199	44.61145
973.37	-39.68458
973.542	65.69137
973.714	57.25913
973.886	31.96461
974.057	34.07236
974.229	63.58328
974.401	12.99594
974.572	34.07236
974.744	31.96461
974.915	42.50359
975.087	31.96461
975.259	19.31862
975.43	67.79949
975.602	34.07236
975.773	2.45862
975.945	65.69137
976.116	36.18013
976.288	50.93519
976.459	-1.75614
976.63	15.10348
976.802	10.88843
976.973	-14.39983
977.145	48.82725
977.316	8.78094
977.487	44.61145
977.659	59.36716
977.83	15.10348
978.001	57.25913
978.172	65.69137
978.344	65.69137
978.515	-16.50703
978.686	6.67348
978.857	-5.9708
979.028	10.88843
979.2	21.42623
979.371	-14.39983
979.542	19.31862
979.713	23.53386
979.884	23.53386
980.055	-73.39198
980.226	31.96461
980.397	-10.18537
980.568	23.53386
980.739	48.82725
980.91	-8.0781
981.081	67.79949
981.252	25.64151
981.423	50.93519
981.594	31.96461
981.765	8.78094
981.936	40.39575
982.106	-10.18537
982.277	27.74919
982.448	53.04315
982.619	65.69137
982.79	8.78094
982.96	48.82725
983.131	36.18013
983.302	88.88192
983.472	67.79949
983.643	31.96461
983.814	19.31862
983.984	42.50359
984.155	65.69137
984.326	97.31551
984.496	44.61145
984.667	40.39575
984.837	36.18013
985.008	6.67348
985.178	-50.21884
985.349	107.85801
985.519	69.90763
985.69	-54.43236
985.86	65.69137
986.031	46.71934
986.201	19.31862
986.371	15.10348
986.542	93.09867
986.712	15.10348
986.882	-27.04265
987.053	2.45862
987.223	-1.75614
987.393	19.31862
987.563	42.50359
987.734	10.88843
987.904	50.93519
988.074	82.55695
988.244	-5.9708
988.414	17.21104
988.585	6.67348
988.755	-35.47071
988.925	40.39575
989.095	19.31862
989.265	31.96461
989.435	31.96461
989.605	10.88843
989.775	50.93519
989.945	31.96461
990.115	74.12398
990.285	10.88843
990.455	-8.0781
990.625	27.74919
990.795	8.78094
990.965	-27.04265
991.134	-5.9708
991.304	-16.50703
991.474	-31.25673
991.644	19.31862
991.814	40.39575
991.984	42.50359
992.153	27.74919
992.323	17.21104
992.493	53.04315
992.662	0.35123
992.832	-22.82848
993.002	-16.50703
993.171	90.99028
993.341	99.42397
993.511	57.25913
993.68	2.45862
993.85	8.78094
994.019	42.50359
994.189	-27.04265
994.358	25.64151
994.528	-35.47071
994.697	-33.36373
994.867	31.96461
995.036	27.74919
995.206	15.10348
995.375	15.10348
995.544	53.04315
995.714	0.35123
995.883	25.64151
996.052	-14.39983
996.222	57.25913
996.391	93.09867
996.56	2.45862
996.73	57.25913
996.899	29.85689
997.068	-18.61421
997.237	40.39575
997.406	-64.96574
997.576	6.67348
997.745	107.85801
997.914	80.44868
998.083	-10.18537
998.252	-33.36373
998.421	34.07236
998.59	36.18013
998.759	57.25913
998.928	50.93519
999.097	6.67348
999.266	65.69137
999.435	31.96461
999.604	29.85689
999.773	8.78094
999.942	88.88192
1000.111	4.56604
1000.28	88.88192
1000.448	2.45862
1000.617	109.96657
1000.786	57.25913
1000.955	17.21104
1001.124	15.10348
1001.292	34.07236
1001.461	50.93519
1001.63	23.53386
1001.798	76.23219
1001.967	10.88843
1002.136	-52.32561
1002.304	69.90763
1002.473	-33.36373
1002.642	74.12398
1002.81	23.53386
1002.979	-75.49848
1003.147	59.36716
1003.316	-10.18537
1003.484	6.67348
1003.653	-5.9708
1003.821	-3.86348
1003.99	90.99028
1004.158	48.82725
1004.327	-14.39983
1004.495	-77.60495
1004.663	57.25913
1004.832	99.42397
1005	15.10348
1005.168	-22.82848
1005.337	67.79949
1005.505	40.39575
1005.673	15.10348
1005.842	10.88843
1006.01	40.39575
1006.178	-1.75614
1006.346	2.45862
1006.514	23.53386
1006.683	40.39575
1006.851	76.23219
1007.019	2.45862
1007.187	-20.72135
1007.355	15.10348
1007.523	42.50359
1007.691	124.72714
1007.859	-39.68458
1008.027	42.50359
1008.195	48.82725
1008.363	-24.93558
1008.531	36.18013
1008.699	31.96461
1008.867	57.25913
1009.035	65.69137
1009.203	8.78094
1009.37	55.15113
1009.538	-1.75614
1009.706	-69.17891
1009.874	34.07236
1010.042	31.96461
1010.209	10.88843
1010.377	23.53386
1010.545	6.67348
1010.713	31.96461
1010.88	-8.0781
1011.048	40.39575
1011.216	6.67348
1011.383	10.88843
1011.551	-104.98671
1011.718	67.79949
1011.886	-39.68458
1012.054	27.74919
1012.221	-18.61421
1012.389	36.18013
1012.556	23.53386
1012.724	69.90763
1012.891	40.39575
1013.058	48.82725
1013.226	6.67348
1013.393	-16.50703
1013.561	48.82725
1013.728	27.74919
1013.895	8.78094
1014.063	21.42623
1014.23	8.78094
1014.397	-18.61421
1014.565	53.04315
1014.732	23.53386
1014.899	-48.11204
1015.066	19.31862
1015.233	0.35123
1015.401	15.10348
1015.568	31.96461
1015.735	-8.0781
1015.902	67.79949
1016.069	53.04315
1016.236	-41.79148
1016.403	19.31862
1016.57	57.25913
1016.737	44.61145
1016.904	6.67348
1017.071	10.88843
1017.238	-54.43236
1017.405	82.55695
1017.572	10.88843
1017.739	-5.9708
1017.906	-10.18537
1018.073	-43.89836
1018.24	-1.75614
1018.407	42.50359
1018.573	-1.75614
1018.74	76.23219
1018.907	-31.25673
1019.074	42.50359
1019.241	-22.82848
1019.407	-33.36373
1019.574	74.12398
1019.741	2.45862
1019.907	36.18013
1020.074	10.88843
1020.241	78.34042
1020.407	95.20708
1020.574	23.53386
1020.74	31.96461
1020.907	40.39575
1021.073	84.66525
1021.24	6.67348
1021.406	65.69137
1021.573	40.39575
1021.739	-22.82848
1021.906	69.90763
1022.072	69.90763
1022.239	-3.86348
1022.405	17.21104
1022.571	0.35123
1022.738	-35.47071
1022.904	36.18013
1023.07	93.09867
1023.237	27.74919
1023.403	6.67348
1023.569	-12.29261
1023.735	59.36716
1023.902	0.35123
1024.068	12.99594
1024.234	19.31862
1024.4	-35.47071
1024.566	27.74919
1024.732	-10.18537
1024.898	40.39575
1025.065	38.28793
1025.231	-22.82848
1025.397	-24.93558
1025.563	8.78094
1025.729	-3.86348
1025.895	-60.75247
1026.061	29.85689
1026.227	17.21104
1026.392	116.2924
1026.558	-27.04265
1026.724	-8.0781
1026.89	-18.61421
1027.056	42.50359
1027.222	-16.50703
1027.388	17.21104
1027.553	-22.82848
1027.719	15.10348
1027.885	36.18013
1028.051	25.64151
1028.216	50.93519
1028.382	-22.82848
1028.548	-27.04265
1028.713	31.96461
1028.879	48.82725
1029.045	93.09867
1029.21	2.45862
1029.376	-16.50703
1029.541	59.36716
1029.707	34.07236
1029.873	38.28793
1030.038	8.78094
1030.204	-10.18537
1030.369	19.31862
1030.534	31.96461
1030.7	-31.25673
1030.865	-29.1497
1031.031	44.61145
1031.196	40.39575
1031.361	42.50359
1031.527	69.90763
1031.692	44.61145
1031.857	-14.39983
1032.023	90.99028
1032.188	0.35123
1032.353	2.45862
1032.518	31.96461
1032.684	-14.39983
1032.849	53.04315
1033.014	57.25913
1033.179	48.82725
1033.344	23.53386
1033.509	21.42623
1033.674	-35.47071
1033.839	99.42397
1034.004	-14.39983
1034.17	-39.68458
1034.335	67.79949
1034.5	23.53386
1034.664	-22.82848
1034.829	36.18013
1034.994	23.53386
1035.159	53.04315
1035.324	19.31862
1035.489	2.45862
1035.654	4.56604
1035.819	-75.49848
1035.984	-27.04265
1036.148	-31.25673
1036.313	15.10348
1036.478	-14.39983
1036.643	-18.61421
1036.807	31.96461
1036.972	19.31862
1037.137	23.53386
1037.301	38.28793
1037.466	-48.11204
1037.631	-14.39983
1037.795	0.35123
1037.96	-52.32561
1038.124	15.10348
1038.289	55.15113
1038.454	36.18013
1038.618	17.21104
1038.783	0.35123
1038.947	-14.39983
1039.111	69.90763
1039.276	-10.18537
1039.44	2.45862
1039.605	59.36716
1039.769	-52.32561
1039.933	-31.25673
1040.098	76.23219
1040.262	31.96461
1040.426	50.93519
1040.591	-16.50703
1040.755	2.45862
1040.919	15.10348
1041.083	-14.39983
1041.248	-27.04265
1041.412	4.56604
1041.576	59.36716
1041.74	-64.96574
1041.904	76.23219
1042.068	-22.82848
1042.232	-35.47071
1042.397	-10.18537
1042.561	31.96461
1042.725	2.45862
1042.889	-27.04265
1043.053	0.35123
1043.217	86.77357
1043.381	82.55695
1043.544	34.07236
1043.708	-33.36373
1043.872	59.36716
1044.036	74.12398
1044.2	31.96461
1044.364	12.99594
1044.528	-8.0781
1044.691	-56.53909
1044.855	53.04315
1045.019	36.18013
1045.183	76.23219
1045.346	15.10348
1045.51	-24.93558
1045.674	8.78094
1045.837	-43.89836
1046.001	-10.18537
1046.165	-35.47071
1046.328	-10.18537
1046.492	-24.93558
1046.655	152.14241
1046.819	-27.04265
1046.983	23.53386
1047.146	59.36716
1047.31	36.18013
1047.473	10.88843
1047.636	27.74919
1047.8	42.50359
1047.963	53.04315
1048.127	53.04315
1048.29	2.45862
