Data from mixed_try1_USB4F045381__5__00027.txt Node

Date: Thu Apr 03 19:32:16 EDT 2025
User: mmckonesweet
Spectrometer: USB4F04538
Trigger mode: 4
Integration Time (sec): 2.700000E-3
Scans to average: 1
Electric dark correction enabled: true
Nonlinearity correction enabled: true
Boxcar width: 0
XAxis mode: Wavelengths
Number of Pixels in Spectrum: 3648
>>>>>Begin Spectral Data<<<<<
345.52	-84.09974
345.736	-84.09974
345.952	-84.09974
346.168	-35.64629
346.384	23.35822
346.6	-54.60793
346.816	6.49786
347.032	36.00449
347.248	23.35822
347.464	-35.64629
347.68	-33.53931
347.896	6.49786
348.112	42.32793
348.328	-1.93175
348.544	17.0354
348.76	2.283
348.975	-8.2537
349.191	-23.00407
349.407	-18.7898
349.623	8.60532
349.839	44.4358
350.055	-1.93175
350.27	82.38126
350.486	-4.03909
350.702	6.49786
350.918	-4.03909
351.133	14.92785
351.349	-48.28761
351.565	48.65159
351.781	-41.96706
351.996	-27.21824
352.212	132.98649
352.428	14.92785
352.644	-48.28761
352.859	31.78897
353.075	0.17561
353.291	0.17561
353.506	52.86748
353.722	44.4358
353.938	-60.92802
354.153	25.46587
354.369	50.75953
354.584	-1.93175
354.8	8.60532
355.016	-48.28761
355.231	42.32793
355.447	-52.50118
355.662	14.92785
355.878	50.75953
356.093	-23.00407
356.309	-54.60793
356.524	19.14299
356.74	92.92297
356.955	-6.14641
357.171	-10.36097
357.386	21.25059
357.602	23.35822
357.817	59.19149
358.033	8.60532
358.248	-20.89695
358.464	4.39042
358.679	50.75953
358.895	8.60532
359.11	8.60532
359.325	-8.2537
359.541	-27.21824
359.756	6.49786
359.972	-77.78048
360.187	-18.7898
360.402	-52.50118
360.618	36.00449
360.833	4.39042
361.048	-33.53931
361.264	-18.7898
361.479	76.05651
361.694	38.11228
361.909	57.08346
362.125	90.81458
362.34	23.35822
362.555	-18.7898
362.77	40.22009
362.986	46.54368
363.201	59.19149
363.416	52.86748
363.631	27.57355
363.847	4.39042
364.062	25.46587
364.277	48.65159
364.492	48.65159
364.707	-23.00407
364.922	73.9483
365.138	-8.2537
365.353	-6.14641
365.568	17.0354
365.783	44.4358
365.998	38.11228
366.213	-41.96706
366.428	-27.21824
366.643	6.49786
366.858	14.92785
367.073	19.14299
367.288	0.17561
367.503	-69.35446
367.718	8.60532
367.933	14.92785
368.148	12.82031
368.363	10.7128
368.578	0.17561
368.793	19.14299
369.008	-6.14641
369.223	-71.461
369.438	0.17561
369.653	42.32793
369.868	-27.21824
370.083	50.75953
370.298	61.29953
370.513	-60.92802
370.728	-39.86016
370.943	-31.43231
371.157	14.92785
371.372	73.9483
371.587	-10.36097
371.802	4.39042
372.017	-8.2537
372.232	31.78897
372.446	-46.18078
372.661	-31.43231
372.876	50.75953
373.091	46.54368
373.306	0.17561
373.52	-35.64629
373.735	10.7128
373.95	-44.07393
374.165	-14.57544
374.379	-56.71465
374.594	10.7128
374.809	57.08346
375.023	31.78897
375.238	-44.07393
375.453	-29.32529
375.667	19.14299
375.882	-25.11117
376.097	27.57355
376.311	-27.21824
376.526	54.97546
376.741	-50.3944
376.955	82.38126
377.17	-23.00407
377.384	-27.21824
377.599	40.22009
377.813	29.68125
378.028	-4.03909
378.242	46.54368
378.457	25.46587
378.672	-14.57544
378.886	6.49786
379.101	69.73195
379.315	50.75953
379.53	65.5157
379.744	-37.75323
379.958	2.283
380.173	69.73195
380.387	4.39042
380.602	-8.2537
380.816	-14.57544
381.031	-14.57544
381.245	25.46587
381.459	-6.14641
381.674	-8.2537
381.888	61.29953
382.103	111.89944
382.317	-8.2537
382.531	19.14299
382.746	-41.96706
382.96	23.35822
383.174	-41.96706
383.388	2.283
383.603	40.22009
383.817	92.92297
384.031	6.49786
384.246	10.7128
384.46	0.17561
384.674	8.60532
384.888	84.48956
385.103	50.75953
385.317	-4.03909
385.531	-10.36097
385.745	21.25059
385.959	63.4076
386.174	-33.53931
386.388	65.5157
386.602	2.283
386.816	25.46587
387.03	42.32793
387.244	-1.93175
387.458	19.14299
387.672	-52.50118
387.887	4.39042
388.101	31.78897
388.315	33.89672
388.529	23.35822
388.743	44.4358
388.957	-18.7898
389.171	48.65159
389.385	54.97546
389.599	48.65159
389.813	44.4358
390.027	25.46587
390.241	-10.36097
390.455	-18.7898
390.669	40.22009
390.883	23.35822
391.097	42.32793
391.311	19.14299
391.525	42.32793
391.738	12.82031
391.952	-1.93175
392.166	19.14299
392.38	2.283
392.594	-6.14641
392.808	29.68125
393.022	10.7128
393.236	-1.93175
393.449	44.4358
393.663	14.92785
393.877	31.78897
394.091	31.78897
394.305	128.76891
394.518	50.75953
394.732	-23.00407
394.946	23.35822
395.16	-4.03909
395.373	-44.07393
395.587	17.0354
395.801	23.35822
396.015	6.49786
396.228	33.89672
396.442	33.89672
396.656	50.75953
396.869	84.48956
397.083	6.49786
397.297	80.27299
397.51	99.24826
397.724	6.49786
397.938	-20.89695
398.151	42.32793
398.365	25.46587
398.578	-25.11117
398.792	-1.93175
399.005	10.7128
399.219	31.78897
399.433	6.49786
399.646	40.22009
399.86	-18.7898
400.073	57.08346
400.287	57.08346
400.5	17.0354
400.714	-18.7898
400.927	33.89672
401.141	46.54368
401.354	111.89944
401.567	25.46587
401.781	14.92785
401.994	12.82031
402.208	97.13981
402.421	12.82031
402.635	57.08346
402.848	31.78897
403.061	31.78897
403.275	31.78897
403.488	40.22009
403.701	6.49786
403.915	-14.57544
404.128	57.08346
404.341	95.03138
404.555	44.4358
404.768	27.57355
404.981	-33.53931
405.195	2.283
405.408	95.03138
405.621	33.89672
405.834	27.57355
406.048	23.35822
406.261	67.62381
406.474	76.05651
406.687	-1.93175
406.9	40.22009
407.114	48.65159
407.327	59.19149
407.54	27.57355
407.753	8.60532
407.966	42.32793
408.179	50.75953
408.392	50.75953
408.605	23.35822
408.819	130.87769
409.032	40.22009
409.245	6.49786
409.458	71.84011
409.671	-10.36097
409.884	31.78897
410.097	17.0354
410.31	73.9483
410.523	31.78897
410.736	65.5157
410.949	59.19149
411.162	23.35822
411.375	-60.92802
411.588	65.5157
411.801	31.78897
412.014	82.38126
412.227	27.57355
412.44	82.38126
412.653	-8.2537
412.865	107.68229
413.078	48.65159
413.291	33.89672
413.504	61.29953
413.717	48.65159
413.93	99.24826
414.143	48.65159
414.356	101.35674
414.568	65.5157
414.781	44.4358
414.994	118.22533
415.207	42.32793
415.42	52.86748
415.632	99.24826
415.845	48.65159
416.058	116.11668
416.271	145.63975
416.483	76.05651
416.696	84.48956
416.909	109.79086
417.121	33.89672
417.334	73.9483
417.547	124.55141
417.759	130.87769
417.972	42.32793
418.185	109.79086
418.397	-10.36097
418.61	23.35822
418.823	65.5157
419.035	90.81458
419.248	61.29953
419.46	118.22533
419.673	101.35674
419.885	84.48956
420.098	48.65159
420.311	166.73021
420.523	82.38126
420.736	107.68229
420.948	90.81458
421.161	44.4358
421.373	65.5157
421.586	65.5157
421.798	67.62381
422.01	44.4358
422.223	99.24826
422.435	36.00449
422.648	86.59788
422.86	132.98649
423.073	88.70622
423.285	80.27299
423.497	90.81458
423.71	103.46523
423.922	97.13981
424.134	90.81458
424.347	101.35674
424.559	109.79086
424.771	166.73021
424.984	86.59788
425.196	69.73195
425.408	105.57375
425.621	124.55141
425.833	69.73195
426.045	99.24826
426.257	76.05651
426.47	59.19149
426.682	227.90414
426.894	132.98649
427.106	99.24826
427.318	149.85767
427.531	141.42191
427.743	143.53082
427.955	128.76891
428.167	173.05775
428.379	120.334
428.591	126.66015
428.804	145.63975
429.016	151.96666
429.228	118.22533
429.44	170.94855
429.652	202.58873
429.864	143.53082
430.076	160.40285
430.288	177.27622
430.5	57.08346
430.712	202.58873
430.924	217.35571
431.136	166.73021
431.348	124.55141
431.56	92.92297
431.772	227.90414
431.984	166.73021
432.196	223.68471
432.408	175.16697
432.62	124.55141
432.832	240.56291
433.044	255.33235
433.256	251.11241
433.468	301.75662
433.679	158.29377
433.891	158.29377
434.103	267.99262
434.315	242.67277
434.527	261.6624
434.739	225.79441
434.95	259.55236
435.162	276.43317
435.374	263.77245
435.586	324.97208
435.798	261.6624
436.009	348.18969
436.221	251.11241
436.433	295.42551
436.645	284.87402
436.856	289.09456
437.068	274.323
437.28	251.11241
437.491	335.52528
437.703	419.96626
437.915	316.52984
438.126	379.85345
438.338	312.30883
438.55	388.29776
438.761	352.41131
438.973	284.87402
439.184	213.13647
439.396	394.63116
439.608	259.55236
439.819	453.74996
440.031	310.19835
440.242	314.41933
440.454	417.85491
440.665	379.85345
440.877	424.189
441.088	411.52097
441.3	356.63299
441.511	371.40941
441.723	343.96815
441.934	335.52528
442.146	468.53159
442.357	438.9691
442.569	411.52097
442.78	491.76134
442.991	343.96815
443.203	451.63837
443.414	514.99288
443.626	470.64331
443.837	436.85761
444.048	495.98513
444.26	485.42577
444.471	396.74233
444.682	504.43287
444.894	422.07762
445.105	525.55324
445.316	588.92269
445.528	373.52039
445.739	487.53762
445.95	531.88963
446.161	540.33835
446.373	514.99288
446.584	548.78728
446.795	593.14775
447.006	529.77749
447.217	540.33835
447.429	491.76134
447.64	546.67503
447.851	479.09034
448.062	550.89955
448.273	567.79819
448.484	514.99288
448.695	639.62674
448.907	588.92269
449.118	707.24295
449.329	580.47273
449.54	591.03522
449.751	546.67503
449.962	707.24295
450.173	639.62674
450.384	690.3378
450.595	696.67715
450.806	741.05536
451.017	686.11162
451.228	681.88549
451.439	817.14286
451.65	757.96258
451.861	745.2821
452.072	719.92228
452.283	715.6958
452.494	937.63857
452.705	912.26887
452.915	927.06773
453.126	829.82532
453.337	975.69508
453.548	793.89256
453.759	996.83854
453.97	1015.86821
454.181	982.03805
454.391	952.43805
454.602	1079.30388
454.813	988.38108
455.024	1066.61634
455.235	956.66654
455.445	1015.86821
455.656	1079.30388
455.867	1106.79417
456.078	1045.47089
456.288	943.98116
456.499	918.61119
456.71	1034.89837
456.921	1058.1581
457.131	1244.25639
457.342	1142.74422
457.553	1180.81031
457.763	1119.48227
457.974	1292.90013
458.184	1146.97372
458.395	1426.14645
458.606	1394.42075
458.816	1538.24391
459.027	1430.37655
459.237	1409.22606
459.448	1500.17322
459.659	1320.39495
459.869	1601.69419
460.08	1498.05817
460.29	1544.58899
460.501	1703.21081
460.711	1643.99348
460.922	1747.62224
461.132	1821.63759
461.343	1726.47413
461.553	1745.50744
461.764	1840.66926
461.974	1713.7851
462.184	1682.06202
462.395	1975.99353
462.605	1995.02161
462.816	1825.86688
463.026	1861.81511
463.236	2026.7339
463.447	2221.19998
463.657	1937.93589
463.867	2485.29906
464.078	2358.55098
464.288	2297.27621
464.498	2381.79095
464.709	2438.82922
464.919	2178.93046
465.129	2495.85964
465.339	2690.12182
465.55	2512.75599
465.76	2326.85816
465.97	2512.75599
466.18	2704.89834
466.391	2913.80987
466.601	2569.77571
466.811	2974.97982
467.021	2787.2129
467.231	3187.91926
467.441	2875.83613
467.651	3164.73571
467.862	3112.03852
468.072	3272.20624
468.282	3023.48496
468.492	3259.5649
468.702	3322.76548
468.912	3571.20103
469.122	3120.47075
469.332	3520.69212
469.542	3541.73879
469.752	3829.88821
469.962	3821.48023
470.172	3941.26382
470.382	3815.17404
470.592	3817.27612
470.802	3798.35666
471.012	4262.45889
471.222	3941.26382
471.432	4243.57868
471.642	4251.9701
471.852	4488.88497
472.062	4262.45889
472.272	4461.64344
472.482	4461.64344
472.691	4775.74006
472.901	4784.10905
473.111	4748.53835
473.321	4846.86486
473.531	4951.41219
473.741	4897.05473
473.95	5072.61506
474.16	5051.72355
474.37	5214.6157
474.58	5212.52823
474.79	5723.25593
474.999	5343.99288
475.209	5560.81015
475.419	5604.55967
475.628	5856.43754
475.838	5704.51951
476.048	5704.51951
476.258	6049.79486
476.467	6321.81327
476.677	6406.86626
476.886	6661.79092
477.096	6670.07529
477.306	6512.60926
477.515	6332.18769
477.725	6696.99694
477.935	6556.13295
478.144	7061.09544
478.354	6949.45803
478.563	7125.15403
478.773	7085.89486
478.982	7232.55911
479.192	7096.227
479.401	7323.39367
479.611	7234.62401
479.82	7506.9979
480.03	7486.37677
480.239	7711.03164
480.449	7694.55179
480.658	7898.39555
480.868	8007.44065
481.077	8231.52444
481.287	8139.04164
481.496	8326.02105
481.705	8426.63509
481.915	8430.74081
482.124	8596.958
482.333	8543.61788
482.543	8574.39258
482.752	8951.55729
482.961	8935.17156
483.171	9283.12909
483.38	8863.47059
483.589	9458.96916
483.799	9297.44621
484.008	9458.96916
484.217	9456.9252
484.426	9526.4108
484.636	9571.36225
484.845	9738.84193
485.054	9742.92551
485.263	9959.26933
485.472	9942.94728
485.682	10275.32987
485.891	10236.60488
486.1	10256.98706
486.309	10387.40128
486.518	10721.34678
486.727	10515.72532
486.936	10678.60412
487.146	10810.88571
487.355	10902.43615
487.564	10593.10267
487.773	11154.59059
487.982	11099.70032
488.191	11288.73452
488.4	11319.21553
488.609	11522.36536
488.818	11386.2658
489.027	11682.78672
489.236	11634.05715
489.445	11930.41771
489.654	11699.02877
489.863	12090.70345
490.072	11891.8605
490.281	12039.98544
490.49	12153.58715
490.698	12133.30288
490.907	12161.70064
491.116	12567.23161
491.325	12524.66343
491.534	12565.20461
491.743	12917.81234
491.952	12638.17247
492.16	12909.70832
492.369	13017.0799
492.578	13136.59033
492.787	13053.5425
492.996	13256.08455
493.204	13029.23428
493.413	13308.73816
493.622	13614.481
493.831	13397.83786
494.039	13543.62102
494.248	13446.43443
494.457	13709.62929
494.665	13531.47316
494.874	13669.14154
495.083	13843.23009
495.291	13988.96234
495.5	13980.86646
495.709	14027.41724
495.917	13869.5439
496.126	14245.98745
496.335	14430.13567
496.543	14227.77419
496.752	14298.60268
496.96	14857.07482
497.169	14589.9905
497.377	14927.89051
497.586	14668.90342
497.794	14956.21662
498.003	14638.55249
498.211	14836.84164
498.42	14869.2147
498.628	15166.63744
498.837	14948.12346
499.045	15320.40629
499.254	15039.17126
499.462	15150.45128
499.671	15453.94367
499.879	15496.43327
500.087	15595.57674
500.296	15814.10406
500.504	15522.73648
500.713	15538.92313
500.921	15814.10406
501.129	15575.34324
501.338	15872.78475
501.546	16077.16386
501.754	16152.03913
501.962	15907.18424
502.171	16362.51175
502.379	16838.17983
502.587	16216.79791
502.795	16631.70447
503.004	16239.05914
503.212	16639.80108
503.42	16593.24605
503.628	16617.53549
503.837	16575.02919
504.045	16840.20423
504.253	16809.83859
504.461	16915.10856
504.669	16996.09022
504.877	17441.56961
505.085	17220.83723
505.294	17222.86213
505.502	17071.00208
505.71	17324.11122
505.918	17097.32335
506.126	17334.23654
506.334	17139.84332
506.542	17459.79684
506.75	17354.48741
506.958	17577.26738
507.166	17599.54749
507.374	17603.59846
507.582	17656.26229
507.79	17921.64142
507.998	18061.4452
508.206	18211.39871
508.414	17905.43338
508.622	17735.26221
508.83	17826.42233
509.037	18108.05024
509.245	17743.36505
509.453	18187.08057
509.661	18138.44586
509.869	18262.06321
510.077	18308.67661
510.285	18377.587
510.492	18148.57792
510.7	18379.61384
510.908	18389.74811
511.116	18399.88247
511.324	18399.88247
511.531	18750.59061
511.739	18669.49167
511.947	18947.2819
512.155	18424.20532
512.362	18635.02653
512.57	18730.31529
512.778	18884.41771
512.985	18872.25089
513.193	18878.33428
513.401	19150.09606
513.608	19275.86133
513.816	18935.11433
514.024	18884.41771
514.231	19008.12189
514.439	18949.30984
514.646	19081.13469
514.854	19383.38289
515.061	19139.95439
515.269	19135.89775
515.477	19117.64307
515.684	19478.74193
515.892	19375.26765
516.099	19444.24931
516.307	19854.18085
516.514	19448.3072
516.722	20124.17972
516.929	20199.30541
517.136	20069.3619
517.344	19710.07654
517.551	19923.19604
517.759	20040.93905
517.966	20365.82071
518.173	20022.66766
518.381	20047.02959
518.588	20010.48692
518.796	20126.21007
519.003	20532.36421
519.21	20422.68605
519.418	20993.55147
519.625	20912.26952
519.832	20707.06198
520.039	20499.8657
520.247	20688.77821
520.454	20678.6207
520.661	20983.39087
520.868	20898.04585
521.076	21269.95904
521.283	20725.34608
521.49	21164.26491
521.697	21294.35155
521.904	21312.64631
522.112	21162.23244
522.319	21391.92737
522.526	21231.33876
522.733	21747.75011
522.94	21410.22386
523.147	21381.76279
523.354	21440.71874
523.561	21782.32215
523.768	21477.31378
523.975	21696.91092
524.183	21574.90683
524.39	22150.4814
524.597	21798.59174
524.804	22046.73334
525.011	21942.9951
525.218	22052.83589
525.425	22225.75568
525.632	22134.20655
525.838	22260.34286
526.045	22126.06921
526.252	22370.21508
526.459	22305.10433
526.666	22498.41275
526.873	22628.65985
527.08	22795.56002
527.287	22929.91115
527.494	22421.08546
527.701	22954.34022
527.907	22616.44857
528.114	22860.6981
528.321	22885.12579
528.528	23271.9616
528.735	23137.57357
528.941	23102.96077
529.148	23131.46536
529.355	23104.99679
529.562	23198.65729
529.768	23463.38679
529.975	23019.48677
530.182	23675.20832
530.388	23184.40416
530.595	23392.1082
530.802	23528.55912
531.008	23589.66104
531.215	23858.54163
531.422	23652.80257
531.628	23640.5814
531.835	23756.68684
532.042	24080.60999
532.248	24367.9215
532.455	23905.39727
532.661	24290.48476
532.868	24054.12301
533.074	24418.86879
533.281	24371.99722
533.487	24488.1597
533.694	24885.61929
533.9	24838.73465
534.107	24477.96967
534.313	24704.20311
534.52	24382.18657
534.726	24643.05591
534.933	24431.09638
535.139	24638.9795
535.345	24781.65938
535.552	24433.13432
535.758	25095.59601
535.965	24777.58265
536.171	25054.82194
536.377	25403.46853
536.584	25285.20706
536.79	25177.14683
536.996	25421.82008
537.203	25071.13146
537.409	25007.93288
537.615	24930.46664
537.821	25211.80699
538.028	25707.30976
538.234	25748.09715
538.44	25813.35857
538.646	25281.1292
538.853	26100.93918
539.059	25497.26709
539.265	25768.49114
539.471	25831.71369
539.677	26461.99355
539.883	26062.1851
540.09	25792.96417
540.296	25854.14793
540.502	26429.35374
540.708	26217.20518
540.914	26614.99804
541.12	26417.11392
541.326	26543.59485
541.532	26741.48828
541.738	26631.31903
541.944	26494.63377
542.15	27008.76849
542.356	26419.15389
542.562	26935.31499
542.768	26761.89047
542.974	27153.64036
543.18	26839.42014
543.386	27110.79022
543.592	27098.54743
543.798	27551.56211
544.004	28010.7606
544.21	27512.78813
544.415	27435.2415
544.621	27257.70745
544.827	27525.0325
545.033	27920.95714
545.239	27639.3154
545.445	27874.0153
545.651	27655.64184
545.856	27653.60103
546.062	27667.88672
546.268	27553.60286
546.474	27616.86667
546.679	27343.41233
546.885	27367.89986
547.091	27827.07408
547.297	27716.86668
547.502	27731.15263
547.708	27555.64361
547.914	27751.56123
548.119	27827.07408
548.325	28102.6073
548.531	28043.41694
548.736	28312.84265
548.942	27708.70331
549.147	28174.04519
549.353	28427.1502
549.559	28735.38897
549.764	28233.23761
549.97	28247.52557
550.175	28545.5437
550.381	28896.66247
550.586	28476.14018
550.792	28829.29427
550.997	28721.09922
551.203	28853.79167
551.408	29253.937
551.614	28966.07332
551.819	29572.44868
552.025	28792.54845
552.23	29053.85935
552.435	29309.06219
552.641	29396.85573
552.846	29219.22893
553.052	29278.43699
553.257	29629.62017
553.462	29872.6085
553.668	29084.48283
553.873	29413.18963
554.078	29490.77656
554.283	29678.62498
554.489	29903.23839
554.694	29991.04546
554.899	29574.4905
555.105	29860.35662
555.31	29703.12762
555.515	29727.63041
555.72	30025.76047
555.925	30011.46601
556.131	30334.12608
556.336	29984.91932
556.541	30370.8867
556.746	30364.7599
556.951	29876.69247
557.156	29672.49934
557.361	30176.87669
557.567	30720.13291
557.772	30877.40834
557.977	30456.66304
558.182	30687.4533
558.387	30952.98516
558.592	30444.40914
558.797	29764.3849
559.002	30716.04794
559.207	30534.2721
559.412	30775.28052
559.617	30875.36575
559.822	31224.66955
560.027	30895.79172
560.232	30816.13124
560.437	30769.15296
560.642	30985.66763
560.847	31030.60662
561.051	30765.06792
561.256	30673.15608
561.461	30891.70651
561.666	31216.4982
561.871	31132.74332
562.076	30997.92365
562.281	30971.36901
562.485	30720.13291
562.69	31177.68465
562.895	30989.75296
563.1	31531.11323
563.305	31271.65525
563.509	31232.84091
563.714	31334.98512
563.919	31324.77053
564.123	31518.85478
564.328	31531.11323
564.533	31614.88095
564.737	31441.21931
564.942	32019.46004
565.147	32103.24581
565.351	31858.02838
565.556	31271.65525
565.761	31494.33805
565.965	31608.75151
566.17	31353.3715
566.374	31817.16147
566.579	32170.68559
566.784	32048.06944
566.988	32015.37301
567.193	32215.64668
567.397	31708.86771
567.602	32270.82759
567.806	32048.06944
568.011	32060.33073
568.215	32093.02785
568.42	31696.60835
568.624	31770.16544
568.828	32293.30914
569.033	31933.63413
569.237	32328.05387
569.442	32062.37428
569.646	32017.41652
569.85	32663.27137
570.055	32869.74798
570.259	32771.61733
570.463	32863.61464
570.668	32636.69699
570.872	32291.26536
571.076	32689.84617
571.281	32955.61711
571.485	32839.08153
571.689	32579.46121
571.893	32663.27137
572.098	33233.70192
572.302	33039.44621
572.506	33321.63656
572.71	32914.72648
572.914	32967.88451
573.119	32779.79467
573.323	33057.84832
573.527	33135.54854
573.731	33695.93223
573.935	33542.51981
574.139	33378.89922
574.343	32710.28859
574.547	32943.34982
574.751	33342.08724
574.955	33769.57666
575.159	33438.20944
575.364	33035.35688
575.568	33018.99968
575.772	33133.50375
575.976	33395.26041
576.18	33401.3959
576.383	33720.4799
576.587	33522.06617
576.791	33076.25065
576.995	33816.62951
577.199	33585.47349
577.403	33716.38859
577.607	34203.35095
577.811	33955.75282
578.015	33669.33946
578.219	33618.20103
578.422	33726.61689
578.626	33869.82184
578.83	33702.06911
579.034	34444.86309
579.238	34410.06562
579.442	34653.67251
579.645	34399.83129
579.849	34320.00687
580.053	34614.77339
580.257	34031.45904
580.46	34387.55022
580.664	34899.38694
580.868	34784.71242
581.071	34199.25798
581.275	34485.80277
581.479	34459.1918
581.682	34610.67883
581.886	34659.81462
582.09	34633.1991
582.293	34678.24116
582.497	34786.76005
582.7	34821.57058
582.904	35087.81146
583.107	34782.66478
583.311	34360.94173
583.515	35139.02056
583.718	34907.57851
583.922	35251.69105
584.125	35134.92372
584.329	34921.91393
584.532	34932.15365
584.735	35350.03369
584.939	34612.72611
585.142	35317.25154
585.346	34837.95244
585.549	35186.13554
585.753	35679.9766
585.956	35438.14204
586.159	35507.81575
586.363	36057.22514
586.566	36190.53855
586.769	36122.85324
586.973	35255.78843
587.176	35704.57407
587.379	35780.42116
587.582	35802.97174
587.786	35772.22111
587.989	35977.24892
588.192	35843.9745
588.395	36124.90422
588.599	36200.79446
588.802	35919.83548
589.005	35704.57407
589.208	36268.48727
589.411	35782.47118
589.615	36049.02204
589.818	36211.05053
590.021	36471.60573
590.224	36299.25891
590.427	36217.20424
590.63	36028.51472
590.833	35958.79412
591.036	36153.61849
591.239	36549.58671
591.442	36533.1689
591.645	36705.57661
591.848	36912.93826
592.051	36888.29761
592.254	36578.31888
592.457	36609.10474
592.66	36730.21006
592.863	37371.02829
593.066	36627.57696
593.269	37311.43571
593.472	37007.40326
593.675	37724.60475
593.878	37138.85748
594.081	37075.18072
594.284	37023.83346
594.486	37615.62959
594.689	37704.04171
594.892	37315.54534
595.095	38222.47691
595.298	37642.35731
595.5	37808.92147
595.703	38148.38259
595.906	37449.1246
596.109	37227.19469
596.311	37636.18926
596.514	37434.73762
596.717	37399.79935
596.92	38228.65193
597.122	37757.50724
597.325	37572.4568
597.528	37741.05574
597.73	38187.48655
597.933	37574.51257
598.136	37825.37507
598.338	37887.08067
598.541	37547.78816
598.743	37662.918
598.946	37440.90342
599.148	38039.31912
599.351	37745.16857
599.554	37432.68237
599.756	37782.18545
599.959	37856.22697
600.161	37839.7724
600.363	38368.63983
600.566	38296.58226
600.768	38304.81688
600.971	38059.89534
601.173	38212.18537
601.376	38352.16859
601.578	38105.16595
601.78	38218.36027
601.983	38280.11344
602.185	38282.17202
602.388	38086.64566
602.59	38265.70368
602.792	37930.27892
602.995	38179.25389
603.197	38230.71029
603.399	38724.96872
603.601	38084.5879
603.804	38461.30095
604.006	38535.44268
604.208	38187.48655
604.41	38080.47239
604.613	38568.39826
604.815	38026.97378
605.017	38516.90617
605.219	38514.84661
605.421	38434.53036
605.623	38348.05087
605.826	38729.0897
606.028	38335.69791
606.23	38803.27367
606.432	38836.24816
606.634	39620.11282
606.836	38692.00217
607.038	39145.50086
607.24	38547.80076
607.442	38935.18592
607.644	39203.25182
607.846	39093.94389
608.048	38922.81752
608.25	38539.56201
608.452	38372.75773
608.654	39327.02962
608.856	39308.4607
609.058	39131.0643
609.26	39364.16985
609.462	38706.42475
609.664	39256.88454
609.866	38502.48938
610.067	39054.76461
610.269	39380.67766
610.471	38560.15915
610.673	39040.331
610.875	38931.06308
611.077	39197.06386
611.278	39213.5653
611.48	38704.36435
611.682	38724.96872
611.884	38999.0947
612.085	38805.33451
612.287	39225.94179
612.489	38762.05889
612.69	38974.35474
612.892	38844.49216
613.094	39083.63322
613.295	38383.05262
613.497	39038.2691
613.699	38918.6948
613.9	39048.57872
614.102	39306.39753
614.304	39409.56784
614.505	39653.14905
614.707	39372.42368
614.908	38953.73915
615.11	38836.24816
615.311	39291.95566
615.513	39298.14497
615.714	39314.65025
615.916	39199.1265
616.117	39001.15643
616.319	38908.38815
616.52	38753.81637
616.722	38856.85842
616.923	38479.83531
617.124	37963.19429
617.326	38173.07947
617.527	39240.38146
617.729	39159.93789
617.93	38469.53835
618.131	38795.03042
618.333	39151.6881
618.534	39075.38486
618.735	38964.04683
618.937	39071.26073
619.138	38819.76062
619.339	38570.45806
619.54	39277.51427
619.742	39562.30569
619.943	39042.39292
620.144	38935.18592
620.345	39547.85515
620.546	39318.77666
620.748	39465.29014
620.949	38644.61683
621.15	39556.11254
621.351	38914.57211
621.552	39157.87543
621.753	38739.39232
621.954	39341.47266
622.155	38869.22503
622.356	39597.40192
622.558	39102.19261
622.759	39254.82162
622.96	39382.74118
623.161	39050.64067
623.362	39407.50419
623.563	39353.8528
623.764	38900.143
623.965	39349.72605
624.166	39405.44055
624.366	38778.54436
624.567	39298.14497
624.768	39630.43636
624.969	39209.43988
625.17	40008.4562
625.371	39211.50258
625.572	39952.6607
625.773	39572.62781
625.973	39580.88568
626.174	39329.09288
626.375	39514.82721
626.576	39314.65025
626.777	39465.29014
626.977	39403.37692
627.178	39197.06386
627.379	38848.61421
627.58	39197.06386
627.78	39060.95058
627.981	39258.94747
628.182	39463.22622
628.382	39353.8528
628.583	39333.21943
628.784	39147.56326
628.984	39211.50258
629.185	39541.66222
629.386	39228.00457
629.586	40105.60025
629.787	39799.77912
629.987	39816.30409
630.188	39942.32905
630.388	39667.60323
630.589	39587.0792
630.79	40149.0127
630.99	39927.86518
631.191	40198.63276
631.391	39708.90365
631.591	39814.23844
631.792	39372.42368
631.992	39684.1229
632.193	39446.71523
632.393	39300.2081
632.594	39360.043
632.794	39692.38299
632.994	39471.48196
633.195	39675.86299
633.395	39973.3248
633.595	39694.44804
633.796	39735.75114
633.996	39822.50113
634.196	39615.98347
634.397	40047.72435
634.597	39679.99292
634.797	39892.74079
634.997	39888.60871
635.198	39640.76016
635.398	39386.86825
635.598	40175.88945
635.798	40047.72435
635.998	39669.66815
636.199	39952.6607
636.399	40430.27623
636.599	40180.0245
636.799	40506.83176
636.999	39748.14287
637.199	40124.205
637.399	39636.63061
637.599	40227.58068
637.799	39543.72652
637.999	39927.86518
638.199	39931.99766
638.399	40273.07459
638.599	40177.95697
638.799	40513.03964
638.999	40091.13048
639.199	40198.63276
639.399	40163.48457
639.599	40215.17417
639.799	39380.67766
639.999	39952.6607
640.199	40072.52728
640.399	40206.90338
640.599	38879.53078
640.799	40264.80257
640.998	40024.98969
641.198	40095.26465
641.398	40062.19254
641.598	40554.42805
641.798	40370.28388
641.997	40266.87056
642.197	39419.88624
642.397	40370.28388
642.597	40703.46365
642.796	40395.10717
642.996	39849.35604
643.196	40111.80173
643.395	40041.52386
643.595	40159.34969
643.795	40138.67597
643.994	40223.44513
644.194	40217.24189
644.394	40717.95636
644.593	40575.12393
644.793	40856.70065
644.992	40399.24454
645.192	40628.93852
645.392	40666.19925
645.591	40339.257
645.791	40380.62672
645.99	40664.12911
646.19	40682.76075
646.389	40492.34711
646.589	40527.52507
646.788	40564.77585
646.987	40084.92932
647.187	41051.44429
647.386	40527.52507
647.586	40831.84714
647.785	41254.58528
647.984	41466.13937
648.184	41007.9288
648.383	40477.86301
648.582	40467.51756
648.782	40794.56997
648.981	40898.12687
649.18	40842.20257
649.38	41248.36499
649.579	41526.31003
649.778	41173.72984
649.977	41775.40132
650.177	40825.63402
650.376	40413.72568
650.575	40151.08007
650.774	40091.13048
650.973	40430.27623
651.173	40339.257
651.372	40521.31696
651.571	40726.23816
651.77	40804.92437
651.969	41088.7474
652.168	40968.56209
652.367	41345.82858
652.566	41024.50552
652.765	41169.5839
652.964	41113.61826
653.163	41076.31261
653.362	40471.6557
653.561	40500.62399
653.76	40732.44963
653.959	40368.21534
654.158	40850.48712
654.357	40819.421
654.556	40920.91327
654.755	41632.15224
654.954	40790.4283
655.153	40844.27369
655.352	40794.56997
655.551	40966.49027
655.749	41244.21819
655.948	41010.00085
656.147	41039.01077
656.346	41316.79411
656.545	41244.21819
656.743	40539.94159
656.942	40970.63391
657.141	40579.26325
657.34	40659.98887
657.538	40568.91505
657.737	40614.44923
657.936	41063.87824
658.135	40738.6612
658.333	41065.95061
658.532	40864.98553
658.731	40753.15526
658.929	40403.38195
659.128	40877.41318
659.326	40974.7776
659.525	41881.31892
659.724	41237.99808
659.922	40908.48415
660.121	41150.92773
660.319	41001.71272
660.518	41208.9723
660.716	41493.11116
660.915	41461.99005
661.113	41810.7036
661.312	41159.21924
661.51	41231.77807
661.709	41242.14481
661.907	41107.40039
662.105	41389.3847
662.304	41341.68065
662.502	40610.30953
662.701	40966.49027
662.899	40604.10007
663.097	40925.0564
663.296	41190.3141
663.494	40821.492
663.692	40802.85347
663.891	41524.23501
664.089	41126.05432
664.287	41022.43339
664.485	40717.95636
664.684	41165.438
664.882	40705.534
665.08	41138.49081
665.278	41410.12757
665.476	41065.95061
665.675	41173.72984
665.873	40931.27118
666.071	40838.06036
666.269	41010.00085
666.467	40840.13146
666.665	40881.55583
666.863	40444.75854
667.061	40310.30081
667.259	40925.0564
667.457	40608.2397
667.655	40585.4723
667.853	40488.20874
668.051	40653.7786
668.249	40250.32697
668.447	40570.98467
668.645	40471.6557
668.843	40436.48287
669.041	40196.56513
669.239	40033.25669
669.437	39246.57004
669.635	40008.4562
669.833	39940.26275
670.031	39492.122
670.229	39824.56683
670.426	39996.05653
670.624	40024.98969
670.822	40058.05872
671.02	40796.64083
671.218	40297.89167
671.415	40237.91974
671.613	40064.25946
671.811	40339.257
672.009	39774.99291
672.206	39993.98996
672.404	39892.74079
672.602	40339.257
672.799	40498.55475
672.997	41385.23627
673.195	40599.96049
673.392	40691.04177
673.59	40639.28835
673.788	40208.97106
673.985	39651.08421
674.183	40393.0385
674.38	39996.05653
674.578	40225.5129
674.775	40163.48457
674.973	40442.6896
675.17	40029.12317
675.368	40486.13957
675.565	40242.05544
675.763	40552.35852
675.96	40043.59068
676.158	39985.72377
676.355	39960.92621
676.553	40713.81553
676.75	39810.10715
676.947	39989.85684
677.145	39320.83989
677.342	39504.50651
677.539	39779.12384
677.737	39768.79659
677.934	39543.72652
678.131	39907.20341
678.329	39998.12312
678.526	40233.78408
678.723	39927.86518
678.92	40153.14746
679.118	39580.88568
679.315	39593.2728
679.512	39407.50419
679.709	40202.76804
679.906	39444.6514
680.104	39508.63476
680.301	39661.40852
680.498	39120.75277
680.695	39192.9386
680.892	39702.70833
681.089	39824.56683
681.286	39296.08186
681.483	39007.34166
681.68	39593.2728
681.877	39100.13041
682.075	38640.49659
682.272	38576.63752
682.469	39465.29014
682.665	38860.98059
682.862	38681.7006
683.059	38265.70368
683.256	38300.69955
683.453	38595.17636
683.65	39195.00122
683.847	38972.29314
684.044	38782.66582
684.241	38823.88245
684.438	38799.15203
684.635	38768.24087
684.831	39263.07336
685.028	38830.06527
685.225	39071.26073
685.422	38549.86047
685.619	38496.31089
685.815	38628.1361
686.012	39046.51678
686.209	38562.21892
686.405	38836.24816
686.602	38446.88583
686.799	38175.1376
686.996	38749.69517
687.192	38790.90885
687.389	38391.28869
687.586	38360.40414
687.782	38212.18537
687.979	38479.83531
688.175	37979.65275
688.372	37940.56475
688.568	37938.50757
688.765	37494.34322
688.962	37940.56475
689.158	37790.41177
689.355	38199.83581
689.551	38084.5879
689.748	37784.24202
689.944	37609.46184
690.14	38160.73088
690.337	38259.5282
690.533	38216.30196
690.73	37983.76745
690.926	38463.36029
691.123	37922.05041
691.319	37959.07975
691.515	37905.59377
691.712	37432.68237
691.908	37169.67127
692.104	37488.17683
692.301	37294.99747
692.497	37136.80328
692.693	37769.8462
692.889	37767.78969
693.086	38226.59358
693.282	37913.82202
693.478	37996.11175
693.674	37533.39863
693.87	37755.45078
694.067	37619.74146
694.263	37475.84425
694.459	37399.79935
694.655	36943.74045
694.851	37101.88305
695.047	37173.7799
695.243	37556.01092
695.439	37377.19339
695.635	36980.70514
695.831	36878.03097
696.027	37056.6952
696.224	36779.47982
696.42	36500.3345
696.615	37161.4541
696.811	36672.7335
697.007	36621.41949
697.203	36607.0523
697.399	36582.42357
697.595	36541.37775
697.791	36340.2899
697.987	36053.12358
698.183	36457.24181
698.379	36282.8472
698.575	36888.29761
698.77	36631.68197
698.966	36551.63897
699.162	37032.04872
699.358	37251.84933
699.554	37192.26909
699.749	36535.2211
699.945	36654.25999
700.141	36161.82278
700.337	36307.46491
700.532	36428.5149
700.728	36756.89737
700.924	36434.67057
701.119	36754.84446
701.315	35811.17211
701.511	35288.56821
701.706	36044.92053
701.902	36139.26121
702.097	35938.28931
702.293	36145.41429
702.489	36477.76179
702.684	36034.66685
702.88	35649.23086
703.075	35882.92918
703.271	35815.27233
703.466	36502.3866
703.662	36001.85606
703.857	35628.73436
704.053	36071.58077
704.248	36438.77437
704.443	37138.85748
704.639	35995.7042
704.834	36250.02494
705.03	35823.47284
705.225	36110.54751
705.42	35653.33022
705.616	35604.13927
705.811	35192.28116
706.006	35411.50365
706.202	35501.66783
706.397	35669.72789
706.592	35723.02268
706.787	35317.25154
706.983	35807.07191
707.178	36266.43588
707.373	35688.17567
707.568	35663.57872
707.763	34715.09528
707.959	35223.0099
708.154	35466.8305
708.349	35290.61699
708.544	35638.98255
708.739	35319.30039
708.934	35065.28039
709.129	35079.61828
709.324	34833.85694
709.519	35196.37826
709.714	34641.38841
709.909	35059.13565
710.104	34659.81462
710.299	34442.81615
710.494	34332.28716
710.689	35208.66969
710.884	35069.37691
711.079	35380.7681
711.274	35532.4079
711.469	35419.69998
711.664	35003.83487
711.859	35024.31625
712.054	34721.23777
712.249	34725.33278
712.443	34596.34801
712.638	34885.05186
712.833	34213.58343
713.028	34973.11366
713.223	34862.52576
713.417	35055.03918
713.612	35077.56999
713.807	35212.76687
714.002	35093.9564
714.196	35794.77145
714.391	35579.54493
714.586	35612.33755
714.78	34962.87349
714.975	35145.16584
715.17	35343.88694
715.364	35403.30739
715.559	35075.52171
715.754	34459.1918
715.948	34561.54544
716.143	34872.76483
716.337	34129.67982
716.532	34979.25782
716.726	34688.47828
716.921	35071.42517
717.115	34539.02677
717.31	34584.06462
717.504	34455.09786
717.699	34561.54544
717.893	34735.57039
718.088	34277.02693
718.282	34438.72228
718.476	34389.59706
718.671	33861.63826
718.865	33908.69463
719.059	33640.70169
719.254	33648.88385
719.448	33006.73188
719.642	33532.29295
719.837	33213.25277
720.031	33104.87693
720.225	33372.76383
720.419	33753.21086
720.614	33671.38503
720.808	33460.70708
721.002	33176.445
721.196	33438.20944
721.39	33301.18617
721.585	33252.1064
721.779	33497.5222
721.973	33820.72115
722.167	33348.22251
722.361	33190.75902
722.555	33076.25065
722.749	33051.71426
722.943	33106.92168
723.137	32653.05041
723.331	32336.22919
723.525	32285.134
723.719	32123.68187
723.913	32227.90898
724.107	32156.38
724.301	32550.84401
724.495	32978.10741
724.689	33053.75894
724.883	32595.8141
725.077	32640.78533
725.271	32399.5891
725.465	32368.93082
725.659	32687.80194
725.853	32824.77071
726.046	32990.37498
726.24	32342.3607
726.434	32001.06848
726.628	32146.16178
726.822	32107.333
727.015	32830.9039
727.209	32319.87858
727.403	32550.84401
727.596	33153.95181
727.79	33155.99663
727.984	33297.09612
728.177	33742.98234
728.371	33145.77255
728.565	32571.28482
728.758	32348.49224
728.952	32626.47618
729.146	32438.42364
729.339	32877.9258
729.533	32311.70333
729.726	32043.98236
729.92	31866.20185
730.113	32403.67691
730.307	32601.94647
730.5	32675.53661
730.694	32736.86411
730.887	32965.83994
731.081	32926.99356
731.274	32710.28859
731.468	32099.15862
731.661	32808.41565
731.854	32818.63754
732.048	32808.41565
732.241	32013.3295
732.435	32121.63826
732.628	31960.19892
732.821	31862.11511
733.014	32364.84308
733.208	31927.50383
733.401	32462.95114
733.594	32589.68175
733.788	32606.03473
733.981	32514.05113
734.174	33041.49088
734.367	32726.64271
734.56	32274.91513
734.754	32430.24788
734.947	32583.54942
735.14	32618.29957
735.333	32477.25899
735.526	32172.72925
735.719	31902.98283
735.912	31719.08388
736.105	31776.2953
736.298	32197.25339
736.491	31831.4648
736.684	31759.94904
736.877	32162.51095
737.07	31902.98283
737.263	32201.34077
737.456	31996.98149
737.649	31913.19988
737.842	32131.85635
738.035	31768.12216
738.228	31753.81922
738.421	32170.68559
738.614	32483.39096
738.807	32160.4673
739	31543.37174
739.192	31271.65525
739.385	31704.78125
739.578	31661.87386
739.771	31296.16986
739.964	31518.85478
740.156	32270.82759
740.349	31623.05356
740.542	31565.84584
740.735	31907.06965
740.927	31819.2048
741.12	31537.24248
741.313	31731.34335
741.505	31915.2433
741.698	31181.77026
741.891	31061.24725
742.083	31721.12712
742.276	31974.50318
742.468	31381.97278
742.661	30893.74911
742.854	30646.60426
743.046	30622.09509
743.239	30995.88098
743.431	30985.66763
743.624	31322.72761
743.816	31210.36971
744.009	31549.50102
744.201	31002.009
744.393	31484.12282
744.586	30889.66391
744.778	30654.77403
744.971	30987.7103
745.163	30769.15296
745.355	30477.0863
745.548	30301.45029
745.74	30763.02541
745.932	30869.23799
746.125	30638.43452
746.317	30920.30306
746.509	30632.30723
746.702	30718.09042
746.894	30532.22973
747.086	30201.38262
747.278	30754.85536
747.471	30509.76378
747.663	30861.06766
747.855	30834.51424
748.047	30332.08383
748.239	30967.2837
748.431	30852.89735
748.623	30397.43629
748.815	30082.93883
749.008	30319.83038
749.2	30178.91884
749.392	30087.02304
749.584	30011.46601
749.776	30777.32304
749.968	30352.50634
750.16	30462.79001
750.352	30434.1976
750.544	29864.44058
750.736	29915.49042
750.928	30060.4758
751.12	30109.48624
751.311	29811.34948
751.503	30033.92875
751.695	30303.49252
751.887	29711.2952
752.079	30211.59348
752.271	29198.81256
752.463	29255.97866
752.654	29596.95064
752.846	29292.72872
753.038	29204.93746
753.23	29558.15593
753.421	29686.79251
753.613	29378.48018
753.805	29676.5831
753.997	29241.68706
754.188	29196.77093
754.38	28819.08707
754.572	29059.98402
754.763	28663.94076
754.955	28988.53003
755.146	29243.72871
755.338	29086.5244
755.53	28900.74543
755.721	28868.08189
755.913	29211.06237
756.104	29309.06219
756.296	29388.68881
756.487	28874.20628
756.679	29068.15028
756.87	28841.54295
757.062	28565.95674
757.253	28659.85804
757.445	28437.3564
757.636	28641.48587
757.827	28310.80147
758.019	28563.91543
758.21	28431.23268
758.401	28114.8537
758.593	28304.67795
758.784	27949.53073
758.975	28223.03195
759.167	28257.73129
759.358	28698.64401
759.549	28527.17206
759.74	28114.8537
759.932	28127.10014
760.123	27839.31956
760.314	27914.83425
760.505	27692.37662
760.696	27535.23617
760.888	28027.08873
761.079	27808.70594
761.27	27812.78774
761.461	27669.92754
761.652	27814.82864
761.843	27498.50309
762.034	27474.01459
762.225	27465.8518
762.416	27641.3562
762.607	27782.17435
762.798	27708.70331
762.989	27743.39778
763.18	27520.95104
763.371	27080.18334
763.562	27263.82915
763.753	27120.99258
763.944	27329.12802
764.135	27025.09173
764.326	27596.45886
764.517	27529.11396
764.708	27461.77041
764.899	26694.5638
765.089	27086.30469
765.28	26927.1536
765.471	26700.68434
765.662	26872.06484
765.853	26921.03258
766.043	26378.35487
766.234	26602.75736
766.425	26472.19357
766.615	26712.92546
766.806	26959.79929
766.997	26366.11529
767.187	26084.62159
767.378	26423.23382
767.569	25915.33337
767.759	26294.71893
767.95	26402.8342
768.141	26100.93918
768.331	26517.07415
768.522	25756.25472
768.712	26276.36019
768.903	26470.15357
769.093	26082.5819
769.284	25629.81585
769.474	25674.6804
769.665	25374.92201
769.855	25848.02948
770.046	25711.38847
770.236	25538.05042
770.426	25474.83661
770.617	25790.92474
770.807	25795.0036
770.998	25690.99502
771.188	25458.52368
771.378	25531.93287
771.569	25334.14198
771.759	25115.98338
771.949	25138.40975
772.139	25138.40975
772.33	24859.11912
772.52	25189.37976
772.71	25409.58569
772.9	25332.103
773.09	25213.84585
773.281	25217.92356
773.471	25228.11788
773.661	25007.93288
773.851	25030.35793
774.041	25128.21591
774.231	25264.81787
774.421	24977.3537
774.611	25020.16469
774.802	24714.39452
774.992	24728.66261
775.182	24769.42921
775.372	24708.27967
775.562	24797.96641
775.752	24802.04319
775.942	24178.41211
776.131	24559.49167
776.321	24166.1865
776.511	24490.19771
776.701	24339.39173
776.891	24296.59805
777.081	24306.78692
777.271	24329.20265
777.461	24314.93806
777.651	24172.29929
777.84	23632.43402
778.03	23542.81599
778.22	23740.39076
778.41	23550.96284
778.599	23699.65138
778.789	24182.48734
778.979	24251.76784
779.169	24155.99857
779.358	23944.10525
779.548	24316.97585
779.738	24135.6229
779.927	23982.81426
780.117	23986.88895
780.307	23772.98311
780.496	23760.76089
780.686	23817.79883
780.875	23294.36097
781.065	23693.54057
781.254	22944.16138
781.444	23168.11506
781.633	23424.69222
781.823	23355.45213
782.012	23740.39076
782.202	23730.2058
782.391	23310.65167
782.581	23033.73803
782.77	22819.98639
782.96	22828.12862
783.149	22266.4466
783.338	22453.64368
783.528	22510.62279
783.717	22575.74521
783.906	22897.33982
784.096	22252.20461
784.285	22571.67495
784.474	22958.41178
784.663	22844.41325
784.853	22799.63105
785.042	22826.09306
785.231	22948.23291
785.42	22587.95607
785.61	22307.13898
785.799	22600.16706
785.988	22174.89412
786.177	21794.52432
786.366	22117.93193
786.555	22313.24297
786.744	22089.45194
786.933	22150.4814
787.122	22834.23533
787.312	22384.45856
787.501	22254.23917
787.69	21973.50532
787.879	21908.41788
788.068	21853.50341
788.257	21646.07417
788.445	21802.65917
788.634	21568.807
788.823	21265.89368
789.012	21554.57419
789.201	21168.32986
789.39	21263.86101
789.579	21101.26017
789.768	21576.94012
789.957	21426.48769
790.145	21810.79409
790.334	21678.60941
790.523	21552.54095
790.712	21314.67908
790.9	21412.25683
791.089	21255.73035
791.278	21387.86153
791.467	21552.54095
791.655	21475.28069
791.844	21314.67908
792.033	20910.23755
792.221	20457.21304
792.41	20802.54934
792.599	20408.46941
792.787	20975.26246
792.976	20477.5236
793.164	20869.59913
793.353	20981.35876
793.541	20550.64509
793.73	20881.79048
793.918	20780.20041
794.107	20621.74061
794.295	20863.50351
794.484	21048.4205
794.672	20782.23211
794.861	20867.56725
795.049	20822.86698
795.238	20380.03673
795.426	20566.89504
795.614	20345.51245
795.803	20404.40755
795.991	20440.9649
796.179	20243.97747
796.368	20114.02804
796.556	20652.21168
796.744	19947.5555
796.932	20203.36642
797.121	19754.72632
797.309	20122.14937
797.497	20211.4885
797.685	19996.27624
797.874	20016.57727
798.062	19785.17051
798.25	19622.81238
798.438	20150.57458
798.626	20150.57458
798.814	19862.30003
799.002	19736.46026
799.19	19667.45819
799.378	20026.72794
799.566	19809.52655
799.755	19576.13937
799.943	19951.61547
800.131	19649.19375
800.318	20089.66444
800.506	19464.53894
800.694	19683.69354
800.882	20097.78557
801.07	20142.453
801.258	19864.32984
801.446	19886.65798
801.634	19813.58595
801.822	19947.5555
802.01	19957.70546
802.197	20288.65157
802.385	19896.8073
802.573	19959.73546
802.761	20097.78557
802.949	19801.4078
803.136	19732.40118
803.324	19955.67546
803.512	19915.07635
803.699	19714.13553
803.887	19732.40118
804.075	19978.00568
804.262	20128.24042
804.45	19971.91557
804.638	20150.57458
804.825	20237.88571
805.013	19957.70546
805.201	19949.58548
805.388	19632.95897
805.576	19775.02234
805.763	19312.37679
805.951	19756.7559
806.138	19663.3994
806.326	20120.11903
806.513	19596.43171
806.701	19509.1776
806.888	19697.89968
807.075	19622.81238
807.263	19521.35213
807.45	19675.57583
807.638	19547.73079
807.825	20000.33641
808.012	19637.01764
808.2	19586.28549
808.387	19902.89695
808.574	19894.77743
808.761	19679.63468
808.949	19797.34846
809.136	19563.96416
809.323	19685.72297
809.51	19647.16439
809.698	19545.70164
809.885	19288.033
810.072	19768.93349
810.259	19710.07654
810.446	20132.30114
810.633	19821.70479
810.82	20004.3966
811.008	19850.12128
811.195	20201.33592
811.382	19848.09151
811.569	19787.20016
811.756	19509.1776
811.943	19797.34846
812.13	19728.34212
812.317	19639.04698
812.504	19882.59828
812.691	20315.05085
812.878	20093.72499
813.064	20022.66766
813.251	19754.72632
813.438	19653.25249
813.625	19513.23576
813.812	19363.09492
813.999	19409.75788
814.186	19306.29079
814.372	19148.06772
814.559	19273.83273
814.746	19079.10649
814.933	18760.72842
815.12	18959.44961
815.306	19028.4027
815.493	19034.48702
815.68	19492.94513
815.866	18894.55683
816.053	19202.83442
816.24	19164.29458
816.426	19578.16858
816.613	19328.60631
816.799	19460.48098
816.986	19048.68391
817.173	19137.92607
817.359	18740.4529
817.546	18910.77964
817.732	19097.36047
817.919	19336.72117
818.105	19283.97576
818.292	19523.38123
818.478	19565.99335
818.665	19525.41034
818.851	19369.18127
819.037	19354.97984
819.224	19042.5995
819.41	18920.91903
819.597	18628.94456
819.783	19129.81282
819.969	19200.80597
820.156	19099.38871
820.342	19117.64307
820.528	18872.25089
820.714	19004.06578
820.901	18841.83448
821.087	18803.30831
821.273	19111.55825
821.459	18874.27868
821.646	19006.09383
821.832	18651.24528
822.018	18827.64046
822.204	18016.86825
822.39	18292.46303
822.576	18138.44586
822.762	18468.79865
822.948	18253.95674
823.134	18268.14311
823.32	18006.73736
823.507	18643.13587
823.693	18347.18482
823.879	18647.19057
824.065	18783.03195
824.25	18606.64431
824.436	18288.40967
824.622	18353.26519
824.808	18689.76582
824.994	18854.00094
825.18	18280.303
825.366	18819.52968
825.552	18126.28752
825.738	18448.52873
825.923	18047.26144
826.109	18578.26286
826.295	18509.33964
826.481	18661.38213
826.667	18663.40951
826.852	18701.93049
827.038	18689.76582
827.224	18432.31306
827.409	18049.28768
827.595	18203.2926
827.781	17937.84969
827.966	18067.52401
828.152	17245.1363
828.338	17601.57298
828.523	17239.06149
828.709	17401.06555
828.894	17403.09073
829.08	17490.17613
829.266	17433.4687
829.451	17295.76073
829.637	17346.38702
829.822	17243.11136
830.008	17546.88604
830.193	17597.52201
830.378	17453.72107
830.564	17522.58149
830.749	17127.69463
830.935	17394.99005
831.12	16900.9372
831.305	17471.94847
831.491	17062.90332
831.676	17131.74419
831.861	17273.48575
832.047	17198.56344
832.232	17040.63196
832.417	17133.76897
832.602	16852.35064
832.788	17342.33685
832.973	17550.93684
833.158	17342.33685
833.343	16925.23104
833.528	17184.3894
833.714	17192.48884
833.899	17095.29862
834.084	16597.29427
834.269	17154.01693
834.454	16704.57531
834.639	17164.14101
834.824	16785.54648
835.009	16779.47351
835.194	16809.83859
835.379	16884.74152
835.564	16686.35732
835.749	16939.40262
835.934	16526.45175
836.119	16560.86064
836.304	16214.77417
836.489	16623.6079
836.674	16405.01344
836.859	16445.49206
837.044	16299.77268
837.228	16641.82524
837.413	16281.55845
837.598	16311.91559
837.783	15929.44293
837.968	16184.4183
838.152	15860.64384
838.337	15824.22135
838.522	15777.68204
838.707	15854.5734
838.891	15741.26037
839.076	15743.28379
839.261	15890.9962
839.445	15903.13722
839.63	15702.81562
839.815	16099.42385
839.999	16065.02212
840.184	16322.03473
840.368	16609.43897
840.553	16283.58225
840.737	15931.46645
840.922	15828.26828
841.106	15923.37236
841.291	15870.76126
841.475	15589.50668
841.66	15470.13016
841.844	15233.4054
842.029	15225.31231
842.213	15241.49849
842.397	15231.38212
842.582	15253.63813
842.766	15506.54988
842.951	15152.47455
843.135	15350.75555
843.319	15476.2001
843.504	15462.03691
843.688	15194.96323
843.872	15089.75314
844.056	15077.61349
844.241	15130.21857
844.425	14970.37965
844.609	15203.05632
844.793	14927.89051
844.977	14877.30794
845.161	14895.51771
845.346	15192.93996
845.53	14944.07687
845.714	14964.30978
845.898	14721.51118
846.082	14952.17004
846.266	15031.07814
846.45	14954.19333
846.634	15158.54436
846.818	14980.49609
847.002	14996.68236
847.186	15122.12549
847.37	14988.58923
847.554	15097.84623
847.738	14988.58923
847.922	15140.33493
848.106	15053.33419
848.29	14774.11836
848.473	14565.70927
848.657	14462.51201
848.841	14482.74704
849.025	14330.98068
849.209	14264.20056
849.392	14594.03736
849.576	13835.13344
849.76	14515.1228
849.944	14041.58461
850.127	14438.22979
850.311	14003.13004
850.495	14245.98745
850.678	14318.83898
850.862	14458.46499
851.046	14227.77419
851.229	14053.72798
851.413	13812.86741
851.596	14239.91638
851.78	13974.79453
851.964	13873.59213
852.147	13697.4831
852.331	13638.77487
852.514	13543.62102
852.698	13300.63779
852.881	13136.59033
853.065	13418.08671
853.248	13134.56487
853.431	13144.69213
853.615	13407.96233
853.798	13385.68836
853.982	13227.7314
854.165	13464.65757
854.348	13199.37738
854.532	13630.67697
854.715	13162.92092
854.898	13495.0288
855.081	13085.95236
855.265	13326.96375
855.448	13124.43749
855.631	13266.21047
855.814	12784.08494
855.997	13146.71757
856.181	12994.79641
856.364	12824.61091
856.547	12992.77061
856.73	13037.33709
856.913	12940.09797
857.096	13252.03415
857.279	12828.66338
857.462	12956.3053
857.645	12885.39574
857.828	12650.33301
858.011	12544.93434
858.194	12705.05278
858.377	12579.39343
858.56	12587.50119
858.743	13043.41416
858.926	13006.95112
859.109	12654.38647
859.292	12733.42431
859.475	12348.27898
859.658	12747.60964
859.841	12498.31029
860.023	12405.05189
860.206	12039.98544
860.389	12072.44552
860.572	12039.98544
860.755	12133.30288
860.937	11889.83109
861.12	11893.8899
861.303	12068.38812
861.486	11958.8264
861.668	11877.65446
861.851	12177.92728
862.034	12125.18896
862.216	11891.8605
862.399	11465.49319
862.581	11646.24003
862.764	11483.77435
862.947	11934.47619
863.129	11847.21157
863.312	11899.97805
863.494	11609.69042
863.677	11853.3003
863.859	11674.66549
864.042	11924.32993
864.224	11554.86041
864.406	11329.37536
864.589	10983.79488
864.771	11233.86293
864.954	11215.57072
865.136	11142.39343
865.318	10892.26504
865.501	11211.50567
865.683	11008.199
865.865	10882.09363
866.048	10637.89185
866.23	10953.28747
866.412	10993.96346
866.594	11197.27768
866.777	11211.50567
866.959	11012.2662
867.141	11054.96911
867.323	11032.60152
867.505	11069.20234
867.687	11181.01648
867.869	10928.87972
868.052	11034.63499
868.234	11170.85289
868.416	11105.79963
868.598	10934.98181
868.78	10725.41723
868.962	10586.99459
869.144	10666.39095
869.326	10660.2842
869.508	10937.01582
869.69	10544.23487
869.872	10843.43967
870.054	10692.85227
870.236	10593.10267
870.417	10584.95853
870.599	10417.95928
870.781	10462.77239
870.963	10540.16223
871.145	10562.56114
871.327	10578.8503
871.508	10597.17466
871.69	10855.64663
871.872	10662.3198
872.054	10705.06449
872.235	10495.35983
872.417	10529.98041
872.599	10146.90701
872.78	10747.80386
872.962	10466.846
873.144	10599.21063
873.325	10362.95275
873.507	10580.88639
873.689	10422.03345
873.87	10552.38001
874.052	10346.65268
874.233	10491.28658
874.415	10352.76531
874.596	10405.73643
874.778	10377.21462
874.959	10124.47836
875.141	10197.87497
875.322	10586.99459
875.503	10320.16326
875.685	10523.87116
875.866	10377.21462
876.048	10615.498
876.229	10381.28932
876.41	10320.16326
876.592	10397.5876
876.773	10562.56114
876.954	9926.6243
877.136	10104.08722
877.317	9891.93485
877.498	10220.29815
877.679	10063.30071
877.86	10263.10145
878.042	10177.48882
878.223	10483.13992
878.404	10124.47836
878.585	10263.10145
878.766	10112.24384
878.947	10130.59544
879.128	10157.10129
879.309	10053.1032
879.49	10144.86811
879.672	10177.48882
879.853	10136.71238
880.034	10426.10758
880.215	10309.97442
880.396	10419.99637
880.576	10187.68207
880.757	10684.71054
880.938	10189.72068
881.119	10430.18165
881.3	10356.84033
881.481	10849.5432
881.662	10926.84567
881.843	11020.40046
882.023	10615.498
882.204	10776.29385
882.385	10295.70949
882.566	10236.60488
882.747	10417.95928
882.927	10367.02764
883.108	10067.37961
883.289	10556.4525
883.469	10055.14273
883.65	10440.36661
883.831	10318.12552
884.011	10218.25975
884.192	10511.65232
884.373	10717.27628
884.553	10405.73643
884.734	10350.72778
884.914	10481.10323
885.095	10462.77239
885.275	10289.59574
885.456	10605.31849
885.636	10709.13513
885.817	10668.42651
885.997	10332.38943
886.178	10375.17725
886.358	10183.60481
886.538	10432.21867
886.719	10324.2387
886.899	10442.40357
887.08	10242.71967
887.26	10474.99306
887.44	9944.98759
887.621	10454.62501
887.801	9914.38145
887.981	10114.28297
888.161	10322.20099
888.342	10006.19006
888.522	9861.32299
888.702	10344.61512
888.882	10248.83435
889.062	10354.80282
889.242	10130.59544
889.423	10104.08722
889.603	9924.58386
889.783	10136.71238
889.963	10063.30071
890.143	10375.17725
890.323	10367.02764
890.503	10517.7618
890.683	10316.08777
890.863	10656.21298
891.043	10511.65232
891.223	10782.39854
891.403	10576.8142
891.583	10662.3198
891.763	10405.73643
891.943	10479.06652
892.122	10238.64316
892.302	10529.98041
892.482	10591.06665
892.662	10529.98041
892.842	10222.33654
893.022	10462.77239
893.201	10116.32207
893.381	10422.03345
893.561	10338.50233
893.741	10324.2387
893.92	10197.87497
894.1	10289.59574
894.28	9875.60894
894.459	10191.75927
894.639	9751.09248
894.819	9953.14867
894.998	9834.79
895.178	10128.55643
895.357	9826.6255
895.537	10089.81258
895.716	10075.53725
895.896	10309.97442
896.075	9959.26933
896.255	9985.79068
896.434	10201.95204
896.614	10340.53994
896.793	9959.26933
896.973	10024.54827
897.152	9698.00281
897.331	10075.53725
897.511	9965.38986
897.69	10085.73399
897.87	9973.55036
898.049	9550.93072
898.228	9411.95401
898.407	9581.57742
898.587	9387.42096
898.766	9542.75767
898.945	9324.03298
899.124	9589.74928
899.304	9373.10893
899.483	9485.53916
899.662	9393.55444
899.841	9199.2552
900.02	9109.21251
900.199	9174.70138
900.378	8906.4938
900.557	9035.51646
900.737	8855.2748
900.916	9491.67031
901.095	9240.17282
901.274	9115.35284
901.453	9064.1787
901.632	9113.30608
901.811	8933.12326
901.989	9442.61703
902.168	9045.75336
902.347	9354.70656
902.526	8935.17156
902.705	8935.17156
902.884	8951.55729
903.063	9078.50855
903.242	9070.32017
903.42	9125.58637
903.599	9058.03708
903.778	8990.46887
903.957	9107.1657
904.135	9234.03561
904.314	8781.49967
904.493	8963.84585
904.672	8656.43779
904.85	8845.02965
905.029	8750.75308
905.207	8640.03114
905.386	8724.10271
905.565	8566.18641
905.743	8543.61788
905.922	8746.65323
906.1	8344.50467
906.279	8615.41892
906.457	8393.78664
906.636	8521.04707
906.814	8377.36056
906.993	8328.07486
907.171	8422.52931
907.35	8500.52616
907.528	8062.9699
907.707	8373.25384
907.885	8118.48443
908.063	8336.28992
908.242	8410.21148
908.42	8455.37346
908.598	8036.23544
908.777	8155.48598
908.955	8297.26561
909.133	8159.59686
909.311	8052.68782
909.49	8042.40524
909.668	7869.58154
909.846	8147.26397
910.024	8044.46179
910.202	8114.37274
910.38	7585.33859
910.559	7721.33085
910.737	7511.12187
910.915	7830.47033
911.093	7482.25229
911.271	7614.19316
911.449	7432.75173
911.627	7610.07134
911.805	7284.17488
911.983	7542.04888
912.161	7098.29336
912.339	7430.68894
912.517	7325.4576
912.695	7546.17212
912.872	7259.40103
913.05	7416.24877
913.228	7292.43213
913.406	7358.47746
913.584	7265.59479
913.762	7253.20707
913.939	6852.23855
914.117	7218.10423
914.295	7009.41961
914.473	7424.50043
914.65	6800.50562
914.828	7116.88961
915.006	7092.09421
915.184	7306.88146
915.361	6790.15733
915.539	6990.81287
915.716	6578.92701
915.894	6765.31909
916.072	6564.42202
916.249	6744.61804
916.427	6817.06171
916.604	6827.40852
916.782	6589.28701
916.959	6868.79009
917.137	6294.83706
917.314	6471.14862
917.492	6508.46361
917.669	6549.91591
917.847	6043.56071
918.024	6489.80706
918.201	6041.48261
918.379	6282.38516
918.556	6022.77867
918.733	6288.61122
918.911	5839.79513
919.088	5764.88557
919.265	5739.90892
919.442	5989.52252
919.62	5877.23844
919.797	6047.71683
919.974	5733.66422
920.151	6072.6516
920.328	5835.63429
920.506	6091.35045
920.683	5989.52252
920.86	5972.89218
921.037	5562.8937
921.214	5581.64455
921.391	5825.23178
921.568	6076.80707
921.745	5719.09245
921.922	5864.75819
922.099	5671.2056
922.276	5814.82867
922.453	5498.29282
922.63	5739.90892
922.807	5287.66225
922.984	5356.50847
923.161	5208.35323
923.338	5358.59432
923.514	5097.6818
923.691	5427.41423
923.868	5316.87286
924.045	5348.16484
924.222	5222.96532
924.399	5341.90686
924.575	4917.96328
924.752	5210.44074
924.929	4997.39483
925.105	5149.89345
925.282	4832.22367
925.459	5214.6157
925.635	4848.95637
925.812	5143.62882
925.989	5047.54498
926.165	5032.91922
926.342	4853.13931
926.518	4871.96144
926.695	4553.83046
926.871	4694.12345
927.048	4476.31242
927.224	4543.35682
927.401	4186.92769
927.577	4298.11678
927.754	4035.78342
927.93	4266.65426
928.107	4293.92206
928.283	4570.58713
928.459	4555.92512
928.636	4553.83046
928.812	4440.6859
928.988	4482.59879
929.165	4352.64035
929.341	4251.9701
929.517	4170.13925
929.693	4016.88282
929.87	3760.51298
930.046	3850.90677
930.222	3520.69212
930.398	3932.86008
930.574	3665.87628
930.751	3749.99972
930.927	3918.15276
931.103	4033.68344
931.279	3569.0967
931.455	4077.77878
931.631	3606.9717
931.807	3817.27612
931.983	3642.73696
932.159	3680.6001
932.335	3082.52374
932.511	3375.4208
932.687	3015.04986
932.863	3352.2538
933.039	3261.67183
933.215	3600.65962
933.391	3314.33962
933.566	3573.30533
933.742	3217.42273
933.918	3238.49465
934.094	2913.80987
934.27	3057.2229
934.445	2846.2978
934.621	3149.98151
934.797	2593.00351
934.973	2806.20565
935.148	2601.44962
935.324	2702.78745
935.5	2367.00202
935.675	2398.69197
935.851	2373.34019
936.027	2500.0838
936.202	2170.47615
936.378	2286.71078
936.553	2153.56714
936.729	2121.86137
936.904	1918.90636
937.08	2022.50568
937.255	1675.71732
937.431	1696.86621
937.606	1582.65925
937.782	1686.2918
937.957	1350.00508
938.133	1443.06686
938.308	1290.78516
938.483	1392.3057
938.659	1235.79675
938.834	1269.63557
939.009	1252.71607
939.185	1227.33715
939.36	1081.41849
939.535	1220.99249
939.71	920.72532
939.886	1106.79417
940.061	1096.22088
940.236	1064.50177
940.411	846.73576
940.586	937.63857
940.761	772.75693
940.937	1001.06731
941.112	831.93909
941.287	918.61119
941.462	749.50889
941.637	850.96346
941.812	664.98142
941.987	821.37031
942.162	643.8524
942.337	633.28834
942.512	616.38649
942.687	681.88549
942.862	529.77749
943.037	616.38649
943.212	563.57345
943.386	631.17557
943.561	388.29776
943.736	622.72459
943.911	529.77749
944.086	559.34876
944.26	460.08485
944.435	555.12413
944.61	495.98513
944.785	673.43336
944.959	512.88085
945.134	479.09034
945.309	428.41181
945.483	485.42577
945.658	445.30366
945.833	597.37286
946.007	483.31395
946.182	637.51393
946.357	548.78728
946.531	635.40113
946.706	616.38649
946.88	462.19651
947.055	512.88085
947.229	633.28834
947.404	466.41988
947.578	578.36028
947.752	563.57345
947.927	588.92269
948.101	686.11162
948.276	664.98142
948.45	578.36028
948.624	635.40113
948.799	631.17557
948.973	724.14881
949.147	618.49918
949.321	631.17557
949.496	557.23644
949.67	620.61188
949.844	555.12413
950.018	648.07811
950.193	508.65683
950.367	565.68581
950.541	521.32906
950.715	487.53762
950.889	403.07593
951.063	633.28834
951.237	597.37286
951.411	732.602
951.585	523.44114
951.759	620.61188
951.933	692.4509
952.107	673.43336
952.281	569.91058
952.455	660.75553
952.629	569.91058
952.803	741.05536
952.977	641.73957
953.151	724.14881
953.325	622.72459
953.499	732.602
953.672	563.57345
953.846	610.0485
954.02	546.67503
954.194	681.88549
954.368	618.49918
954.541	597.37286
954.715	565.68581
954.889	639.62674
955.062	574.1354
955.236	791.77895
955.41	582.5852
955.583	741.05536
955.757	555.12413
955.93	719.92228
956.104	681.88549
956.278	669.20737
956.451	504.43287
956.625	624.83732
956.798	626.95005
956.972	643.8524
957.145	529.77749
957.319	639.62674
957.492	557.23644
957.665	743.16873
957.839	529.77749
958.012	698.79028
958.185	605.82323
958.359	605.82323
958.532	574.1354
958.705	726.26209
958.879	648.07811
959.052	707.24295
959.225	593.14775
959.398	673.43336
959.572	548.78728
959.745	698.79028
959.918	561.4611
960.091	567.79819
960.264	580.47273
960.438	576.24783
960.611	498.09704
960.784	717.80903
960.957	584.69769
961.13	616.38649
961.303	656.52967
961.476	673.43336
961.649	703.0166
961.822	495.98513
961.995	567.79819
962.168	618.49918
962.341	487.53762
962.514	550.89955
962.686	405.18717
962.859	481.20214
963.032	443.19213
963.205	523.44114
963.378	413.63227
963.551	519.21698
963.723	487.53762
963.896	485.42577
964.069	398.85351
964.242	508.65683
964.414	559.34876
964.587	432.63468
964.76	483.31395
964.932	512.88085
965.105	422.07762
965.278	542.45056
965.45	521.32906
965.623	514.99288
965.795	470.64331
965.968	584.69769
966.14	487.53762
966.313	561.4611
966.485	582.5852
966.658	534.00179
966.83	470.64331
967.003	453.74996
967.175	352.41131
967.348	464.30819
967.52	474.86679
967.692	610.0485
967.865	405.18717
968.037	498.09704
968.209	405.18717
968.382	405.18717
968.554	381.9645
968.726	517.10492
968.898	470.64331
969.071	438.9691
969.243	352.41131
969.415	379.85345
969.587	274.323
969.759	314.41933
969.932	343.96815
970.104	504.43287
970.276	403.07593
970.448	348.18969
970.62	278.54336
970.792	394.63116
970.964	369.29844
971.136	430.52323
971.308	331.30395
971.48	305.97745
971.652	314.41933
971.824	379.85345
971.996	318.64038
972.168	314.41933
972.339	293.31517
972.511	407.29842
972.683	352.41131
972.855	369.29844
973.027	251.11241
973.199	352.41131
973.37	312.30883
973.542	405.18717
973.714	272.21286
973.886	400.96472
974.057	305.97745
974.229	301.75662
974.401	213.13647
974.572	360.85473
974.744	253.22237
974.915	291.20486
975.087	278.54336
975.259	280.65356
975.43	192.04149
975.602	308.08789
975.773	244.78265
975.945	305.97745
976.116	284.87402
976.288	343.96815
976.459	192.04149
976.63	208.91732
976.802	251.11241
976.973	149.85767
977.145	141.42191
977.316	189.93211
977.487	242.67277
977.659	251.11241
977.83	166.73021
978.001	183.60407
978.172	179.38548
978.344	185.7134
978.515	175.16697
978.686	240.56291
978.857	130.87769
979.028	154.07568
979.2	139.31302
979.371	223.68471
979.542	181.49477
979.713	185.7134
979.884	246.89255
980.055	215.24608
980.226	158.29377
980.397	267.99262
980.568	177.27622
980.739	230.01389
980.91	200.47924
981.081	253.22237
981.252	219.46535
981.423	185.7134
981.594	230.01389
981.765	141.42191
981.936	192.04149
982.106	151.96666
982.277	151.96666
982.448	217.35571
982.619	177.27622
982.79	139.31302
982.96	194.1509
983.131	187.82274
983.302	92.92297
983.472	263.77245
983.643	118.22533
983.814	179.38548
983.984	238.45306
984.155	164.62107
984.326	128.76891
984.496	137.20416
984.667	92.92297
984.837	253.22237
985.008	213.13647
985.178	234.23344
985.349	84.48956
985.519	170.94855
985.69	151.96666
985.86	200.47924
986.031	137.20416
986.201	118.22533
986.371	162.51195
986.542	143.53082
986.712	23.35822
986.882	135.09531
987.053	69.73195
987.223	141.42191
987.393	99.24826
987.563	99.24826
987.734	132.98649
987.904	105.57375
988.074	86.59788
988.244	82.38126
988.414	124.55141
988.585	90.81458
988.755	124.55141
988.925	92.92297
989.095	71.84011
989.265	175.16697
989.435	179.38548
989.605	124.55141
989.775	90.81458
989.945	99.24826
990.115	101.35674
990.285	29.68125
990.455	78.16474
990.625	116.11668
990.795	50.75953
990.965	158.29377
991.134	101.35674
991.304	145.63975
991.474	82.38126
991.644	95.03138
991.814	156.18471
991.984	141.42191
992.153	137.20416
992.323	73.9483
992.493	116.11668
992.662	149.85767
992.832	84.48956
993.002	90.81458
993.171	14.92785
993.341	33.89672
993.511	63.4076
993.68	14.92785
993.85	84.48956
994.019	103.46523
994.189	99.24826
994.358	130.87769
994.528	76.05651
994.697	44.4358
994.867	40.22009
995.036	6.49786
995.206	40.22009
995.375	65.5157
995.544	124.55141
995.714	90.81458
995.883	65.5157
996.052	52.86748
996.222	132.98649
996.391	126.66015
996.56	109.79086
996.73	6.49786
996.899	63.4076
997.068	105.57375
997.237	57.08346
997.406	95.03138
997.576	73.9483
997.745	86.59788
997.914	82.38126
998.083	116.11668
998.252	116.11668
998.421	63.4076
998.59	67.62381
998.759	2.283
998.928	33.89672
999.097	33.89672
999.266	65.5157
999.435	50.75953
999.604	19.14299
999.773	73.9483
999.942	40.22009
1000.111	59.19149
1000.28	-18.7898
1000.448	17.0354
1000.617	8.60532
1000.786	50.75953
1000.955	78.16474
1001.124	23.35822
1001.292	59.19149
1001.461	95.03138
1001.63	73.9483
1001.798	42.32793
1001.967	111.89944
1002.136	23.35822
1002.304	69.73195
1002.473	-4.03909
1002.642	10.7128
1002.81	65.5157
1002.979	48.65159
1003.147	82.38126
1003.316	6.49786
1003.484	48.65159
1003.653	95.03138
1003.821	50.75953
1003.99	-27.21824
1004.158	31.78897
1004.327	40.22009
1004.495	84.48956
1004.663	-10.36097
1004.832	14.92785
1005	17.0354
1005.168	46.54368
1005.337	-14.57544
1005.505	50.75953
1005.673	48.65159
1005.842	40.22009
1006.01	40.22009
1006.178	73.9483
1006.346	67.62381
1006.514	50.75953
1006.683	40.22009
1006.851	27.57355
1007.019	31.78897
1007.187	65.5157
1007.355	-6.14641
1007.523	4.39042
1007.691	90.81458
1007.859	40.22009
1008.027	95.03138
1008.195	-10.36097
1008.363	52.86748
1008.531	-6.14641
1008.699	-10.36097
1008.867	107.68229
1009.035	57.08346
1009.203	50.75953
1009.37	2.283
1009.538	52.86748
1009.706	59.19149
1009.874	76.05651
1010.042	84.48956
1010.209	59.19149
1010.377	67.62381
1010.545	44.4358
1010.713	50.75953
1010.88	31.78897
1011.048	57.08346
1011.216	27.57355
1011.383	101.35674
1011.551	54.97546
1011.718	-1.93175
1011.886	14.92785
1012.054	-18.7898
1012.221	-8.2537
1012.389	14.92785
1012.556	27.57355
1012.724	99.24826
1012.891	-10.36097
1013.058	57.08346
1013.226	46.54368
1013.393	6.49786
1013.561	29.68125
1013.728	82.38126
1013.895	6.49786
1014.063	65.5157
1014.23	-27.21824
1014.397	-16.68263
1014.565	90.81458
1014.732	-4.03909
1014.899	19.14299
1015.066	-18.7898
1015.233	65.5157
1015.401	54.97546
1015.568	-14.57544
1015.735	99.24826
1015.902	-41.96706
1016.069	50.75953
1016.236	-65.14129
1016.403	-16.68263
1016.57	38.11228
1016.737	-27.21824
1016.904	19.14299
1017.071	19.14299
1017.238	-16.68263
1017.405	69.73195
1017.572	-27.21824
1017.739	48.65159
1017.906	-35.64629
1018.073	59.19149
1018.24	-69.35446
1018.407	-8.2537
1018.573	-44.07393
1018.74	65.5157
1018.907	14.92785
1019.074	65.5157
1019.241	17.0354
1019.407	44.4358
1019.574	31.78897
1019.741	4.39042
1019.907	19.14299
1020.074	14.92785
1020.241	80.27299
1020.407	50.75953
1020.574	2.283
1020.74	99.24826
1020.907	-77.78048
1021.073	-25.11117
1021.24	-60.92802
1021.406	40.22009
1021.573	36.00449
1021.739	-52.50118
1021.906	40.22009
1022.072	-8.2537
1022.239	17.0354
1022.405	109.79086
1022.571	-52.50118
1022.738	86.59788
1022.904	46.54368
1023.07	0.17561
1023.237	-1.93175
1023.403	-31.43231
1023.569	17.0354
1023.735	6.49786
1023.902	52.86748
1024.068	40.22009
1024.234	57.08346
1024.4	-25.11117
1024.566	14.92785
1024.732	76.05651
1024.898	14.92785
1025.065	-10.36097
1025.231	52.86748
1025.397	31.78897
1025.563	50.75953
1025.729	17.0354
1025.895	101.35674
1026.061	-6.14641
1026.227	2.283
1026.392	40.22009
1026.558	-52.50118
1026.724	2.283
1026.89	31.78897
1027.056	27.57355
1027.222	-54.60793
1027.388	50.75953
1027.553	31.78897
1027.719	59.19149
1027.885	21.25059
1028.051	-10.36097
1028.216	76.05651
1028.382	-1.93175
1028.548	76.05651
1028.713	31.78897
1028.879	-60.92802
1029.045	52.86748
1029.21	-27.21824
1029.376	4.39042
1029.541	4.39042
1029.707	-1.93175
1029.873	25.46587
1030.038	78.16474
1030.204	6.49786
1030.369	-6.14641
1030.534	23.35822
1030.7	101.35674
1030.865	33.89672
1031.031	2.283
1031.196	99.24826
1031.361	-27.21824
1031.527	-44.07393
1031.692	-44.07393
1031.857	14.92785
1032.023	40.22009
1032.188	-18.7898
1032.353	-8.2537
1032.518	36.00449
1032.684	42.32793
1032.849	48.65159
1033.014	-44.07393
1033.179	57.08346
1033.344	-44.07393
1033.509	23.35822
1033.674	42.32793
1033.839	36.00449
1034.004	14.92785
1034.17	6.49786
1034.335	-8.2537
1034.5	42.32793
1034.664	19.14299
1034.829	6.49786
1034.994	-6.14641
1035.159	-54.60793
1035.324	57.08346
1035.489	-39.86016
1035.654	65.5157
1035.819	-14.57544
1035.984	-6.14641
1036.148	-4.03909
1036.313	14.92785
1036.478	-31.43231
1036.643	-1.93175
1036.807	-27.21824
1036.972	31.78897
1037.137	-69.35446
1037.301	14.92785
1037.466	-39.86016
1037.631	31.78897
1037.795	-1.93175
1037.96	42.32793
1038.124	42.32793
1038.289	-27.21824
1038.454	2.283
1038.618	-16.68263
1038.783	-46.18078
1038.947	67.62381
1039.111	14.92785
1039.276	40.22009
1039.44	23.35822
1039.605	27.57355
1039.769	78.16474
1039.933	10.7128
1040.098	33.89672
1040.262	23.35822
1040.426	-52.50118
1040.591	54.97546
1040.755	-12.46822
1040.919	-18.7898
1041.083	-4.03909
1041.248	0.17561
1041.412	-50.3944
1041.576	19.14299
1041.74	-18.7898
1041.904	2.283
1042.068	90.81458
1042.232	10.7128
1042.397	-37.75323
1042.561	42.32793
1042.725	33.89672
1042.889	95.03138
1043.053	48.65159
1043.217	92.92297
1043.381	2.283
1043.544	12.82031
1043.708	-35.64629
1043.872	36.00449
1044.036	42.32793
1044.2	-1.93175
1044.364	-18.7898
1044.528	31.78897
1044.691	-10.36097
1044.855	6.49786
1045.019	6.49786
1045.183	-44.07393
1045.346	-33.53931
1045.51	-65.14129
1045.674	69.73195
1045.837	14.92785
1046.001	42.32793
1046.165	31.78897
1046.328	33.89672
1046.492	-48.28761
1046.655	-18.7898
1046.819	-27.21824
1046.983	0.17561
1047.146	-18.7898
1047.31	-39.86016
1047.473	78.16474
1047.636	71.84011
1047.8	4.39042
1047.963	-67.24789
1048.127	-52.50118
1048.29	-29.32529
