Data from mixed_try1_USB4F045381__6__00028.txt Node

Date: Thu Apr 03 19:32:37 EDT 2025
User: mmckonesweet
Spectrometer: USB4F04538
Trigger mode: 4
Integration Time (sec): 2.700000E-3
Scans to average: 1
Electric dark correction enabled: true
Nonlinearity correction enabled: true
Boxcar width: 0
XAxis mode: Wavelengths
Number of Pixels in Spectrum: 3648
>>>>>Begin Spectral Data<<<<<
345.52	-27.92059
345.736	-27.92059
345.952	-27.92059
346.168	7.90283
346.384	3.68794
346.6	3.68794
346.816	-21.59933
347.032	-44.77622
347.248	5.79537
347.464	24.76332
347.68	54.2728
347.896	-67.95008
348.112	-23.70644
348.328	71.13739
348.544	24.76332
348.76	20.54805
348.975	-46.88306
349.191	-19.49219
349.407	14.22533
349.623	37.40968
349.839	-13.17063
350.055	-48.98987
350.27	-51.09666
350.486	-21.59933
350.702	79.57023
350.918	39.51749
351.133	-21.59933
351.349	-21.59933
351.565	20.54805
351.781	-36.3486
351.996	37.40968
352.212	-17.38502
352.428	12.11781
352.644	-27.92059
352.859	14.22533
353.075	24.76332
353.291	60.59685
353.506	5.79537
353.722	22.65567
353.938	-21.59933
354.153	12.11781
354.369	-0.52684
354.584	3.68794
354.8	-27.92059
355.016	-4.74153
355.231	-46.88306
355.447	54.2728
355.662	-23.70644
355.878	-4.74153
356.093	-11.06339
356.309	3.68794
356.524	3.68794
356.74	-8.95613
356.955	-19.49219
357.171	-4.74153
357.386	33.19413
357.602	-13.17063
357.817	79.57023
358.033	-0.52684
358.248	12.11781
358.464	20.54805
358.679	5.79537
358.895	-17.38502
359.11	-21.59933
359.325	-4.74153
359.541	12.11781
359.756	64.813
359.972	18.44046
360.187	-30.02763
360.402	22.65567
360.618	-30.02763
360.833	73.24557
361.048	35.30189
361.264	5.79537
361.479	12.11781
361.694	-21.59933
361.909	3.68794
362.125	-13.17063
362.34	28.97868
362.555	-13.17063
362.77	1.58054
362.986	62.70491
363.201	62.70491
363.416	-19.49219
363.631	31.08639
363.847	-17.38502
364.062	41.62532
364.277	-55.31017
364.492	-13.17063
364.707	-4.74153
364.922	20.54805
365.138	-38.45555
365.353	39.51749
365.568	-48.98987
365.783	12.11781
365.998	16.33288
366.213	37.40968
366.428	5.79537
366.643	14.22533
366.858	20.54805
367.073	45.84105
367.288	-74.26969
367.503	-44.77622
367.718	45.84105
367.933	-23.70644
368.148	-61.63024
368.363	-11.06339
368.578	-13.17063
368.793	26.87099
369.008	-51.09666
369.223	-70.05664
369.438	33.19413
369.653	-19.49219
369.868	16.33288
370.083	-36.3486
370.298	26.87099
370.513	47.94895
370.728	-21.59933
370.943	-11.06339
371.157	-48.98987
371.372	-2.6342
371.587	-27.92059
371.802	-51.09666
372.017	-4.74153
372.232	-63.73688
372.446	28.97868
372.661	-8.95613
372.876	-4.74153
373.091	7.90283
373.306	12.11781
373.52	-38.45555
373.735	-0.52684
373.95	22.65567
374.165	-55.31017
374.379	-53.20343
374.594	24.76332
374.809	16.33288
375.023	-44.77622
375.238	-6.84884
375.453	37.40968
375.667	28.97868
375.882	-15.27784
376.097	-72.16318
376.311	20.54805
376.526	54.2728
376.741	47.94895
376.955	-21.59933
377.17	47.94895
377.384	-21.59933
377.599	-4.74153
377.813	-19.49219
378.028	-4.74153
378.242	33.19413
378.457	24.76332
378.672	24.76332
378.886	64.813
379.101	-34.24164
379.315	5.79537
379.53	54.2728
379.744	-4.74153
379.958	-17.38502
380.173	39.51749
380.387	5.79537
380.602	-30.02763
380.816	-44.77622
381.031	-27.92059
381.245	-38.45555
381.459	-36.3486
381.674	-11.06339
381.888	-63.73688
382.103	41.62532
382.317	1.58054
382.531	62.70491
382.746	-4.74153
382.96	1.58054
383.174	33.19413
383.388	52.16483
383.603	-40.56246
383.817	50.05688
384.031	33.19413
384.246	3.68794
384.46	-15.27784
384.674	-17.38502
384.888	-0.52684
385.103	54.2728
385.317	-59.52357
385.531	-0.52684
385.745	14.22533
385.959	-13.17063
386.174	12.11781
386.388	33.19413
386.602	-6.84884
386.816	12.11781
387.03	-4.74153
387.244	-21.59933
387.458	-0.52684
387.672	-46.88306
387.887	-70.05664
388.101	-11.06339
388.315	28.97868
388.529	62.70491
388.743	-61.63024
388.957	-13.17063
389.171	37.40968
389.385	-61.63024
389.599	7.90283
389.813	-21.59933
390.027	-21.59933
390.241	26.87099
390.455	-30.02763
390.669	-53.20343
390.883	-55.31017
391.097	-57.41689
391.311	16.33288
391.525	-8.95613
391.738	12.11781
391.952	75.35377
392.166	58.48881
392.38	-4.74153
392.594	-4.74153
392.808	20.54805
393.022	5.79537
393.236	12.11781
393.449	12.11781
393.663	-0.52684
393.877	12.11781
394.091	-8.95613
394.305	-44.77622
394.518	39.51749
394.732	45.84105
394.946	24.76332
395.16	-61.63024
395.373	45.84105
395.587	83.78679
395.801	20.54805
396.015	-11.06339
396.228	81.6785
396.442	-44.77622
396.656	-2.6342
396.869	83.78679
397.083	-32.13465
397.297	33.19413
397.51	31.08639
397.724	37.40968
397.938	64.813
398.151	-91.12085
398.365	73.24557
398.578	-44.77622
398.792	39.51749
399.005	98.54544
399.219	-2.6342
399.433	5.79537
399.646	-13.17063
399.86	20.54805
400.073	20.54805
400.287	-63.73688
400.5	14.22533
400.714	62.70491
400.927	22.65567
401.141	-30.02763
401.354	56.38079
401.567	18.44046
401.781	7.90283
401.994	-4.74153
402.208	-4.74153
402.421	14.22533
402.635	-4.74153
402.848	14.22533
403.061	28.97868
403.275	10.01031
403.488	62.70491
403.701	-8.95613
403.915	22.65567
404.128	-34.24164
404.341	-6.84884
404.555	10.01031
404.768	12.11781
404.981	-17.38502
405.195	31.08639
405.408	7.90283
405.621	7.90283
405.834	-8.95613
406.048	-13.17063
406.261	14.22533
406.474	47.94895
406.687	39.51749
406.9	-13.17063
407.114	-21.59933
407.327	73.24557
407.54	-42.66935
407.753	-53.20343
407.966	31.08639
408.179	-38.45555
408.392	-19.49219
408.605	-46.88306
408.819	1.58054
409.032	-0.52684
409.245	-59.52357
409.458	45.84105
409.671	64.813
409.884	5.79537
410.097	-8.95613
410.31	-44.77622
410.523	31.08639
410.736	-27.92059
410.949	47.94895
411.162	-8.95613
411.375	-13.17063
411.588	-21.59933
411.801	7.90283
412.014	-53.20343
412.227	-34.24164
412.44	18.44046
412.653	45.84105
412.865	-19.49219
413.078	14.22533
413.291	-55.31017
413.504	33.19413
413.717	-38.45555
413.93	-19.49219
414.143	33.19413
414.356	75.35377
414.568	58.48881
414.781	-21.59933
414.994	71.13739
415.207	54.2728
415.42	22.65567
415.632	24.76332
415.845	-101.65198
416.058	33.19413
416.271	22.65567
416.483	22.65567
416.696	16.33288
416.909	-8.95613
417.121	41.62532
417.334	-57.41689
417.547	14.22533
417.759	-97.43961
417.972	28.97868
418.185	-8.95613
418.397	88.00344
418.61	130.17476
418.823	-34.24164
419.035	3.68794
419.248	20.54805
419.46	37.40968
419.673	-36.3486
419.885	-0.52684
420.098	-89.01455
420.311	-8.95613
420.523	-4.74153
420.736	-4.74153
420.948	26.87099
421.161	50.05688
421.373	-19.49219
421.586	-4.74153
421.798	-23.70644
422.01	14.22533
422.223	45.84105
422.435	28.97868
422.648	-30.02763
422.86	62.70491
423.073	16.33288
423.285	37.40968
423.497	-30.02763
423.71	-40.56246
423.922	-11.06339
424.134	5.79537
424.347	-8.95613
424.559	-40.56246
424.771	50.05688
424.984	-2.6342
425.196	-30.02763
425.408	14.22533
425.621	-21.59933
425.833	-40.56246
426.045	-23.70644
426.257	-13.17063
426.47	-8.95613
426.682	-13.17063
426.894	-2.6342
427.106	-27.92059
427.318	45.84105
427.531	-32.13465
427.743	20.54805
427.955	47.94895
428.167	-44.77622
428.379	-23.70644
428.591	10.01031
428.804	-38.45555
429.016	24.76332
429.228	24.76332
429.44	96.437
429.652	3.68794
429.864	-51.09666
430.076	-21.59933
430.288	-80.58907
430.5	-80.58907
430.712	45.84105
430.924	1.58054
431.136	64.813
431.348	3.68794
431.56	5.79537
431.772	98.54544
431.984	71.13739
432.196	-38.45555
432.408	20.54805
432.62	22.65567
432.832	-2.6342
433.044	98.54544
433.256	37.40968
433.468	20.54805
433.679	-13.17063
433.891	-21.59933
434.103	-13.17063
434.315	-72.16318
434.527	-42.66935
434.739	-11.06339
434.95	14.22533
435.162	20.54805
435.374	28.97868
435.586	-2.6342
435.798	-46.88306
436.009	75.35377
436.221	3.68794
436.433	-13.17063
436.645	52.16483
436.856	22.65567
437.068	-17.38502
437.28	-19.49219
437.491	20.54805
437.703	-46.88306
437.915	-25.81353
438.126	-63.73688
438.338	26.87099
438.55	-61.63024
438.761	-19.49219
438.973	12.11781
439.184	28.97868
439.396	-4.74153
439.608	54.2728
439.819	10.01031
440.031	-30.02763
440.242	-48.98987
440.454	45.84105
440.665	-11.06339
440.877	37.40968
441.088	3.68794
441.3	16.33288
441.511	-30.02763
441.723	-4.74153
441.934	18.44046
442.146	-55.31017
442.357	-0.52684
442.569	71.13739
442.78	54.2728
442.991	-4.74153
443.203	-46.88306
443.414	-4.74153
443.626	12.11781
443.837	52.16483
444.048	-11.06339
444.26	24.76332
444.471	37.40968
444.682	-51.09666
444.894	-17.38502
445.105	71.13739
445.316	142.82785
445.528	28.97868
445.739	-11.06339
445.95	45.84105
446.161	7.90283
446.373	20.54805
446.584	37.40968
446.795	7.90283
447.006	18.44046
447.217	37.40968
447.429	24.76332
447.64	14.22533
447.851	60.59685
448.062	41.62532
448.273	-19.49219
448.484	-48.98987
448.695	14.22533
448.907	-30.02763
449.118	71.13739
449.329	100.65391
449.54	7.90283
449.751	-4.74153
449.962	66.92111
450.173	20.54805
450.384	33.19413
450.595	-36.3486
450.806	22.65567
451.017	-11.06339
451.228	7.90283
451.439	7.90283
451.65	-51.09666
451.861	-46.88306
452.072	-36.3486
452.283	81.6785
452.494	81.6785
452.705	-38.45555
452.915	-19.49219
453.126	14.22533
453.337	3.68794
453.548	26.87099
453.759	37.40968
453.97	-13.17063
454.181	16.33288
454.391	-25.81353
454.602	20.54805
454.813	20.54805
455.024	5.79537
455.235	33.19413
455.445	52.16483
455.656	35.30189
455.867	64.813
456.078	-23.70644
456.288	39.51749
456.499	-84.80186
456.71	77.46199
456.921	79.57023
457.131	28.97868
457.342	-25.81353
457.553	-21.59933
457.763	14.22533
457.974	-34.24164
458.184	-27.92059
458.395	62.70491
458.606	81.6785
458.816	28.97868
459.027	43.73317
459.237	-4.74153
459.448	-32.13465
459.659	-57.41689
459.869	20.54805
460.08	-19.49219
460.29	-67.95008
460.501	3.68794
460.711	-30.02763
460.922	39.51749
461.132	-4.74153
461.343	3.68794
461.553	5.79537
461.764	-13.17063
461.974	24.76332
462.184	3.68794
462.395	52.16483
462.605	50.05688
462.816	50.05688
463.026	18.44046
463.236	-25.81353
463.447	-2.6342
463.657	96.437
463.867	7.90283
464.078	18.44046
464.288	41.62532
464.498	-23.70644
464.709	56.38079
464.919	18.44046
465.129	-4.74153
465.339	-80.58907
465.55	12.11781
465.76	56.38079
465.97	88.00344
466.18	-19.49219
466.391	-19.49219
466.601	-46.88306
466.811	69.02924
467.021	28.97868
467.231	5.79537
467.441	-4.74153
467.651	24.76332
467.862	-32.13465
468.072	-44.77622
468.282	5.79537
468.492	-27.92059
468.702	-36.3486
468.912	-55.31017
469.122	7.90283
469.332	50.05688
469.542	62.70491
469.752	90.11179
469.962	39.51749
470.172	-34.24164
470.382	121.73979
470.592	16.33288
470.802	45.84105
471.012	-25.81353
471.222	22.65567
471.432	16.33288
471.642	66.92111
471.852	20.54805
472.062	45.84105
472.272	45.84105
472.482	64.813
472.691	58.48881
472.901	31.08639
473.111	31.08639
473.321	-17.38502
473.531	64.813
473.741	-51.09666
473.95	41.62532
474.16	-2.6342
474.37	-30.02763
474.58	39.51749
474.79	-25.81353
474.999	-27.92059
475.209	45.84105
475.419	3.68794
475.628	45.84105
475.838	-27.92059
476.048	58.48881
476.258	-2.6342
476.467	12.11781
476.677	47.94895
476.886	35.30189
477.096	62.70491
477.306	16.33288
477.515	45.84105
477.725	7.90283
477.935	-84.80186
478.144	66.92111
478.354	20.54805
478.563	41.62532
478.773	-38.45555
478.982	83.78679
479.192	-13.17063
479.401	-2.6342
479.611	47.94895
479.82	-17.38502
480.03	77.46199
480.239	-21.59933
480.449	56.38079
480.658	-11.06339
480.868	12.11781
481.077	22.65567
481.287	35.30189
481.496	-27.92059
481.705	12.11781
481.915	-25.81353
482.124	-2.6342
482.333	62.70491
482.543	20.54805
482.752	39.51749
482.961	92.22017
483.171	-44.77622
483.38	54.2728
483.589	37.40968
483.799	22.65567
484.008	-17.38502
484.217	28.97868
484.426	20.54805
484.636	5.79537
484.845	16.33288
485.054	7.90283
485.263	64.813
485.472	-48.98987
485.682	7.90283
485.891	-13.17063
486.1	54.2728
486.309	-55.31017
486.518	-11.06339
486.727	96.437
486.936	28.97868
487.146	12.11781
487.355	18.44046
487.564	-25.81353
487.773	-2.6342
487.982	22.65567
488.191	-30.02763
488.4	33.19413
488.609	-0.52684
488.818	3.68794
489.027	7.90283
489.236	52.16483
489.445	18.44046
489.654	90.11179
489.863	41.62532
490.072	66.92111
490.281	41.62532
490.49	16.33288
490.698	-21.59933
490.907	3.68794
491.116	14.22533
491.325	24.76332
491.534	-0.52684
491.743	106.97945
491.952	7.90283
492.16	-21.59933
492.369	50.05688
492.578	41.62532
492.787	-25.81353
492.996	26.87099
493.204	5.79537
493.413	-19.49219
493.622	56.38079
493.831	-6.84884
494.039	12.11781
494.248	62.70491
494.457	12.11781
494.665	12.11781
494.874	-0.52684
495.083	71.13739
495.291	54.2728
495.5	-2.6342
495.709	-11.06339
495.917	-0.52684
496.126	83.78679
496.335	12.11781
496.543	-21.59933
496.752	3.68794
496.96	31.08639
497.169	3.68794
497.377	3.68794
497.586	12.11781
497.794	20.54805
498.003	-38.45555
498.211	-13.17063
498.42	7.90283
498.628	81.6785
498.837	54.2728
499.045	20.54805
499.254	79.57023
499.462	31.08639
499.671	12.11781
499.879	37.40968
500.087	41.62532
500.296	-17.38502
500.504	73.24557
500.713	-25.81353
500.921	3.68794
501.129	20.54805
501.338	130.17476
501.546	62.70491
501.754	5.79537
501.962	39.51749
502.171	66.92111
502.379	45.84105
502.587	47.94895
502.795	92.22017
503.004	39.51749
503.212	39.51749
503.42	66.92111
503.628	85.8951
503.837	39.51749
504.045	10.01031
504.253	22.65567
504.461	-30.02763
504.669	26.87099
504.877	20.54805
505.085	58.48881
505.294	-46.88306
505.502	117.52244
505.71	37.40968
505.918	-13.17063
506.126	45.84105
506.334	90.11179
506.542	3.68794
506.75	47.94895
506.958	-44.77622
507.166	83.78679
507.374	73.24557
507.582	52.16483
507.79	43.73317
507.998	88.00344
508.206	10.01031
508.414	37.40968
508.622	71.13739
508.83	24.76332
509.037	33.19413
509.245	-4.74153
509.453	45.84105
509.661	31.08639
509.869	66.92111
510.077	106.97945
510.285	45.84105
510.492	-11.06339
510.7	33.19413
510.908	58.48881
511.116	-4.74153
511.324	-8.95613
511.531	31.08639
511.739	3.68794
511.947	56.38079
512.155	125.95723
512.362	75.35377
512.57	33.19413
512.778	81.6785
512.985	-21.59933
513.193	75.35377
513.401	39.51749
513.608	41.62532
513.816	28.97868
514.024	3.68794
514.231	58.48881
514.439	92.22017
514.646	71.13739
514.854	-21.59933
515.061	125.95723
515.269	37.40968
515.477	79.57023
515.684	-11.06339
515.892	-13.17063
516.099	62.70491
516.307	-42.66935
516.514	73.24557
516.722	58.48881
516.929	85.8951
517.136	62.70491
517.344	24.76332
517.551	149.15468
517.759	88.00344
517.966	45.84105
518.173	50.05688
518.381	14.22533
518.588	62.70491
518.796	109.088
519.003	130.17476
519.21	28.97868
519.418	79.57023
519.625	109.088
519.832	41.62532
520.039	73.24557
520.247	18.44046
520.454	88.00344
520.661	138.61006
520.868	52.16483
521.076	16.33288
521.283	109.088
521.49	71.13739
521.697	172.35468
521.904	47.94895
522.112	81.6785
522.319	45.84105
522.526	22.65567
522.733	22.65567
522.94	71.13739
523.147	115.4138
523.354	16.33288
523.561	75.35377
523.768	3.68794
523.975	130.17476
524.183	113.30518
524.39	92.22017
524.597	22.65567
524.804	81.6785
525.011	73.24557
525.218	109.088
525.425	79.57023
525.632	88.00344
525.838	132.28355
526.045	102.7624
526.252	104.87091
526.459	92.22017
526.666	115.4138
526.873	121.73979
527.08	39.51749
527.287	75.35377
527.494	39.51749
527.701	41.62532
527.907	142.82785
528.114	132.28355
528.321	75.35377
528.528	98.54544
528.735	136.50121
528.941	161.80891
529.148	58.48881
529.355	-13.17063
529.562	83.78679
529.768	50.05688
529.975	66.92111
530.182	113.30518
530.388	50.05688
530.595	100.65391
530.802	88.00344
531.008	88.00344
531.215	98.54544
531.422	174.4639
531.628	90.11179
531.835	50.05688
532.042	119.63111
532.248	117.52244
532.455	100.65391
532.661	104.87091
532.868	117.52244
533.074	178.68239
533.281	50.05688
533.487	130.17476
533.694	83.78679
533.9	100.65391
534.107	115.4138
534.313	88.00344
534.52	113.30518
534.726	144.93677
534.933	130.17476
535.139	121.73979
535.345	100.65391
535.552	71.13739
535.758	98.54544
535.965	88.00344
536.171	117.52244
536.377	149.15468
536.584	174.4639
536.79	163.91802
536.996	62.70491
537.203	41.62532
537.409	147.04571
537.615	96.437
537.821	172.35468
538.028	138.61006
538.234	121.73979
538.44	212.43327
538.646	161.80891
538.853	130.17476
539.059	113.30518
539.265	161.80891
539.471	208.21413
539.677	157.59075
539.883	113.30518
540.09	50.05688
540.296	163.91802
540.502	140.71894
540.708	113.30518
540.914	123.8485
541.12	227.2009
541.326	142.82785
541.532	104.87091
541.738	189.22898
541.944	85.8951
542.15	191.33836
542.356	201.88557
542.562	134.39237
542.768	185.01029
542.974	83.78679
543.18	79.57023
543.386	144.93677
543.592	235.63997
543.798	199.77609
544.004	159.69982
544.21	132.28355
544.415	161.80891
544.621	157.59075
544.827	157.59075
545.033	229.31064
545.239	210.32369
545.445	182.90097
545.651	178.68239
545.856	113.30518
546.062	214.54287
546.268	227.2009
546.474	250.4091
546.679	172.35468
546.885	214.54287
547.091	227.2009
547.297	206.10459
547.502	189.22898
547.708	241.96948
547.914	187.11962
548.119	231.42039
548.325	191.33836
548.531	199.77609
548.736	208.21413
548.942	218.76214
549.147	176.57313
549.353	258.84902
549.559	237.74979
549.764	258.84902
549.97	216.6525
550.175	208.21413
550.381	220.8718
550.586	151.26366
550.792	233.53017
550.997	214.54287
551.203	227.2009
551.408	332.71105
551.614	265.17916
551.819	248.29916
552.025	174.4639
552.23	191.33836
552.435	326.37915
552.641	225.09118
552.846	244.07936
553.052	254.62902
553.257	256.73901
553.462	273.61962
553.668	239.85962
553.873	193.44776
554.078	315.82634
554.283	282.06037
554.489	212.43327
554.694	303.16355
554.899	298.94277
555.105	341.15383
555.31	258.84902
555.515	294.72206
555.72	282.06037
555.925	362.262
556.131	332.71105
556.336	347.4861
556.541	330.6004
556.746	298.94277
556.951	315.82634
557.156	214.54287
557.361	334.82172
557.567	284.17061
557.772	307.38441
557.977	351.7077
558.182	326.37915
558.387	347.4861
558.592	320.04741
558.797	332.71105
559.002	341.15383
559.207	336.93241
559.412	349.59689
559.617	235.63997
559.822	391.8163
560.027	425.5966
560.232	345.37533
560.437	313.71583
560.642	408.70593
560.847	265.17916
561.051	355.92937
561.256	379.14977
561.461	362.262
561.666	379.14977
561.871	307.38441
562.076	402.37219
562.281	478.38641
562.485	370.70575
562.69	459.38097
562.895	301.05315
563.1	440.37677
563.305	366.48384
563.509	486.83367
563.714	438.26527
563.919	421.37383
564.123	358.04023
564.328	360.15111
564.533	298.94277
564.737	472.05113
564.942	372.81673
565.147	474.16288
565.351	455.15771
565.556	417.15113
565.761	469.9394
565.965	543.85871
566.17	419.26247
566.374	507.95283
566.579	459.38097
566.784	491.05738
566.988	374.92772
567.193	480.4982
567.397	467.82768
567.602	526.96132
567.806	400.26098
568.011	459.38097
568.215	516.40091
568.42	467.82768
568.624	362.262
568.828	469.9394
569.033	453.0461
569.237	624.13307
569.442	518.51296
569.646	446.71136
569.85	493.16926
570.055	569.20645
570.259	605.11903
570.463	569.20645
570.668	507.95283
570.872	590.33104
571.076	425.5966
571.281	569.20645
571.485	505.84085
571.689	562.86933
571.893	564.98169
572.098	653.71246
572.302	526.96132
572.506	641.03529
572.71	531.18558
572.914	586.10602
573.119	588.21852
573.323	706.53856
573.527	545.97095
573.731	712.87816
573.935	545.97095
574.139	630.47131
574.343	564.98169
574.547	731.89756
574.751	613.56959
574.955	704.42538
575.159	537.52208
575.364	683.29419
575.568	564.98169
575.772	679.06809
575.976	645.26097
576.18	723.44439
576.383	645.26097
576.587	695.97277
576.791	700.19905
576.995	873.51177
577.199	603.00642
577.403	740.35091
577.607	674.84204
577.811	748.80442
578.015	543.85871
578.219	757.2581
578.422	668.50304
578.626	740.35091
578.83	672.72903
579.034	791.07442
579.238	666.39007
579.442	721.33112
579.645	712.87816
579.849	797.41526
580.053	780.50655
580.257	738.23756
580.46	774.16594
580.664	835.46207
580.868	753.03124
581.071	877.73969
581.275	710.76495
581.479	805.86985
581.682	755.14466
581.886	780.50655
582.09	816.43829
582.293	848.14499
582.497	750.91783
582.7	807.98352
582.904	748.80442
583.107	833.34828
583.311	881.96763
583.515	827.00696
583.718	814.32458
583.922	924.24887
584.125	860.82823
584.329	1004.59131
584.532	907.336
584.735	991.90501
584.939	917.90649
585.142	928.47716
585.346	977.10462
585.549	966.53312
585.753	958.07604
585.956	972.876
586.159	807.98352
586.363	1044.76605
586.566	881.96763
586.769	1059.5678
586.973	1034.19354
587.176	1002.47691
587.379	979.21894
587.582	1093.40136
587.786	926.36301
587.989	1091.28672
588.192	1080.71362
588.395	1078.59901
588.599	1051.10962
588.802	1023.62118
589.005	869.28389
589.208	1076.48441
589.411	1051.10962
589.615	1186.44984
589.818	1095.516
590.021	1146.2688
590.224	1182.22019
590.427	1089.17209
590.63	1078.59901
590.833	1203.36858
591.036	1110.31863
591.239	1203.36858
591.442	1055.3387
591.645	1245.66633
591.848	1053.22416
592.051	1323.91994
592.254	1004.59131
592.457	1148.38356
592.66	1203.36858
592.863	1262.58576
593.066	1237.20668
593.269	1296.42509
593.472	1218.17265
593.675	1224.5173
593.878	1355.64513
594.081	1281.62031
594.284	1311.22997
594.486	1351.41509
594.689	1262.58576
594.892	1378.91046
595.095	1290.08017
595.298	1368.33529
595.5	1296.42509
595.703	1423.32638
595.906	1260.47082
596.109	1334.49497
596.311	1298.54007
596.514	1364.10524
596.717	1313.34496
596.92	1493.12306
597.122	1245.66633
597.325	1429.67153
597.528	1317.57495
597.73	1503.69829
597.933	1372.56536
598.136	1433.90163
598.338	1211.82803
598.541	1448.707
598.743	1537.5389
598.946	1425.44143
599.148	1321.80494
599.351	1402.1759
599.554	1431.78658
599.756	1429.67153
599.959	1355.64513
600.161	1579.83925
600.363	1412.75114
600.566	1522.73366
600.768	1626.36888
600.971	1524.8487
601.173	1560.80416
601.376	1677.12726
601.578	1552.34408
601.78	1694.04637
601.983	1461.39731
602.185	1592.52924
602.388	1486.77792
602.59	1554.4591
602.792	1558.68914
602.995	1770.17982
603.197	1626.36888
603.399	1719.42468
603.601	1694.04637
603.804	1662.32288
604.006	1590.41425
604.208	1520.61862
604.41	1696.16125
604.613	1905.51493
604.815	1514.27351
605.017	1831.50591
605.219	1558.68914
605.421	1816.70339
605.623	1558.68914
605.826	1658.09304
606.028	1626.36888
606.23	1772.29457
606.432	1478.31772
606.634	1886.48464
606.836	1622.13896
607.038	1774.40932
607.24	1651.74825
607.442	1791.32715
607.644	1639.05861
607.846	1909.74383
608.048	1643.2885
608.25	1789.21243
608.452	1736.34329
608.654	1799.78597
608.856	1753.26167
609.058	1839.96439
609.26	1846.3082
609.462	1981.63154
609.664	1736.34329
609.866	1875.91207
610.067	1804.01535
610.269	1833.62054
610.471	1696.16125
610.673	1949.91721
610.875	1865.33937
611.077	1888.59914
611.278	1782.86827
611.48	1998.54527
611.682	1677.12726
611.884	2013.34445
612.085	1732.11366
612.287	2023.91509
612.489	1833.62054
612.69	2061.968
612.892	1723.65435
613.094	1947.80287
613.295	1871.683
613.497	1994.31687
613.699	1804.01535
613.9	2057.74001
614.102	1952.03154
614.304	2040.82777
614.505	1797.67127
614.707	2195.13418
614.908	1933.00235
615.11	2019.68685
615.311	1966.83169
615.513	1998.54527
615.714	1909.74383
615.916	1863.22481
616.117	1871.683
616.319	2108.47396
616.52	2116.9292
616.722	2085.22143
616.923	1899.17155
617.124	2074.6518
617.326	1816.70339
617.527	2057.74001
617.729	1990.08845
617.93	2237.40238
618.131	2015.45859
618.333	2070.42389
618.534	2085.22143
618.735	2195.13418
618.937	1909.74383
619.138	2201.47463
619.339	2093.677
619.54	2095.79087
619.742	1975.28878
619.943	2083.10751
620.144	2135.95305
620.345	2072.53785
620.546	2150.74893
620.748	2199.36115
620.949	2102.13245
621.15	2167.65802
621.351	1985.86001
621.552	2190.90717
621.753	2197.24767
621.954	2222.60891
622.155	2176.11237
622.356	2269.10121
622.558	2197.24767
622.759	2290.23262
622.96	2167.65802
623.161	2336.71838
623.362	2150.74893
623.563	2351.50832
623.764	2154.97625
623.965	2402.21294
624.166	2220.49552
624.366	2330.37969
624.567	2161.31717
624.768	2311.36309
624.969	2203.5881
625.17	2203.5881
625.371	2076.76574
625.572	2349.3955
625.773	2222.60891
625.973	2482.48286
626.174	2047.16991
626.375	2324.04091
626.576	2252.19542
626.777	2264.87482
626.977	2258.53516
627.178	2296.57186
627.379	2209.92844
627.58	2400.10036
627.78	2161.31717
627.981	2550.06615
628.182	2406.43805
628.382	2609.19171
628.583	2294.45879
628.784	2423.3381
628.984	2296.57186
629.185	2387.4247
629.386	2218.38212
629.586	2495.15561
629.787	2370.52324
629.987	2482.48286
630.188	2311.36309
630.388	2419.11315
630.589	2613.41461
630.79	2566.96013
630.99	2493.04352
631.191	2598.63427
631.391	2378.97405
631.591	2547.95435
631.792	2442.34984
631.992	2463.47298
632.193	2509.93998
632.393	2573.29517
632.594	2421.22563
632.794	2750.63115
632.994	2547.95435
633.195	2672.52989
633.395	2378.97405
633.595	2721.08143
633.796	2505.71593
633.996	2560.62498
634.196	2590.1881
634.397	2710.52733
634.597	2543.73072
634.797	2801.28171
634.997	2579.63011
635.198	2797.06113
635.398	2499.37978
635.598	2775.95741
635.798	2547.95435
635.998	2676.75204
636.199	2851.92436
636.399	2801.28171
636.599	2668.3077
636.799	2885.68162
636.999	2455.02385
637.199	2818.16348
637.399	2507.82796
637.599	2706.3056
637.799	2539.50704
637.999	2788.6198
638.199	2598.63427
638.399	2794.95082
638.599	2552.17794
638.799	2889.90102
638.999	2714.74901
639.199	3067.06238
639.399	2826.60404
639.599	2936.3106
639.799	2792.8405
639.999	2999.58488
640.199	2666.19658
640.399	2986.9311
640.599	2547.95435
640.799	2915.21621
640.998	2767.51554
641.198	2913.10669
641.398	2809.72271
641.598	3054.41155
641.798	2797.06113
641.997	2913.10669
642.197	2655.64081
642.397	2995.36701
642.597	2778.06784
642.796	2868.80345
642.996	2691.52913
643.196	2868.80345
643.395	2999.58488
643.595	3145.06327
643.795	2864.58376
643.994	3079.71265
644.194	2854.0343
644.394	3033.3256
644.593	2934.20123
644.793	3054.41155
644.992	2946.85725
645.192	2986.9311
645.392	3012.23811
645.591	3256.75563
645.791	2868.80345
645.99	2989.0401
646.19	2900.44927
646.389	3071.2792
646.589	3005.91156
646.788	3326.27617
646.987	3161.92545
647.187	3290.46487
647.386	3149.27891
647.586	3096.57878
647.785	3088.14584
647.984	3298.89151
648.184	3140.84756
648.383	3164.03315
648.582	3140.84756
648.782	3311.53094
648.981	3098.68698
649.18	3263.07644
649.38	3187.21676
649.579	3309.42441
649.778	3210.39839
649.977	3642.03573
650.177	3248.32764
650.376	3298.89151
650.575	3088.14584
650.774	3298.89151
650.973	3307.31787
651.173	3425.25776
651.372	3138.73969
651.571	3195.64668
651.77	3096.57878
651.969	3408.41257
652.168	3164.03315
652.367	3475.78646
652.566	3298.89151
652.765	3292.57156
652.964	3385.24859
653.163	3383.14267
653.362	3353.65792
653.561	3484.2069
653.76	3292.57156
653.959	3700.93145
654.158	3391.56625
654.357	3362.08248
654.556	3147.1711
654.755	3602.06232
654.954	3225.1493
655.153	3564.18654
655.352	3341.02055
655.551	3490.52204
655.749	3395.77794
655.948	3570.49959
656.147	3450.5234
656.346	3639.93204
656.545	3408.41257
656.743	3328.38256
656.942	3242.00648
657.141	3488.41701
657.34	3309.42441
657.538	3583.12518
657.737	3376.8248
657.936	3654.6575
658.135	3378.93077
658.333	3728.27078
658.532	3463.15525
658.731	3528.40944
658.929	3530.51413
659.128	3694.62191
659.326	3383.14267
659.525	3604.16635
659.724	3387.35449
659.922	3547.35092
660.121	3505.25673
660.319	3507.36162
660.518	3376.8248
660.716	3568.39525
660.915	3547.35092
661.113	3673.58887
661.312	3547.35092
661.51	3728.27078
661.709	3501.04691
661.907	3597.8542
662.105	3562.08215
662.304	3715.65303
662.502	3616.79016
662.701	3780.83723
662.899	3501.04691
663.097	3721.962
663.296	3484.2069
663.494	3772.42741
663.692	3574.70819
663.891	3694.62191
664.089	3715.65303
664.287	3969.97414
664.485	3461.04999
664.684	3967.87351
664.882	3492.62705
665.08	3690.41545
665.278	3738.78504
665.476	3948.96696
665.675	3787.14438
665.873	3747.1961
666.071	3671.48546
666.269	3974.17533
666.467	3829.18756
666.665	3925.85672
666.863	3606.27037
667.061	3719.85903
667.259	3721.962
667.457	3892.23746
667.655	3856.51138
667.853	3850.20618
668.051	3656.76106
668.249	3755.60685
668.447	3799.75816
668.645	3888.03469
668.843	3793.45136
669.041	4030.88343
669.239	3444.20723
669.437	3816.57543
669.635	3665.17512
669.833	3835.49335
670.031	3669.38203
670.229	3797.65591
670.426	3633.62084
670.624	3867.01965
670.822	3652.55392
671.02	4081.27802
671.218	3742.99061
671.415	3974.17533
671.613	3730.37367
671.811	4032.98344
672.009	3890.13609
672.206	3965.77287
672.404	3682.00231
672.602	3719.85903
672.799	3654.6575
672.997	4068.68049
673.195	3778.7348
673.392	4074.97935
673.59	3854.40967
673.788	3967.87351
673.985	3606.27037
674.183	3917.45239
674.38	3679.89898
674.578	3822.88158
674.775	3831.28951
674.973	3820.77955
675.17	3652.55392
675.368	3833.39144
675.565	3835.49335
675.763	3917.45239
675.96	3604.16635
676.158	3961.57151
676.355	3803.9626
676.553	4198.81869
676.75	3942.66441
676.947	3854.40967
677.145	3711.44696
677.342	4068.68049
677.539	3780.83723
677.737	3906.94652
677.934	3816.57543
678.131	4045.58308
678.329	3898.54146
678.526	3921.65459
678.723	3942.66441
678.92	4137.95763
679.118	3705.13771
679.315	3984.67796
679.512	3936.36167
679.709	3990.97929
679.906	3745.09337
680.104	3854.40967
680.301	3711.44696
680.498	3740.88784
680.695	3564.18654
680.892	3997.28043
681.089	3822.88158
681.286	3955.26933
681.483	3610.47834
681.68	4125.36348
681.877	3787.14438
682.075	4091.77539
682.272	3738.78504
682.469	3877.52742
682.665	3818.6775
682.862	3854.40967
683.059	3772.42741
683.256	3923.75566
683.453	3822.88158
683.65	3812.37123
683.847	3898.54146
684.044	3955.26933
684.241	3810.2691
684.438	3883.83184
684.635	3770.32491
684.831	3921.65459
685.028	3934.26072
685.225	4144.25442
685.422	3736.68223
685.619	4150.55103
685.815	3948.96696
686.012	4085.47703
686.209	4045.58308
686.405	3915.35125
686.602	3930.05876
686.799	4009.88217
686.996	4022.48317
687.192	4093.8748
687.389	3669.38203
687.586	3780.83723
687.782	3721.962
687.979	3921.65459
688.175	3774.5299
688.372	4221.89927
688.568	3730.37367
688.765	4005.68167
688.962	3703.03459
689.158	3854.40967
689.355	3951.06777
689.551	3879.62892
689.748	3677.79563
689.944	3925.85672
690.14	3728.27078
690.337	3980.47697
690.533	3946.86613
690.73	3888.03469
690.926	4028.78339
691.123	3913.2501
691.319	3806.06478
691.515	4102.27224
691.712	3879.62892
691.908	3930.05876
692.104	3888.03469
692.301	3938.46261
692.497	3879.62892
692.693	4024.58326
692.889	3677.79563
693.086	3993.07969
693.282	3940.56352
693.478	4161.04495
693.674	3854.40967
693.87	4102.27224
694.067	3896.44015
694.263	3951.06777
694.459	3776.63236
694.655	3932.15975
694.851	3946.86613
695.047	3896.44015
695.243	3906.94652
695.439	3837.59524
695.635	3724.06494
695.831	4005.68167
696.027	3854.40967
696.224	3875.42591
696.42	3749.29882
696.615	4089.67596
696.811	3934.26072
697.007	3858.61308
697.203	3688.3122
697.399	3927.95775
697.595	3793.45136
697.791	4074.97935
697.987	3787.14438
698.183	4106.47084
698.379	4028.78339
698.575	4175.73555
698.77	3948.96696
698.966	4064.48115
699.162	3812.37123
699.358	4140.05658
699.554	3858.61308
699.749	4064.48115
699.945	3946.86613
700.141	4056.08221
700.337	3829.18756
700.532	4098.07357
700.728	3898.54146
700.924	4200.91703
701.119	3818.6775
701.315	3904.84529
701.511	3900.64276
701.706	4005.68167
701.902	3785.04202
702.097	3955.26933
702.293	4028.78339
702.489	4020.38305
702.684	3871.22282
702.88	3969.97414
703.075	3799.75816
703.271	3856.51138
703.466	3881.73039
703.662	3883.83184
703.857	3911.14893
704.053	4093.8748
704.248	3816.57543
704.443	4081.27802
704.639	4022.48317
704.834	4119.06612
705.03	3749.29882
705.225	3919.5535
705.42	3898.54146
705.616	4215.60482
705.811	3875.42591
706.006	4047.68295
706.202	3724.06494
706.397	3873.32437
706.592	3808.16695
706.787	4074.97935
706.983	3755.60685
707.178	4058.18198
707.373	3650.45032
707.568	3816.57543
707.763	3721.962
707.959	3894.33882
708.154	3875.42591
708.349	3959.4708
708.544	3873.32437
708.739	3980.47697
708.934	3620.99794
709.129	3904.84529
709.324	3896.44015
709.519	4022.48317
709.714	3766.11985
709.909	3942.66441
710.104	3799.75816
710.299	3858.61308
710.494	3707.24081
710.689	3967.87351
710.884	4026.68334
711.079	3988.87886
711.274	3677.79563
711.469	4035.08343
711.664	3745.09337
711.859	4093.8748
712.054	3959.4708
712.249	4047.68295
712.443	3854.40967
712.638	3888.03469
712.833	3703.03459
713.028	4072.87975
713.223	3635.72459
713.417	4114.86778
713.612	3965.77287
713.807	4140.05658
714.002	3953.16856
714.196	4037.1834
714.391	3984.67796
714.586	4060.28172
714.78	3856.51138
714.975	4203.01535
715.17	3988.87886
715.364	4047.68295
715.559	3902.74403
715.754	4049.7828
715.948	3934.26072
716.143	3829.18756
716.337	3665.17512
716.532	3978.37644
716.726	3795.55365
716.921	4265.95504
717.115	3787.14438
717.31	4282.73571
717.504	3959.4708
717.699	4064.48115
717.893	3883.83184
718.088	4083.37754
718.282	3972.07475
718.476	3942.66441
718.671	3627.30948
718.865	3875.42591
719.059	3822.88158
719.254	3909.04773
719.448	3703.03459
719.642	3822.88158
719.837	3698.82829
720.031	3837.59524
720.225	3663.07163
720.419	3909.04773
720.614	3757.70949
720.808	3862.8164
721.002	3682.00231
721.196	3721.962
721.39	3669.38203
721.585	3919.5535
721.779	3846.00261
721.973	3919.5535
722.167	3726.16787
722.361	3843.9008
722.555	3703.03459
722.749	3957.37007
722.943	3620.99794
723.137	3761.91471
723.331	3816.57543
723.525	3719.85903
723.719	3597.8542
723.913	3812.37123
724.107	3612.5823
724.301	3795.55365
724.495	3766.11985
724.689	3925.85672
724.883	3761.91471
725.077	3833.39144
725.271	3780.83723
725.465	3795.55365
725.659	3677.79563
725.853	3814.47334
726.046	3711.44696
726.24	3869.12125
726.434	3408.41257
726.628	3854.40967
726.822	3646.24307
727.015	3988.87886
727.209	3709.3439
727.403	4016.18276
727.596	3841.79897
727.79	4232.38959
727.984	4030.88343
728.177	4232.38959
728.371	3965.77287
728.565	4056.08221
728.758	3740.88784
728.952	3795.55365
729.146	3703.03459
729.339	4173.63695
729.533	3673.58887
729.726	3965.77287
729.92	3736.68223
730.113	3984.67796
730.307	3873.32437
730.5	4150.55103
730.694	3982.57747
730.887	4242.87938
731.081	3904.84529
731.274	4081.27802
731.468	3751.40152
731.661	3957.37007
731.854	3919.5535
732.048	3833.39144
732.241	3806.06478
732.435	3896.44015
732.628	4089.67596
732.821	3766.11985
733.014	3755.60685
733.208	3883.83184
733.401	3930.05876
733.594	3772.42741
733.788	3644.13941
733.981	3940.56352
734.174	3831.28951
734.367	4060.28172
734.56	3957.37007
734.754	3791.34905
734.947	3932.15975
735.14	4043.48319
735.333	3896.44015
735.526	3913.2501
735.719	3637.82833
735.912	3816.57543
736.105	3898.54146
736.298	4030.88343
736.491	3770.32491
736.684	3932.15975
736.877	3728.27078
737.07	3827.08558
737.263	3698.82829
737.456	3974.17533
737.649	3829.18756
737.842	3812.37123
738.035	3839.69712
738.228	3721.962
738.421	3995.18007
738.614	3906.94652
738.807	3822.88158
739	3848.10441
739.192	3738.78504
739.385	3921.65459
739.578	3919.5535
739.771	3978.37644
739.964	3858.61308
740.156	4310.00137
740.349	3969.97414
740.542	4007.78193
740.735	3839.69712
740.927	3932.15975
741.12	3890.13609
741.313	3938.46261
741.505	3799.75816
741.698	3925.85672
741.891	3888.03469
742.083	4035.08343
742.276	3980.47697
742.468	3839.69712
742.661	3639.93204
742.854	3587.33357
743.046	3721.962
743.239	3742.99061
743.431	3753.50419
743.624	3875.42591
743.816	3686.20892
744.009	3940.56352
744.201	3803.9626
744.393	3898.54146
744.586	3635.72459
744.778	3795.55365
744.971	3633.62084
745.163	3879.62892
745.355	3576.81247
745.548	3635.72459
745.74	3711.44696
745.932	3848.10441
746.125	3721.962
746.317	3789.24673
746.509	3946.86613
746.702	3902.74403
746.894	3698.82829
747.086	3755.60685
747.278	3753.50419
747.471	3824.98359
747.663	3986.77842
747.855	3879.62892
748.047	3757.70949
748.239	3984.67796
748.431	3761.91471
748.623	3915.35125
748.815	3911.14893
749.008	4005.68167
749.2	3864.91804
749.392	3833.39144
749.584	3925.85672
749.776	4047.68295
749.968	3652.55392
750.16	3694.62191
750.352	3824.98359
750.544	3854.40967
750.736	3759.81211
750.928	3833.39144
751.12	3656.76106
751.311	3963.6722
751.503	3818.6775
751.695	3822.88158
751.887	3633.62084
752.079	3959.4708
752.271	3488.41701
752.463	3778.7348
752.654	3755.60685
752.846	3885.93328
753.038	3545.24639
753.23	3778.7348
753.421	3574.70819
753.613	3682.00231
753.805	3610.47834
753.997	3726.16787
754.188	3570.49959
754.38	3583.12518
754.572	3669.38203
754.763	3698.82829
754.955	3437.8909
755.146	3745.09337
755.338	3446.31264
755.53	3782.93963
755.721	3610.47834
755.913	3919.5535
756.104	3501.04691
756.296	3959.4708
756.487	3475.78646
756.679	3673.58887
756.87	3490.52204
757.062	3399.98955
757.253	3612.5823
757.445	3526.30474
757.636	3463.15525
757.827	3660.96813
758.019	3494.73204
758.21	3517.88576
758.401	3587.33357
758.593	3810.2691
758.784	3490.52204
758.975	3623.10181
759.167	3599.95827
759.358	3770.32491
759.549	3505.25673
759.74	3570.49959
759.932	3423.15217
760.123	3395.77794
760.314	3450.5234
760.505	3551.55994
760.696	3334.70163
760.888	3463.15525
761.079	3458.94471
761.27	3682.00231
761.461	3555.76888
761.652	3730.37367
761.843	3526.30474
762.034	3620.99794
762.225	3349.44553
762.416	3433.67992
762.607	3204.07633
762.798	3513.67616
762.989	3543.14183
763.18	3663.07163
763.371	3536.82806
763.562	3524.20003
763.753	3341.02055
763.944	3570.49959
764.135	3368.40072
764.326	3589.43773
764.517	3465.2605
764.708	3553.66442
764.899	3477.89159
765.089	3427.36332
765.28	3159.81773
765.471	3467.36572
765.662	3212.50571
765.853	3463.15525
766.043	3197.75411
766.234	3446.31264
766.425	3366.29466
766.615	3435.78542
766.806	3362.08248
766.997	3343.12682
767.187	3288.35817
767.378	3463.15525
767.569	3332.59529
767.759	3477.89159
767.95	3402.09533
768.141	3273.61079
768.331	3277.82441
768.522	3486.31196
768.712	3191.43175
768.903	3467.36572
769.093	3242.00648
769.284	3353.65792
769.474	3138.73969
769.665	3115.55198
769.855	3201.96894
770.046	3322.06333
770.236	3189.32426
770.426	3197.75411
770.617	3260.96952
770.807	3248.32764
770.998	3233.57802
771.188	3389.46038
771.378	3081.82097
771.569	3193.53922
771.759	3054.41155
771.949	3166.14083
772.139	3054.41155
772.33	2967.94942
772.52	2978.49495
772.71	3180.89415
772.9	2963.73111
773.09	3098.68698
773.281	3041.76017
773.471	2991.14909
773.661	2976.38587
773.851	3033.3256
774.041	2875.13287
774.231	3056.52006
774.421	3060.73704
774.611	3191.43175
774.802	3088.14584
774.992	3134.52389
775.182	2999.58488
775.372	3052.30303
775.562	3126.09209
775.752	3107.11961
775.942	2877.24265
776.131	3174.5714
776.321	2740.07798
776.511	2923.65415
776.701	2984.82209
776.891	2868.80345
777.081	2894.12037
777.271	3117.66003
777.461	2904.66847
777.651	3031.21692
777.84	2794.95082
778.03	2885.68162
778.22	2816.05331
778.41	2740.07798
778.599	2851.92436
778.789	2828.71414
778.979	2889.90102
779.169	2915.21621
779.358	2860.36402
779.548	3155.60225
779.738	3022.78205
779.927	3174.5714
780.117	2818.16348
780.307	2894.12037
780.496	2986.9311
780.686	3058.62856
780.875	2780.17826
781.065	2841.37447
781.254	2748.52054
781.444	2944.74795
781.633	2801.28171
781.823	3031.21692
782.012	2744.29929
782.202	2921.54468
782.391	2721.08143
782.581	2721.08143
782.77	2792.8405
782.96	2835.04437
783.149	2569.07182
783.338	2917.32572
783.528	2522.61185
783.717	2708.41647
783.906	2661.97431
784.096	2780.17826
784.285	2851.92436
784.474	2889.90102
784.663	2820.27364
784.853	2727.41373
785.042	2640.86221
785.231	2818.16348
785.42	2818.16348
785.61	2666.19658
785.799	2585.96494
785.988	2594.41121
786.177	2516.27597
786.366	2659.86316
786.555	2566.96013
786.744	2543.73072
786.933	2554.28972
787.122	2972.16768
787.312	2716.85983
787.501	2729.52447
787.69	2651.41842
787.879	2716.85983
788.068	2516.27597
788.257	2640.86221
788.445	2400.10036
788.634	2666.19658
788.823	2526.83572
789.012	2615.52603
789.201	2400.10036
789.39	2602.85728
789.579	2488.81929
789.768	2588.07652
789.957	2328.26677
790.145	2520.4999
790.334	2592.29966
790.523	2642.97347
790.712	2550.06615
790.9	2425.45056
791.089	2446.57456
791.278	2463.47298
791.467	2408.5506
791.655	2362.07226
791.844	2376.86136
792.033	2514.16399
792.221	2222.60891
792.41	2446.57456
792.599	2201.47463
792.787	2505.71593
792.976	2421.22563
793.164	2564.84842
793.353	2408.5506
793.541	2518.38794
793.73	2383.19939
793.918	2412.77565
794.107	2372.63596
794.295	2531.05954
794.484	2404.3255
794.672	2474.03413
794.861	2364.18502
795.049	2499.37978
795.238	2307.13707
795.426	2547.95435
795.614	2165.54441
795.803	2378.97405
795.991	2351.50832
796.179	2480.37069
796.368	2311.36309
796.556	2440.23747
796.744	2455.02385
796.932	2391.64996
797.121	2167.65802
797.309	2349.3955
797.497	2332.4926
797.685	2334.6055
797.874	2258.53516
798.062	2214.1553
798.25	2167.65802
798.438	2467.69747
798.626	2368.41051
798.814	2343.05699
799.002	2362.07226
799.19	2408.5506
799.378	2228.94902
799.566	2252.19542
799.755	2135.95305
799.943	2228.94902
800.131	2311.36309
800.318	2305.02405
800.506	2167.65802
800.694	2218.38212
800.882	2167.65802
801.07	2482.48286
801.258	2300.79797
801.446	2315.58907
801.634	2104.2463
801.822	2197.24767
802.01	2104.2463
802.197	2324.04091
802.385	2201.47463
802.573	2338.83126
802.761	2245.8556
802.949	2336.71838
803.136	2209.92844
803.324	2378.97405
803.512	2116.9292
803.699	2450.79923
803.887	2119.043
804.075	2383.19939
804.262	2359.9595
804.45	2374.74866
804.638	2357.84672
804.825	2516.27597
805.013	2359.9595
805.201	2501.49184
805.388	2239.5157
805.576	2264.87482
805.763	2152.86259
805.951	2414.88816
806.138	2277.55388
806.326	2231.06237
806.513	2116.9292
806.701	2336.71838
806.888	2097.90474
807.075	2264.87482
807.263	2269.10121
807.45	2417.00066
807.638	2228.94902
807.825	2474.03413
808.012	2281.78017
808.2	2321.92796
808.387	2345.16984
808.574	2429.67545
808.761	2309.25008
808.949	2448.6869
809.136	2239.5157
809.323	2395.87518
809.51	2201.47463
809.698	2374.74866
809.885	2163.4308
810.072	2345.16984
810.259	2370.52324
810.446	2505.71593
810.633	2480.37069
810.82	2571.1835
811.008	2444.46221
811.195	2640.86221
811.382	2302.91101
811.569	2590.1881
811.756	2359.9595
811.943	2340.94413
812.13	2296.57186
812.317	2362.07226
812.504	2438.12509
812.691	2516.27597
812.878	2507.82796
813.064	2440.23747
813.251	2209.92844
813.438	2583.85334
813.625	2359.9595
813.812	2395.87518
813.999	2171.88521
814.186	2410.66313
814.372	2169.77162
814.559	2383.19939
814.746	2370.52324
814.933	2338.83126
815.12	2239.5157
815.306	2423.3381
815.493	2391.64996
815.68	2581.74173
815.866	2199.36115
816.053	2442.34984
816.24	2212.04188
816.426	2309.25008
816.613	2328.26677
816.799	2459.24844
816.986	2218.38212
817.173	2474.03413
817.359	2013.34445
817.546	2319.81501
817.732	2212.04188
817.919	2455.02385
818.105	2159.20354
818.292	2490.93141
818.478	2381.08673
818.665	2425.45056
818.851	2243.74231
819.037	2490.93141
819.224	2188.79365
819.41	2389.53733
819.597	2307.13707
819.783	2378.97405
819.969	2241.62901
820.156	2474.03413
820.342	2321.92796
820.528	2509.93998
820.714	2184.56659
820.901	2357.84672
821.087	2243.74231
821.273	2429.67545
821.459	2283.89329
821.646	2488.81929
821.832	2245.8556
822.018	2450.79923
822.204	2133.83932
822.39	2279.66703
822.576	2262.76161
822.762	2387.4247
822.948	2072.53785
823.134	2112.7016
823.32	1960.4888
823.507	2516.27597
823.693	2138.06677
823.879	2302.91101
824.065	2061.968
824.25	2254.30867
824.436	2163.4308
824.622	2313.47608
824.808	2036.59964
824.994	2266.98802
825.18	2121.15678
825.366	2412.77565
825.552	2078.87967
825.738	2095.79087
825.923	2138.06677
826.109	2395.87518
826.295	2201.47463
826.481	2262.76161
826.667	2091.56312
826.852	2144.40788
827.038	2057.74001
827.224	2298.68492
827.409	2281.78017
827.595	2286.00641
827.781	1998.54527
827.966	2252.19542
828.152	2002.77364
828.338	2256.42192
828.523	2089.44923
828.709	2193.02068
828.894	1998.54527
829.08	2095.79087
829.266	1913.9727
829.451	2140.18048
829.637	1990.08845
829.822	2167.65802
830.008	2032.37149
830.193	1922.43038
830.378	2032.37149
830.564	2146.52157
830.749	1858.99569
830.935	2209.92844
831.12	1863.22481
831.305	2078.87967
831.491	2083.10751
831.676	2222.60891
831.861	1888.59914
832.047	2091.56312
832.232	1833.62054
832.417	2085.22143
832.602	1863.22481
832.788	1998.54527
832.973	1804.01535
833.158	2119.043
833.343	1966.83169
833.528	2138.06677
833.714	2040.82777
833.899	2068.30993
834.084	1856.88112
834.269	1913.9727
834.454	1655.97811
834.639	1924.54479
834.824	1812.47406
835.009	1871.683
835.194	1863.22481
835.379	2011.2303
835.564	1694.04637
835.749	2011.2303
835.934	1943.57418
836.119	1778.6388
836.304	1721.53952
836.489	1820.93271
836.674	1609.44912
836.859	1858.99569
837.044	1698.27612
837.228	2038.71371
837.413	1696.16125
837.598	2023.91509
837.783	1746.91731
837.968	1854.76655
838.152	1804.01535
838.337	1729.99884
838.522	1670.78254
838.707	1880.14111
838.891	1672.89745
839.076	1744.80251
839.261	1655.97811
839.445	1863.22481
839.63	1812.47406
839.815	1839.96439
839.999	1812.47406
840.184	1854.76655
840.368	1782.86827
840.553	1865.33937
840.737	1592.52924
840.922	1787.09772
841.106	1620.02399
841.291	1897.05708
841.475	1522.73366
841.66	1765.95031
841.844	1702.50586
842.029	1645.40344
842.213	1611.5641
842.397	1738.4581
842.582	1520.61862
842.766	1647.51838
842.951	1452.9371
843.135	1668.66763
843.319	1541.76896
843.504	1531.1938
843.688	1300.65505
843.872	1586.18425
844.056	1620.02399
844.241	1772.29457
844.425	1609.44912
844.609	1588.29925
844.793	1423.32638
844.977	1639.05861
845.161	1457.16721
845.346	1554.4591
845.53	1433.90163
845.714	1713.08015
845.898	1372.56536
846.082	1729.99884
846.266	1493.12306
846.45	1482.54782
846.634	1569.26422
846.818	1651.74825
847.002	1459.28226
847.186	1681.35705
847.37	1562.91918
847.554	1634.82871
847.738	1410.63609
847.922	1689.81661
848.106	1414.86618
848.29	1634.82871
848.473	1476.20267
848.657	1461.39731
848.841	1366.22027
849.025	1406.406
849.209	1389.48565
849.392	1347.18505
849.576	1397.94582
849.76	1402.1759
849.944	1376.79543
850.127	1541.76896
850.311	1275.27544
850.495	1469.85752
850.678	1338.72499
850.862	1664.4378
851.046	1300.65505
851.229	1457.16721
851.413	1309.11498
851.596	1457.16721
851.78	1279.50535
851.964	1469.85752
852.147	1359.87518
852.331	1423.32638
852.514	1264.7007
852.698	1353.53011
852.881	1131.46563
853.065	1252.0111
853.248	1180.10537
853.431	1247.78125
853.615	1127.23619
853.798	1376.79543
853.982	1158.9574
854.165	1317.57495
854.348	1135.69509
854.532	1177.99056
854.715	1078.59901
854.898	1241.4365
855.081	1146.2688
855.265	1387.37061
855.448	1262.58576
855.631	1376.79543
855.814	1089.17209
855.997	1190.6795
856.181	991.90501
856.364	1116.66268
856.547	1082.82823
856.73	1167.41654
856.913	1004.59131
857.096	1254.12602
857.279	1032.07905
857.462	1118.77737
857.645	1137.80982
857.828	1165.30175
858.011	1025.73564
858.194	1165.30175
858.377	987.67629
858.56	1074.36982
858.743	958.07604
858.926	1123.00677
859.109	998.24813
859.292	1131.46563
859.475	1042.65153
859.658	1220.28753
859.841	1070.14064
860.023	1161.07218
860.206	991.90501
860.389	1087.05747
860.572	985.56195
860.755	1042.65153
860.937	1093.40136
861.12	1040.53703
861.303	926.36301
861.486	1036.30803
861.668	907.336
861.851	1091.28672
862.034	892.53765
862.216	996.13375
862.399	934.81966
862.581	1072.25523
862.764	827.00696
862.947	1029.96458
863.129	934.81966
863.312	1084.94284
863.494	941.16222
863.677	1034.19354
863.859	943.27643
864.042	936.93384
864.224	977.10462
864.406	922.13473
864.589	818.55201
864.771	894.65167
864.954	698.0859
865.136	837.57587
865.318	797.41526
865.501	881.96763
865.683	799.52889
865.865	788.96083
866.048	714.99138
866.23	865.05604
866.412	740.35091
866.594	898.87975
866.777	774.16594
866.959	879.85366
867.141	750.91783
867.323	820.66573
867.505	645.26097
867.687	818.55201
867.869	780.50655
868.052	788.96083
868.234	695.97277
868.416	822.77947
868.598	755.14466
868.78	708.65175
868.962	714.99138
869.144	738.23756
869.326	695.97277
869.508	805.86985
869.69	763.59846
869.872	962.30457
870.054	780.50655
870.236	841.80349
870.417	805.86985
870.599	791.07442
870.781	725.55767
870.963	797.41526
871.145	814.32458
871.327	797.41526
871.508	750.91783
871.69	848.14499
871.872	700.19905
872.054	839.68967
872.235	782.6201
872.417	915.79237
872.599	710.76495
872.78	886.19561
872.962	717.10462
873.144	837.57587
873.325	689.63343
873.507	746.69103
873.689	734.01088
873.87	782.6201
874.052	765.71194
874.233	772.05243
874.415	615.68226
874.596	780.50655
874.778	605.11903
874.959	738.23756
875.141	695.97277
875.322	788.96083
875.503	704.42538
875.685	865.05604
875.866	681.18114
876.048	657.93829
876.229	647.37382
876.41	657.93829
876.592	611.45693
876.773	662.16415
876.954	653.71246
877.136	706.53856
877.317	672.72903
877.498	765.71194
877.679	619.90764
877.86	782.6201
878.042	704.42538
878.223	856.60045
878.404	714.99138
878.585	731.89756
878.766	710.76495
878.947	698.0859
879.128	691.74653
879.309	683.29419
879.49	573.43126
879.672	734.01088
879.853	613.56959
880.034	712.87816
880.215	664.2771
880.396	662.16415
880.576	636.80966
880.757	776.27947
880.938	681.18114
881.119	843.91731
881.3	710.76495
881.481	814.32458
881.662	852.3727
881.843	898.87975
882.023	795.30164
882.204	884.08162
882.385	712.87816
882.566	900.9938
882.747	628.35855
882.927	892.53765
883.108	731.89756
883.289	750.91783
883.469	662.16415
883.65	892.53765
883.831	710.76495
884.011	698.0859
884.192	740.35091
884.373	892.53765
884.553	801.64253
884.734	742.46427
884.914	645.26097
885.095	831.2345
885.275	799.52889
885.456	852.3727
885.636	903.10786
885.817	742.46427
885.997	816.43829
886.178	814.32458
886.358	708.65175
886.538	888.30962
886.719	869.28389
886.899	772.05243
887.08	780.50655
887.26	909.45008
887.44	742.46427
887.621	784.73367
887.801	662.16415
887.981	869.28389
888.161	700.19905
888.342	782.6201
888.522	655.82537
888.702	750.91783
888.882	765.71194
889.062	729.78425
889.242	657.93829
889.423	900.9938
889.603	827.00696
889.783	856.60045
889.963	605.11903
890.143	835.46207
890.323	772.05243
890.503	839.68967
890.683	712.87816
890.863	827.00696
891.043	858.71433
891.223	890.42363
891.403	672.72903
891.583	812.21088
891.763	746.69103
891.943	905.22192
892.122	714.99138
892.302	846.03115
892.482	662.16415
892.662	797.41526
892.842	746.69103
893.022	841.80349
893.201	788.96083
893.381	909.45008
893.561	750.91783
893.741	801.64253
893.92	765.71194
894.1	835.46207
894.28	767.82543
894.459	797.41526
894.639	687.52034
894.819	772.05243
894.998	746.69103
895.178	767.82543
895.357	755.14466
895.537	776.27947
895.716	645.26097
895.896	782.6201
896.075	607.23165
896.255	894.65167
896.434	683.29419
896.614	776.27947
896.793	657.93829
896.973	748.80442
897.152	573.43126
897.331	674.84204
897.511	755.14466
897.69	748.80442
897.87	664.2771
898.049	704.42538
898.228	560.75699
898.407	505.84085
898.587	554.42003
898.766	545.97095
898.945	524.84921
899.124	556.53234
899.304	594.55612
899.483	569.20645
899.662	531.18558
899.841	630.47131
900.02	478.38641
900.199	569.20645
900.378	543.85871
900.557	548.0832
900.737	478.38641
900.916	539.63428
901.095	529.07344
901.274	545.97095
901.453	564.98169
901.632	579.76858
901.811	488.94552
901.989	529.07344
902.168	469.9394
902.347	510.06483
902.526	484.72183
902.705	537.52208
902.884	510.06483
903.063	524.84921
903.242	455.15771
903.42	461.49263
903.599	396.03861
903.778	465.71598
903.957	476.27464
904.135	520.62503
904.314	427.708
904.493	453.0461
904.672	381.26081
904.85	478.38641
905.029	370.70575
905.207	425.5966
905.386	450.9345
905.565	425.5966
905.743	366.48384
905.922	362.262
906.1	320.04741
906.279	415.03981
906.457	408.70593
906.636	391.8163
906.814	360.15111
906.993	317.93686
907.171	351.7077
907.35	322.15797
907.528	307.38441
907.707	349.59689
907.885	417.15113
908.063	448.82293
908.242	391.8163
908.42	415.03981
908.598	315.82634
908.777	294.72206
908.955	275.72978
909.133	256.73901
909.311	290.50142
909.49	282.06037
909.668	275.72978
909.846	353.81853
910.024	345.37533
910.202	231.42039
910.38	328.48976
910.559	317.93686
910.737	315.82634
910.915	379.14977
911.093	248.29916
911.271	383.37188
911.449	311.60534
911.627	343.26457
911.805	203.99507
911.983	396.03861
912.161	309.49486
912.339	425.5966
912.517	265.17916
912.695	360.15111
912.872	419.26247
913.05	402.37219
913.228	315.82634
913.406	341.15383
913.584	377.03874
913.762	438.26527
913.939	317.93686
914.117	290.50142
914.295	349.59689
914.473	328.48976
914.65	326.37915
914.828	339.04311
915.006	366.48384
915.184	260.95905
915.361	320.04741
915.539	309.49486
915.716	292.61173
915.894	370.70575
916.072	366.48384
916.249	311.60534
916.427	298.94277
916.604	267.28925
916.782	317.93686
916.959	311.60534
917.137	303.16355
917.314	305.27397
917.492	269.39935
917.669	307.38441
917.847	271.50948
918.024	216.6525
918.201	256.73901
918.379	400.26098
918.556	239.85962
918.733	273.61962
918.911	248.29916
919.088	244.07936
919.265	265.17916
919.442	260.95905
919.62	265.17916
919.797	279.95016
919.974	260.95905
920.151	258.84902
920.328	195.55718
920.506	267.28925
920.683	182.90097
920.86	225.09118
921.037	210.32369
921.214	250.4091
921.391	225.09118
921.568	290.50142
921.745	239.85962
921.922	235.63997
922.099	273.61962
922.276	218.76214
922.453	159.69982
922.63	239.85962
922.807	210.32369
922.984	189.22898
923.161	180.79167
923.338	218.76214
923.514	218.76214
923.691	185.01029
923.868	187.11962
924.045	301.05315
924.222	182.90097
924.399	235.63997
924.575	222.98148
924.752	358.04023
924.929	178.68239
925.105	231.42039
925.282	155.4817
925.459	206.10459
925.635	212.43327
925.812	201.88557
925.989	178.68239
926.165	218.76214
926.342	180.79167
926.518	252.51905
926.695	214.54287
926.871	163.91802
927.048	174.4639
927.224	176.57313
927.401	185.01029
927.577	185.01029
927.754	163.91802
927.93	123.8485
928.107	170.24549
928.283	121.73979
928.459	163.91802
928.636	155.4817
928.812	159.69982
928.988	168.13631
929.165	206.10459
929.341	147.04571
929.517	241.96948
929.693	125.95723
929.87	195.55718
930.046	218.76214
930.222	142.82785
930.398	168.13631
930.574	149.15468
930.751	104.87091
930.927	155.4817
931.103	231.42039
931.279	119.63111
931.455	199.77609
931.631	140.71894
931.807	71.13739
931.983	180.79167
932.159	193.44776
932.335	155.4817
932.511	155.4817
932.687	115.4138
932.863	121.73979
933.039	73.24557
933.215	155.4817
933.391	138.61006
933.566	168.13631
933.742	123.8485
933.918	102.7624
934.094	104.87091
934.27	104.87091
934.445	104.87091
934.621	155.4817
934.797	39.51749
934.973	77.46199
935.148	117.52244
935.324	92.22017
935.5	58.48881
935.675	-21.59933
935.851	178.68239
936.027	37.40968
936.202	147.04571
936.378	81.6785
936.553	140.71894
936.729	60.59685
936.904	31.08639
937.08	79.57023
937.255	71.13739
937.431	64.813
937.606	22.65567
937.782	-11.06339
937.957	56.38079
938.133	37.40968
938.308	111.19658
938.483	-38.45555
938.659	71.13739
938.834	-40.56246
939.009	79.57023
939.185	56.38079
939.36	24.76332
939.535	22.65567
939.71	64.813
939.886	50.05688
940.061	52.16483
940.236	33.19413
940.411	45.84105
940.586	92.22017
940.761	12.11781
940.937	117.52244
941.112	54.2728
941.287	33.19413
941.462	104.87091
941.637	3.68794
941.812	28.97868
941.987	54.2728
942.162	58.48881
942.337	3.68794
942.512	-8.95613
942.687	-8.95613
942.862	39.51749
943.037	28.97868
943.212	14.22533
943.386	-4.74153
943.561	-63.73688
943.736	45.84105
943.911	50.05688
944.086	37.40968
944.26	-30.02763
944.435	119.63111
944.61	54.2728
944.785	28.97868
944.959	90.11179
945.134	79.57023
945.309	41.62532
945.483	90.11179
945.658	119.63111
945.833	50.05688
946.007	16.33288
946.182	47.94895
946.357	104.87091
946.531	37.40968
946.706	56.38079
946.88	26.87099
947.055	83.78679
947.229	83.78679
947.404	79.57023
947.578	113.30518
947.752	-6.84884
947.927	-61.63024
948.101	-4.74153
948.276	14.22533
948.45	20.54805
948.624	20.54805
948.799	-25.81353
948.973	83.78679
949.147	18.44046
949.321	62.70491
949.496	52.16483
949.67	41.62532
949.844	52.16483
950.018	115.4138
950.193	56.38079
950.367	20.54805
950.541	64.813
950.715	54.2728
950.889	47.94895
951.063	50.05688
951.237	37.40968
951.411	73.24557
951.585	35.30189
951.759	16.33288
951.933	28.97868
952.107	12.11781
952.281	123.8485
952.455	22.65567
952.629	-11.06339
952.803	90.11179
952.977	28.97868
953.151	-42.66935
953.325	39.51749
953.499	-30.02763
953.672	24.76332
953.846	20.54805
954.02	106.97945
954.194	-13.17063
954.368	-4.74153
954.541	92.22017
954.715	50.05688
954.889	60.59685
955.062	75.35377
955.236	88.00344
955.41	98.54544
955.583	130.17476
955.757	115.4138
955.93	56.38079
956.104	64.813
956.278	20.54805
956.451	3.68794
956.625	41.62532
956.798	33.19413
956.972	52.16483
957.145	12.11781
957.319	-17.38502
957.492	-2.6342
957.665	62.70491
957.839	-4.74153
958.012	37.40968
958.185	16.33288
958.359	96.437
958.532	79.57023
958.705	73.24557
958.879	-8.95613
959.052	1.58054
959.225	64.813
959.398	3.68794
959.572	-2.6342
959.745	64.813
959.918	83.78679
960.091	14.22533
960.264	102.7624
960.438	5.79537
960.611	-34.24164
960.784	54.2728
960.957	-13.17063
961.13	22.65567
961.303	45.84105
961.476	83.78679
961.649	20.54805
961.822	22.65567
961.995	31.08639
962.168	20.54805
962.341	106.97945
962.514	39.51749
962.686	73.24557
962.859	33.19413
963.032	24.76332
963.205	58.48881
963.378	54.2728
963.551	33.19413
963.723	52.16483
963.896	33.19413
964.069	50.05688
964.242	37.40968
964.414	56.38079
964.587	73.24557
964.76	66.92111
964.932	64.813
965.105	-23.70644
965.278	31.08639
965.45	62.70491
965.623	-21.59933
965.795	26.87099
965.968	71.13739
966.14	54.2728
966.313	71.13739
966.485	45.84105
966.658	37.40968
966.83	88.00344
967.003	52.16483
967.175	58.48881
967.348	56.38079
967.52	37.40968
967.692	20.54805
967.865	54.2728
968.037	3.68794
968.209	-59.52357
968.382	35.30189
968.554	-15.27784
968.726	26.87099
968.898	20.54805
969.071	-13.17063
969.243	56.38079
969.415	-86.90822
969.587	12.11781
969.759	75.35377
969.932	62.70491
970.104	7.90283
970.276	-8.95613
970.448	31.08639
970.62	3.68794
970.792	16.33288
970.964	14.22533
971.136	14.22533
971.308	28.97868
971.48	5.79537
971.652	12.11781
971.824	-13.17063
971.996	16.33288
972.168	81.6785
972.339	5.79537
972.511	60.59685
972.683	3.68794
972.855	54.2728
973.027	-2.6342
973.199	-8.95613
973.37	-11.06339
973.542	18.44046
973.714	85.8951
973.886	14.22533
974.057	35.30189
974.229	45.84105
974.401	-63.73688
974.572	54.2728
974.744	28.97868
974.915	20.54805
975.087	-21.59933
975.259	22.65567
975.43	-2.6342
975.602	31.08639
975.773	52.16483
975.945	50.05688
976.116	-2.6342
976.288	-11.06339
976.459	-0.52684
976.63	28.97868
976.802	-36.3486
976.973	22.65567
977.145	24.76332
977.316	31.08639
977.487	5.79537
977.659	28.97868
977.83	12.11781
978.001	35.30189
978.172	62.70491
978.344	62.70491
978.515	73.24557
978.686	10.01031
978.857	16.33288
979.028	18.44046
979.2	138.61006
979.371	28.97868
979.542	-11.06339
979.713	75.35377
979.884	-34.24164
980.055	45.84105
980.226	20.54805
980.397	-8.95613
980.568	33.19413
980.739	66.92111
980.91	12.11781
981.081	66.92111
981.252	28.97868
981.423	90.11179
981.594	106.97945
981.765	62.70491
981.936	26.87099
982.106	28.97868
982.277	147.04571
982.448	3.68794
982.619	33.19413
982.79	12.11781
982.96	-55.31017
983.131	28.97868
983.302	-13.17063
983.472	37.40968
983.643	-19.49219
983.814	-19.49219
983.984	3.68794
984.155	50.05688
984.326	54.2728
984.496	33.19413
984.667	-4.74153
984.837	-8.95613
985.008	109.088
985.178	-78.48264
985.349	-19.49219
985.519	47.94895
985.69	28.97868
985.86	20.54805
986.031	3.68794
986.201	50.05688
986.371	3.68794
986.542	75.35377
986.712	66.92111
986.882	5.79537
987.053	10.01031
987.223	16.33288
987.393	37.40968
987.563	-30.02763
987.734	10.01031
987.904	3.68794
988.074	47.94895
988.244	3.68794
988.414	-72.16318
988.585	130.17476
988.755	12.11781
988.925	56.38079
989.095	54.2728
989.265	10.01031
989.435	7.90283
989.605	-21.59933
989.775	121.73979
989.945	33.19413
990.115	-25.81353
990.285	28.97868
990.455	50.05688
990.625	12.11781
990.795	37.40968
990.965	62.70491
991.134	-13.17063
991.304	45.84105
991.474	7.90283
991.644	14.22533
991.814	88.00344
991.984	12.11781
992.153	37.40968
992.323	-19.49219
992.493	-36.3486
992.662	5.79537
992.832	71.13739
993.002	24.76332
993.171	37.40968
993.341	28.97868
993.511	45.84105
993.68	41.62532
993.85	-36.3486
994.019	-27.92059
994.189	54.2728
994.358	5.79537
994.528	58.48881
994.697	-46.88306
994.867	22.65567
995.036	54.2728
995.206	7.90283
995.375	-53.20343
995.544	71.13739
995.714	-2.6342
995.883	73.24557
996.052	-34.24164
996.222	-4.74153
996.391	28.97868
996.56	-19.49219
996.73	71.13739
996.899	-17.38502
997.068	5.79537
997.237	3.68794
997.406	5.79537
997.576	-13.17063
997.745	-84.80186
997.914	20.54805
998.083	7.90283
998.252	10.01031
998.421	-32.13465
998.59	43.73317
998.759	66.92111
998.928	31.08639
999.097	50.05688
999.266	58.48881
999.435	1.58054
999.604	10.01031
999.773	43.73317
999.942	-19.49219
1000.111	-21.59933
1000.28	31.08639
1000.448	39.51749
1000.617	-8.95613
1000.786	-21.59933
1000.955	-8.95613
1001.124	20.54805
1001.292	100.65391
1001.461	-70.05664
1001.63	-15.27784
1001.798	-86.90822
1001.967	-17.38502
1002.136	-114.28848
1002.304	-4.74153
1002.473	26.87099
1002.642	24.76332
1002.81	-4.74153
1002.979	-27.92059
1003.147	45.84105
1003.316	-8.95613
1003.484	-8.95613
1003.653	58.48881
1003.821	7.90283
1003.99	43.73317
1004.158	-34.24164
1004.327	88.00344
1004.495	18.44046
1004.663	28.97868
1004.832	1.58054
1005	-19.49219
1005.168	-19.49219
1005.337	66.92111
1005.505	79.57023
1005.673	12.11781
1005.842	28.97868
1006.01	24.76332
1006.178	22.65567
1006.346	12.11781
1006.514	41.62532
1006.683	-17.38502
1006.851	79.57023
1007.019	-30.02763
1007.187	-17.38502
1007.355	-27.92059
1007.523	-30.02763
1007.691	33.19413
1007.859	66.92111
1008.027	88.00344
1008.195	16.33288
1008.363	5.79537
1008.531	-27.92059
1008.699	54.2728
1008.867	39.51749
1009.035	7.90283
1009.203	-0.52684
1009.37	-6.84884
1009.538	12.11781
1009.706	14.22533
1009.874	-11.06339
1010.042	-17.38502
1010.209	45.84105
1010.377	-21.59933
1010.545	37.40968
1010.713	-21.59933
1010.88	33.19413
1011.048	37.40968
1011.216	-13.17063
1011.383	12.11781
1011.551	47.94895
1011.718	28.97868
1011.886	20.54805
1012.054	7.90283
1012.221	60.59685
1012.389	-4.74153
1012.556	-2.6342
1012.724	-4.74153
1012.891	-30.02763
1013.058	-8.95613
1013.226	45.84105
1013.393	10.01031
1013.561	37.40968
1013.728	37.40968
1013.895	-99.54581
1014.063	28.97868
1014.23	12.11781
1014.397	33.19413
1014.565	33.19413
1014.732	7.90283
1014.899	16.33288
1015.066	37.40968
1015.233	3.68794
1015.401	28.97868
1015.568	-8.95613
1015.735	58.48881
1015.902	-44.77622
1016.069	47.94895
1016.236	-17.38502
1016.403	-21.59933
1016.57	39.51749
1016.737	12.11781
1016.904	37.40968
1017.071	47.94895
1017.238	54.2728
1017.405	79.57023
1017.572	47.94895
1017.739	58.48881
1017.906	37.40968
1018.073	-2.6342
1018.24	24.76332
1018.407	71.13739
1018.573	33.19413
1018.74	71.13739
1018.907	-53.20343
1019.074	24.76332
1019.241	-2.6342
1019.407	69.02924
1019.574	22.65567
1019.741	3.68794
1019.907	-4.74153
1020.074	-34.24164
1020.241	-8.95613
1020.407	73.24557
1020.574	-36.3486
1020.74	-17.38502
1020.907	22.65567
1021.073	33.19413
1021.24	-19.49219
1021.406	18.44046
1021.573	3.68794
1021.739	130.17476
1021.906	-0.52684
1022.072	-25.81353
1022.239	-0.52684
1022.405	-55.31017
1022.571	14.22533
1022.738	85.8951
1022.904	-27.92059
1023.07	14.22533
1023.237	20.54805
1023.403	-17.38502
1023.569	-4.74153
1023.735	-46.88306
1023.902	-36.3486
1024.068	10.01031
1024.234	45.84105
1024.4	16.33288
1024.566	45.84105
1024.732	3.68794
1024.898	-105.86425
1025.065	37.40968
1025.231	-21.59933
1025.397	54.2728
1025.563	-27.92059
1025.729	10.01031
1025.895	22.65567
1026.061	-72.16318
1026.227	-63.73688
1026.392	12.11781
1026.558	-38.45555
1026.724	-34.24164
1026.89	-2.6342
1027.056	-11.06339
1027.222	-23.70644
1027.388	-46.88306
1027.553	37.40968
1027.719	18.44046
1027.885	81.6785
1028.051	18.44046
1028.216	56.38079
1028.382	-27.92059
1028.548	20.54805
1028.713	62.70491
1028.879	20.54805
1029.045	20.54805
1029.21	54.2728
1029.376	-17.38502
1029.541	7.90283
1029.707	31.08639
1029.873	3.68794
1030.038	-0.52684
1030.204	-34.24164
1030.369	16.33288
1030.534	52.16483
1030.7	16.33288
1030.865	-15.27784
1031.031	37.40968
1031.196	7.90283
1031.361	60.59685
1031.527	-30.02763
1031.692	39.51749
1031.857	-46.88306
1032.023	81.6785
1032.188	26.87099
1032.353	14.22533
1032.518	3.68794
1032.684	24.76332
1032.849	75.35377
1033.014	14.22533
1033.179	28.97868
1033.344	-27.92059
1033.509	-0.52684
1033.674	22.65567
1033.839	12.11781
1034.004	37.40968
1034.17	-36.3486
1034.335	41.62532
1034.5	18.44046
1034.664	115.4138
1034.829	22.65567
1034.994	-19.49219
1035.159	-0.52684
1035.324	54.2728
1035.489	28.97868
1035.654	45.84105
1035.819	35.30189
1035.984	-17.38502
1036.148	-44.77622
1036.313	22.65567
1036.478	-19.49219
1036.643	-48.98987
1036.807	37.40968
1036.972	3.68794
1037.137	20.54805
1037.301	37.40968
1037.466	-38.45555
1037.631	77.46199
1037.795	33.19413
1037.96	3.68794
1038.124	-61.63024
1038.289	-38.45555
1038.454	39.51749
1038.618	45.84105
1038.783	5.79537
1038.947	73.24557
1039.111	3.68794
1039.276	18.44046
1039.44	56.38079
1039.605	-27.92059
1039.769	-21.59933
1039.933	88.00344
1040.098	56.38079
1040.262	28.97868
1040.426	39.51749
1040.591	88.00344
1040.755	-80.58907
1040.919	62.70491
1041.083	-11.06339
1041.248	24.76332
1041.412	-53.20343
1041.576	3.68794
1041.74	-13.17063
1041.904	79.57023
1042.068	-13.17063
1042.232	62.70491
1042.397	-48.98987
1042.561	-21.59933
1042.725	-44.77622
1042.889	28.97868
1043.053	50.05688
1043.217	62.70491
1043.381	66.92111
1043.544	-2.6342
1043.708	31.08639
1043.872	22.65567
1044.036	45.84105
1044.2	33.19413
1044.364	35.30189
1044.528	37.40968
1044.691	50.05688
1044.855	-8.95613
1045.019	20.54805
1045.183	-8.95613
1045.346	47.94895
1045.51	33.19413
1045.674	5.79537
1045.837	-55.31017
1046.001	12.11781
1046.165	-0.52684
1046.328	-59.52357
1046.492	24.76332
1046.655	-2.6342
1046.819	37.40968
1046.983	-30.02763
1047.146	79.57023
1047.31	60.59685
1047.473	66.92111
1047.636	-38.45555
1047.8	45.84105
1047.963	3.68794
1048.127	-8.95613
1048.29	-17.38502
