Data from mixed_try1_USB4F045381__19__00244.txt Node

Date: Thu Apr 03 20:25:19 EDT 2025
User: mmckonesweet
Spectrometer: USB4F04538
Trigger mode: 4
Integration Time (sec): 2.700000E-3
Scans to average: 1
Electric dark correction enabled: true
Nonlinearity correction enabled: true
Boxcar width: 0
XAxis mode: Wavelengths
Number of Pixels in Spectrum: 3648
>>>>>Begin Spectral Data<<<<<
345.52	5.26851
345.736	5.26851
345.952	5.26851
346.168	-53.73012
346.384	-32.6614
346.6	-11.5902
346.816	11.59093
347.032	-3.16104
347.248	5.26851
347.464	32.66719
347.68	-64.26353
347.896	32.66719
348.112	-30.55439
348.328	64.28597
348.544	22.12877
348.76	-53.73012
348.975	-5.26836
349.191	11.59093
349.407	30.55946
349.623	22.12877
349.839	-5.26836
350.055	-20.01897
350.27	-32.6614
350.486	-41.08919
350.702	-38.98228
350.918	-36.87534
351.133	9.48343
351.349	-22.12611
351.565	-3.16104
351.781	-41.08919
351.996	55.85379
352.212	-91.64742
352.428	-17.91182
352.644	64.28597
352.859	-26.3403
353.075	38.99053
353.291	32.66719
353.506	-30.55439
353.722	-28.44736
353.938	-49.51657
354.153	81.15143
354.369	1.05369
354.584	30.55946
354.8	-7.37567
355.016	-20.01897
355.231	-41.08919
355.447	-13.69743
355.662	-11.5902
355.878	13.69845
356.093	-32.6614
356.309	38.99053
356.524	-9.48295
356.74	-3.16104
356.955	-7.37567
357.171	1.05369
357.386	9.48343
357.602	49.5299
357.817	-1.05368
358.033	-24.23321
358.248	-24.23321
358.464	13.69845
358.679	-45.30293
358.895	28.45175
359.11	-24.23321
359.325	1.05369
359.541	-57.94356
359.756	5.26851
359.972	17.91356
360.187	-38.98228
360.402	47.42198
360.618	5.26851
360.833	-20.01897
361.048	-26.3403
361.264	26.34407
361.479	-20.01897
361.694	43.20621
361.909	62.17789
362.125	-7.37567
362.34	20.02115
362.555	32.66719
362.77	13.69845
362.986	5.26851
363.201	-20.01897
363.416	-34.76838
363.631	5.26851
363.847	9.48343
364.062	-13.69743
364.277	32.66719
364.492	7.37596
364.707	-34.76838
364.922	-20.01897
365.138	-47.40976
365.353	-43.19607
365.568	-3.16104
365.783	-9.48295
365.998	-53.73012
366.213	-15.80464
366.428	-32.6614
366.643	28.45175
366.858	22.12877
367.073	81.15143
367.288	-66.37014
367.503	30.55946
367.718	-68.47672
367.933	55.85379
368.148	-20.01897
368.363	83.25972
368.578	43.20621
368.793	-74.79631
369.008	-17.91182
369.223	5.26851
369.438	41.09836
369.653	-100.07236
369.868	24.2364
370.083	1.05369
370.298	57.9618
370.513	47.42198
370.728	-20.01897
370.943	13.69845
371.157	-60.05024
371.372	9.48343
371.587	-30.55439
371.802	-1.05368
372.017	32.66719
372.232	13.69845
372.446	24.2364
372.661	38.99053
372.876	-36.87534
373.091	17.91356
373.306	-26.3403
373.52	-15.80464
373.735	-7.37567
373.95	9.48343
374.165	49.5299
374.379	7.37596
374.594	-5.26836
374.809	64.28597
375.023	-32.6614
375.238	38.99053
375.453	15.80599
375.667	-45.30293
375.882	-68.47672
376.097	24.2364
376.311	13.69845
376.526	45.31408
376.741	-9.48295
376.955	9.48343
377.17	51.63784
377.384	-53.73012
377.599	-45.30293
377.813	-91.64742
378.028	1.05369
378.242	-5.26836
378.457	-24.23321
378.672	-79.00925
378.886	17.91356
379.101	60.06984
379.315	68.5022
379.53	-45.30293
379.744	-9.48295
379.958	-1.05368
380.173	60.06984
380.387	17.91356
380.602	17.91356
380.816	-24.23321
381.031	34.77495
381.245	24.2364
381.459	7.37596
381.674	-24.23321
381.888	-20.01897
382.103	-68.47672
382.317	-5.26836
382.531	5.26851
382.746	-87.4348
382.96	-3.16104
383.174	38.99053
383.388	-32.6614
383.603	30.55946
383.817	22.12877
384.031	5.26851
384.246	47.42198
384.46	-104.28467
384.674	24.2364
384.888	-49.51657
385.103	38.99053
385.317	55.85379
385.531	-5.26836
385.745	38.99053
385.959	32.66719
386.174	-20.01897
386.388	85.36802
386.602	-41.08919
386.816	38.99053
387.03	28.45175
387.244	-3.16104
387.458	-30.55439
387.672	-20.01897
387.887	-28.44736
388.101	5.26851
388.315	30.55946
388.529	22.12877
388.743	-34.76838
388.957	-93.7537
389.171	-7.37567
389.385	81.15143
389.599	-41.08919
389.813	22.12877
390.027	13.69845
390.241	-53.73012
390.455	-32.6614
390.669	-3.16104
390.883	5.26851
391.097	-17.91182
391.311	-87.4348
391.525	-24.23321
391.738	-20.01897
391.952	49.5299
392.166	-100.07236
392.38	-9.48295
392.594	20.02115
392.808	-87.4348
393.022	-9.48295
393.236	24.2364
393.449	-79.00925
393.663	32.66719
393.877	24.2364
394.091	-1.05368
394.305	51.63784
394.518	28.45175
394.732	17.91356
394.946	-20.01897
395.16	1.05369
395.373	-30.55439
395.587	38.99053
395.801	47.42198
396.015	-36.87534
396.228	32.66719
396.442	-51.62336
396.656	81.15143
396.869	3.16109
397.083	1.05369
397.297	-41.08919
397.51	24.2364
397.724	5.26851
397.938	-17.91182
398.151	-53.73012
398.365	22.12877
398.578	13.69845
398.792	-34.76838
399.005	-93.7537
399.219	30.55946
399.433	5.26851
399.646	-17.91182
399.86	-26.3403
400.073	-28.44736
400.287	49.5299
400.5	-11.5902
400.714	17.91356
400.927	24.2364
401.141	30.55946
401.354	-60.05024
401.567	-49.51657
401.781	-26.3403
401.994	-36.87534
402.208	5.26851
402.421	5.26851
402.635	-41.08919
402.848	-41.08919
403.061	7.37596
403.275	-17.91182
403.488	53.7458
403.701	5.26851
403.915	-36.87534
404.128	1.05369
404.341	-41.08919
404.555	-15.80464
404.768	13.69845
404.981	-83.22208
405.195	-9.48295
405.408	-64.26353
405.621	-49.51657
405.834	13.69845
406.048	34.77495
406.261	7.37596
406.474	55.85379
406.687	-22.12611
406.9	-51.62336
407.114	-43.19607
407.327	13.69845
407.54	-1.05368
407.753	-34.76838
407.966	-45.30293
408.179	-11.5902
408.392	-3.16104
408.605	-36.87534
408.819	-1.05368
409.032	72.71852
409.245	43.20621
409.458	49.5299
409.671	-68.47672
409.884	-34.76838
410.097	17.91356
410.31	17.91356
410.523	7.37596
410.736	-1.05368
410.949	-22.12611
411.162	17.91356
411.375	-41.08919
411.588	24.2364
411.801	-24.23321
412.014	34.77495
412.227	-83.22208
412.44	-11.5902
412.653	66.39408
412.865	-9.48295
413.078	38.99053
413.291	-11.5902
413.504	-41.08919
413.717	-7.37567
413.93	-36.87534
414.143	-41.08919
414.356	-28.44736
414.568	-3.16104
414.781	-20.01897
414.994	47.42198
415.207	32.66719
415.42	-32.6614
415.632	47.42198
415.845	-112.70897
416.058	-30.55439
416.271	-68.47672
416.483	-22.12611
416.696	41.09836
416.909	-20.01897
417.121	-15.80464
417.334	26.34407
417.547	-1.05368
417.759	49.5299
417.972	-45.30293
418.185	-3.16104
418.397	-7.37567
418.61	-51.62336
418.823	-34.76838
419.035	38.99053
419.248	-79.00925
419.46	32.66719
419.673	-1.05368
419.885	-70.58328
420.098	7.37596
420.311	-7.37567
420.523	11.59093
420.736	76.93493
420.948	-45.30293
421.161	51.63784
421.373	-60.05024
421.586	74.82672
421.798	81.15143
422.01	-20.01897
422.223	41.09836
422.435	-41.08919
422.648	45.31408
422.86	64.28597
423.073	-36.87534
423.285	15.80599
423.497	5.26851
423.71	-17.91182
423.922	9.48343
424.134	20.02115
424.347	32.66719
424.559	-32.6614
424.771	-20.01897
424.984	-5.26836
425.196	49.5299
425.408	17.91356
425.621	-28.44736
425.833	55.85379
426.045	34.77495
426.257	-9.48295
426.47	-20.01897
426.682	-34.76838
426.894	-1.05368
427.106	51.63784
427.318	-9.48295
427.531	9.48343
427.743	20.02115
427.955	-100.07236
428.167	13.69845
428.379	83.25972
428.591	-15.80464
428.804	26.34407
429.016	-45.30293
429.228	32.66719
429.44	-57.94356
429.652	32.66719
429.864	-24.23321
430.076	41.09836
430.288	57.9618
430.5	28.45175
430.712	17.91356
430.924	81.15143
431.136	17.91356
431.348	-26.3403
431.56	49.5299
431.772	15.80599
431.984	32.66719
432.196	47.42198
432.408	38.99053
432.62	-26.3403
432.832	72.71852
433.044	-53.73012
433.256	13.69845
433.468	74.82672
433.679	-51.62336
433.891	32.66719
434.103	-11.5902
434.315	5.26851
434.527	55.85379
434.739	-22.12611
434.95	-26.3403
435.162	-34.76838
435.374	72.71852
435.586	72.71852
435.798	32.66719
436.009	-34.76838
436.221	-1.05368
436.433	13.69845
436.645	13.69845
436.856	11.59093
437.068	9.48343
437.28	-34.76838
437.491	-34.76838
437.703	-9.48295
437.915	125.43005
438.126	5.26851
438.338	15.80599
438.55	15.80599
438.761	41.09836
438.973	-1.05368
439.184	41.09836
439.396	9.48343
439.608	-32.6614
439.819	-76.90279
440.031	28.45175
440.242	-85.32845
440.454	13.69845
440.665	5.26851
440.877	-36.87534
441.088	-15.80464
441.3	5.26851
441.511	-15.80464
441.723	-26.3403
441.934	-62.1569
442.146	-17.91182
442.357	-3.16104
442.569	-9.48295
442.78	-3.16104
442.991	-36.87534
443.203	-32.6614
443.414	-11.5902
443.626	5.26851
443.837	13.69845
444.048	-41.08919
444.26	53.7458
444.471	55.85379
444.682	-11.5902
444.894	-7.37567
445.105	49.5299
445.316	-11.5902
445.528	24.2364
445.739	-20.01897
445.95	1.05369
446.161	32.66719
446.373	-9.48295
446.584	-45.30293
446.795	32.66719
447.006	108.56086
447.217	-76.90279
447.429	13.69845
447.64	30.55946
447.851	-112.70897
448.062	72.71852
448.273	-24.23321
448.484	85.36802
448.695	-7.37567
448.907	9.48343
449.118	5.26851
449.329	32.66719
449.54	20.02115
449.751	17.91356
449.962	22.12877
450.173	-13.69743
450.384	-22.12611
450.595	68.5022
450.806	-34.76838
451.017	60.06984
451.228	28.45175
451.439	38.99053
451.65	17.91356
451.861	22.12877
452.072	72.71852
452.283	36.88273
452.494	15.80599
452.705	38.99053
452.915	20.02115
453.126	34.77495
453.337	43.20621
453.548	13.69845
453.759	64.28597
453.97	17.91356
454.181	17.91356
454.391	7.37596
454.602	24.2364
454.813	-26.3403
455.024	64.28597
455.235	20.02115
455.445	66.39408
455.656	-20.01897
455.867	32.66719
456.078	-24.23321
456.288	-15.80464
456.499	38.99053
456.71	-26.3403
456.921	89.5847
457.131	49.5299
457.342	24.2364
457.553	-11.5902
457.763	17.91356
457.974	43.20621
458.184	17.91356
458.395	43.20621
458.606	64.28597
458.816	26.34407
459.027	30.55946
459.237	68.5022
459.448	-9.48295
459.659	49.5299
459.869	64.28597
460.08	30.55946
460.29	-51.62336
460.501	-28.44736
460.711	-28.44736
460.922	30.55946
461.132	11.59093
461.343	-34.76838
461.553	9.48343
461.764	-32.6614
461.974	22.12877
462.184	38.99053
462.395	20.02115
462.605	26.34407
462.816	-1.05368
463.026	7.37596
463.236	28.45175
463.447	79.04317
463.657	17.91356
463.867	57.9618
464.078	62.17789
464.288	55.85379
464.498	22.12877
464.709	17.91356
464.919	28.45175
465.129	51.63784
465.339	9.48343
465.55	38.99053
465.76	47.42198
465.97	68.5022
466.18	55.85379
466.391	49.5299
466.601	26.34407
466.811	9.48343
467.021	116.99528
467.231	36.88273
467.441	68.5022
467.651	43.20621
467.862	64.28597
468.072	72.71852
468.282	15.80599
468.492	5.26851
468.702	98.01833
468.912	89.5847
469.122	81.15143
469.332	-7.37567
469.542	24.2364
469.752	100.12679
469.962	13.69845
470.172	26.34407
470.382	30.55946
470.592	5.26851
470.802	76.93493
471.012	72.71852
471.222	43.20621
471.432	70.61035
471.642	106.45231
471.852	5.26851
472.062	53.7458
472.272	85.36802
472.482	106.45231
472.691	30.55946
472.901	87.47635
473.111	55.85379
473.321	66.39408
473.531	60.06984
473.741	41.09836
473.95	102.23527
474.16	43.20621
474.37	-3.16104
474.58	72.71852
474.79	98.01833
474.999	64.28597
475.209	106.45231
475.419	91.69308
475.628	89.5847
475.838	165.49987
476.048	62.17789
476.258	112.77803
476.467	91.69308
476.677	85.36802
476.886	76.93493
477.096	133.86516
477.306	135.97399
477.515	76.93493
477.725	131.75635
477.935	81.15143
478.144	150.73642
478.354	135.97399
478.563	89.5847
478.773	89.5847
478.982	66.39408
479.192	72.71852
479.401	127.53879
479.611	108.56086
479.82	214.01547
480.03	148.62743
480.239	152.84542
480.449	76.93493
480.658	89.5847
480.868	199.24872
481.077	165.49987
481.287	207.68674
481.496	216.12509
481.705	133.86516
481.915	116.99528
482.124	205.57721
482.333	131.75635
482.543	201.3582
482.752	131.75635
482.961	228.7832
483.171	207.68674
483.38	184.48295
483.589	218.23472
483.799	233.00273
484.008	182.37364
484.217	224.56375
484.426	199.24872
484.636	216.12509
484.845	209.7963
485.054	224.56375
485.263	249.88161
485.472	300.52556
485.682	216.12509
485.891	247.77168
486.1	327.96211
486.309	197.13926
486.518	273.09208
486.727	275.20224
486.936	300.52556
487.146	346.9584
487.355	325.8515
487.564	376.51098
487.773	336.40473
487.982	355.40166
488.191	420.84599
488.4	412.40067
488.609	332.18339
488.818	393.39965
489.027	351.18
489.236	418.73464
489.445	454.6298
489.654	479.97025
489.863	477.85847
490.072	401.84439
490.281	488.41755
490.49	456.74142
490.698	536.99404
490.907	494.75318
491.116	528.54541
491.325	583.4654
491.534	509.53683
491.743	503.20089
491.952	524.32118
492.16	619.37947
492.369	585.57789
492.578	530.65755
492.787	579.24047
492.996	524.32118
493.204	570.79075
493.413	697.55762
493.622	558.11657
493.831	659.52298
494.039	765.18357
494.248	735.59588
494.457	735.59588
494.665	691.21826
494.874	811.68246
495.083	773.63756
495.291	790.54602
495.5	765.18357
495.709	801.11412
495.917	832.81983
496.126	902.57934
496.335	826.47853
496.543	763.0701
496.752	921.6062
496.96	782.09171
497.169	902.57934
497.377	883.55312
497.586	832.81983
497.794	980.80469
498.003	830.70605
498.211	809.56877
498.42	862.41365
498.628	968.11884
498.837	972.34743
499.045	1188.03596
499.254	894.12316
499.462	1037.8939
499.671	989.26206
499.879	1086.52881
500.087	1012.52036
500.296	1200.72501
500.504	1035.77941
500.713	1154.19916
500.921	1162.65826
501.129	1014.63479
501.338	1116.13401
501.546	1298.01132
501.754	1107.67528
501.962	1213.41418
502.171	1124.5928
502.379	1410.10733
502.587	1293.78137
502.795	1382.61177
503.004	1196.49531
503.212	1399.5321
503.42	1236.67796
503.628	1344.54128
503.837	1251.48236
504.045	1407.99228
504.253	1308.58624
504.461	1467.2137
504.669	1230.33325
504.877	1501.05449
505.085	1482.01906
505.294	1456.63844
505.502	1503.16953
505.71	1592.00049
505.918	1357.2314
506.126	1619.49525
506.334	1539.12517
506.542	1602.57544
506.75	1498.93944
506.958	1718.89597
507.166	1579.3105
507.374	1589.8855
507.582	1657.56431
507.79	1790.79847
507.998	1560.27541
508.206	1689.28789
508.414	1577.1955
508.622	1644.8747
508.83	1611.03536
509.037	1680.82833
509.245	1763.30685
509.453	1921.90178
509.661	1790.79847
509.869	1995.90253
510.077	1756.96254
510.285	1924.01619
510.492	1837.32112
510.7	1934.58814
510.908	1775.99537
511.116	1940.93124
511.324	1843.66495
511.531	2012.81591
511.739	1835.2065
511.947	1909.21522
512.155	1890.18501
512.362	2008.5876
512.57	1900.7574
512.778	1991.67411
512.985	1985.33145
513.193	1938.81688
513.401	1951.50296
513.608	2088.92075
513.816	2042.41331
514.024	1974.76022
514.231	2114.28695
514.439	2207.28664
514.646	2103.71784
514.854	2304.49579
515.061	2063.55349
515.269	2186.15174
515.477	2226.30731
515.684	2101.60399
515.892	2131.19714
516.099	2319.28677
516.307	2135.42461
516.514	2177.69755
516.722	2145.99315
516.929	2296.04359
517.136	2285.47813
517.344	2458.72037
517.551	2348.8673
517.759	2507.29996
517.966	2367.88233
518.173	2416.47254
518.381	2365.76959
518.588	2437.59699
518.796	2262.2333
519.003	2490.40338
519.21	2408.02246
519.418	2458.72037
519.625	2636.11181
519.832	2509.41198
520.039	2627.66651
520.247	2608.66385
520.454	2509.41198
520.661	2842.95698
520.868	2676.22427
521.076	2897.81224
521.283	2720.55373
521.49	2855.61674
521.697	2745.88226
521.904	2861.94643
522.112	2790.20257
522.319	2914.68883
522.526	2735.32894
522.733	2942.1113
522.94	2750.1035
523.147	2802.86442
523.354	2851.39687
523.561	2849.28692
523.768	2895.7026
523.975	2984.29483
524.183	2984.29483
524.39	3171.93687
524.597	3058.10144
524.804	3218.30076
525.011	3138.21272
525.218	3167.72158
525.425	3001.16656
525.632	3258.33585
525.838	3211.97888
526.045	3275.19091
526.252	3013.81972
526.459	3193.01236
526.666	3127.67307
526.873	3441.57544
527.08	3174.0445
527.287	3443.68087
527.494	3165.61391
527.701	3637.3024
527.907	3464.73419
528.114	3527.88327
528.321	3418.41454
528.528	3468.94463
528.735	3506.8354
528.941	3561.55605
529.148	3304.68466
529.355	3351.02519
529.562	3479.47044
529.768	3641.50981
529.975	3563.66044
530.182	3586.80752
530.388	3407.88614
530.595	3708.81813
530.802	3416.30889
531.008	3845.47716
531.215	3744.56768
531.422	3763.49165
531.628	3683.5798
531.835	3763.49165
532.042	3727.74506
532.248	4038.75837
532.455	3603.64035
532.661	4009.35711
532.868	3750.87584
533.074	3822.35608
533.281	3893.81348
533.487	4026.15832
533.694	3952.64336
533.9	4246.55068
534.107	3805.53924
534.313	4145.82859
534.52	4076.55404
534.726	3952.64336
534.933	3994.65498
535.139	4269.62593
535.345	4217.17845
535.552	4307.37983
535.758	3988.35375
535.965	4493.94868
536.171	4328.3512
536.377	4280.11382
536.584	4133.23491
536.79	4460.42098
536.996	4343.02988
537.203	4523.28079
537.409	4278.01628
537.615	4328.3512
537.821	4179.40804
538.028	4556.79789
538.234	4219.2766
538.44	4487.66267
538.646	4359.80422
538.853	4560.98713
539.059	4481.37646
539.265	4552.60857
539.471	4389.15597
539.677	4607.06287
539.883	4378.67369
540.09	4636.37818
540.296	4577.74319
540.502	4630.0967
540.708	4594.49783
540.914	4761.96531
541.12	4715.92612
541.326	4751.50282
541.532	4569.36534
541.738	4812.17737
541.944	4749.41026
542.15	4799.62559
542.356	4743.13242
542.562	4937.65007
542.768	4812.17737
542.974	4870.74154
543.18	5046.32621
543.386	5058.86174
543.592	4929.28779
543.798	5131.96908
544.004	5056.77255
544.21	5014.98372
544.415	4787.07298
544.621	5163.29209
544.827	5090.19694
545.033	5301.05102
545.239	4996.17574
545.445	5321.9147
545.651	5127.79229
545.856	5376.1493
546.062	5307.31037
546.268	5242.62026
546.474	5209.22303
546.679	5342.77604
546.885	5259.31663
547.091	5334.43178
547.297	5175.81983
547.502	5213.39801
547.708	5282.2717
547.914	5340.69001
548.119	5259.31663
548.325	5432.45307
548.531	5161.20405
548.736	5622.09128
548.942	5490.82405
549.147	5672.07323
549.353	5509.58224
549.559	5609.59367
549.764	5405.34598
549.97	5547.09289
550.175	5499.16126
550.381	5928.01738
550.586	5655.41409
550.792	5674.15552
550.997	5597.09521
551.203	5898.90353
551.408	5855.22409
551.614	6017.4096
551.819	5680.40223
552.025	5909.30186
552.23	5672.07323
552.435	5994.54597
552.641	5979.9949
552.846	5905.1426
553.052	5771.99635
553.257	6063.1283
553.462	5913.46103
553.668	5984.15247
553.873	5848.98332
554.078	6104.68088
554.283	5923.85854
554.489	6050.66069
554.694	5950.8893
554.899	6171.14544
555.105	5969.60058
555.31	6196.06345
555.515	6227.20622
555.72	6073.51733
555.925	6137.91617
556.131	6438.83743
556.336	6071.43957
556.541	6364.1718
556.746	6422.24768
556.951	6270.79723
557.156	6081.82813
557.361	6428.46901
557.567	6416.02613
557.772	6592.22224
557.977	6376.61817
558.182	6527.98189
558.387	6372.46947
558.592	6484.45159
558.797	6633.65585
559.002	6333.0522
559.207	6445.05821
559.412	6544.56217
559.617	6496.88986
559.822	6666.79611
560.027	6527.98189
560.232	6469.93921
560.437	6386.9895
560.642	6673.00925
560.847	6521.7639
561.051	6693.71822
561.256	6592.22224
561.461	6983.40412
561.666	6739.2699
561.871	6673.00925
562.076	6689.57661
562.281	6764.11159
562.485	6552.85176
562.69	6942.04767
562.895	6730.9886
563.1	7002.01159
563.305	6594.29414
563.509	6879.99603
563.714	6919.29777
563.919	6784.81048
564.123	6795.15907
564.328	7099.15434
564.533	6846.89348
564.737	6830.34002
564.942	6991.67433
565.147	7008.21367
565.351	7018.55002
565.556	6844.82437
565.761	7010.28098
565.965	7035.08702
566.17	6871.72094
566.374	6929.63897
566.579	7030.95291
566.784	7247.87323
566.988	6985.47171
567.193	7252.00267
567.397	7035.08702
567.602	7334.57301
567.806	7045.42192
568.011	7396.47778
568.215	7223.09473
568.42	7249.93796
568.624	7398.54093
568.828	7518.16678
569.033	7400.60406
569.237	7542.9079
569.442	7266.45502
569.646	7441.86215
569.85	7101.22067
570.055	7379.97176
570.259	7522.29051
570.463	7588.25859
570.668	7371.71823
570.872	7520.22866
571.076	7514.04296
571.281	7573.82995
571.485	7505.79506
571.689	7604.74719
571.893	7542.9079
572.098	7734.54741
572.302	7392.3514
572.506	7763.38054
572.71	7476.9247
572.914	8006.24078
573.119	7699.53022
573.323	7761.32116
573.527	7623.29523
573.731	7755.14292
573.935	7619.17359
574.139	7952.75384
574.343	7732.48774
574.547	7856.03069
574.751	7730.42806
574.955	7775.73633
575.159	7792.20955
575.364	7742.78587
575.568	7874.55567
575.772	7958.92611
575.976	7615.05187
576.18	7687.16976
576.383	7903.36898
576.587	7985.67051
576.791	7748.96449
576.995	8051.48821
577.199	7818.97569
577.403	7841.62122
577.607	8107.00577
577.811	8283.74238
578.015	8063.82672
578.219	8234.43528
578.422	7969.21283
578.626	8207.72253
578.83	7993.89886
579.034	8419.27884
579.238	8129.61983
579.442	8181.00642
579.645	8160.45328
579.849	8402.85467
580.053	8185.11681
580.257	8273.471
580.46	8189.22712
580.664	8254.98128
580.868	8123.4526
581.071	8205.66756
581.275	8326.87681
581.479	8347.41399
581.682	8376.16277
581.886	8285.79659
582.09	8396.69529
582.293	8370.00264
582.497	8573.19586
582.7	8427.49046
582.904	8390.53574
583.107	8595.7614
583.311	8489.06783
583.515	8667.54579
583.718	8505.48555
583.922	8597.8127
584.125	8739.30747
584.329	8884.81245
584.532	8359.73536
584.735	8936.02501
584.939	8376.16277
585.142	8960.6031
585.346	8718.80643
585.549	8831.53952
585.753	8757.75683
585.956	9085.50257
586.159	8772.10531
586.363	8976.98707
586.566	8989.27431
586.769	9144.85836
586.973	8860.22646
587.176	9077.31443
587.379	9218.52142
587.582	9065.03169
587.786	8778.25439
587.989	8987.22648
588.192	8847.93249
588.395	9013.8469
588.599	9034.32212
588.802	9067.07886
589.005	8905.29881
589.208	9236.93376
589.411	9069.12601
589.615	9138.71878
589.818	9148.95133
590.021	9167.36886
590.224	9155.09066
590.427	9212.38367
590.63	9116.20565
590.833	9279.89058
591.036	9157.13707
591.239	9281.93596
591.442	9140.76532
591.645	9220.5673
591.848	9257.39031
592.051	9502.74008
592.254	9351.46897
592.457	9398.4952
592.66	9155.09066
592.863	9392.36183
593.066	9384.18378
593.269	9784.60855
593.472	9286.02667
593.675	9713.14803
593.878	9594.68632
594.081	9943.79741
594.284	9531.34902
594.486	9737.65088
594.689	9731.52537
594.892	9633.49849
595.095	9559.95484
595.298	9555.86849
595.5	9633.49849
595.703	9831.55825
595.906	9586.51462
596.109	9821.35247
596.311	9590.6005
596.514	9898.90709
596.717	9880.54083
596.92	9919.31266
597.122	9792.77429
597.325	9994.80058
597.528	9574.25659
597.73	10062.11102
597.933	9737.65088
598.136	10115.1326
598.338	9833.59936
598.541	10082.50506
598.743	10074.34761
598.946	10037.63629
599.148	10090.66228
599.351	10257.83629
599.554	10000.92036
599.756	10184.45424
599.959	10145.71766
600.161	10200.7629
600.363	10265.98876
600.566	10007.04
600.768	10241.53069
600.971	10192.60868
601.173	10017.23912
601.376	10237.45416
601.578	10217.07067
601.78	10445.28923
601.983	10310.82351
602.185	10345.4641
602.388	10494.1718
602.59	10261.91255
602.792	10217.07067
602.995	10490.09854
603.197	10192.60868
603.399	10455.47371
603.601	10306.74789
603.804	10583.77083
604.006	10486.02522
604.208	10538.97437
604.41	10504.35474
604.613	10231.33926
604.815	10581.73476
605.017	10577.66258
605.219	10257.83629
605.421	10453.43684
605.623	10412.69672
605.826	10614.31041
606.028	10561.37336
606.23	10571.55422
606.432	10327.12544
606.634	10732.37081
606.836	10376.02616
607.038	10496.20842
607.24	10606.1668
607.442	10577.66258
607.644	10628.56126
607.846	10801.55981
608.048	10483.98854
608.25	10748.65181
608.452	10685.55865
608.654	10931.76128
608.856	10648.91857
609.058	10945.99922
609.26	10809.69879
609.462	11049.71623
609.664	10899.21533
609.866	10823.94157
610.067	11027.34833
610.269	10925.65914
610.471	10712.01848
610.673	11120.87805
610.875	10958.20273
611.077	10976.50723
611.278	10422.88223
611.48	10722.19479
611.682	10830.04543
611.884	11181.86343
612.085	10844.28739
612.287	11120.87805
612.489	10846.32191
612.69	10913.45454
612.892	11031.41532
613.094	11043.61603
613.295	10699.8065
613.497	10675.38125
613.699	10862.59764
613.9	11153.40478
614.102	10740.5114
614.304	10980.57477
614.505	10923.62507
614.707	10911.4204
614.908	10510.46435
615.11	11023.2813
615.311	11169.66712
615.513	10872.76959
615.714	10887.00985
615.916	11169.66712
616.117	10805.62933
616.319	11029.38183
616.52	10771.03694
616.722	10952.10102
616.923	11131.04294
617.124	11145.27335
617.326	11017.18067
617.527	11151.37193
617.729	10921.59098
617.93	11285.51695
618.131	11122.91105
618.333	11114.77898
618.534	11007.01272
618.735	11334.28586
618.937	11080.21578
619.138	11332.25394
619.339	11326.15811
619.54	11417.58609
619.742	11460.24568
619.943	11257.06572
620.144	11057.84968
620.345	11545.55218
620.546	11165.6016
620.748	11413.52305
620.949	11488.68304
621.15	11346.47718
621.351	11387.11232
621.552	11234.70977
621.753	11033.4488
621.954	11596.32199
622.155	11202.18978
622.356	11177.79804
622.558	11210.32003
622.759	11553.67574
622.96	11108.67982
623.161	11253.00109
623.362	11049.71623
623.563	11517.11854
623.764	11452.12037
623.965	11705.9653
624.166	11549.61398
624.366	11584.13777
624.567	11338.34967
624.768	11464.30828
624.969	11228.61247
625.17	11462.27698
625.371	11435.8693
625.572	11669.42045
625.773	11210.32003
625.973	11710.02566
626.174	11738.4472
626.375	11665.35973
626.576	11488.68304
626.777	11551.64486
626.977	11275.35603
627.178	11600.38333
627.379	11145.27335
627.58	11368.827
627.78	11456.18305
627.981	11841.96844
628.182	11523.21162
628.382	11600.38333
628.583	11504.93213
628.784	11742.50728
628.984	11450.08902
629.185	11705.9653
629.386	11401.33369
629.586	11716.11613
629.787	11439.93212
629.987	11823.7016
630.188	11429.77498
630.388	11602.41398
630.589	11391.17562
630.79	11494.77652
630.99	11431.80643
631.191	11667.39009
631.391	11490.71421
631.591	11843.99805
631.792	11657.23819
631.992	11815.58279
632.193	11811.52333
632.393	12101.69172
632.594	11502.90102
632.794	11770.92686
632.994	11738.4472
633.195	11852.11639
633.395	11839.93882
633.595	11882.55897
633.796	11827.76096
633.996	12117.92014
634.196	11651.14693
634.397	12038.80196
634.597	11900.82363
634.797	12144.29028
634.997	11874.44113
635.198	11740.47724
635.398	11760.77721
635.598	12101.69172
635.798	11876.47061
635.998	12063.14726
636.199	11843.99805
636.399	12077.34818
636.599	11805.43408
636.799	11779.04643
636.999	11608.50589
637.199	12093.57733
637.399	11803.40431
637.599	11779.04643
637.799	11462.27698
637.999	12424.14397
638.199	11957.64274
638.399	12046.91718
638.599	12119.94866
638.799	12555.91415
638.999	12227.44942
639.199	12515.37238
639.399	12521.45381
639.599	12594.4265
639.799	12057.06104
639.999	12367.37285
640.199	12231.50565
640.399	11935.32171
640.599	11850.08681
640.799	12338.98528
640.998	12241.64609
641.198	12199.05501
641.398	12379.53854
641.598	12363.31756
641.798	12296.40139
641.997	12608.61469
642.197	11981.99184
642.397	12616.7221
642.597	12539.69775
642.796	12491.0461
642.996	12257.87043
643.196	12608.61469
643.395	12472.80077
643.595	12341.01301
643.795	12557.94117
643.994	12663.33779
644.194	12480.90987
644.394	12649.15074
644.593	12428.19885
644.793	12837.61252
644.992	12440.36333
645.192	12661.31109
645.392	12505.23654
645.591	12655.23094
645.791	12454.55492
645.99	12336.95755
646.19	12351.15155
646.389	12144.29028
646.589	12819.37643
646.788	12647.124
646.987	12557.94117
647.187	12582.26494
647.386	12598.4803
647.586	12892.31815
647.785	12521.45381
647.984	12823.42893
648.184	12726.16265
648.383	12851.79584
648.582	12951.07172
648.782	13127.30692
648.981	12884.21386
649.18	12930.81237
649.38	12764.66545
649.579	12634.9634
649.778	12797.08727
649.977	13046.28386
650.177	12827.48142
650.376	12675.49789
650.575	12298.42926
650.774	12997.66629
650.973	12600.50719
651.173	12859.90048
651.372	12928.7864
651.571	12979.43395
651.77	13066.54035
651.969	13244.77715
652.168	12768.71826
652.367	13107.05187
652.566	13046.28386
652.765	13254.90319
652.964	12829.50765
653.163	13044.25819
653.362	12651.17748
653.561	12801.13989
653.76	12898.39631
653.959	13084.77077
654.158	12985.51144
654.357	12774.79742
654.556	12805.19249
654.755	13186.04394
654.954	12918.6565
655.153	12963.22709
655.352	13038.18113
655.551	13348.05775
655.749	13137.43427
655.948	13129.3324
656.147	13186.04394
656.346	13222.49947
656.545	12843.69112
656.743	13052.36086
656.942	13005.76942
657.141	13269.07946
657.34	12934.86428
657.538	13100.97527
657.737	12865.97889
657.936	13339.95771
658.135	12900.42235
658.333	12979.43395
658.532	12914.60451
658.731	13076.66841
658.929	13105.02634
659.128	13171.86639
659.326	13121.23046
659.525	13524.21813
659.724	13190.09462
659.922	13198.19594
660.121	13167.81562
660.319	13113.12844
660.518	13078.69401
660.716	13224.52474
660.915	12995.64049
661.113	13327.80752
661.312	13179.96787
661.51	13327.80752
661.709	13364.25765
661.907	13307.55686
662.105	13212.37308
662.304	13491.82298
662.502	13439.17884
662.701	13441.20366
662.899	13337.93269
663.097	13360.2077
663.296	13163.76483
663.494	13514.09475
663.692	13337.93269
663.891	13443.22848
664.089	13198.19594
664.287	13544.46462
664.485	13204.27188
664.684	13649.7407
664.882	13382.48222
665.08	13433.10435
665.278	13408.80603
665.476	13256.92838
665.675	13084.77077
665.873	13129.3324
666.071	13194.14529
666.269	13418.9304
666.467	12861.92662
666.665	13295.40627
666.863	13179.96787
667.061	13238.70147
667.259	13202.24658
667.457	13538.39071
667.655	13384.50715
667.853	13422.98012
668.051	13295.40627
668.249	13212.37308
668.447	13283.25552
668.645	13058.43781
668.843	13250.85278
669.041	13431.07951
669.239	13086.79635
669.437	13295.40627
669.635	13202.24658
669.833	13400.70647
670.031	13121.23046
670.229	13230.6005
670.426	13210.34779
670.624	13473.6003
670.822	13495.87243
671.02	13633.54498
671.218	13404.75626
671.415	13400.70647
671.613	13362.23268
671.811	13586.98108
672.009	13303.50668
672.206	13578.88283
672.404	12940.94211
672.602	13485.74879
672.799	13135.40881
672.997	13556.61234
673.195	13123.25595
673.392	13281.23038
673.59	13386.53208
673.788	13532.31677
673.985	12993.61469
674.183	13643.66733
674.38	13198.19594
674.578	13465.50123
674.775	13412.85579
674.973	13301.48158
675.17	13133.38335
675.368	13218.44893
675.565	13105.02634
675.763	13392.60684
675.96	13190.09462
676.158	13196.17062
676.355	13179.96787
676.553	13611.27552
676.75	13352.10775
676.947	13493.84771
677.145	13431.07951
677.342	13732.74048
677.539	13074.64281
677.737	13870.38728
677.934	13479.67456
678.131	13469.55077
678.329	13208.32249
678.526	13291.35604
678.723	13331.8576
678.92	13354.13274
679.118	13582.93196
679.315	13489.79826
679.512	13254.90319
679.709	13613.30003
679.906	13198.19594
680.104	13100.97527
680.301	13153.63779
680.498	13238.70147
680.695	13333.88263
680.892	13103.00081
681.089	13131.35788
681.286	12910.55249
681.483	13157.68862
681.68	13418.9304
681.877	13117.17946
682.075	13034.12974
682.272	12772.77104
682.469	13068.56597
682.665	13036.15544
682.862	13009.82095
683.059	12979.43395
683.256	13032.10403
683.453	13068.56597
683.65	12971.33056
683.847	13013.87246
684.044	13188.06928
684.241	13068.56597
684.438	13293.38116
684.635	13226.55
684.831	13473.6003
685.028	12746.42754
685.225	13046.28386
685.422	12738.32166
685.619	13078.69401
685.815	12803.1662
686.012	13009.82095
686.209	12916.63051
686.405	13256.92838
686.602	13003.74364
686.799	12924.73446
686.996	12975.38227
687.192	13121.23046
687.389	13165.79023
687.586	13246.80236
687.782	13200.22126
687.979	13206.29719
688.175	12825.45518
688.372	13173.89177
688.568	12884.21386
688.765	12762.63904
688.962	13092.87306
689.158	12904.47442
689.355	13100.97527
689.551	13153.63779
689.748	12892.31815
689.944	12944.99397
690.14	12809.24508
690.337	12861.92662
690.533	12750.48045
690.73	12803.1662
690.926	12932.83833
691.123	13103.00081
691.319	12884.21386
691.515	13214.39837
691.712	13068.56597
691.908	12898.39631
692.104	12837.61252
692.301	12663.33779
692.497	12667.39118
692.693	12847.74349
692.889	12491.0461
693.086	12902.44839
693.282	12947.01989
693.478	13198.19594
693.674	12776.8238
693.87	12965.25296
694.067	13113.12844
694.263	13194.14529
694.459	13060.46346
694.655	12932.83833
694.851	12736.29517
695.047	13064.51472
695.243	12693.73763
695.439	12849.76967
695.635	12845.71731
695.831	12916.63051
696.027	12778.85017
696.224	12809.24508
696.42	12679.5512
696.615	12957.14943
696.811	12914.60451
697.007	12898.39631
697.203	12971.33056
697.399	12938.91617
697.595	12555.91415
697.791	12683.6045
697.987	12639.01696
698.183	12748.454
698.379	12679.5512
698.575	12938.91617
698.77	12586.31882
698.966	12582.26494
699.162	12630.90982
699.358	12703.87061
699.554	12576.18408
699.749	12594.4265
699.945	12367.37285
700.141	12963.22709
700.337	12718.05654
700.532	12557.94117
700.728	12349.12385
700.924	12620.77576
701.119	12422.11652
701.315	12533.61649
701.511	12452.52757
701.706	12851.79584
701.902	12649.15074
702.097	12801.13989
702.293	13007.79519
702.489	12671.44455
702.684	12620.77576
702.88	12628.88302
703.075	12529.56229
703.271	12527.53518
703.466	12330.8743
703.662	12634.9634
703.857	12432.2537
704.053	12728.18917
704.248	12486.99163
704.443	12673.47122
704.639	12436.30853
704.834	12906.50045
705.03	12428.19885
705.225	12632.93661
705.42	12241.64609
705.616	12539.69775
705.811	12555.91415
706.006	12659.28438
706.202	12450.50021
706.397	12630.90982
706.592	12620.77576
706.787	12918.6565
706.983	12513.34523
707.178	12801.13989
707.373	12432.2537
707.568	12604.56095
707.763	12298.42926
707.959	12341.01301
708.154	12606.58782
708.349	12507.26372
708.544	12795.06094
708.739	12894.34421
708.934	12454.55492
709.129	12436.30853
709.324	12541.72482
709.519	12616.7221
709.714	12624.8294
709.909	12829.50765
710.104	12436.30853
710.299	12606.58782
710.494	12442.39072
710.689	12472.80077
710.884	12371.42811
711.079	12606.58782
711.274	12397.78661
711.469	12610.64155
711.664	12450.50021
711.859	12841.66493
712.054	12379.53854
712.249	12535.64358
712.443	11998.22394
712.638	12280.17814
712.833	12152.40392
713.028	12657.25766
713.223	12426.17142
713.417	12561.99519
713.612	12476.85533
713.807	12748.454
714.002	12606.58782
714.196	12480.90987
714.391	12152.40392
714.586	12235.56185
714.78	12006.33979
714.975	12302.48499
715.17	12349.12385
715.364	12243.67416
715.559	12197.02678
715.754	12272.06634
715.948	12205.13965
716.143	12391.70398
716.337	12231.50565
716.532	12302.48499
716.726	12215.28056
716.921	12411.97918
717.115	12312.62419
717.31	12343.04073
717.504	12065.17599
717.699	12486.99163
717.893	11998.22394
718.088	12111.83454
718.282	11961.701
718.476	12085.46281
718.671	12000.25291
718.865	12194.99855
719.059	11746.56732
719.254	12257.87043
719.448	11673.48113
719.642	11744.53731
719.837	11632.87269
720.031	11852.11639
720.225	11868.35267
720.419	11945.46775
720.614	12197.02678
720.808	12381.56613
721.002	12093.57733
721.196	12042.85959
721.39	11955.6136
721.585	11971.84652
721.779	11931.26323
721.973	12115.89161
722.167	11872.41165
722.361	12091.54871
722.555	12046.91718
722.749	12018.51334
722.943	11850.08681
723.137	11927.20472
723.331	11766.86703
723.525	11984.02088
723.719	11718.14628
723.913	11984.02088
724.107	11649.1165
724.301	11886.61784
724.495	11594.29131
724.689	11917.05831
724.883	11876.47061
725.077	11992.13696
725.271	12164.57415
725.465	12124.00567
725.659	11904.88235
725.853	11898.79425
726.046	11945.46775
726.24	11811.52333
726.434	11309.90213
726.628	11963.73012
726.822	11854.14595
727.015	11900.82363
727.209	11374.9222
727.403	11888.64726
727.596	11602.41398
727.79	12101.69172
727.984	11738.4472
728.177	11862.26412
728.371	11929.23398
728.565	12077.34818
728.758	11929.23398
728.952	12046.91718
729.146	11797.31496
729.339	11712.05583
729.533	11856.17551
729.726	12089.52009
729.92	11673.48113
730.113	11963.73012
730.307	11681.60238
730.5	11908.94103
730.694	11675.51146
730.887	11921.1169
731.081	11827.76096
731.274	11632.87269
731.468	11636.9337
731.661	11762.80716
731.854	11470.4021
732.048	11783.10616
732.241	11714.08598
732.435	12040.83078
732.628	11716.11613
732.821	11795.28515
733.014	11843.99805
733.208	11957.64274
733.401	11843.99805
733.594	11537.42847
733.788	11823.7016
733.981	11677.54177
734.174	11819.64221
734.367	11951.55528
734.56	11888.64726
734.754	11750.62733
734.947	11890.67668
735.14	11667.39009
735.333	11679.57208
735.526	11630.84217
735.719	11460.24568
735.912	11618.65888
736.105	11606.47526
736.298	11657.23819
736.491	11515.08749
736.684	11827.76096
736.877	11502.90102
737.07	11803.40431
737.263	11584.13777
737.456	11523.21162
737.649	11571.95321
737.842	11598.35266
738.035	11653.17736
738.228	11362.73171
738.421	11649.1165
738.614	11734.38709
738.807	11813.55306
739	11762.80716
739.192	11515.08749
739.385	11511.02537
739.578	11348.50903
739.771	11669.42045
739.964	11161.53603
740.156	11722.20653
740.349	11547.58308
740.542	11571.95321
740.735	11368.827
740.927	11468.37083
741.12	11277.38823
741.313	11340.38156
741.505	11208.28748
741.698	11244.87172
741.891	11293.64551
742.083	11313.96619
742.276	11372.89047
742.468	11580.07628
742.661	11582.10703
742.854	11565.8608
743.046	11494.77652
743.239	11628.81165
743.431	11671.45079
743.624	11488.68304
743.816	11456.18305
744.009	11529.30461
744.201	11212.35256
744.393	11511.02537
744.586	11360.69993
744.778	11397.27049
744.971	11283.48479
745.163	11519.14957
745.355	11356.63634
745.548	11194.05937
745.74	11263.16258
745.932	11399.3021
746.125	11393.20725
746.317	11381.0173
746.509	11383.04899
746.702	11649.1165
746.894	11539.45941
747.086	11275.35603
747.278	11354.60453
747.471	11391.17562
747.663	11181.86343
747.855	11283.48479
748.047	11129.00999
748.239	11378.98561
748.431	11196.09199
748.623	11265.19485
748.815	11194.05937
749.008	11391.17562
749.2	11381.0173
749.392	11356.63634
749.584	11102.58056
749.776	11169.66712
749.968	11080.21578
750.16	11250.96876
750.352	10986.67601
750.544	11283.48479
750.736	10984.64227
750.928	11332.25394
751.12	11074.11607
751.311	11210.32003
751.503	11143.24047
751.695	11218.45011
751.887	10876.83829
752.079	11080.21578
752.271	11080.21578
752.463	11029.38183
752.654	11015.1471
752.846	11057.84968
753.038	10738.47627
753.23	11106.64674
753.421	10809.69879
753.613	10795.45545
753.805	11047.68284
753.997	11250.96876
754.188	11226.58002
754.38	11161.53603
754.572	10941.93129
754.763	11248.93643
754.955	10998.87817
755.146	11114.77898
755.338	11063.94966
755.53	11114.77898
755.721	11082.249
755.913	11078.18255
756.104	10915.48867
756.296	11181.86343
756.487	11035.48227
756.679	11159.50323
756.87	10844.28739
757.062	10878.87263
757.253	10577.66258
757.445	10697.77113
757.636	10813.76822
757.827	10939.89731
758.019	10693.70035
758.21	10486.02522
758.401	10543.04703
758.593	10628.56126
758.784	10681.48772
758.975	10508.42783
759.167	10323.05004
759.358	10593.951
759.549	10437.14141
759.74	10642.81151
759.932	10848.35641
760.123	10457.51057
760.314	10457.51057
760.505	10551.19219
760.696	10388.25015
760.888	10463.62106
761.079	10451.39996
761.27	10441.21535
761.461	10284.33103
761.652	10502.31818
761.843	10257.83629
762.034	10335.27609
762.225	10104.93688
762.416	10380.10087
762.607	10290.44488
762.798	10488.06188
762.989	10355.65178
763.18	10428.99339
763.371	10388.25015
763.562	10343.42653
763.753	10249.6836
763.944	10245.60717
764.135	9915.23166
764.326	10400.47367
764.517	10355.65178
764.708	10575.62647
764.899	10021.31867
765.089	10394.36197
765.28	10062.11102
765.471	10390.28743
765.662	10178.33827
765.853	10371.95139
766.043	10094.74081
766.234	10088.623
766.425	9780.52559
766.615	9766.23477
766.806	9921.35314
766.997	9976.44048
767.187	9829.51713
767.378	9992.76063
767.569	9886.66305
767.759	9856.05061
767.95	9856.05061
768.141	9860.13246
768.331	9854.00966
768.522	10009.07986
768.712	9519.08843
768.903	9723.35782
769.093	9743.77625
769.284	9653.92369
769.474	9817.27005
769.665	9843.8047
769.855	9613.07174
770.046	9827.47598
770.236	9753.98489
770.426	9641.66876
770.617	9839.72261
770.807	9584.47165
770.998	9390.31734
771.188	9678.43189
771.378	9568.12736
771.569	9729.48351
771.759	9584.47165
771.949	9120.2991
772.139	9478.21565
772.33	9433.24816
772.52	9425.07142
772.71	9492.52185
772.9	9384.18378
773.09	9780.52559
773.281	9670.26274
773.471	9279.89058
773.661	9704.97993
773.851	9621.24263
774.041	9400.53962
774.231	9378.05008
774.421	9222.61317
774.611	9288.072
774.802	8790.55205
774.992	9163.27619
775.182	9022.0372
775.372	9224.65902
775.562	9073.22025
775.752	9034.32212
775.942	9187.83116
776.131	9087.54956
776.321	8993.36992
776.511	9179.64644
776.701	9093.69044
776.891	9261.48142
777.081	9081.40854
777.271	9198.06167
777.461	9324.88508
777.651	9384.18378
777.84	9208.29176
778.03	9110.06534
778.22	9138.71878
778.41	9169.41516
778.599	9054.79561
778.789	9083.45556
778.979	9146.90486
779.169	9015.8945
779.358	9108.01854
779.548	9114.1589
779.738	8974.93913
779.927	8936.02501
780.117	9097.78427
780.307	8724.95694
780.496	8827.4411
780.686	8915.54132
780.875	8706.50493
781.065	8921.68662
781.254	8683.95045
781.444	8671.64707
781.633	8819.24404
781.823	8770.05558
782.012	8786.4529
782.202	8946.26619
782.391	8948.31437
782.581	8786.4529
782.77	8564.98965
782.96	8829.49032
783.149	8614.22243
783.338	8573.19586
783.528	8587.55601
783.717	8819.24404
783.906	8544.47279
784.096	8624.4779
784.285	8575.24737
784.474	8745.45742
784.663	8757.75683
784.853	8560.88643
785.042	8532.16177
785.231	8548.57631
785.42	8474.70131
785.61	8398.74844
785.799	8384.37601
785.988	8560.88643
786.177	8300.17556
786.366	8335.09191
786.555	8265.25354
786.744	8289.90497
786.933	8257.03577
787.122	8248.81769
787.312	8351.52119
787.501	8392.58894
787.69	8287.85079
787.879	8333.03817
788.068	8359.73536
788.257	8244.70853
788.445	8195.39243
788.634	8261.1447
788.823	8148.12044
789.012	8187.17198
789.201	8096.72585
789.39	8205.66756
789.579	8000.06991
789.768	7975.38461
789.957	7965.0982
790.145	8133.73122
790.334	8090.55766
790.523	8170.7301
790.712	8022.69553
790.9	8049.43172
791.089	7841.62122
791.278	8080.27693
791.467	7909.54274
791.655	7874.55567
791.844	8032.97909
792.033	7849.85533
792.221	7919.83192
792.41	8164.56407
792.599	7810.74033
792.787	8082.33312
792.976	8100.83788
793.164	7761.32116
793.353	7728.36835
793.541	7944.52385
793.73	7695.41015
793.918	7701.59022
794.107	7751.02399
794.295	7775.73633
794.484	7761.32116
794.672	7958.92611
794.861	7520.22866
795.049	7886.90473
795.238	7621.23442
795.426	7783.97311
795.614	7588.25859
795.803	7631.53825
795.991	7853.97226
796.179	7833.38677
796.368	7880.7303
796.556	7866.32256
796.744	7577.95252
796.932	7571.76863
797.121	7598.56412
797.309	7567.64592
797.497	7559.40026
797.685	7767.49922
797.874	7602.68619
798.062	7728.36835
798.25	7208.63913
798.438	7384.09839
798.626	7330.44533
798.814	7165.26583
799.002	7134.27891
799.19	7563.52313
799.378	7340.76437
799.566	7740.72628
799.755	7276.77746
799.943	7491.36041
800.131	7388.22494
800.318	7629.47753
800.506	7357.27371
800.694	7476.9247
800.882	7470.73765
801.07	7639.78093
801.258	7547.03111
801.446	7338.70061
801.634	7450.11272
801.822	7445.98748
802.01	7159.06885
802.197	7249.93796
802.385	7092.95522
802.573	7012.34828
802.761	7004.07897
802.949	7101.22067
803.136	7020.61723
803.324	7165.26583
803.512	7218.96467
803.699	7266.45502
803.887	7167.33145
804.075	7437.73673
804.262	7018.55002
804.45	7363.46435
804.638	7154.93741
804.825	7365.52785
805.013	7303.61325
805.201	7412.9824
805.388	7293.29224
805.576	7553.21578
805.763	7538.78459
805.951	7619.17359
806.138	7481.0493
806.326	7526.41416
806.513	7241.6789
806.701	7357.27371
806.888	7231.35458
807.075	7373.78164
807.263	7390.28818
807.45	7621.23442
807.638	7305.67739
807.825	7742.78587
808.012	7412.9824
808.2	7390.28818
808.387	7243.7437
808.574	7431.54844
808.761	7167.33145
808.949	7301.54909
809.136	7272.64855
809.323	7206.57396
809.51	7268.51955
809.698	7379.97176
809.885	7396.47778
810.072	7382.03509
810.259	7495.4847
810.446	7538.78459
810.633	7487.23603
810.82	7775.73633
811.008	7410.9194
811.195	7437.73673
811.382	7262.32589
811.569	7738.66668
811.756	7247.87323
811.943	7773.67708
812.13	7330.44533
812.317	7468.67525
812.504	7693.35008
812.691	7716.00966
812.878	7584.13623
813.064	7843.67977
813.251	7921.88969
813.438	7969.21283
813.625	7445.98748
813.812	7625.35602
813.999	7425.35995
814.186	7621.23442
814.372	7388.22494
814.559	7707.77011
814.746	7390.28818
814.933	7307.74151
815.12	7301.54909
815.306	7458.36295
815.493	7596.50306
815.68	7567.64592
815.866	7466.61283
816.053	7668.62764
816.24	7338.70061
816.426	7458.36295
816.613	7520.22866
816.799	7635.65963
816.986	7417.10834
817.173	7415.04538
817.359	7375.84504
817.546	7363.46435
817.732	7285.03503
817.919	7365.52785
818.105	7249.93796
818.292	7239.61408
818.478	7119.81663
818.665	7404.73026
818.851	7157.00314
819.037	7425.35995
819.224	7278.84189
819.41	7567.64592
819.597	7415.04538
819.783	7448.05011
819.969	7200.3783
820.156	7289.16367
820.342	7305.67739
820.528	7121.88274
820.714	7012.34828
820.901	7033.01998
821.087	7126.01488
821.273	7489.29823
821.459	7305.67739
821.646	7400.60406
821.832	7140.47669
822.018	7371.71823
822.204	7037.15405
822.39	7299.48491
822.576	6999.94418
822.762	7301.54909
822.948	7154.93741
823.134	7177.6592
823.32	6946.18372
823.507	7181.79015
823.693	7223.09473
823.879	7068.15671
824.065	6960.65919
824.25	7028.88582
824.436	7041.28803
824.622	7039.22105
824.808	6944.11571
824.994	7068.15671
825.18	6877.92729
825.366	7064.02331
825.552	7103.28698
825.738	7107.41952
825.923	6908.956
826.109	7119.81663
826.295	7012.34828
826.481	7051.62258
826.667	6898.61366
826.852	7103.28698
827.038	6993.74183
827.224	7059.88983
827.409	7072.29002
827.595	6958.59133
827.781	7010.28098
827.966	6962.72703
828.152	6695.789
828.338	6975.13356
828.523	6610.86851
828.709	6946.18372
828.894	6685.43491
829.08	6677.15123
829.266	6559.06871
829.451	6664.72501
829.637	6461.64591
829.822	6755.83139
830.008	6563.21322
830.193	6751.69115
830.378	6430.54274
830.564	6762.04157
830.749	6411.87832
830.935	6697.85974
831.12	6326.82765
831.305	6552.85176
831.491	6146.22405
831.676	6345.50067
831.861	6328.90252
832.047	6453.35225
832.232	6378.69248
832.417	6635.72729
832.602	6293.62649
832.788	6482.37846
832.973	6380.76677
833.158	6689.57661
833.343	6596.36602
833.528	6544.56217
833.714	6297.77697
833.899	6507.25445
834.084	6245.88934
834.269	6478.23214
834.454	6131.68501
834.639	6434.69013
834.824	6158.68517
835.009	6295.70174
835.194	6291.55122
835.379	6586.00641
835.564	6131.68501
835.749	6345.50067
835.934	6395.28615
836.119	6295.70174
836.304	6034.0359
836.489	6148.30096
836.674	5996.6246
836.859	6196.06345
837.044	6260.41935
837.228	6123.37647
837.413	6139.99317
837.598	6142.07016
837.783	5886.42475
837.968	6254.19235
838.152	5846.90301
838.337	6229.28221
838.522	5894.74403
838.707	6270.79723
838.891	6004.93888
839.076	5917.62011
839.261	5813.61494
839.445	5896.82379
839.63	5738.69469
839.815	5774.07751
839.999	5742.85773
840.184	6079.75046
840.368	5884.34487
840.553	6237.58597
840.737	6316.45293
840.922	5955.04753
841.106	5888.50461
841.291	6031.95769
841.475	5705.38698
841.66	6123.37647
841.844	5738.69469
842.029	5819.85691
842.213	5730.36833
842.397	5722.04159
842.582	5538.75785
842.766	5757.42762
842.951	5499.16126
843.135	5613.75963
843.319	5576.26256
843.504	5565.84535
843.688	5622.09128
843.872	5649.16652
844.056	5494.9927
844.241	5751.18352
844.425	5565.84535
844.609	5503.32972
844.793	5432.45307
844.977	5647.08395
845.161	5349.03398
845.346	5626.25696
845.53	5582.5126
845.714	5622.09128
845.898	5365.7208
846.082	5488.73969
846.266	5346.94802
846.45	5572.09575
846.634	5442.87781
846.818	5313.56951
847.002	5442.87781
847.186	5505.41392
847.37	5173.73193
847.554	5440.79291
847.738	5173.73193
847.922	5457.47146
848.106	5380.32054
848.29	5246.79449
848.473	5088.10809
848.657	4877.01521
848.841	4826.82009
849.025	5021.25263
849.209	4787.07298
849.392	5086.01922
849.576	4966.91516
849.76	4962.73471
849.944	4688.71601
850.127	5023.34223
850.311	4812.17737
850.495	5157.02791
850.678	4910.47131
850.862	5225.92239
851.046	4837.27849
851.229	4989.90599
851.413	4818.45296
851.596	4897.92596
851.78	5025.43179
851.964	5196.69753
852.147	4860.28497
852.331	5058.86174
852.514	4720.11195
852.698	4697.08876
852.881	4619.62711
853.065	5040.05813
853.248	4807.99354
853.431	5054.68332
853.615	4908.38048
853.798	4923.01584
853.982	4837.27849
854.165	4826.82009
854.348	4761.96531
854.532	5073.48548
854.715	4571.45984
854.898	4715.92612
855.081	4437.36742
855.265	4657.31499
855.448	4671.96943
855.631	4862.37633
855.814	4565.17628
855.997	4709.6472
856.181	4571.45984
856.364	4663.5956
856.547	4487.66267
856.73	4615.43912
856.913	4355.61077
857.096	4607.06287
857.279	4435.27151
857.462	4569.36534
857.645	4191.99894
857.828	4439.46331
858.011	4343.02988
858.194	4537.94522
858.377	4290.60117
858.56	4449.94242
858.743	4135.33391
858.926	4248.64854
859.109	4204.58908
859.292	4244.4528
859.475	4000.95602
859.658	4414.31121
859.841	4200.39245
860.023	4573.55431
860.206	4183.60509
860.389	4546.32441
860.572	3927.43249
860.755	4135.33391
860.937	4145.82859
861.12	4171.01368
861.303	4158.42152
861.486	4158.42152
861.668	3944.24006
861.851	4158.42152
862.034	4101.74741
862.216	4124.83871
862.399	3919.02822
862.581	4082.85266
862.764	3916.9271
862.947	4343.02988
863.129	4049.25784
863.312	4206.68736
863.494	4013.55754
863.677	4158.42152
863.859	3904.31997
864.042	3870.69743
864.224	3725.64214
864.406	4028.25838
864.589	3487.89075
864.771	4028.25838
864.954	3563.66044
865.136	3883.30648
865.318	3704.61193
865.501	3799.2326
865.683	3809.74357
865.865	4007.25687
866.048	3523.67384
866.23	3843.37535
866.412	3666.75272
866.594	3780.31162
866.777	3494.2058
866.959	3620.47197
867.141	3597.32818
867.323	3654.13161
867.505	3578.39066
867.687	3652.02802
867.869	3367.87421
868.052	3734.05369
868.234	3582.59913
868.416	3771.90179
868.598	3784.51642
868.78	3616.26418
868.962	3675.16641
869.144	3700.40566
869.326	3595.22409
869.508	3721.43626
869.69	3513.14995
869.872	3774.00428
870.054	3247.80088
870.236	3612.05631
870.417	3460.52367
870.599	3633.0949
870.781	3405.78041
870.963	3513.14995
871.145	3367.87421
871.327	3468.94463
871.508	3283.61803
871.69	3603.64035
871.872	3346.81276
872.054	3515.25477
872.235	3279.40451
872.417	3462.62894
872.599	3283.61803
872.78	3471.04983
872.962	3165.61391
873.144	3468.94463
873.325	3397.3573
873.507	3628.88734
873.689	3437.36453
873.87	3580.49491
874.052	3209.87156
874.233	3254.12191
874.415	3317.32381
874.596	3479.47044
874.778	3045.45021
874.959	3136.10482
875.141	3226.7297
875.322	3561.55605
875.503	3081.29389
875.685	3351.02519
875.866	3148.75196
876.048	3380.51024
876.229	2931.56449
876.41	3176.1521
876.592	3237.2655
876.773	3456.31308
876.954	3218.30076
877.136	3662.54576
877.317	3315.21733
877.498	3325.74957
877.679	3199.33468
877.86	3266.76351
878.042	3397.3573
878.223	3502.6256
878.404	3228.8369
878.585	3403.67466
878.766	3249.90791
878.947	3513.14995
879.128	3254.12191
879.309	3418.41454
879.49	3283.61803
879.672	3586.80752
879.853	3193.01236
880.034	3443.68087
880.215	3176.1521
880.396	3521.5691
880.576	3336.28138
880.757	3388.93391
880.938	3159.2908
881.119	3624.67969
881.3	3285.72477
881.481	3546.82479
881.662	3264.65662
881.843	3407.88614
882.023	3199.33468
882.204	3565.76481
882.385	3233.05123
882.566	3536.30191
882.747	3167.72158
882.927	3580.49491
883.108	3428.94249
883.289	3351.02519
883.469	3275.19091
883.65	3260.44279
883.831	3302.57807
884.011	3445.78629
884.192	3428.94249
884.373	3498.41574
884.553	3171.93687
884.734	3504.73051
884.914	3334.17505
885.095	3443.68087
885.275	3468.94463
885.456	3414.20323
885.636	3460.52367
885.817	3652.02802
885.997	3388.93391
886.178	3658.33872
886.358	3468.94463
886.538	3351.02519
886.719	3262.54971
886.899	3409.99185
887.08	3338.38769
887.26	3374.1923
887.44	3209.87156
887.621	3569.9735
887.801	3332.06871
887.981	3460.52367
888.161	3294.15156
888.342	3620.47197
888.522	3513.14995
888.702	3441.57544
888.882	3125.56509
889.062	3372.08629
889.242	3464.73419
889.423	3460.52367
889.603	3121.34909
889.783	3529.98796
889.963	3197.22725
890.143	3338.38769
890.323	3262.54971
890.503	3445.78629
890.683	3220.40802
890.863	3342.60026
891.043	3203.54948
891.223	3391.03978
891.403	3133.99691
891.583	3477.36531
891.763	3190.90488
891.943	3346.81276
892.122	3258.33585
892.302	3513.14995
892.482	3275.19091
892.662	3359.44984
892.842	3199.33468
893.022	3327.85597
893.201	3258.33585
893.381	3468.94463
893.561	3224.62249
893.741	3353.13137
893.92	3258.33585
894.1	3485.7857
894.28	3218.30076
894.459	3292.04489
894.639	3077.07722
894.819	3174.0445
894.998	2988.51285
895.178	3304.68466
895.357	3190.90488
895.537	3005.38434
895.716	3013.81972
895.896	3199.33468
896.075	2996.94872
896.255	2992.73082
896.434	2731.10752
896.614	3203.54948
896.793	2802.86442
896.973	3230.94407
897.152	2958.98543
897.331	3235.15838
897.511	2971.6404
897.69	3100.26812
897.87	2878.82497
898.049	2980.07675
898.228	2946.32992
898.407	3039.12439
898.587	2853.50681
898.766	2821.85625
898.945	2754.32468
899.124	3026.47233
899.304	2722.66451
899.483	3093.94352
899.662	2821.85625
899.841	2836.62691
900.02	2427.0349
900.199	2638.22311
900.378	2475.61828
900.557	2798.64386
900.737	2619.221
900.916	2739.55031
901.095	2450.27115
901.274	2836.62691
901.453	2532.64346
901.632	2726.88604
901.811	2676.22427
901.989	2536.86722
902.168	2756.43526
902.347	2861.94643
902.526	2528.41966
902.705	2760.65636
902.884	2511.52399
903.063	2555.87354
903.242	2452.38347
903.42	2365.76959
903.599	2162.90239
903.778	2380.55856
903.957	2154.44784
904.135	2308.72183
904.314	2162.90239
904.493	2391.12181
904.672	2232.64738
904.85	2262.2333
905.029	2050.86947
905.207	2279.13874
905.386	2010.70176
905.565	2086.80686
905.743	1959.96023
905.922	2052.98349
906.1	1811.94539
906.279	2002.24509
906.457	1621.61021
906.636	2084.69295
906.814	1788.68375
906.993	1991.67411
907.171	1775.99537
907.35	2017.04419
907.528	1543.35523
907.707	1866.92528
907.885	1697.7474
908.063	1780.22485
908.242	1850.00874
908.42	1780.22485
908.598	1748.5034
908.777	1748.5034
908.955	1608.92038
909.133	1877.49796
909.311	1680.82833
909.49	2029.72887
909.668	1729.47013
909.846	1915.55852
910.024	1737.9294
910.202	1773.88063
910.38	1509.51466
910.559	1746.38861
910.737	1509.51466
910.915	1824.63334
911.093	1651.21952
911.271	1866.92528
911.449	1613.15033
911.627	1695.63253
911.805	1585.6555
911.983	1712.55143
912.161	1543.35523
912.339	1875.38344
912.517	1551.81533
912.695	1835.2065
912.872	1706.20687
913.05	1797.14259
913.228	1725.24048
913.406	1957.84592
913.584	1509.51466
913.762	1843.66495
913.939	1524.31994
914.117	1782.33958
914.295	1646.98964
914.473	1712.55143
914.65	1594.11548
914.828	1833.09188
915.006	1594.11548
915.184	1721.01081
915.361	1564.50544
915.539	1695.63253
915.716	1642.75976
915.894	1790.79847
916.072	1642.75976
916.249	1663.90907
916.427	1441.83308
916.604	1437.60297
916.782	1365.69151
916.959	1579.3105
917.137	1317.0462
917.314	1839.43574
917.492	1367.80654
917.669	1615.26531
917.847	1238.79286
918.024	1575.08049
918.201	1327.6212
918.379	1587.7705
918.556	1384.72681
918.733	1391.07193
918.911	1137.28114
919.088	1583.5405
919.265	1342.42626
919.442	1517.97483
919.62	1190.15079
919.797	1378.3817
919.974	1149.96963
920.151	1395.30201
920.328	1331.85121
920.506	1560.27541
920.683	1393.18697
920.86	1433.37287
921.037	1384.72681
921.214	1498.93944
921.391	1226.10347
921.568	1350.88633
921.745	1340.31125
921.922	1399.5321
922.099	1249.36744
922.276	1517.97483
922.453	1251.48236
922.63	1298.01132
922.807	1145.74011
922.984	1139.39587
923.161	1097.10198
923.338	1403.76219
923.514	1063.26828
923.691	938.51948
923.868	1052.69552
924.045	1137.28114
924.222	1105.56061
924.399	1166.88784
924.575	1029.43596
924.752	1084.41419
924.929	1029.43596
925.105	1198.61016
925.282	1010.40594
925.459	1154.19916
925.635	1023.09256
925.812	993.49078
925.989	932.17695
926.165	1018.86366
926.342	845.50269
926.518	934.29112
926.695	908.92156
926.871	1010.40594
927.048	885.66711
927.224	1040.0084
927.401	879.32516
927.577	828.59229
927.754	826.47853
927.93	987.14771
928.107	720.80281
928.283	818.02358
928.459	756.72974
928.636	875.09723
928.812	779.97816
928.988	860.29975
929.165	731.36923
929.341	843.38886
929.517	758.84318
929.693	904.69341
929.87	663.74887
930.046	767.29705
930.222	629.94312
930.398	748.27607
930.574	615.15409
930.751	752.50288
930.927	570.79075
931.103	714.46308
931.279	570.79075
931.455	731.36923
931.631	621.49217
931.807	655.29714
931.983	589.80291
932.159	682.76593
932.335	629.94312
932.511	562.34125
932.687	503.20089
932.863	648.95847
933.039	522.20909
933.215	750.38947
933.391	655.29714
933.566	676.4268
933.742	427.18015
933.918	505.31286
934.094	418.73464
934.27	581.35293
934.445	414.51198
934.621	528.54541
934.797	397.62199
934.973	418.73464
935.148	363.84518
935.324	427.18015
935.5	420.84599
935.675	397.62199
935.851	233.00273
936.027	384.95518
936.202	336.40473
936.378	370.17801
936.553	361.73427
936.729	275.20224
936.904	237.22233
937.08	287.86356
937.255	159.17255
937.431	287.86356
937.606	190.81102
937.782	182.37364
937.957	203.46769
938.133	205.57721
938.308	114.88664
938.483	207.68674
938.659	157.06349
938.834	123.32132
939.009	108.56086
939.185	114.88664
939.36	9.48343
939.535	110.66943
939.71	167.60902
939.886	161.28164
940.061	142.30062
940.236	131.75635
940.411	57.9618
940.586	93.80147
940.761	116.99528
940.937	30.55946
941.112	140.19172
941.287	131.75635
941.462	74.82672
941.637	64.28597
941.812	38.99053
941.987	114.88664
942.162	114.88664
942.337	131.75635
942.512	110.66943
942.687	70.61035
942.862	127.53879
943.037	91.69308
943.212	60.06984
943.386	95.90989
943.561	123.32132
943.736	-17.91182
943.911	55.85379
944.086	108.56086
944.26	38.99053
944.435	133.86516
944.61	30.55946
944.785	108.56086
944.959	98.01833
945.134	74.82672
945.309	49.5299
945.483	-1.05368
945.658	85.36802
945.833	133.86516
946.007	24.2364
946.182	106.45231
946.357	72.71852
946.531	95.90989
946.706	140.19172
946.88	72.71852
947.055	53.7458
947.229	38.99053
947.404	102.23527
947.578	81.15143
947.752	38.99053
947.927	55.85379
948.101	133.86516
948.276	49.5299
948.45	125.43005
948.624	38.99053
948.799	83.25972
948.973	98.01833
949.147	95.90989
949.321	87.47635
949.496	131.75635
949.67	98.01833
949.844	98.01833
950.018	159.17255
950.193	116.99528
950.367	43.20621
950.541	72.71852
950.715	85.36802
950.889	66.39408
951.063	195.02983
951.237	89.5847
951.411	81.15143
951.585	148.62743
951.759	32.66719
951.933	38.99053
952.107	144.40954
952.281	72.71852
952.455	5.26851
952.629	72.71852
952.803	81.15143
952.977	34.77495
953.151	81.15143
953.325	133.86516
953.499	102.23527
953.672	91.69308
953.846	112.77803
954.02	72.71852
954.194	22.12877
954.368	112.77803
954.541	226.67346
954.715	64.28597
954.889	15.80599
955.062	55.85379
955.236	81.15143
955.41	60.06984
955.583	173.93659
955.757	112.77803
955.93	72.71852
956.104	146.51847
956.278	81.15143
956.451	125.43005
956.625	98.01833
956.798	127.53879
956.972	119.10394
957.145	24.2364
957.319	41.09836
957.492	22.12877
957.665	41.09836
957.839	64.28597
958.012	98.01833
958.185	131.75635
958.359	72.71852
958.532	24.2364
958.705	83.25972
958.879	114.88664
959.052	79.04317
959.225	110.66943
959.398	41.09836
959.572	47.42198
959.745	89.5847
959.918	43.20621
960.091	7.37596
960.264	98.01833
960.438	72.71852
960.611	89.5847
960.784	142.30062
960.957	81.15143
961.13	89.5847
961.303	32.66719
961.476	57.9618
961.649	64.28597
961.822	68.5022
961.995	95.90989
962.168	114.88664
962.341	89.5847
962.514	110.66943
962.686	26.34407
962.859	157.06349
963.032	85.36802
963.205	100.12679
963.378	34.77495
963.551	81.15143
963.723	17.91356
963.896	131.75635
964.069	66.39408
964.242	72.71852
964.414	9.48343
964.587	100.12679
964.76	100.12679
964.932	85.36802
965.105	190.81102
965.278	102.23527
965.45	131.75635
965.623	148.62743
965.795	83.25972
965.968	81.15143
966.14	38.99053
966.313	43.20621
966.485	38.99053
966.658	70.61035
966.83	51.63784
967.003	76.93493
967.175	-11.5902
967.348	76.93493
967.52	68.5022
967.692	110.66943
967.865	142.30062
968.037	106.45231
968.209	93.80147
968.382	74.82672
968.554	55.85379
968.726	123.32132
968.898	45.31408
969.071	66.39408
969.243	15.80599
969.415	133.86516
969.587	13.69845
969.759	55.85379
969.932	20.02115
970.104	89.5847
970.276	41.09836
970.448	9.48343
970.62	15.80599
970.792	22.12877
970.964	49.5299
971.136	150.73642
971.308	133.86516
971.48	-20.01897
971.652	36.88273
971.824	34.77495
971.996	91.69308
972.168	38.99053
972.339	32.66719
972.511	17.91356
972.683	22.12877
972.855	41.09836
973.027	93.80147
973.199	89.5847
973.37	57.9618
973.542	74.82672
973.714	70.61035
973.886	72.71852
974.057	38.99053
974.229	106.45231
974.401	60.06984
974.572	72.71852
974.744	91.69308
974.915	64.28597
975.087	47.42198
975.259	55.85379
975.43	79.04317
975.602	131.75635
975.773	74.82672
975.945	138.08285
976.116	93.80147
976.288	1.05369
976.459	30.55946
976.63	102.23527
976.802	64.28597
976.973	17.91356
977.145	70.61035
977.316	49.5299
977.487	83.25972
977.659	38.99053
977.83	60.06984
978.001	55.85379
978.172	-17.91182
978.344	66.39408
978.515	114.88664
978.686	-26.3403
978.857	22.12877
979.028	9.48343
979.2	22.12877
979.371	51.63784
979.542	-13.69743
979.713	30.55946
979.884	-17.91182
980.055	32.66719
980.226	13.69845
980.397	13.69845
980.568	38.99053
980.739	5.26851
980.91	51.63784
981.081	-15.80464
981.252	57.9618
981.423	49.5299
981.594	100.12679
981.765	-95.85994
981.936	-1.05368
982.106	55.85379
982.277	53.7458
982.448	43.20621
982.619	81.15143
982.79	32.66719
982.96	55.85379
983.131	70.61035
983.302	30.55946
983.472	95.90989
983.643	74.82672
983.814	47.42198
983.984	30.55946
984.155	-11.5902
984.326	30.55946
984.496	74.82672
984.667	24.2364
984.837	13.69845
985.008	1.05369
985.178	-24.23321
985.349	53.7458
985.519	13.69845
985.69	64.28597
985.86	49.5299
986.031	13.69845
986.201	89.5847
986.371	49.5299
986.542	13.69845
986.712	11.59093
986.882	13.69845
987.053	-38.98228
987.223	55.85379
987.393	-41.08919
987.563	100.12679
987.734	30.55946
987.904	-28.44736
988.074	60.06984
988.244	98.01833
988.414	148.62743
988.585	60.06984
988.755	57.9618
988.925	24.2364
989.095	43.20621
989.265	26.34407
989.435	55.85379
989.605	32.66719
989.775	-20.01897
989.945	26.34407
990.115	55.85379
990.285	24.2364
990.455	-1.05368
990.625	-3.16104
990.795	22.12877
990.965	24.2364
991.134	-57.94356
991.304	43.20621
991.474	-28.44736
991.644	38.99053
991.814	-41.08919
991.984	13.69845
992.153	30.55946
992.323	-1.05368
992.493	26.34407
992.662	32.66719
992.832	-20.01897
993.002	45.31408
993.171	-24.23321
993.341	30.55946
993.511	-26.3403
993.68	-15.80464
993.85	106.45231
994.019	-47.40976
994.189	98.01833
994.358	-30.55439
994.528	24.2364
994.697	-55.83685
994.867	38.99053
995.036	-41.08919
995.206	38.99053
995.375	-5.26836
995.544	28.45175
995.714	15.80599
995.883	49.5299
996.052	15.80599
996.222	72.71852
996.391	47.42198
996.56	38.99053
996.73	22.12877
996.899	93.80147
997.068	22.12877
997.237	11.59093
997.406	-7.37567
997.576	15.80599
997.745	57.9618
997.914	17.91356
998.083	22.12877
998.252	-7.37567
998.421	3.16109
998.59	47.42198
998.759	5.26851
998.928	-28.44736
999.097	34.77495
999.266	43.20621
999.435	24.2364
999.604	-45.30293
999.773	-26.3403
999.942	30.55946
1000.111	79.04317
1000.28	30.55946
1000.448	-17.91182
1000.617	-1.05368
1000.786	-74.79631
1000.955	5.26851
1001.124	-72.68981
1001.292	-28.44736
1001.461	49.5299
1001.63	-15.80464
1001.798	-28.44736
1001.967	9.48343
1002.136	57.9618
1002.304	34.77495
1002.473	38.99053
1002.642	-49.51657
1002.81	-3.16104
1002.979	15.80599
1003.147	-11.5902
1003.316	60.06984
1003.484	24.2364
1003.653	9.48343
1003.821	30.55946
1003.99	30.55946
1004.158	41.09836
1004.327	17.91356
1004.495	30.55946
1004.663	-7.37567
1004.832	13.69845
1005	-20.01897
1005.168	79.04317
1005.337	1.05369
1005.505	1.05369
1005.673	-9.48295
1005.842	-76.90279
1006.01	-34.76838
1006.178	-45.30293
1006.346	15.80599
1006.514	74.82672
1006.683	-3.16104
1006.851	38.99053
1007.019	43.20621
1007.187	22.12877
1007.355	32.66719
1007.523	-20.01897
1007.691	-53.73012
1007.859	-20.01897
1008.027	7.37596
1008.195	47.42198
1008.363	11.59093
1008.531	-24.23321
1008.699	-3.16104
1008.867	13.69845
1009.035	51.63784
1009.203	81.15143
1009.37	-15.80464
1009.538	43.20621
1009.706	28.45175
1009.874	17.91356
1010.042	24.2364
1010.209	38.99053
1010.377	49.5299
1010.545	26.34407
1010.713	26.34407
1010.88	-45.30293
1011.048	55.85379
1011.216	13.69845
1011.383	43.20621
1011.551	-17.91182
1011.718	36.88273
1011.886	-20.01897
1012.054	13.69845
1012.221	30.55946
1012.389	47.42198
1012.556	38.99053
1012.724	32.66719
1012.891	-41.08919
1013.058	47.42198
1013.226	38.99053
1013.393	41.09836
1013.561	5.26851
1013.728	9.48343
1013.895	9.48343
1014.063	5.26851
1014.23	87.47635
1014.397	38.99053
1014.565	34.77495
1014.732	-15.80464
1014.899	43.20621
1015.066	81.15143
1015.233	-3.16104
1015.401	32.66719
1015.568	-34.76838
1015.735	74.82672
1015.902	-68.47672
1016.069	-3.16104
1016.236	30.55946
1016.403	22.12877
1016.57	-26.3403
1016.737	-11.5902
1016.904	9.48343
1017.071	-5.26836
1017.238	-3.16104
1017.405	5.26851
1017.572	5.26851
1017.739	3.16109
1017.906	5.26851
1018.073	-20.01897
1018.24	51.63784
1018.407	-3.16104
1018.573	5.26851
1018.74	24.2364
1018.907	34.77495
1019.074	-11.5902
1019.241	60.06984
1019.407	68.5022
1019.574	-41.08919
1019.741	22.12877
1019.907	20.02115
1020.074	47.42198
1020.241	-7.37567
1020.407	-32.6614
1020.574	9.48343
1020.74	28.45175
1020.907	11.59093
1021.073	-11.5902
1021.24	-3.16104
1021.406	-9.48295
1021.573	13.69845
1021.739	-91.64742
1021.906	-17.91182
1022.072	5.26851
1022.239	-20.01897
1022.405	30.55946
1022.571	-32.6614
1022.738	60.06984
1022.904	-11.5902
1023.07	24.2364
1023.237	-72.68981
1023.403	24.2364
1023.569	15.80599
1023.735	-17.91182
1023.902	20.02115
1024.068	9.48343
1024.234	13.69845
1024.4	66.39408
1024.566	26.34407
1024.732	-30.55439
1024.898	-9.48295
1025.065	-15.80464
1025.231	-41.08919
1025.397	28.45175
1025.563	-66.37014
1025.729	49.5299
1025.895	47.42198
1026.061	30.55946
1026.227	9.48343
1026.392	-64.26353
1026.558	7.37596
1026.724	30.55946
1026.89	30.55946
1027.056	102.23527
1027.222	-7.37567
1027.388	24.2364
1027.553	-41.08919
1027.719	15.80599
1027.885	55.85379
1028.051	32.66719
1028.216	15.80599
1028.382	45.31408
1028.548	-11.5902
1028.713	22.12877
1028.879	22.12877
1029.045	-17.91182
1029.21	49.5299
1029.376	-9.48295
1029.541	-28.44736
1029.707	-53.73012
1029.873	-13.69743
1030.038	-17.91182
1030.204	-1.05368
1030.369	32.66719
1030.534	5.26851
1030.7	30.55946
1030.865	-74.79631
1031.031	38.99053
1031.196	-26.3403
1031.361	7.37596
1031.527	-30.55439
1031.692	36.88273
1031.857	66.39408
1032.023	-51.62336
1032.188	43.20621
1032.353	-38.98228
1032.518	47.42198
1032.684	24.2364
1032.849	5.26851
1033.014	9.48343
1033.179	-45.30293
1033.344	-3.16104
1033.509	32.66719
1033.674	-20.01897
1033.839	15.80599
1034.004	38.99053
1034.17	22.12877
1034.335	-53.73012
1034.5	-74.79631
1034.664	9.48343
1034.829	13.69845
1034.994	-32.6614
1035.159	22.12877
1035.324	-26.3403
1035.489	13.69845
1035.654	-13.69743
1035.819	-41.08919
1035.984	-62.1569
1036.148	85.36802
1036.313	60.06984
1036.478	22.12877
1036.643	17.91356
1036.807	-57.94356
1036.972	7.37596
1037.137	15.80599
1037.301	-9.48295
1037.466	30.55946
1037.631	38.99053
1037.795	-3.16104
1037.96	-20.01897
1038.124	-11.5902
1038.289	32.66719
1038.454	38.99053
1038.618	3.16109
1038.783	43.20621
1038.947	9.48343
1039.111	-32.6614
1039.276	38.99053
1039.44	-20.01897
1039.605	11.59093
1039.769	47.42198
1039.933	38.99053
1040.098	-20.01897
1040.262	-41.08919
1040.426	-41.08919
1040.591	30.55946
1040.755	60.06984
1040.919	-17.91182
1041.083	-3.16104
1041.248	9.48343
1041.412	-7.37567
1041.576	-53.73012
1041.74	22.12877
1041.904	30.55946
1042.068	-22.12611
1042.232	-26.3403
1042.397	-24.23321
1042.561	1.05369
1042.725	7.37596
1042.889	22.12877
1043.053	26.34407
1043.217	81.15143
1043.381	41.09836
1043.544	-47.40976
1043.708	13.69845
1043.872	85.36802
1044.036	-1.05368
1044.2	-17.91182
1044.364	-43.19607
1044.528	9.48343
1044.691	22.12877
1044.855	38.99053
1045.019	-32.6614
1045.183	26.34407
1045.346	-43.19607
1045.51	51.63784
1045.674	-22.12611
1045.837	-53.73012
1046.001	38.99053
1046.165	-32.6614
1046.328	66.39408
1046.492	-17.91182
1046.655	-87.4348
1046.819	-9.48295
1046.983	-45.30293
1047.146	36.88273
1047.31	24.2364
1047.473	-7.37567
1047.636	57.9618
1047.8	5.26851
1047.963	3.16109
1048.127	1.05369
1048.29	-17.91182
