Data from mixed_try1_USB4F045381__35__00260.txt Node

Date: Thu Apr 03 20:27:16 EDT 2025
User: mmckonesweet
Spectrometer: USB4F04538
Trigger mode: 4
Integration Time (sec): 2.700000E-3
Scans to average: 1
Electric dark correction enabled: true
Nonlinearity correction enabled: true
Boxcar width: 0
XAxis mode: Wavelengths
Number of Pixels in Spectrum: 3648
>>>>>Begin Spectral Data<<<<<
345.52	43.55752
345.736	43.55752
345.952	43.55752
346.168	18.26482
346.384	9.83468
346.6	1.40492
346.816	11.94218
347.032	7.72721
347.248	-40.73804
347.464	-13.34623
347.68	-2.80981
347.896	35.12624
348.112	16.15725
348.328	85.71941
348.544	-47.05863
348.76	-13.34623
348.975	-40.73804
349.191	-17.56062
349.407	37.23403
349.623	-49.16544
349.839	-17.56062
350.055	14.04971
350.27	-57.59244
350.486	30.91075
350.702	11.94218
350.918	1.40492
351.133	-32.31023
351.349	-7.02445
351.565	20.37242
351.781	18.26482
351.996	22.48004
352.212	9.83468
352.428	39.34183
352.644	85.71941
352.859	62.52924
353.075	-7.02445
353.291	-9.13173
353.506	43.55752
353.722	37.23403
353.938	11.94218
354.153	79.39455
354.369	-2.80981
354.584	106.80373
354.8	30.91075
355.016	1.40492
355.231	81.50281
355.447	39.34183
355.662	26.69535
355.878	68.85356
356.093	1.40492
356.309	45.6654
356.524	30.91075
356.74	51.98916
356.955	30.91075
357.171	60.42118
357.386	14.04971
357.602	7.72721
357.817	22.48004
358.033	35.12624
358.248	9.83468
358.464	22.48004
358.679	-78.65817
358.895	62.52924
359.11	-9.13173
359.325	81.50281
359.541	35.12624
359.756	-13.34623
359.972	60.42118
360.187	9.83468
360.402	28.80304
360.618	1.40492
360.833	73.06989
361.048	62.52924
361.264	47.77329
361.479	54.09713
361.694	11.94218
361.909	16.15725
362.125	5.61975
362.34	11.94218
362.555	43.55752
362.77	30.91075
362.986	14.04971
363.201	-47.05863
363.416	111.02086
363.631	-21.77492
363.847	39.34183
364.062	60.42118
364.277	47.77329
364.492	-32.31023
364.707	64.63732
364.922	18.26482
365.138	37.23403
365.353	-32.31023
365.568	11.94218
365.783	56.20513
365.998	51.98916
366.213	11.94218
366.428	60.42118
366.643	81.50281
366.858	-23.88203
367.073	33.01848
367.288	-32.31023
367.503	26.69535
367.718	30.91075
367.933	45.6654
368.148	5.61975
368.363	106.80373
368.578	1.40492
368.793	43.55752
369.008	9.83468
369.223	60.42118
369.438	9.83468
369.653	-13.34623
369.868	37.23403
370.083	-21.77492
370.298	-47.05863
370.513	11.94218
370.728	3.51233
370.943	43.55752
371.157	56.20513
371.372	5.61975
371.587	-38.63112
371.802	26.69535
372.017	-17.56062
372.232	56.20513
372.446	-15.45344
372.661	-23.88203
372.876	33.01848
373.091	-2.80981
373.306	11.94218
373.52	98.36974
373.735	-28.09618
373.95	47.77329
374.165	-9.13173
374.379	70.96171
374.594	39.34183
374.809	22.48004
375.023	14.04971
375.238	94.15287
375.453	-28.09618
375.667	-21.77492
375.882	-2.80981
376.097	9.83468
376.311	89.9361
376.526	11.94218
376.741	7.72721
376.955	1.40492
377.17	-44.95179
377.384	-9.13173
377.599	20.37242
377.813	-13.34623
378.028	26.69535
378.242	3.51233
378.457	-28.09618
378.672	28.80304
378.886	-42.84492
379.101	56.20513
379.315	9.83468
379.53	1.40492
379.744	60.42118
379.958	-23.88203
380.173	73.06989
380.387	-7.02445
380.602	43.55752
380.816	64.63732
381.031	24.58768
381.245	-28.09618
381.459	26.69535
381.674	35.12624
381.888	3.51233
382.103	-42.84492
382.317	20.37242
382.531	-19.66778
382.746	49.88122
382.96	-21.77492
383.174	-2.80981
383.388	111.02086
383.603	18.26482
383.817	70.96171
384.031	43.55752
384.246	3.51233
384.46	66.74543
384.674	-34.41722
384.888	22.48004
385.103	81.50281
385.317	35.12624
385.531	-19.66778
385.745	-47.05863
385.959	58.31314
386.174	85.71941
386.388	70.96171
386.602	70.96171
386.816	51.98916
387.03	-53.37899
387.244	89.9361
387.458	35.12624
387.672	119.45538
387.887	60.42118
388.101	-13.34623
388.315	22.48004
388.529	5.61975
388.743	60.42118
388.957	-4.91714
389.171	49.88122
389.385	5.61975
389.599	47.77329
389.813	41.44967
390.027	60.42118
390.241	-17.56062
390.455	37.23403
390.669	30.91075
390.883	35.12624
391.097	3.51233
391.311	43.55752
391.525	20.37242
391.738	39.34183
391.952	35.12624
392.166	35.12624
392.38	-19.66778
392.594	-2.80981
392.808	68.85356
393.022	68.85356
393.236	-21.77492
393.449	54.09713
393.663	81.50281
393.877	79.39455
394.091	22.48004
394.305	-2.80981
394.518	45.6654
394.732	35.12624
394.946	62.52924
395.16	-44.95179
395.373	-21.77492
395.587	43.55752
395.801	30.91075
396.015	1.40492
396.228	87.82774
396.442	-23.88203
396.656	9.83468
396.869	47.77329
397.083	68.85356
397.297	39.34183
397.51	1.40492
397.724	-13.34623
397.938	-15.45344
398.151	70.96171
398.365	87.82774
398.578	62.52924
398.792	62.52924
399.005	-0.70246
399.219	26.69535
399.433	-4.91714
399.646	89.9361
399.86	26.69535
400.073	-44.95179
400.287	45.6654
400.5	83.6111
400.714	-7.02445
400.927	39.34183
401.141	-13.34623
401.354	35.12624
401.567	3.51233
401.781	-38.63112
401.994	35.12624
402.208	18.26482
402.421	43.55752
402.635	28.80304
402.848	26.69535
403.061	54.09713
403.275	11.94218
403.488	20.37242
403.701	62.52924
403.915	43.55752
404.128	-2.80981
404.341	-49.16544
404.555	58.31314
404.768	51.98916
404.981	37.23403
405.195	18.26482
405.408	68.85356
405.621	54.09713
405.834	-2.80981
406.048	94.15287
406.261	39.34183
406.474	94.15287
406.687	-36.52418
406.9	30.91075
407.114	-15.45344
407.327	62.52924
407.54	-44.95179
407.753	28.80304
407.966	30.91075
408.179	14.04971
408.392	-19.66778
408.605	43.55752
408.819	60.42118
409.032	28.80304
409.245	-19.66778
409.458	-32.31023
409.671	11.94218
409.884	1.40492
410.097	-19.66778
410.31	18.26482
410.523	-7.02445
410.736	37.23403
410.949	-38.63112
411.162	51.98916
411.375	30.91075
411.588	9.83468
411.801	66.74543
412.014	9.83468
412.227	33.01848
412.44	9.83468
412.653	-49.16544
412.865	43.55752
413.078	-23.88203
413.291	30.91075
413.504	3.51233
413.717	68.85356
413.93	22.48004
414.143	14.04971
414.356	54.09713
414.568	30.91075
414.781	22.48004
414.994	18.26482
415.207	43.55752
415.42	77.2863
415.632	11.94218
415.845	113.12946
416.058	39.34183
416.271	70.96171
416.483	70.96171
416.696	-55.48573
416.909	85.71941
417.121	35.12624
417.334	-7.02445
417.547	56.20513
417.759	94.15287
417.972	68.85356
418.185	47.77329
418.397	89.9361
418.61	39.34183
418.823	-30.20322
419.035	-13.34623
419.248	60.42118
419.46	-0.70246
419.673	39.34183
419.885	62.52924
420.098	56.20513
420.311	5.61975
420.523	79.39455
420.736	-51.27223
420.948	70.96171
421.161	41.44967
421.373	43.55752
421.586	35.12624
421.798	45.6654
422.01	58.31314
422.223	18.26482
422.435	9.83468
422.648	11.94218
422.86	43.55752
423.073	-0.70246
423.285	28.80304
423.497	39.34183
423.71	43.55752
423.922	56.20513
424.134	87.82774
424.347	60.42118
424.559	35.12624
424.771	119.45538
424.984	47.77329
425.196	62.52924
425.408	68.85356
425.621	22.48004
425.833	75.17808
426.045	26.69535
426.257	68.85356
426.47	51.98916
426.682	45.6654
426.894	3.51233
427.106	14.04971
427.318	18.26482
427.531	35.12624
427.743	45.6654
427.955	51.98916
428.167	-34.41722
428.379	47.77329
428.591	14.04971
428.804	3.51233
429.016	45.6654
429.228	62.52924
429.44	-13.34623
429.652	77.2863
429.864	24.58768
430.076	5.61975
430.288	30.91075
430.5	28.80304
430.712	43.55752
430.924	98.36974
431.136	18.26482
431.348	94.15287
431.56	35.12624
431.772	9.83468
431.984	30.91075
432.196	35.12624
432.408	102.58669
432.62	22.48004
432.832	96.26129
433.044	70.96171
433.256	62.52924
433.468	20.37242
433.679	18.26482
433.891	43.55752
434.103	22.48004
434.315	-2.80981
434.527	-15.45344
434.739	41.44967
434.95	26.69535
435.162	20.37242
435.374	-21.77492
435.586	111.02086
435.798	70.96171
436.009	45.6654
436.221	54.09713
436.433	111.02086
436.645	68.85356
436.856	60.42118
437.068	92.04447
437.28	70.96171
437.491	26.69535
437.703	-7.02445
437.915	81.50281
438.126	18.26482
438.338	28.80304
438.55	129.99903
438.761	3.51233
438.973	45.6654
439.184	-28.09618
439.396	22.48004
439.608	70.96171
439.819	18.26482
440.031	104.6952
440.242	43.55752
440.454	43.55752
440.665	111.02086
440.877	22.48004
441.088	39.34183
441.3	136.32547
441.511	-9.13173
441.723	98.36974
441.934	89.9361
442.146	102.58669
442.357	51.98916
442.569	-28.09618
442.78	146.86997
442.991	85.71941
443.203	136.32547
443.414	129.99903
443.626	102.58669
443.837	73.06989
444.048	94.15287
444.26	104.6952
444.471	62.52924
444.682	113.12946
444.894	37.23403
445.105	56.20513
445.316	92.04447
445.528	115.23808
445.739	64.63732
445.95	111.02086
446.161	96.26129
446.373	18.26482
446.584	68.85356
446.795	60.42118
447.006	70.96171
447.217	30.91075
447.429	37.23403
447.64	98.36974
447.851	64.63732
448.062	87.82774
448.273	64.63732
448.484	47.77329
448.695	106.80373
448.907	62.52924
449.118	35.12624
449.329	24.58768
449.54	113.12946
449.751	22.48004
449.962	54.09713
450.173	111.02086
450.384	70.96171
450.595	22.48004
450.806	96.26129
451.017	113.12946
451.228	102.58669
451.439	102.58669
451.65	9.83468
451.861	56.20513
452.072	102.58669
452.283	119.45538
452.494	62.52924
452.705	123.67278
452.915	102.58669
453.126	94.15287
453.337	127.89025
453.548	56.20513
453.759	70.96171
453.97	94.15287
454.181	94.15287
454.391	113.12946
454.602	115.23808
454.813	111.02086
455.024	68.85356
455.235	127.89025
455.445	138.43433
455.656	132.10782
455.867	54.09713
456.078	79.39455
456.288	104.6952
456.499	85.71941
456.71	70.96171
456.921	161.63315
457.131	127.89025
457.342	119.45538
457.553	104.6952
457.763	79.39455
457.974	106.80373
458.184	144.76102
458.395	119.45538
458.606	64.63732
458.816	172.17891
459.027	115.23808
459.237	170.06972
459.448	132.10782
459.659	47.77329
459.869	77.2863
460.08	136.32547
460.29	106.80373
460.501	163.74226
460.711	138.43433
460.922	62.52924
461.132	79.39455
461.343	102.58669
461.553	178.50662
461.764	155.30595
461.974	180.61589
462.184	174.28813
462.395	146.86997
462.605	146.86997
462.816	155.30595
463.026	191.16258
463.236	153.19692
463.447	203.81928
463.657	172.17891
463.867	119.45538
464.078	94.15287
464.288	155.30595
464.498	218.58633
464.709	254.45319
464.919	233.35436
465.129	161.63315
465.339	117.34672
465.55	212.25747
465.76	210.14789
465.97	216.47669
466.18	296.65654
466.391	252.34322
466.601	193.27198
466.811	254.45319
467.021	167.96055
467.231	239.6838
467.441	296.65654
467.651	292.43587
467.862	292.43587
468.072	307.20854
468.282	275.55393
468.492	292.43587
468.702	393.75151
468.912	416.97519
469.122	298.76691
469.332	359.9752
469.542	374.75181
469.752	357.86432
469.962	397.97385
470.172	355.75346
470.382	389.52924
470.592	406.41873
470.802	313.53995
471.012	448.64696
471.222	374.75181
471.432	440.20081
471.642	389.52924
471.852	516.2249
472.062	372.64081
472.272	526.78531
472.482	535.23389
472.691	588.04248
472.901	575.36765
473.111	600.71778
473.321	600.71778
473.531	727.49485
473.741	642.97205
473.95	670.43995
474.16	674.66595
474.37	693.68355
474.58	769.7628
474.79	847.96884
474.999	759.19542
475.209	744.40153
475.419	748.6283
475.628	837.39972
475.838	761.30888
476.048	871.22166
476.258	888.13345
476.467	962.12838
476.677	1057.27703
476.886	949.44289
477.096	1044.58984
477.306	1192.6181
477.515	1040.36082
477.725	1095.33978
477.935	1082.65201
478.144	1158.78116
478.354	1021.33052
478.563	1296.24884
478.773	1243.37517
478.982	1378.73421
479.192	1285.67399
479.401	1361.81396
479.611	1319.5137
479.82	1482.37157
480.03	1437.95548
480.239	1497.1769
480.449	1476.02642
480.658	1588.123
480.868	1683.29571
481.077	1898.99534
481.287	1687.52549
481.496	1810.18317
481.705	1700.21475
481.915	1962.42691
482.124	1873.62133
482.333	1958.19831
482.543	1894.76639
482.752	2006.8258
482.961	2055.44984
483.171	2146.34543
483.38	2101.9563
483.589	2292.16962
483.799	2241.4529
484.008	2300.62188
484.217	2319.63893
484.426	2509.76398
484.636	2304.84796
484.845	2638.57499
485.054	2501.31583
485.263	2623.79568
485.472	2535.10732
485.682	2552.00196
485.891	2630.12974
486.1	2767.33966
486.309	2701.90791
486.518	2877.06683
486.727	2788.44394
486.936	2908.71182
487.146	2832.75847
487.355	3041.58445
487.564	3022.60632
487.773	3210.22278
487.982	3220.75923
488.191	3077.42861
488.4	3123.80843
488.609	3052.12732
488.818	3087.97015
489.027	3328.20703
489.236	3359.80086
489.445	3473.50587
489.654	3488.24159
489.863	3625.03033
490.072	3532.4434
490.281	3427.18786
490.49	3568.21989
490.698	3652.37862
490.907	3585.05404
491.116	3820.60438
491.325	3789.07153
491.534	3801.6852
491.743	3784.86682
491.952	3965.59781
492.16	3814.29817
492.369	4037.0084
492.578	3782.76443
492.787	4156.67254
492.996	4171.36345
493.204	4204.93879
493.413	4284.65841
493.622	4370.63691
493.831	4045.40809
494.039	4381.1196
494.248	4232.21476
494.457	4573.90339
494.665	4364.34703
494.874	4601.12948
495.083	4347.57307
495.291	4532.00975
495.5	4548.76827
495.709	4666.038
495.917	4599.0353
496.126	4743.4812
496.335	4709.99604
496.543	4956.81224
496.752	4818.8016
496.96	4990.25432
497.169	4766.49888
497.377	4921.27359
497.586	4743.4812
497.794	5186.60693
498.003	4910.81978
498.211	5192.87013
498.42	5149.02337
498.628	5163.6401
498.837	5075.92266
499.045	5330.60721
499.254	5209.57095
499.462	5480.74943
499.671	5169.90406
499.879	5276.3593
500.087	5303.48523
500.296	5509.92959
500.504	5409.86411
500.713	5478.66495
500.921	5639.10055
501.129	5553.69119
501.338	5357.72522
501.546	5901.32986
501.754	5557.85842
501.962	5944.99832
502.171	5693.24204
502.379	5778.58659
502.587	5843.08906
502.795	5984.49893
503.004	5797.31545
503.212	5811.88102
503.42	6078.01906
503.628	5936.68132
503.837	5845.16941
504.045	6111.25917
504.253	6046.85098
504.461	6225.4762
504.669	6094.63987
504.877	6293.97237
505.085	6123.72267
505.294	6159.0313
505.502	6080.09674
505.71	6200.56218
505.918	6063.47461
506.126	6408.07608
506.334	6227.55222
506.542	6536.61764
506.75	6441.25665
506.958	6580.1357
507.166	6482.72398
507.374	6493.08936
507.582	6468.21147
507.79	6665.0702
507.998	6368.66642
508.206	6727.19288
508.414	6526.25469
508.622	6929.98367
508.83	6617.42879
509.037	6880.34082
509.245	6532.47253
509.453	6969.27502
509.661	6925.84726
509.869	7099.49873
510.077	6739.61494
510.285	6896.88989
510.492	6958.93598
510.7	7138.75511
510.908	7101.56505
511.116	6973.41047
511.324	6911.36913
511.531	7054.0339
511.739	6913.4375
511.947	7029.23033
512.155	6979.61349
512.362	7334.91698
512.57	7126.35923
512.778	7260.60539
512.985	7264.73456
513.193	7318.40575
513.401	7287.44341
513.608	7415.38921
513.816	7291.57201
514.024	7444.2686
514.231	7425.70376
514.439	7541.18986
514.646	7607.15166
514.854	7516.44853
515.061	7398.88479
515.269	7502.01466
515.477	7462.83168
515.684	7631.8817
515.892	7615.39535
516.099	7815.20119
516.307	7701.93356
516.514	7615.39535
516.722	7905.76991
516.929	7821.37761
517.136	7662.78995
517.344	7850.19841
517.551	7786.37544
517.759	8288.19315
517.966	7922.23265
518.173	8095.01248
518.381	7953.09675
518.588	8010.6974
518.796	8047.71797
519.003	8277.92199
519.21	7994.2417
519.418	8218.33954
519.625	7963.38375
519.832	8333.38046
520.039	8195.73495
520.247	8374.45164
520.454	8208.06502
520.661	8380.61165
520.868	8294.35562
521.076	8382.66495
521.283	8341.59532
521.49	8429.88546
521.697	8581.74368
521.904	8497.61888
522.112	8288.19315
522.319	8540.71116
522.526	8329.27291
522.733	8762.19812
522.94	8553.02171
523.147	8762.19812
523.354	8518.14006
523.561	8850.32303
523.768	8741.69914
523.975	8895.39729
524.183	8938.41466
524.39	9020.33091
524.597	8846.22494
524.804	8942.51114
525.011	9038.75819
525.218	8940.46291
525.425	9112.45326
525.632	9317.04571
525.838	9030.56846
526.045	9122.68691
526.252	9008.04526
526.459	9108.35968
526.666	9120.64022
526.873	9511.25498
527.08	9141.10641
527.287	9390.65809
527.494	9327.27093
527.701	9799.23866
527.907	9380.43542
528.114	9576.64014
528.321	9296.59402
528.528	9439.72124
528.735	9494.90614
528.941	9642.00918
529.148	9580.72617
529.355	9656.30653
529.562	9449.94155
529.768	9678.77226
529.975	9560.29537
530.182	9697.15193
530.388	9584.81215
530.595	9658.34895
530.802	9619.54038
531.008	9960.45944
531.215	9887.00317
531.422	10115.47245
531.628	9991.06066
531.835	10070.60871
532.042	9984.94068
532.248	10364.14127
532.455	10239.83215
532.661	10307.08753
532.868	10150.13524
533.074	10150.13524
533.281	10076.72689
533.487	9991.06066
533.694	10133.82384
533.9	10190.90986
534.107	10225.56396
534.313	10720.49876
534.52	10425.25881
534.726	10514.87678
534.933	10392.66425
535.139	10610.57794
535.345	10775.44596
535.552	10647.22218
535.758	10523.02264
535.965	10805.96845
536.171	10632.97212
536.377	10744.92081
536.584	10525.05908
536.79	10714.39298
536.996	10696.07498
537.203	10779.51578
537.409	10801.89894
537.615	10777.48088
537.821	11025.65374
538.028	11265.53356
538.234	10801.89894
538.44	10919.89591
538.646	11003.28441
538.853	11379.32423
539.059	10871.07429
539.265	10885.31461
539.471	10740.85059
539.677	11029.72075
539.883	11062.25523
540.09	11058.18857
540.296	11011.41887
540.502	11633.21111
540.708	11224.8863
540.914	11568.23008
541.12	11216.75635
541.326	11606.8137
541.532	11515.426
541.738	11736.75549
541.944	11432.145
542.15	11574.32245
542.356	11448.39622
542.562	11698.18284
542.768	11671.78918
542.974	11870.72041
543.18	11554.01422
543.386	11807.80213
543.592	12083.77227
543.798	12053.34165
544.004	11895.07371
544.21	11953.92264
544.415	11777.35487
544.621	12333.24002
544.827	12073.62893
545.033	12229.81556
545.239	12110.14408
545.445	12241.9841
545.651	11864.6319
545.856	12093.91543
546.062	12270.37637
546.268	12294.71149
546.474	11986.38809
546.679	12010.73583
546.885	11957.98093
547.091	12010.73583
547.297	12215.61859
547.502	12152.74198
547.708	12241.9841
547.914	12426.50932
548.119	12349.4618
548.325	12533.95434
548.531	12211.56225
548.736	12414.34457
548.942	12325.12896
549.147	12491.38397
549.353	12791.34601
549.559	12353.51718
549.764	12513.68309
549.97	12481.24775
550.175	12667.72896
550.381	12858.21202
550.586	12649.48853
550.792	12939.25383
550.997	12882.52545
551.203	12643.40828
551.408	12927.09809
551.614	12998.00392
551.819	12981.79743
552.025	13012.18434
552.23	12925.07212
552.435	13160.0516
552.641	13346.37025
552.846	12959.51297
553.052	12975.71991
553.257	13121.56804
553.462	12874.42106
553.668	13196.50817
553.873	13014.21009
554.078	13309.91946
554.283	12993.95233
554.489	13309.91946
554.694	13492.16044
554.899	13259.2911
555.105	13253.21552
555.31	13263.34147
555.515	13125.61902
555.72	13528.6049
555.925	13267.39182
556.131	13494.18516
556.336	13475.96252
556.541	13927.39889
556.746	13589.34306
556.951	13688.54208
557.156	13591.36762
557.361	13820.12078
557.567	13852.50745
557.772	13724.98056
557.977	13595.41671
558.182	13789.7576
558.387	13623.75996
558.592	13714.85887
558.797	13848.45915
559.002	13874.77286
559.207	13990.14299
559.412	13864.65226
559.617	13579.22026
559.822	14000.26278
560.027	13927.39889
560.232	13917.27864
560.437	13965.85524
560.642	14044.78912
560.847	14022.5261
561.051	14075.14733
561.256	14109.55268
561.461	14200.62265
561.666	13769.51511
561.871	13876.79698
562.076	13971.92722
562.281	14032.64569
562.485	13977.99916
562.69	13988.11903
562.895	14014.43038
563.1	14143.9574
563.305	13913.23053
563.509	14257.28634
563.714	14135.86223
563.919	14433.3396
564.123	14162.17141
564.328	14334.18473
564.533	13961.80725
564.737	14271.45203
564.942	14530.46745
565.147	14643.77961
565.351	14158.12386
565.556	14340.25555
565.761	14498.09185
565.965	14661.99017
566.17	14506.18578
566.374	14591.17084
566.579	14400.96291
566.784	14698.41106
566.988	14562.84272
567.193	14813.74202
567.397	14738.87836
567.602	14775.29865
567.806	14603.31139
568.011	14844.09187
568.215	14643.77961
568.42	14858.25509
568.624	14888.60475
568.828	14751.01848
569.033	14904.79118
569.237	15159.7246
569.442	14858.25509
569.646	14587.12398
569.85	14566.88961
570.055	14862.30172
570.259	15044.39806
570.463	15311.47013
570.668	14829.92863
570.872	15101.04974
571.076	15094.97992
571.281	15129.37554
571.485	15040.3515
571.689	14813.74202
571.893	15080.81701
572.098	15026.18855
572.302	15159.7246
572.506	15184.00385
572.71	15137.46863
572.914	15398.47149
573.119	15400.49478
573.323	15028.21183
573.527	14957.39688
573.731	15388.35502
573.935	15181.98058
574.139	15250.77183
574.343	15078.79374
574.547	15406.56467
574.751	15285.16751
574.955	15827.42517
575.159	15501.66018
575.364	15649.3645
575.568	15424.77436
575.772	15669.59829
575.976	15358.00566
576.18	15513.80012
576.383	15681.73861
576.587	15566.4068
576.791	15374.19197
576.995	15586.64027
577.199	15560.33678
577.403	15631.15415
577.607	15649.3645
577.811	15894.20008
578.015	15819.33132
578.219	15880.03559
578.422	15635.20089
578.626	15869.91814
578.83	15760.6515
579.034	15843.61291
579.238	15914.43516
579.442	16278.69141
579.645	15954.90571
579.849	16404.17015
580.053	16130.95916
580.257	15967.04698
580.46	16189.64623
580.664	16181.55138
580.868	15962.99989
581.071	16187.62252
581.275	16062.15533
581.479	16472.98425
581.682	15809.21405
581.886	16157.26699
582.09	16072.27343
582.293	16673.36868
582.497	16317.1438
582.7	16513.46424
582.904	16560.01728
583.107	16535.72859
583.311	16197.74111
583.515	16377.85948
583.718	16292.858
583.922	16432.50508
584.125	16452.74456
584.329	16651.10267
584.532	16414.28972
584.735	16430.48115
584.939	16515.48826
585.142	16521.56034
585.346	16464.88835
585.549	16849.48273
585.753	16628.83693
585.956	16815.06819
586.159	16734.0956
586.363	16849.48273
586.566	16742.19269
586.769	16944.63264
586.973	16699.68342
587.176	16942.60811
587.379	16875.80022
587.582	16889.97136
587.786	17058.01034
587.989	17082.30667
588.192	16725.99856
588.395	16819.11692
588.599	16999.29584
588.802	17009.41886
589.005	17153.17326
589.208	17460.97825
589.411	17467.05405
589.615	17179.49601
589.818	17333.39276
590.021	17124.82621
590.224	17141.02445
590.427	17070.15845
590.63	17161.27251
590.833	17298.96701
591.036	17544.01673
591.239	17714.16131
591.442	17294.91697
591.645	17442.751
591.848	17452.87722
592.051	17685.80226
592.254	17521.73759
592.457	17809.37148
592.66	17359.71893
592.863	17396.1714
593.066	17428.57442
593.269	17315.16725
593.472	17531.86442
593.675	17862.04418
593.878	17323.26745
594.081	17742.521
594.284	17708.08431
594.486	17882.30353
594.689	18046.41717
594.892	17685.80226
595.095	18024.12877
595.298	18064.65346
595.5	17649.34159
595.703	18303.77873
595.906	18005.89313
596.109	18149.76
596.311	18153.81285
596.514	18141.65434
596.717	18044.39094
596.92	18198.39519
597.122	17937.00551
597.325	18224.74014
597.528	18161.9186
597.73	18516.6034
597.933	18133.54874
598.136	18796.38051
598.338	18461.87305
598.541	18311.88558
598.743	18251.08571
598.946	18433.49545
599.148	18362.5547
599.351	18435.52239
599.554	18488.22435
599.756	18307.83215
599.959	18498.35964
600.161	18415.2531
600.363	18542.95605
600.566	18520.65761
600.768	18317.96575
600.971	18346.34033
601.173	18360.52789
601.376	18573.36376
601.578	18559.17338
601.78	19045.81071
601.983	19015.38913
602.185	18913.99044
602.388	18794.35287
602.59	18626.07253
602.792	18449.71113
602.995	18855.18379
603.197	18646.34584
603.399	18893.7119
603.601	18881.54498
603.804	18970.77246
604.006	18717.30549
604.208	18747.71825
604.41	18826.79558
604.613	18944.40899
604.815	18632.15448
605.017	18816.65713
605.219	18478.08916
605.421	18368.63516
605.623	18636.20914
605.826	19049.86699
606.028	18938.3252
606.23	19199.96078
606.432	18869.37819
606.634	19098.54361
606.836	18814.62945
607.038	19001.19271
607.24	18936.29728
607.442	19094.48714
607.644	18948.46486
607.846	19055.95144
608.048	18763.93875
608.25	19066.09227
608.452	18916.01831
608.654	19589.49844
608.856	19122.8828
609.058	19364.27837
609.26	19165.4778
609.462	19206.04614
609.664	19173.59133
609.866	19212.13153
610.067	19191.84703
610.269	19133.0243
610.471	18745.6907
610.673	19396.73937
610.875	19193.87546
611.077	18826.79558
611.278	19100.57186
611.48	19303.41685
611.682	19149.25092
611.884	19601.67396
612.085	19015.38913
612.287	19380.50874
612.489	18887.62842
612.69	19206.04614
612.892	19238.50199
613.094	19218.21696
613.295	19049.86699
613.497	19279.07329
613.699	18972.80045
613.9	19291.24499
614.102	19317.61754
614.304	19384.56637
614.505	19315.58886
614.707	19520.50667
614.908	18843.01732
615.11	19311.53151
615.311	19370.36473
615.513	19167.50618
615.714	19297.33091
615.916	19254.73031
616.117	19045.81071
616.319	19135.05262
616.52	19197.93234
616.722	19486.01259
616.923	19307.47417
617.124	19674.73024
617.326	19060.00776
617.527	19327.76101
617.729	19469.7805
617.93	19565.14786
618.131	19540.79787
618.333	19496.15778
618.534	19619.93753
618.735	19861.45428
618.937	19492.09969
619.138	19502.24495
619.339	19481.95454
619.54	19686.90681
619.742	19621.96683
619.943	19755.91024
620.144	19483.98356
620.345	19672.70083
620.546	19303.41685
620.748	19514.41939
620.949	19453.54867
621.15	19544.85616
621.351	19358.19205
621.552	19400.79707
621.753	19175.61973
621.954	19437.31711
622.155	19439.34604
622.356	19408.91252
622.558	19469.7805
622.759	19475.8675
622.96	19532.68134
623.161	19295.30226
623.362	19309.50284
623.563	19648.34818
623.764	19723.43744
623.965	20064.45551
624.166	19609.79106
624.366	19335.87587
624.567	19524.56488
624.768	19806.65115
624.969	19417.02803
625.17	19609.79106
625.371	19561.08948
625.572	19465.72252
625.773	19291.24499
625.973	19630.08409
626.174	19593.55693
626.375	19534.71047
626.576	19837.09696
626.777	19855.36489
626.977	19581.38151
627.178	19703.14248
627.379	19504.27401
627.58	19508.33215
627.78	19398.76822
627.981	19573.26465
628.182	19573.26465
628.382	19902.05116
628.583	19863.48408
628.784	19638.20143
628.984	19423.11471
629.185	19538.76873
629.386	19451.51971
629.586	19782.29519
629.787	19954.82962
629.987	20127.39444
630.188	19922.35023
630.388	19863.48408
630.589	19626.02545
630.79	19656.46566
630.99	19492.09969
631.191	19851.30532
631.391	19782.29519
631.591	19936.55984
631.792	19837.09696
631.992	20153.78938
632.193	20064.45551
632.393	20005.58083
632.594	20013.70126
632.794	19952.79963
632.994	19999.49054
633.195	19812.74024
633.395	19772.14705
633.595	19786.35447
633.796	20009.64104
633.996	20157.85021
634.196	19680.81851
634.397	20011.67115
634.597	19873.63317
634.797	19946.70968
634.997	19810.71054
635.198	20127.39444
635.398	19910.17074
635.598	20356.85117
635.798	20210.64245
635.998	20042.12332
636.199	19857.39468
636.399	20316.23545
636.599	20052.27425
636.799	20163.94147
636.999	19964.97965
637.199	20222.82568
637.399	20096.93961
637.599	20046.18368
637.799	19743.73282
637.999	20066.48574
638.199	20139.57663
638.399	20316.23545
638.599	20121.3034
638.799	20214.70351
638.999	20216.73404
639.199	20683.86873
639.399	20324.35846
639.599	20553.8612
639.799	19782.29519
639.999	20458.39781
640.199	19981.21992
640.399	20105.06081
640.599	19532.68134
640.799	20555.89244
640.998	20320.29695
641.198	20348.7279
641.398	20403.56133
641.598	20176.12412
641.798	20566.04868
641.997	20306.08179
642.197	20007.61093
642.397	20421.83982
642.597	20373.09793
642.796	20618.86283
642.996	20769.19544
643.196	20586.36148
643.395	20529.48669
643.595	20633.08251
643.795	20442.14965
643.994	20641.20813
644.194	20612.76875
644.394	20616.83147
644.593	20541.67387
644.793	20488.86385
644.992	20458.39781
645.192	20919.55076
645.392	20446.21166
645.591	20986.60838
645.791	20561.98617
645.99	20496.98828
646.19	20480.73948
646.389	20681.83724
646.589	20496.98828
646.788	20732.62596
646.987	20379.19054
647.187	20440.11865
647.386	20314.20471
647.586	20574.17375
647.785	20509.17506
647.984	20931.74272
648.184	21033.34815
648.383	20970.35157
648.582	21031.31595
648.782	20933.77473
648.981	20643.23955
649.18	20805.76627
649.38	20887.03958
649.579	20925.64672
649.778	20911.42286
649.977	20828.11577
650.177	20151.75898
650.376	20783.41727
650.575	20600.58069
650.774	20732.62596
650.973	20614.80011
651.173	20787.48069
651.372	20486.83275
651.571	20763.10043
651.77	20566.04868
651.969	20972.38366
652.168	20862.65689
652.367	21010.99408
652.566	20960.1912
652.765	21045.5415
652.964	20905.32699
653.163	21090.25167
653.362	20819.98862
653.561	20691.99477
653.76	20730.59436
653.959	20819.98862
654.158	20610.7374
654.357	20990.67262
654.556	20466.522
654.755	21175.61295
654.954	21045.5415
655.153	21297.57005
655.352	21319.93043
655.551	21260.98139
655.749	21482.56595
655.948	21208.13342
656.147	21256.91607
656.346	21409.3768
656.545	20824.05219
656.743	21275.21016
656.942	21175.61295
657.141	21191.87306
657.34	20809.82978
657.538	20797.6393
657.737	20763.10043
657.936	21291.47185
658.135	20862.65689
658.333	21114.63988
658.532	21364.65264
658.731	21348.38979
658.929	21063.83178
659.128	21212.19855
659.326	21023.18715
659.525	21527.29519
659.724	21106.51041
659.922	21141.06109
660.121	21098.38101
660.319	21076.02549
660.518	20834.21118
660.716	21273.17746
660.915	21431.7396
661.113	21500.86404
661.312	20901.26309
661.51	20903.29504
661.709	21019.12278
661.907	20911.42286
662.105	20864.68876
662.304	21021.15496
662.502	20962.22327
662.701	21008.96191
662.899	20858.59317
663.097	21134.96383
663.296	21236.58968
663.494	21490.6984
663.692	21139.02867
663.891	21537.46119
664.089	21344.32412
664.287	21425.64061
664.485	21405.31088
664.684	21572.02635
664.882	21195.93812
665.08	21378.88284
665.278	21281.30826
665.476	21368.71839
665.675	21645.22691
665.873	21584.22609
666.071	21360.58691
666.269	21242.68755
666.467	20994.73688
666.665	21283.34097
666.863	20746.84726
667.061	21466.30125
667.259	21244.72019
667.457	21372.78416
667.655	21232.52445
667.853	21047.57373
668.051	20937.83875
668.249	21161.38557
668.447	21094.31633
668.645	21189.84053
668.843	21468.33432
669.041	21112.60751
669.239	20803.73452
669.437	21311.79932
669.635	21362.61977
669.833	21313.83209
670.031	21141.06109
670.229	20671.6798
670.426	20933.77473
670.624	20994.73688
670.822	21039.44481
671.02	21321.96321
671.218	21271.14478
671.415	21350.42263
671.613	20927.67871
671.811	21112.60751
672.009	21043.50926
672.206	21258.94873
672.404	20878.91195
672.602	20671.6798
672.799	20923.61473
672.997	20929.71071
673.195	20677.77425
673.392	21071.96091
673.59	21136.99625
673.788	21116.67225
673.985	21078.05779
674.183	21234.55706
674.38	20996.76902
674.578	21147.15839
674.775	20923.61473
674.973	20677.77425
675.17	20720.43643
675.368	20913.45483
675.565	20700.12088
675.763	20624.95696
675.96	20958.15914
676.158	20905.32699
676.355	20580.2676
676.553	21049.60598
676.75	20836.24299
676.947	20874.84816
677.145	20728.56276
677.342	21252.85076
677.539	20765.1321
677.737	21057.73499
677.934	20838.2748
678.131	20340.60469
678.329	20423.87078
678.526	20572.14248
678.723	20687.93174
678.92	20945.96686
679.118	20897.19921
679.315	20923.61473
679.512	20882.97576
679.709	21236.58968
679.906	20310.14324
680.104	20819.98862
680.301	20568.07994
680.498	20499.0194
680.695	20090.84876
680.892	20470.58412
681.089	20488.86385
681.286	21145.12596
681.483	20582.29889
681.68	20854.52946
681.877	20622.92558
682.075	20667.61686
682.272	20324.35846
682.469	20696.05782
682.665	20178.15458
682.862	20362.94368
683.059	20204.55089
683.256	20170.03278
683.453	20330.45077
683.65	20230.94791
683.847	20649.33382
684.044	20417.7779
684.241	20415.74695
684.438	20395.43766
684.635	20007.61093
684.831	20381.22141
685.028	20291.86683
685.225	20356.85117
685.422	20330.45077
685.619	20369.03622
685.815	20553.8612
686.012	20202.52038
686.209	20299.98964
686.405	20358.882
686.602	20257.34565
686.799	20060.39508
686.996	19613.84963
687.192	19735.61461
687.389	19837.09696
687.586	19928.44004
687.782	20064.45551
687.979	20257.34565
688.175	19741.70326
688.372	20050.24406
688.568	20291.86683
688.765	20096.93961
688.962	20204.55089
689.158	20080.69743
689.355	20135.51588
689.551	20308.11251
689.748	20157.85021
689.944	20096.93961
690.14	19729.52601
690.337	19719.37841
690.533	19723.43744
690.73	19666.61261
690.926	19646.31882
691.123	19368.33594
691.319	19891.90178
691.515	19717.34891
691.712	19835.06721
691.908	19932.49993
692.104	19772.14705
692.301	19839.12671
692.497	19439.34604
692.693	19546.88531
692.889	19370.36473
693.086	19759.96942
693.282	19682.84794
693.478	19985.28003
693.674	19690.96571
693.87	19692.99516
694.067	19695.02461
694.263	19780.26555
694.459	19766.05822
694.655	20109.12143
694.851	19668.64201
695.047	19780.26555
695.243	19532.68134
695.439	19605.7325
695.635	19398.76822
695.831	19421.08581
696.027	19309.50284
696.224	19680.81851
696.42	19092.45891
696.615	19751.85108
696.811	19293.27363
697.007	19479.92552
697.203	19605.7325
697.399	19486.01259
697.595	19364.27837
697.791	19374.42232
697.987	19244.58758
698.183	19538.76873
698.379	19506.30308
698.575	19804.62147
698.77	19163.44942
698.966	19429.20143
699.162	19226.33092
699.358	19275.01608
699.554	19149.25092
699.749	19128.96769
699.945	19163.44942
700.141	19433.25926
700.337	19455.57763
700.532	19735.61461
700.728	19337.90459
700.924	19461.66455
701.119	19208.0746
701.315	19173.59133
701.511	19066.09227
701.706	19396.73937
701.902	19092.45891
702.097	19644.28947
702.293	19532.68134
702.489	19764.02861
702.684	19366.30715
702.88	19021.47338
703.075	19307.47417
703.271	19084.34602
703.466	19199.96078
703.662	18989.0245
703.857	19003.22076
704.053	19033.64197
704.248	18980.91244
704.443	18731.498
704.639	18832.87871
704.834	18954.54871
705.03	18808.54643
705.225	18741.63563
705.42	18735.55304
705.616	19092.45891
705.811	18916.01831
706.006	19019.44529
706.202	18845.04506
706.397	19339.93332
706.592	18903.85112
706.787	18989.0245
706.983	18877.48936
707.178	19157.36433
707.373	18498.35964
707.568	18735.55304
707.763	18565.25495
707.959	18859.23932
708.154	18747.71825
708.349	18684.8662
708.544	18717.30549
708.739	18628.09985
708.934	18536.87461
709.129	18690.94849
709.324	18796.38051
709.519	18989.0245
709.714	18603.77235
709.909	18585.52709
710.104	18514.5763
710.299	18719.33298
710.494	18447.68415
710.689	18776.10429
710.884	18790.2976
711.079	18968.74448
711.274	18660.53739
711.469	18759.8836
711.664	18307.83215
711.859	18642.29115
712.054	18295.67195
712.249	18143.68075
712.443	18123.41682
712.638	18234.87298
712.833	18157.86572
713.028	18660.53739
713.223	18514.5763
713.417	18445.65718
713.612	18617.96332
713.807	18352.42069
714.002	18208.52779
714.196	18636.20914
714.391	18342.28677
714.586	18200.4217
714.78	18549.03752
714.975	18680.81136
715.17	18200.4217
715.364	18356.47428
715.559	18427.41463
715.754	18093.0216
715.948	18202.44822
716.143	18206.50126
716.337	18115.31134
716.532	18372.68881
716.726	18170.02441
716.921	18200.4217
717.115	18271.35196
717.31	17876.22569
717.504	18011.97164
717.699	18020.07638
717.893	17282.76695
718.088	17817.47482
718.282	17665.5462
718.476	17665.5462
718.671	17953.21399
718.865	18064.65346
719.059	17691.87915
719.254	18141.65434
719.448	17556.16915
719.642	18070.73229
719.837	18001.8408
720.031	17939.03156
720.225	17947.13578
720.419	17849.88873
720.614	17947.13578
720.808	18267.29868
721.002	17768.8556
721.196	18086.94265
721.39	17862.04418
721.585	17862.04418
721.779	17718.21265
721.973	17776.95867
722.167	17450.85197
722.361	17855.96644
722.555	17937.00551
722.749	17402.2469
722.943	17493.38287
723.137	17531.86442
723.331	17677.6998
723.525	17811.39731
723.719	17774.9329
723.913	17809.37148
724.107	17290.86695
724.301	17841.78517
724.495	17268.59205
724.689	17665.5462
724.883	17477.18046
725.077	17335.41783
725.271	17347.56833
725.465	17280.74195
725.659	17031.68976
725.853	17303.01705
726.046	17268.59205
726.24	17096.47971
726.434	17132.92531
726.628	17465.02878
726.822	17517.68688
727.015	17955.24007
727.209	17151.14845
727.403	17552.11833
727.596	17238.21777
727.79	17256.44226
727.984	17523.76295
728.177	17671.62299
728.371	17764.80409
728.565	17610.85649
728.758	17128.87575
728.952	17355.66872
729.146	17114.7024
729.339	17286.81694
729.533	17104.57865
729.726	17596.67806
729.92	17236.19284
730.113	17564.27083
730.307	17390.09592
730.5	17211.89392
730.694	17219.99352
730.887	16885.92245
731.081	17110.65289
731.274	17130.90053
731.468	16962.85349
731.661	17177.47117
731.854	17298.96701
732.048	17118.75191
732.241	17185.57057
732.435	17187.59542
732.628	17185.57057
732.821	16705.75611
733.014	16902.11815
733.208	17023.59121
733.401	17379.97018
733.594	16987.14829
733.788	17278.71696
733.981	17355.66872
734.174	17714.16131
734.367	17633.13719
734.56	17432.62486
734.754	17489.33225
734.947	17558.19456
735.14	17325.29251
735.333	17082.30667
735.526	17195.69488
735.719	16962.85349
735.912	16908.19157
736.105	16841.38512
736.298	16740.16841
736.491	17025.61585
736.684	16922.363
736.877	17181.52086
737.07	16956.77985
737.263	16991.19746
737.456	17392.12107
737.649	16920.3385
737.842	17331.36769
738.035	17122.80144
738.228	17070.15845
738.421	17201.7695
738.614	17446.80148
738.807	17151.14845
739	16857.58037
739.192	16458.81645
739.385	16519.53631
739.578	16371.78784
739.771	16651.10267
739.964	16521.56034
740.156	16922.363
740.349	16596.45089
740.542	16371.78784
740.735	16460.84041
740.927	16345.47757
741.12	16616.6921
741.313	16653.12684
741.505	16616.6921
741.698	16511.44022
741.891	16721.95005
742.083	16628.83693
742.276	16831.26317
742.468	16497.27214
742.661	16458.81645
742.854	16728.02281
743.046	16452.74456
743.239	16584.30627
743.431	16313.09615
743.624	16252.38225
743.816	16274.64383
744.009	16574.18582
744.201	16529.65647
744.393	16416.31364
744.586	16110.72255
744.778	16266.54868
744.971	16410.24189
745.163	16677.41707
745.355	16365.71621
745.548	16307.02469
745.74	16112.74621
745.932	16286.7866
746.125	16667.2961
746.317	16683.48969
746.509	16671.34448
746.702	16450.72061
746.894	16377.85948
747.086	16096.55702
747.278	16070.24981
747.471	16325.23913
747.663	16082.39157
747.855	16315.11998
748.047	16422.38542
748.239	16240.23967
748.431	16035.84845
748.623	16541.80074
748.815	16108.6989
749.008	16531.68051
749.2	16675.39288
749.392	16675.39288
749.584	16341.42987
749.776	16244.28719
749.968	16005.49466
750.16	15948.8351
750.352	15788.97958
750.544	16100.60431
750.736	16104.6516
750.928	16266.54868
751.12	15914.43516
751.311	15851.7068
751.503	16112.74621
751.695	16064.17895
751.887	16248.33472
752.079	16108.6989
752.271	16025.73048
752.463	16181.55138
752.654	16013.58897
752.846	15932.64684
753.038	15837.54249
753.23	16124.88816
753.421	15863.84768
753.613	15706.01934
753.805	15853.73028
753.997	15873.96512
754.188	15827.42517
754.38	15886.10608
754.572	15752.5578
754.763	15756.60465
754.955	15546.17341
755.146	15827.42517
755.338	15586.64027
755.53	15720.18316
755.721	15663.52814
755.913	15703.99594
756.104	15584.61692
756.296	15815.28441
756.487	15827.42517
756.679	15687.80878
756.87	15319.56326
757.062	15177.93404
757.253	15592.71032
757.445	15501.66018
757.636	15226.49255
757.827	15438.93748
758.019	15532.01008
758.21	15366.09881
758.401	15264.93475
758.593	15230.53909
758.784	15240.65546
758.975	14900.74457
759.167	14961.44346
759.358	15161.74787
759.549	15366.09881
759.74	15370.14539
759.932	15113.18937
760.123	15058.56099
760.314	15066.65409
760.505	14840.04523
760.696	14965.49004
760.888	15424.77436
761.079	15153.65479
761.27	14975.60648
761.461	15151.63152
761.652	14981.67634
761.843	14931.09407
762.034	15315.51669
762.225	14858.25509
762.416	14888.60475
762.607	14765.18193
762.798	14769.22862
762.989	15097.0032
763.18	15020.11871
763.371	14854.20846
763.562	14524.39705
763.753	14465.7159
763.944	14929.07077
764.135	14779.34533
764.326	14815.76535
764.517	14935.14066
764.708	14603.31139
764.899	14433.3396
765.089	14566.88961
765.28	14676.15388
765.471	14684.24741
765.662	14396.9158
765.853	14657.94338
766.043	14394.89224
766.234	14597.24112
766.425	14235.02579
766.615	14441.43371
766.806	14279.54667
766.997	14271.45203
767.187	14320.01943
767.378	14439.41018
767.569	14273.47569
767.759	14158.12386
767.95	14303.83041
768.141	14269.42836
768.331	14350.37355
768.522	14235.02579
768.712	13886.9175
768.903	14008.35856
769.093	13913.23053
769.284	13690.56647
769.474	13939.54311
769.665	13727.00489
769.855	14060.98023
770.046	14164.19517
770.236	13840.36253
770.426	13690.56647
770.617	13619.71097
770.807	13544.80205
770.998	13502.28402
771.188	13552.90055
771.378	13378.76984
771.569	13184.35614
771.759	13224.86228
771.949	13445.59076
772.139	13565.04818
772.33	13303.8442
772.52	13587.31851
772.71	13712.83452
772.9	13506.33342
773.09	13692.59085
773.281	13504.30872
773.471	13522.5309
773.661	13477.98727
773.851	13550.87593
774.041	13360.5452
774.231	13506.33342
774.421	13028.39023
774.611	13085.10837
774.802	12951.40937
774.992	13137.77185
775.182	13348.39525
775.372	13558.97438
775.562	13162.077
775.752	13409.14351
775.942	13050.67281
776.131	12868.34271
776.321	12641.38152
776.511	13164.1024
776.701	13182.33079
776.891	12868.34271
777.081	12477.19321
777.271	12813.63535
777.461	13105.36393
777.651	13074.98041
777.84	13156.00078
778.03	13028.39023
778.22	12858.21202
778.41	12989.90071
778.599	12621.11357
778.789	12542.06266
778.979	12694.07539
779.169	12613.00621
779.358	12742.71236
779.548	12783.24063
779.738	12726.50041
779.927	12819.71414
780.117	12572.46798
780.307	12617.0599
780.496	12473.13865
780.686	12748.79174
780.875	12426.50932
781.065	12519.76453
781.254	12308.9065
781.444	12351.4895
781.633	12428.53676
781.823	12383.93164
782.012	12748.79174
782.202	12574.49495
782.391	12538.00851
782.581	12643.40828
782.77	12379.87647
782.96	12351.4895
783.149	12079.71496
783.338	12290.65571
783.528	12160.85549
783.717	12339.32324
783.906	12410.2896
784.096	12239.95603
784.285	12503.54722
784.474	12308.9065
784.663	12156.79875
784.853	11998.5621
785.042	11852.45465
785.231	12148.68518
785.42	12083.77227
785.61	12317.01779
785.799	11822.01019
785.988	11848.3955
786.177	11663.66775
786.366	11590.56837
786.555	11637.27211
786.744	11572.29167
786.933	11797.65326
787.122	11694.12237
787.312	11446.36485
787.501	11606.8137
787.69	11495.11505
787.879	11880.86777
788.068	11387.45093
788.257	11647.42446
788.445	11263.50129
788.634	11614.93614
788.823	11452.45893
789.012	11598.69111
789.201	11592.59907
789.39	11482.92801
789.579	11271.63029
789.768	11683.97106
789.957	11517.45704
790.145	11564.16845
790.334	11614.93614
790.523	11318.36887
790.712	11190.33287
790.9	11505.27064
791.089	11344.78396
791.278	11594.62976
791.467	11531.67409
791.655	11300.0805
791.844	11121.21688
792.033	11139.51349
792.221	10818.1767
792.41	11109.01866
792.599	10942.27029
792.787	11383.3876
792.976	11316.33687
793.164	11182.20221
793.353	11259.43673
793.541	11604.78307
793.73	11031.75424
793.918	11403.70387
794.107	10960.57558
794.295	11125.28287
794.484	10852.76447
794.672	11159.84203
794.861	11080.55465
795.049	11283.82348
795.238	10828.34993
795.426	10905.65695
795.614	10584.11018
795.803	10836.48829
795.991	10673.68498
796.179	10767.30619
796.368	10468.03412
796.556	10604.47018
796.744	10490.43798
796.932	10614.64972
797.121	10502.65761
797.309	10840.55741
797.497	10549.4953
797.685	10641.11508
797.874	10622.79313
798.062	10728.63964
798.25	10465.99733
798.438	10539.31376
798.626	10319.3142
798.814	10516.91327
799.002	10441.55484
799.19	10575.96582
799.378	10425.25881
799.566	10584.11018
799.755	10341.72854
799.943	10781.55067
800.131	10565.7851
800.318	10565.7851
800.506	10539.31376
800.694	10417.11048
800.882	10225.56396
801.07	10486.36466
801.258	10345.8037
801.446	10280.59473
801.634	9989.02068
801.822	10068.56928
802.01	10115.47245
802.197	10502.65761
802.385	10219.44882
802.573	10201.10265
802.761	10125.6678
802.949	10486.36466
803.136	10298.93614
803.324	10520.9862
803.512	10812.07263
803.699	10500.62103
803.887	10502.65761
804.075	10518.94974
804.262	10307.08753
804.45	10296.89826
804.638	10400.8132
804.825	10243.90865
805.013	10127.70683
805.201	10033.89692
805.388	10068.56928
805.576	10394.70151
805.763	10296.89826
805.951	10364.14127
806.138	10421.18467
806.326	10602.43424
806.513	10358.02886
806.701	10484.32799
806.888	10535.24106
807.075	10639.07936
807.263	10360.06634
807.45	10484.32799
807.638	10343.76612
807.825	10673.68498
808.012	10494.51124
808.2	10325.42736
808.387	10439.51788
808.574	10303.01186
808.761	10292.82246
808.949	10525.05908
809.136	10512.84028
809.323	10376.36572
809.51	10037.97624
809.698	10494.51124
809.885	10386.5524
810.072	10523.02264
810.259	10429.33289
810.446	10559.67652
810.633	10335.6157
810.82	10543.38641
811.008	10245.94688
811.195	10582.07411
811.382	10345.8037
811.569	10647.22218
811.756	10245.94688
811.943	10588.18228
812.13	10429.33289
812.317	10663.50722
812.504	10417.11048
812.691	10663.50722
812.878	10333.57806
813.064	10767.30619
813.251	10655.3648
813.438	10667.57836
813.625	10386.5524
813.812	10694.03959
813.999	10286.70866
814.186	10486.36466
814.372	10360.06634
814.559	10345.8037
814.746	10229.64065
814.933	10470.0709
815.12	10378.40308
815.306	10217.41041
815.493	10054.29293
815.68	10296.89826
815.866	10060.41145
816.053	10529.13191
816.24	10368.21614
816.426	10653.32916
816.613	10408.96195
816.799	10604.47018
816.986	10335.6157
817.173	10510.80377
817.359	9960.45944
817.546	10233.71729
817.732	9929.85496
817.919	10152.1741
818.105	9948.21804
818.292	10091.00216
818.478	9823.73385
818.665	10164.40698
818.851	10031.85724
819.037	10082.84495
819.224	9639.96664
819.41	10184.79402
819.597	9958.41925
819.783	10146.05747
819.969	9870.67697
820.156	10270.40459
820.342	10227.60231
820.528	10288.7466
820.714	10062.45093
820.901	10260.21412
821.087	10199.06412
821.273	10233.71729
821.459	10235.75559
821.646	10465.99733
821.832	10372.29095
822.018	10272.44265
822.204	9962.49963
822.39	10101.19836
822.576	9758.40852
822.762	9586.85511
822.948	9494.90614
823.134	9980.86061
823.32	9748.20004
823.507	9748.20004
823.693	9748.20004
823.879	9725.74005
824.065	9848.22689
824.25	9635.88151
824.436	9684.89896
824.622	9756.36686
824.808	9719.61427
824.994	9691.02551
825.18	9556.20902
825.366	9731.86568
825.552	9666.51846
825.738	9454.02956
825.923	9478.55628
826.109	9703.27821
826.295	9725.74005
826.481	9799.23866
826.667	9691.02551
826.852	9731.86568
827.038	9682.85674
827.224	10021.65863
827.409	9572.55404
827.595	9519.42901
827.781	9611.36944
827.966	9576.64014
828.152	9329.31592
828.338	9267.95887
828.523	9163.61725
828.709	9407.01352
828.894	9161.5709
829.08	9292.50349
829.266	8960.94444
829.451	9145.19945
829.637	8860.56795
829.822	9003.94991
830.008	9012.14055
830.193	9112.45326
830.378	8905.64024
830.564	8885.15391
830.749	8932.2698
830.935	9339.54064
831.12	8962.9925
831.305	9118.5935
831.491	8883.10517
831.676	8965.04053
831.861	9077.65561
832.047	9012.14055
832.232	9112.45326
832.417	9151.33887
832.602	9081.74971
832.788	8973.23251
832.973	9079.70267
833.158	8991.66342
833.343	8950.7039
833.528	9265.91338
833.714	8987.56779
833.899	9257.73124
834.084	9083.79673
834.269	8960.94444
834.454	8557.12508
834.639	8823.68415
834.824	8739.64914
835.009	8698.64529
835.194	8587.89791
835.379	8770.39721
835.564	8612.51314
835.749	8842.12678
835.934	8544.81475
836.119	8612.51314
836.304	8661.73552
836.489	8692.49408
836.674	8655.58331
836.859	8585.84652
837.044	8639.17659
837.228	8883.10517
837.413	8563.27998
837.598	8475.04338
837.783	8602.25712
837.968	8692.49408
838.152	8598.15458
838.337	8756.04862
838.522	8002.46972
838.707	8341.59532
838.891	8210.11996
839.076	8226.55879
839.261	8111.46025
839.445	8251.21466
839.63	8076.50721
839.815	8255.3237
839.999	7969.55571
840.184	8136.12949
840.368	8060.0567
840.553	8286.13896
840.737	8397.03749
840.922	8212.17489
841.106	8078.56343
841.291	7992.18465
841.475	7936.63647
841.66	8062.11308
841.844	7946.9243
842.029	7998.35575
842.213	7763.72376
842.397	7955.15419
842.582	7864.60728
842.766	8088.84424
842.951	7854.31533
843.135	7973.67025
843.319	7813.14235
843.504	7936.63647
843.688	7872.84047
843.872	7881.07332
844.056	7850.19841
844.241	7967.49841
844.425	7891.36393
844.609	7734.89069
844.793	7640.12437
844.977	7751.36723
845.161	7668.97103
845.346	7681.33261
845.53	7557.68237
845.714	7872.84047
845.898	7524.69599
846.082	7316.34175
846.266	7279.18596
846.45	7464.89414
846.634	7336.98079
846.818	7495.82839
847.002	7227.56886
847.186	7623.63869
847.37	7318.40575
847.554	7396.82164
847.738	7343.17207
847.922	7551.49784
848.106	7258.54077
848.29	7258.54077
848.473	7297.76474
848.657	7227.56886
848.841	7190.396
849.025	7225.50389
849.209	7039.56554
849.392	7173.87242
849.576	7078.83424
849.76	7120.16098
849.944	6950.66434
850.127	7264.73456
850.311	7128.42526
850.495	7299.82894
850.678	7033.36448
850.862	7541.18986
851.046	7221.37388
851.229	7293.63628
851.413	6865.85919
851.596	7029.23033
851.78	6971.34276
851.964	7107.7639
852.147	6710.62885
852.331	6867.92807
852.514	6752.03618
852.698	6828.61561
852.881	6528.32733
853.065	6607.07035
853.248	6602.92681
853.431	6714.77
853.615	6399.78001
853.798	6727.19288
853.982	6578.06365
854.165	6793.43435
854.348	6567.70301
854.532	6725.12246
854.715	6573.91946
854.898	6675.42541
855.081	6578.06365
855.265	6942.39234
855.448	6625.71513
855.631	6594.63946
855.814	6333.398
855.997	6720.98154
856.181	6474.43126
856.364	6499.30832
856.547	6493.08936
856.73	6368.66642
856.913	6208.86723
857.096	6437.1094
857.279	6240.00782
857.462	6208.86723
857.645	6067.63029
857.828	6372.8152
858.011	6105.02711
858.194	6474.43126
858.377	6019.83436
858.56	6445.4038
858.743	6470.28476
858.926	6281.52042
859.109	5855.57079
859.292	6063.47461
859.475	5961.63119
859.658	6084.25204
859.841	5976.18372
860.023	6080.09674
860.206	6044.77292
860.389	6055.16298
860.572	5784.82976
860.755	5915.88717
860.937	6038.5386
861.12	5913.80763
861.303	5655.76117
861.486	6028.14759
861.668	5699.48811
861.851	5759.85582
862.034	5580.7765
862.216	5951.23583
862.399	5953.31495
862.581	5880.5317
862.764	5547.44017
862.947	5695.32409
863.129	5651.59616
863.312	5695.32409
863.494	5518.26594
863.677	5601.60864
863.859	5618.27266
864.042	5280.53278
864.224	5303.48523
864.406	5428.63051
864.589	5128.14036
864.771	5503.67709
864.954	5186.60693
865.136	5505.76128
865.318	5297.22575
865.501	5493.25578
865.683	5505.76128
865.865	5618.27266
866.048	5311.83088
866.23	5495.34009
866.412	5276.3593
866.594	5451.56464
866.777	5355.63936
866.959	5161.55206
867.141	5301.39876
867.323	5343.12371
867.505	5013.24232
867.687	5455.73418
867.869	5234.61938
868.052	5301.39876
868.234	5050.85302
868.416	5316.00356
868.598	5013.24232
868.78	5209.57095
868.962	5092.6339
869.144	5194.95781
869.326	4937.99849
869.508	5069.65557
869.69	5034.13808
869.872	5046.67443
870.054	5084.27847
870.236	5075.92266
870.417	4829.26044
870.599	5067.56649
870.781	4866.90753
870.963	5366.06843
871.145	5100.98897
871.327	5205.39588
871.508	4896.18349
871.69	5109.34366
871.872	4992.34425
872.054	5205.39588
872.235	4858.54215
872.417	4960.99283
872.599	4866.90753
872.78	5096.81148
872.962	4703.71693
873.144	4990.25432
873.325	4875.27255
873.507	4917.09214
873.689	4655.57034
873.87	4912.91059
874.052	4624.164
874.233	4804.15827
874.415	4766.49888
874.596	4910.81978
874.778	4607.41189
874.959	4942.17948
875.141	4858.54215
875.322	4866.90753
875.503	4743.4812
875.685	5027.86959
875.866	4866.90753
876.048	5044.58509
876.229	4663.94452
876.41	4751.85158
876.592	4483.82112
876.773	4950.5412
876.954	4806.25024
877.136	5009.06289
877.317	4743.4812
877.498	4988.16436
877.679	4676.5051
877.86	4726.73934
878.042	4653.47675
878.223	5075.92266
878.404	4686.97164
878.585	4829.26044
878.766	4716.27494
878.947	4825.07697
879.128	4737.20317
879.309	4724.6465
879.49	4584.37541
879.672	4827.16872
879.853	4716.27494
880.034	4883.6372
880.215	4749.75902
880.396	4833.44381
880.576	4701.62384
880.757	4904.54722
880.938	4655.57034
881.119	5048.76374
881.3	4825.07697
881.481	5071.74462
881.662	4330.79773
881.843	4935.90796
882.023	4703.71693
882.204	4720.46077
882.385	4785.3295
882.566	4988.16436
882.747	4632.53952
882.927	4868.99882
883.108	4659.75748
883.289	4906.6381
883.469	4699.53074
883.65	4829.26044
883.831	4728.83215
884.011	4921.27359
884.192	4841.81029
884.373	4787.42167
884.553	4795.79015
884.734	4948.45081
884.914	4638.82092
885.095	4950.5412
885.275	4724.6465
885.456	4854.35932
885.636	4601.12948
885.817	4933.8174
885.997	4741.38854
886.178	4827.16872
886.358	4670.22491
886.538	4829.26044
886.719	4929.63622
886.899	5071.74462
887.08	4942.17948
887.26	5105.16636
887.44	4668.13147
887.621	5011.15262
887.801	4693.25129
887.981	4812.52602
888.161	4793.69807
888.342	4908.72895
888.522	4791.60596
888.702	5128.14036
888.882	4900.3654
889.062	5176.16781
889.242	4967.26353
889.423	4973.53402
889.603	4810.43412
889.783	5092.6339
889.963	4975.62414
890.143	5119.7865
890.323	4584.37541
890.503	5128.14036
890.683	4666.038
890.863	4983.98438
891.043	4892.00148
891.223	4908.72895
891.403	4789.51383
891.583	5130.22876
891.763	4749.75902
891.943	5055.03153
892.122	4653.47675
892.302	4883.6372
892.482	4559.24163
892.662	4812.52602
892.842	4601.12948
893.022	4737.20317
893.201	4544.57878
893.381	4666.038
893.561	4343.37936
893.741	4699.53074
893.92	4267.87789
894.1	4674.41173
894.28	4619.97611
894.459	4762.31405
894.639	4444.00432
894.819	4707.90302
894.998	4464.96152
895.178	4682.78509
895.357	4439.81262
895.537	4565.52537
895.716	4431.42895
895.896	4670.22491
896.075	4297.24289
896.255	4557.147
896.434	4209.13533
896.614	4638.82092
896.793	4242.70455
896.973	4483.82112
897.152	4423.04493
897.331	4632.53952
897.511	4586.46975
897.69	4617.88213
897.87	4322.40953
898.049	4389.50537
898.228	4408.37206
898.407	4307.72937
898.587	4286.75587
898.766	4255.29161
898.945	3887.85958
899.124	4228.01869
899.304	4051.70764
899.483	4188.1518
899.662	4238.5087
899.841	4209.13533
900.02	3925.68163
900.199	4058.007
900.378	3877.3523
900.557	4064.30617
900.737	3801.6852
900.916	3845.82746
901.095	3677.62035
901.274	3841.62382
901.453	3728.09554
901.632	3736.50699
901.811	3620.82262
901.989	3730.19843
902.168	3725.99263
902.347	3768.04718
902.526	3498.76656
902.705	3683.93035
902.884	3557.69795
903.063	3477.71617
903.242	3414.55418
903.42	3513.50076
903.599	3332.41977
903.778	3574.53284
903.957	3254.47307
904.135	3515.60557
904.314	3262.90087
904.493	3372.43729
904.672	3195.47105
904.85	3187.04114
905.029	3364.01307
905.207	3328.20703
905.386	3090.07841
905.565	3203.90071
905.743	3043.69305
905.922	3144.88762
906.1	2731.4593
906.279	2908.71182
906.457	2860.18819
906.636	3161.7498
906.814	2655.46488
906.993	2841.19864
907.171	2714.57311
907.35	2887.61552
907.528	2731.4593
907.707	2853.85847
907.885	2649.13126
908.063	2953.00928
908.242	2685.02025
908.42	2898.16385
908.598	2653.35369
908.777	2885.50581
908.955	2674.46505
909.133	2885.50581
909.311	2596.34678
909.49	2874.95705
909.668	2549.89017
909.846	2931.91606
910.024	2718.79473
910.202	2742.01275
910.38	2535.10732
910.559	2826.4282
910.737	2598.45831
910.915	2579.45414
911.093	2448.51087
911.271	2723.01631
911.449	2461.18469
911.627	2735.68072
911.805	2418.93711
911.983	2697.68607
912.161	2446.39853
912.339	2691.35322
912.517	2518.21195
912.695	2836.97858
912.872	2465.40921
913.05	2786.33357
913.228	2537.21919
913.406	2668.13177
913.584	2674.46505
913.762	2649.13126
913.939	2395.69913
914.117	2714.57311
914.295	2404.14945
914.473	2731.4593
914.65	2412.59961
914.828	2737.79141
915.006	2530.88355
915.184	2822.20794
915.361	2638.57499
915.539	2967.77366
915.716	2733.57002
915.894	2817.98764
916.072	2636.46369
916.249	2723.01631
916.427	2486.53114
916.604	2566.78415
916.782	2452.73552
916.959	2410.48708
917.137	2452.73552
917.314	2680.79821
917.492	2421.04959
917.669	2617.4615
917.847	2300.62188
918.024	2505.53993
918.201	2325.97777
918.379	2581.56576
918.556	2239.33959
918.733	2361.8962
918.911	1983.56959
919.088	2391.47391
919.265	1987.79805
919.442	2304.84796
919.62	1918.02535
919.797	2336.54231
919.974	2209.75232
920.151	2359.78343
920.328	2203.41197
920.506	2385.136
920.683	2266.81192
920.86	2156.91376
921.037	2013.16827
921.214	2309.074
921.391	2144.23174
921.568	2232.99961
921.745	2106.18398
921.922	2300.62188
922.099	2140.00434
922.276	2211.86576
922.453	1996.25489
922.63	2207.63888
922.807	1875.73586
922.984	2165.36828
923.161	1972.99833
923.338	2087.15917
923.514	1890.53742
923.691	1998.36909
923.868	1898.99534
924.045	1907.45318
924.222	1860.93404
924.399	1822.87113
924.575	1748.85587
924.752	1945.51234
924.929	1750.97066
925.105	1996.25489
925.282	1744.62628
925.459	2008.93996
925.635	1930.71177
925.812	1890.53742
925.989	1609.27288
926.165	1844.01738
926.342	1666.37647
926.518	1789.03621
926.695	1666.37647
926.871	1763.65931
927.048	1537.36265
927.224	1628.3076
927.401	1444.30064
927.577	1676.95101
927.754	1349.12382
927.93	1524.67245
928.107	1382.96428
928.283	1640.99731
928.459	1323.74369
928.636	1456.99095
928.812	1313.16871
928.988	1560.62791
929.165	1342.77877
929.341	1361.81396
929.517	1382.96428
929.693	1486.60167
929.87	1156.66639
930.046	1319.5137
930.222	1158.78116
930.398	1357.58391
930.574	1133.40413
930.751	1260.29458
930.927	1167.24031
931.103	1366.04401
931.279	1059.39158
931.455	1292.01889
931.631	1076.30819
931.807	1148.20733
931.983	1084.76663
932.159	1327.9737
932.335	1101.68373
932.511	1192.6181
932.687	890.24746
932.863	1074.1936
933.039	926.18683
933.215	1067.84985
933.391	881.79147
933.566	1078.42279
933.742	892.36148
933.918	947.32867
934.094	820.48959
934.27	1034.01733
934.445	596.49263
934.621	896.58954
934.797	653.53639
934.973	886.01945
935.148	689.45734
935.324	805.69371
935.5	712.70206
935.675	803.58005
935.851	490.88139
936.027	617.61889
936.202	535.23389
936.378	520.44902
936.553	423.30926
936.729	509.88883
936.904	389.52924
937.08	435.97783
937.255	438.08931
937.431	488.76953
937.606	359.9752
937.782	374.75181
937.957	408.52999
938.133	357.86432
938.308	267.11341
938.483	340.97794
938.659	338.86722
938.834	376.86282
939.009	246.01343
939.185	254.45319
939.36	203.81928
939.535	288.21528
939.71	275.55393
939.886	281.88452
940.061	250.23327
940.236	296.65654
940.411	256.56318
940.586	210.14789
940.761	271.33363
940.937	233.35436
941.112	239.6838
941.287	233.35436
941.462	136.32547
941.637	186.94385
941.812	178.50662
941.987	140.5432
942.162	136.32547
942.337	214.36707
942.512	89.9361
942.687	199.6003
942.862	148.97893
943.037	136.32547
943.212	77.2863
943.386	136.32547
943.561	115.23808
943.736	184.83451
943.911	123.67278
944.086	157.41499
944.26	254.45319
944.435	60.42118
944.61	163.74226
944.785	180.61589
944.959	151.08791
945.134	136.32547
945.309	123.67278
945.483	43.55752
945.658	174.28813
945.833	167.96055
946.007	119.45538
946.182	100.4782
946.357	222.80567
946.531	163.74226
946.706	195.3814
946.88	132.10782
947.055	68.85356
947.229	161.63315
947.404	153.19692
947.578	119.45538
947.752	148.97893
947.927	172.17891
948.101	60.42118
948.276	146.86997
948.45	115.23808
948.624	199.6003
948.799	186.94385
948.973	227.02509
949.147	121.56407
949.321	125.7815
949.496	237.57397
949.67	180.61589
949.844	170.06972
950.018	155.30595
950.193	151.08791
950.367	210.14789
950.541	153.19692
950.715	218.58633
950.889	155.30595
951.063	178.50662
951.237	144.76102
951.411	178.50662
951.585	87.82774
951.759	129.99903
951.933	235.46415
952.107	180.61589
952.281	203.81928
952.455	35.12624
952.629	73.06989
952.803	146.86997
952.977	157.41499
953.151	229.13482
953.325	161.63315
953.499	123.67278
953.672	140.5432
953.846	117.34672
954.02	87.82774
954.194	153.19692
954.368	174.28813
954.541	205.9288
954.715	142.6521
954.889	148.97893
955.062	89.9361
955.236	151.08791
955.41	153.19692
955.583	165.85139
955.757	153.19692
955.93	163.74226
956.104	113.12946
956.278	121.56407
956.451	170.06972
956.625	132.10782
956.798	180.61589
956.972	199.6003
957.145	165.85139
957.319	151.08791
957.492	155.30595
957.665	222.80567
957.839	153.19692
958.012	222.80567
958.185	161.63315
958.359	153.19692
958.532	178.50662
958.705	186.94385
958.879	138.43433
959.052	210.14789
959.225	157.41499
959.398	203.81928
959.572	127.89025
959.745	113.12946
959.918	138.43433
960.091	186.94385
960.264	178.50662
960.438	172.17891
960.611	151.08791
960.784	212.25747
960.957	115.23808
961.13	186.94385
961.303	119.45538
961.476	174.28813
961.649	106.80373
961.822	197.49084
961.995	148.97893
962.168	155.30595
962.341	140.5432
962.514	170.06972
962.686	197.49084
962.859	75.17808
963.032	144.76102
963.205	157.41499
963.378	85.71941
963.551	132.10782
963.723	113.12946
963.896	260.78321
964.069	127.89025
964.242	170.06972
964.414	163.74226
964.587	212.25747
964.76	148.97893
964.932	195.3814
965.105	85.71941
965.278	155.30595
965.45	119.45538
965.623	123.67278
965.795	144.76102
965.968	178.50662
966.14	115.23808
966.313	138.43433
966.485	94.15287
966.658	178.50662
966.83	108.91229
967.003	161.63315
967.175	64.63732
967.348	75.17808
967.52	81.50281
967.692	104.6952
967.865	94.15287
968.037	125.7815
968.209	98.36974
968.382	182.72519
968.554	96.26129
968.726	81.50281
968.898	129.99903
969.071	144.76102
969.243	113.12946
969.415	153.19692
969.587	146.86997
969.759	119.45538
969.932	129.99903
970.104	136.32547
970.276	108.91229
970.448	73.06989
970.62	96.26129
970.792	85.71941
970.964	161.63315
971.136	159.52406
971.308	87.82774
971.48	102.58669
971.652	151.08791
971.824	85.71941
971.996	191.16258
972.168	165.85139
972.339	146.86997
972.511	35.12624
972.683	136.32547
972.855	106.80373
973.027	136.32547
973.199	184.83451
973.37	77.2863
973.542	144.76102
973.714	77.2863
973.886	119.45538
974.057	94.15287
974.229	144.76102
974.401	85.71941
974.572	138.43433
974.744	60.42118
974.915	77.2863
975.087	73.06989
975.259	85.71941
975.43	51.98916
975.602	115.23808
975.773	121.56407
975.945	136.32547
976.116	117.34672
976.288	92.04447
976.459	96.26129
976.63	138.43433
976.802	94.15287
976.973	43.55752
977.145	51.98916
977.316	119.45538
977.487	119.45538
977.659	94.15287
977.83	113.12946
978.001	121.56407
978.172	39.34183
978.344	73.06989
978.515	115.23808
978.686	106.80373
978.857	39.34183
979.028	111.02086
979.2	85.71941
979.371	119.45538
979.542	153.19692
979.713	68.85356
979.884	77.2863
980.055	60.42118
980.226	85.71941
980.397	111.02086
980.568	77.2863
980.739	127.89025
980.91	87.82774
981.081	39.34183
981.252	117.34672
981.423	83.6111
981.594	182.72519
981.765	62.52924
981.936	129.99903
982.106	138.43433
982.277	68.85356
982.448	56.20513
982.619	37.23403
982.79	111.02086
982.96	123.67278
983.131	30.91075
983.302	104.6952
983.472	140.5432
983.643	87.82774
983.814	83.6111
983.984	111.02086
984.155	26.69535
984.326	79.39455
984.496	62.52924
984.667	47.77329
984.837	77.2863
985.008	136.32547
985.178	35.12624
985.349	85.71941
985.519	39.34183
985.69	77.2863
985.86	85.71941
986.031	30.91075
986.201	60.42118
986.371	119.45538
986.542	134.21663
986.712	28.80304
986.882	89.9361
987.053	77.2863
987.223	14.04971
987.393	98.36974
987.563	54.09713
987.734	98.36974
987.904	96.26129
988.074	111.02086
988.244	83.6111
988.414	129.99903
988.585	79.39455
988.755	111.02086
988.925	68.85356
989.095	56.20513
989.265	43.55752
989.435	35.12624
989.605	136.32547
989.775	60.42118
989.945	73.06989
990.115	43.55752
990.285	94.15287
990.455	14.04971
990.625	108.91229
990.795	62.52924
990.965	87.82774
991.134	51.98916
991.304	20.37242
991.474	30.91075
991.644	79.39455
991.814	106.80373
991.984	115.23808
992.153	94.15287
992.323	47.77329
992.493	26.69535
992.662	11.94218
992.832	108.91229
993.002	49.88122
993.171	66.74543
993.341	70.96171
993.511	102.58669
993.68	87.82774
993.85	37.23403
994.019	165.85139
994.189	94.15287
994.358	51.98916
994.528	56.20513
994.697	14.04971
994.867	51.98916
995.036	3.51233
995.206	123.67278
995.375	85.71941
995.544	54.09713
995.714	28.80304
995.883	68.85356
996.052	144.76102
996.222	-21.77492
996.391	51.98916
996.56	49.88122
996.73	30.91075
996.899	47.77329
997.068	77.2863
997.237	77.2863
997.406	11.94218
997.576	11.94218
997.745	20.37242
997.914	9.83468
998.083	102.58669
998.252	51.98916
998.421	60.42118
998.59	54.09713
998.759	-15.45344
998.928	60.42118
999.097	62.52924
999.266	-17.56062
999.435	45.6654
999.604	102.58669
999.773	62.52924
999.942	75.17808
1000.111	18.26482
1000.28	1.40492
1000.448	26.69535
1000.617	87.82774
1000.786	-4.91714
1000.955	26.69535
1001.124	77.2863
1001.292	45.6654
1001.461	60.42118
1001.63	43.55752
1001.798	20.37242
1001.967	-23.88203
1002.136	64.63732
1002.304	20.37242
1002.473	28.80304
1002.642	60.42118
1002.81	60.42118
1002.979	89.9361
1003.147	45.6654
1003.316	43.55752
1003.484	35.12624
1003.653	45.6654
1003.821	-23.88203
1003.99	-40.73804
1004.158	16.15725
1004.327	3.51233
1004.495	18.26482
1004.663	39.34183
1004.832	22.48004
1005	51.98916
1005.168	-47.05863
1005.337	73.06989
1005.505	73.06989
1005.673	-32.31023
1005.842	-11.23899
1006.01	77.2863
1006.178	51.98916
1006.346	49.88122
1006.514	26.69535
1006.683	89.9361
1006.851	70.96171
1007.019	70.96171
1007.187	51.98916
1007.355	54.09713
1007.523	-19.66778
1007.691	35.12624
1007.859	11.94218
1008.027	-19.66778
1008.195	43.55752
1008.363	37.23403
1008.531	73.06989
1008.699	68.85356
1008.867	14.04971
1009.035	85.71941
1009.203	35.12624
1009.37	43.55752
1009.538	11.94218
1009.706	18.26482
1009.874	37.23403
1010.042	64.63732
1010.209	62.52924
1010.377	43.55752
1010.545	45.6654
1010.713	73.06989
1010.88	49.88122
1011.048	7.72721
1011.216	104.6952
1011.383	35.12624
1011.551	5.61975
1011.718	39.34183
1011.886	37.23403
1012.054	24.58768
1012.221	37.23403
1012.389	51.98916
1012.556	20.37242
1012.724	43.55752
1012.891	26.69535
1013.058	33.01848
1013.226	70.96171
1013.393	39.34183
1013.561	-36.52418
1013.728	51.98916
1013.895	3.51233
1014.063	9.83468
1014.23	9.83468
1014.397	20.37242
1014.565	79.39455
1014.732	60.42118
1014.899	37.23403
1015.066	9.83468
1015.233	14.04971
1015.401	-47.05863
1015.568	45.6654
1015.735	30.91075
1015.902	85.71941
1016.069	104.6952
1016.236	-19.66778
1016.403	-2.80981
1016.57	-15.45344
1016.737	-19.66778
1016.904	-4.91714
1017.071	70.96171
1017.238	37.23403
1017.405	85.71941
1017.572	9.83468
1017.739	77.2863
1017.906	35.12624
1018.073	54.09713
1018.24	3.51233
1018.407	54.09713
1018.573	102.58669
1018.74	-2.80981
1018.907	85.71941
1019.074	85.71941
1019.241	94.15287
1019.407	11.94218
1019.574	62.52924
1019.741	26.69535
1019.907	54.09713
1020.074	-11.23899
1020.241	-63.91243
1020.407	54.09713
1020.574	18.26482
1020.74	73.06989
1020.907	20.37242
1021.073	5.61975
1021.24	47.77329
1021.406	43.55752
1021.573	43.55752
1021.739	-15.45344
1021.906	26.69535
1022.072	129.99903
1022.239	64.63732
1022.405	83.6111
1022.571	75.17808
1022.738	35.12624
1022.904	89.9361
1023.07	-17.56062
1023.237	-2.80981
1023.403	20.37242
1023.569	9.83468
1023.735	11.94218
1023.902	30.91075
1024.068	104.6952
1024.234	102.58669
1024.4	111.02086
1024.566	73.06989
1024.732	85.71941
1024.898	-9.13173
1025.065	26.69535
1025.231	-2.80981
1025.397	5.61975
1025.563	-40.73804
1025.729	35.12624
1025.895	18.26482
1026.061	7.72721
1026.227	-57.59244
1026.392	22.48004
1026.558	119.45538
1026.724	3.51233
1026.89	9.83468
1027.056	35.12624
1027.222	-49.16544
1027.388	3.51233
1027.553	68.85356
1027.719	49.88122
1027.885	37.23403
1028.051	43.55752
1028.216	-25.98912
1028.382	18.26482
1028.548	43.55752
1028.713	-13.34623
1028.879	5.61975
1029.045	70.96171
1029.21	35.12624
1029.376	-30.20322
1029.541	26.69535
1029.707	-15.45344
1029.873	43.55752
1030.038	-49.16544
1030.204	18.26482
1030.369	30.91075
1030.534	66.74543
1030.7	-21.77492
1030.865	-2.80981
1031.031	9.83468
1031.196	85.71941
1031.361	30.91075
1031.527	26.69535
1031.692	35.12624
1031.857	11.94218
1032.023	-21.77492
1032.188	-7.02445
1032.353	60.42118
1032.518	70.96171
1032.684	35.12624
1032.849	37.23403
1033.014	-4.91714
1033.179	-11.23899
1033.344	79.39455
1033.509	51.98916
1033.674	51.98916
1033.839	1.40492
1034.004	-11.23899
1034.17	54.09713
1034.335	30.91075
1034.5	-30.20322
1034.664	64.63732
1034.829	49.88122
1034.994	22.48004
1035.159	18.26482
1035.324	22.48004
1035.489	-40.73804
1035.654	106.80373
1035.819	54.09713
1035.984	-32.31023
1036.148	45.6654
1036.313	-7.02445
1036.478	-4.91714
1036.643	79.39455
1036.807	-36.52418
1036.972	68.85356
1037.137	70.96171
1037.301	-2.80981
1037.466	9.83468
1037.631	-13.34623
1037.795	3.51233
1037.96	81.50281
1038.124	-7.02445
1038.289	26.69535
1038.454	9.83468
1038.618	47.77329
1038.783	56.20513
1038.947	5.61975
1039.111	39.34183
1039.276	-28.09618
1039.44	-4.91714
1039.605	-19.66778
1039.769	89.9361
1039.933	43.55752
1040.098	-7.02445
1040.262	77.2863
1040.426	26.69535
1040.591	51.98916
1040.755	16.15725
1040.919	-15.45344
1041.083	37.23403
1041.248	56.20513
1041.412	1.40492
1041.576	56.20513
1041.74	85.71941
1041.904	3.51233
1042.068	98.36974
1042.232	35.12624
1042.397	20.37242
1042.561	9.83468
1042.725	43.55752
1042.889	102.58669
1043.053	9.83468
1043.217	-7.02445
1043.381	20.37242
1043.544	3.51233
1043.708	22.48004
1043.872	43.55752
1044.036	18.26482
1044.2	43.55752
1044.364	77.2863
1044.528	1.40492
1044.691	11.94218
1044.855	60.42118
1045.019	-2.80981
1045.183	45.6654
1045.346	9.83468
1045.51	14.04971
1045.674	-51.27223
1045.837	1.40492
1046.001	22.48004
1046.165	-15.45344
1046.328	1.40492
1046.492	77.2863
1046.655	5.61975
1046.819	39.34183
1046.983	43.55752
1047.146	-32.31023
1047.31	7.72721
1047.473	28.80304
1047.636	39.34183
1047.8	-25.98912
1047.963	-19.66778
1048.127	45.6654
1048.29	51.98916
