Data from mixed_try1_USB4F045381__18__00243.txt Node

Date: Thu Apr 03 20:25:19 EDT 2025
User: mmckonesweet
Spectrometer: USB4F04538
Trigger mode: 4
Integration Time (sec): 2.700000E-3
Scans to average: 1
Electric dark correction enabled: true
Nonlinearity correction enabled: true
Boxcar width: 0
XAxis mode: Wavelengths
Number of Pixels in Spectrum: 3648
>>>>>Begin Spectral Data<<<<<
345.52	11.94218
345.736	11.94218
345.952	11.94218
346.168	16.15725
346.384	-9.13173
346.6	-47.05863
346.816	7.72721
347.032	-13.34623
347.248	54.09713
347.464	16.15725
347.68	5.61975
347.896	-38.63112
348.112	-13.34623
348.328	102.58669
348.544	5.61975
348.76	-51.27223
348.975	-28.09618
349.191	28.80304
349.407	-19.66778
349.623	-7.02445
349.839	14.04971
350.055	37.23403
350.27	37.23403
350.486	-11.23899
350.702	-21.77492
350.918	-17.56062
351.133	5.61975
351.349	9.83468
351.565	-21.77492
351.781	22.48004
351.996	-2.80981
352.212	39.34183
352.428	28.80304
352.644	-38.63112
352.859	5.61975
353.075	66.74543
353.291	7.72721
353.506	-114.46398
353.722	-21.77492
353.938	-4.91714
354.153	-63.91243
354.369	-17.56062
354.584	-2.80981
354.8	-63.91243
355.016	-34.41722
355.231	-30.20322
355.447	-97.61513
355.662	-15.45344
355.878	28.80304
356.093	-13.34623
356.309	66.74543
356.524	5.61975
356.74	-17.56062
356.955	-13.34623
357.171	-55.48573
357.386	16.15725
357.602	-28.09618
357.817	-42.84492
358.033	45.6654
358.248	60.42118
358.464	-13.34623
358.679	-11.23899
358.895	7.72721
359.11	3.51233
359.325	68.85356
359.541	-2.80981
359.756	16.15725
359.972	-53.37899
360.187	-47.05863
360.402	-112.35796
360.618	-55.48573
360.833	3.51233
361.048	-42.84492
361.264	-49.16544
361.479	-57.59244
361.694	28.80304
361.909	-19.66778
362.125	-76.55171
362.34	-4.91714
362.555	-28.09618
362.77	45.6654
362.986	-49.16544
363.201	-44.95179
363.416	-25.98912
363.631	43.55752
363.847	-17.56062
364.062	30.91075
364.277	35.12624
364.492	98.36974
364.707	28.80304
364.922	14.04971
365.138	54.09713
365.353	45.6654
365.568	3.51233
365.783	37.23403
365.998	47.77329
366.213	-13.34623
366.428	16.15725
366.643	-28.09618
366.858	3.51233
367.073	-44.95179
367.288	-47.05863
367.503	-34.41722
367.718	-0.70246
367.933	7.72721
368.148	-30.20322
368.363	56.20513
368.578	24.58768
368.793	-55.48573
369.008	-9.13173
369.223	-9.13173
369.438	5.61975
369.653	-2.80981
369.868	-28.09618
370.083	-53.37899
370.298	-11.23899
370.513	-47.05863
370.728	-28.09618
370.943	-2.80981
371.157	-44.95179
371.372	-53.37899
371.587	-11.23899
371.802	24.58768
372.017	16.15725
372.232	-57.59244
372.446	20.37242
372.661	1.40492
372.876	-23.88203
373.091	-40.73804
373.306	16.15725
373.52	11.94218
373.735	-55.48573
373.95	-13.34623
374.165	37.23403
374.379	-49.16544
374.594	-11.23899
374.809	39.34183
375.023	70.96171
375.238	33.01848
375.453	16.15725
375.667	-13.34623
375.882	62.52924
376.097	33.01848
376.311	16.15725
376.526	-4.91714
376.741	62.52924
376.955	14.04971
377.17	3.51233
377.384	-80.7646
377.599	-38.63112
377.813	-13.34623
378.028	14.04971
378.242	-13.34623
378.457	-4.91714
378.672	24.58768
378.886	-47.05863
379.101	-36.52418
379.315	22.48004
379.53	3.51233
379.744	39.34183
379.958	14.04971
380.173	-80.7646
380.387	16.15725
380.602	-4.91714
380.816	45.6654
381.031	20.37242
381.245	-4.91714
381.459	-21.77492
381.674	47.77329
381.888	11.94218
382.103	-0.70246
382.317	-95.5089
382.531	-23.88203
382.746	7.72721
382.96	-17.56062
383.174	-34.41722
383.388	62.52924
383.603	39.34183
383.817	35.12624
384.031	77.2863
384.246	-30.20322
384.46	-36.52418
384.674	39.34183
384.888	-2.80981
385.103	-49.16544
385.317	39.34183
385.531	-2.80981
385.745	45.6654
385.959	-32.31023
386.174	37.23403
386.388	-21.77492
386.602	-112.35796
386.816	3.51233
387.03	-0.70246
387.244	14.04971
387.458	-59.69913
387.672	70.96171
387.887	11.94218
388.101	75.17808
388.315	43.55752
388.529	7.72721
388.743	89.9361
388.957	37.23403
389.171	-0.70246
389.385	-2.80981
389.599	56.20513
389.813	-7.02445
390.027	-38.63112
390.241	37.23403
390.455	18.26482
390.669	-13.34623
390.883	-80.7646
391.097	47.77329
391.311	70.96171
391.525	49.88122
391.738	62.52924
391.952	28.80304
392.166	-34.41722
392.38	11.94218
392.594	20.37242
392.808	-2.80981
393.022	-0.70246
393.236	39.34183
393.449	1.40492
393.663	11.94218
393.877	-4.91714
394.091	37.23403
394.305	-47.05863
394.518	16.15725
394.732	7.72721
394.946	75.17808
395.16	39.34183
395.373	-9.13173
395.587	16.15725
395.801	58.31314
396.015	-11.23899
396.228	45.6654
396.442	-21.77492
396.656	-47.05863
396.869	-28.09618
397.083	-63.91243
397.297	-44.95179
397.51	37.23403
397.724	3.51233
397.938	-25.98912
398.151	18.26482
398.365	-28.09618
398.578	-0.70246
398.792	47.77329
399.005	-4.91714
399.219	-42.84492
399.433	33.01848
399.646	5.61975
399.86	68.85356
400.073	81.50281
400.287	18.26482
400.5	5.61975
400.714	41.44967
400.927	5.61975
401.141	-30.20322
401.354	-15.45344
401.567	58.31314
401.781	-2.80981
401.994	56.20513
402.208	47.77329
402.421	16.15725
402.635	-2.80981
402.848	115.23808
403.061	49.88122
403.275	28.80304
403.488	79.39455
403.701	1.40492
403.915	20.37242
404.128	33.01848
404.341	41.44967
404.555	79.39455
404.768	30.91075
404.981	-0.70246
405.195	28.80304
405.408	11.94218
405.621	-28.09618
405.834	18.26482
406.048	11.94218
406.261	-38.63112
406.474	62.52924
406.687	26.69535
406.9	3.51233
407.114	100.4782
407.327	-17.56062
407.54	41.44967
407.753	45.6654
407.966	3.51233
408.179	-25.98912
408.392	45.6654
408.605	47.77329
408.819	-47.05863
409.032	66.74543
409.245	33.01848
409.458	47.77329
409.671	-55.48573
409.884	-9.13173
410.097	47.77329
410.31	89.9361
410.523	104.6952
410.736	54.09713
410.949	-44.95179
411.162	-4.91714
411.375	39.34183
411.588	-0.70246
411.801	-23.88203
412.014	16.15725
412.227	-15.45344
412.44	-34.41722
412.653	64.63732
412.865	3.51233
413.078	-11.23899
413.291	30.91075
413.504	-4.91714
413.717	81.50281
413.93	-9.13173
414.143	7.72721
414.356	-19.66778
414.568	37.23403
414.781	-0.70246
414.994	30.91075
415.207	28.80304
415.42	-55.48573
415.632	37.23403
415.845	62.52924
416.058	16.15725
416.271	-51.27223
416.483	-17.56062
416.696	28.80304
416.909	-9.13173
417.121	-40.73804
417.334	7.72721
417.547	-15.45344
417.759	-44.95179
417.972	14.04971
418.185	-40.73804
418.397	-11.23899
418.61	3.51233
418.823	-23.88203
419.035	54.09713
419.248	11.94218
419.46	-0.70246
419.673	-11.23899
419.885	5.61975
420.098	3.51233
420.311	-0.70246
420.523	89.9361
420.736	9.83468
420.948	45.6654
421.161	22.48004
421.373	-9.13173
421.586	54.09713
421.798	3.51233
422.01	33.01848
422.223	56.20513
422.435	28.80304
422.648	28.80304
422.86	79.39455
423.073	-30.20322
423.285	-13.34623
423.497	87.82774
423.71	45.6654
423.922	7.72721
424.134	-7.02445
424.347	33.01848
424.559	-0.70246
424.771	-30.20322
424.984	28.80304
425.196	28.80304
425.408	-36.52418
425.621	1.40492
425.833	20.37242
426.045	-0.70246
426.257	-44.95179
426.47	16.15725
426.682	9.83468
426.894	-66.01904
427.106	37.23403
427.318	5.61975
427.531	-28.09618
427.743	58.31314
427.955	-25.98912
428.167	-9.13173
428.379	37.23403
428.591	1.40492
428.804	-4.91714
429.016	-59.69913
429.228	81.50281
429.44	28.80304
429.652	-9.13173
429.864	-23.88203
430.076	-17.56062
430.288	62.52924
430.5	11.94218
430.712	37.23403
430.924	45.6654
431.136	11.94218
431.348	3.51233
431.56	3.51233
431.772	70.96171
431.984	22.48004
432.196	28.80304
432.408	-0.70246
432.62	18.26482
432.832	30.91075
433.044	39.34183
433.256	35.12624
433.468	22.48004
433.679	56.20513
433.891	-2.80981
434.103	14.04971
434.315	-95.5089
434.527	-34.41722
434.739	11.94218
434.95	30.91075
435.162	-7.02445
435.374	62.52924
435.586	3.51233
435.798	47.77329
436.009	39.34183
436.221	54.09713
436.433	35.12624
436.645	11.94218
436.856	14.04971
437.068	-2.80981
437.28	-51.27223
437.491	-11.23899
437.703	5.61975
437.915	87.82774
438.126	-17.56062
438.338	30.91075
438.55	70.96171
438.761	11.94218
438.973	70.96171
439.184	-2.80981
439.396	41.44967
439.608	-21.77492
439.819	45.6654
440.031	20.37242
440.242	-84.97739
440.454	73.06989
440.665	79.39455
440.877	-89.19007
441.088	18.26482
441.3	33.01848
441.511	-9.13173
441.723	30.91075
441.934	-72.33872
442.146	-25.98912
442.357	26.69535
442.569	28.80304
442.78	-17.56062
442.991	3.51233
443.203	54.09713
443.414	66.74543
443.626	5.61975
443.837	47.77329
444.048	-30.20322
444.26	3.51233
444.471	30.91075
444.682	39.34183
444.894	56.20513
445.105	28.80304
445.316	28.80304
445.528	-28.09618
445.739	70.96171
445.95	35.12624
446.161	62.52924
446.373	-2.80981
446.584	33.01848
446.795	58.31314
447.006	37.23403
447.217	5.61975
447.429	-9.13173
447.64	62.52924
447.851	-4.91714
448.062	28.80304
448.273	62.52924
448.484	37.23403
448.695	79.39455
448.907	1.40492
449.118	-13.34623
449.329	3.51233
449.54	-13.34623
449.751	-13.34623
449.962	-9.13173
450.173	79.39455
450.384	20.37242
450.595	30.91075
450.806	11.94218
451.017	-53.37899
451.228	51.98916
451.439	89.9361
451.65	66.74543
451.861	20.37242
452.072	45.6654
452.283	-0.70246
452.494	37.23403
452.705	54.09713
452.915	-47.05863
453.126	98.36974
453.337	79.39455
453.548	-23.88203
453.759	28.80304
453.97	62.52924
454.181	-32.31023
454.391	28.80304
454.602	-2.80981
454.813	47.77329
455.024	-21.77492
455.235	-97.61513
455.445	-51.27223
455.656	30.91075
455.867	64.63732
456.078	62.52924
456.288	16.15725
456.499	22.48004
456.71	70.96171
456.921	-38.63112
457.131	14.04971
457.342	1.40492
457.553	58.31314
457.763	30.91075
457.974	-2.80981
458.184	-17.56062
458.395	-51.27223
458.606	37.23403
458.816	62.52924
459.027	54.09713
459.237	70.96171
459.448	5.61975
459.659	28.80304
459.869	41.44967
460.08	30.91075
460.29	14.04971
460.501	-21.77492
460.711	28.80304
460.922	-36.52418
461.132	7.72721
461.343	20.37242
461.553	35.12624
461.764	28.80304
461.974	49.88122
462.184	-42.84492
462.395	3.51233
462.605	56.20513
462.816	22.48004
463.026	-34.41722
463.236	85.71941
463.447	-19.66778
463.657	64.63732
463.867	28.80304
464.078	58.31314
464.288	-42.84492
464.498	66.74543
464.709	18.26482
464.919	9.83468
465.129	20.37242
465.339	79.39455
465.55	75.17808
465.76	-47.05863
465.97	14.04971
466.18	7.72721
466.391	111.02086
466.601	11.94218
466.811	-0.70246
467.021	81.50281
467.231	37.23403
467.441	73.06989
467.651	73.06989
467.862	113.12946
468.072	14.04971
468.282	28.80304
468.492	89.9361
468.702	30.91075
468.912	56.20513
469.122	-2.80981
469.332	81.50281
469.542	68.85356
469.752	89.9361
469.962	113.12946
470.172	81.50281
470.382	113.12946
470.592	62.52924
470.802	49.88122
471.012	-30.20322
471.222	22.48004
471.432	79.39455
471.642	64.63732
471.852	104.6952
472.062	-4.91714
472.272	125.7815
472.482	62.52924
472.691	16.15725
472.901	73.06989
473.111	30.91075
473.321	54.09713
473.531	20.37242
473.741	22.48004
473.95	41.44967
474.16	98.36974
474.37	121.56407
474.58	22.48004
474.79	104.6952
474.999	98.36974
475.209	123.67278
475.419	89.9361
475.628	56.20513
475.838	96.26129
476.048	125.7815
476.258	104.6952
476.467	104.6952
476.677	73.06989
476.886	172.17891
477.096	79.39455
477.306	144.76102
477.515	132.10782
477.725	41.44967
477.935	134.21663
478.144	79.39455
478.354	146.86997
478.563	151.08791
478.773	140.5432
478.982	89.9361
479.192	92.04447
479.401	115.23808
479.611	89.9361
479.82	102.58669
480.03	138.43433
480.239	167.96055
480.449	172.17891
480.658	81.50281
480.868	155.30595
481.077	134.21663
481.287	180.61589
481.496	180.61589
481.705	229.13482
481.915	146.86997
482.124	165.85139
482.333	208.03833
482.543	180.61589
482.752	205.9288
482.961	193.27198
483.171	174.28813
483.38	222.80567
483.589	138.43433
483.799	265.00332
484.008	222.80567
484.217	195.3814
484.426	243.90353
484.636	210.14789
484.845	265.00332
485.054	277.66411
485.263	260.78321
485.472	421.19789
485.682	256.56318
485.891	311.42946
486.1	265.00332
486.309	366.30793
486.518	300.87729
486.727	317.76099
486.936	376.86282
487.146	351.5318
487.355	267.11341
487.564	368.41887
487.773	370.52983
487.982	421.19789
488.191	368.41887
488.4	311.42946
488.609	412.75256
488.818	321.98209
489.027	332.53516
489.236	446.5354
489.445	461.31665
489.654	440.20081
489.863	366.30793
490.072	469.76342
490.281	514.11286
490.49	452.87013
490.698	478.21043
490.907	457.09336
491.116	647.19775
491.325	590.155
491.534	602.83037
491.743	518.33696
491.952	600.71778
492.16	613.39353
492.369	577.48009
492.578	585.92998
492.787	661.98807
492.996	594.38007
493.204	512.00084
493.413	585.92998
493.622	723.26828
493.831	562.6933
494.039	719.04176
494.248	607.0556
494.457	754.96854
494.665	678.89201
494.874	780.33042
495.083	788.78469
495.291	809.92106
495.5	858.53818
495.709	824.71707
495.917	831.05835
496.126	797.23912
496.335	805.69371
496.543	856.42429
496.752	818.37586
496.96	835.28592
497.169	839.51352
497.377	812.03474
497.586	835.28592
497.794	947.32867
498.003	924.07269
498.211	983.27141
498.42	898.70358
498.628	1139.74833
498.837	1027.6739
499.045	1097.45443
499.254	1002.30071
499.462	1078.42279
499.671	976.92843
499.879	1057.27703
500.087	1061.50614
500.296	1228.57084
500.504	1069.96443
500.713	1175.69951
500.921	1044.58984
501.129	1127.05997
501.338	1084.76663
501.546	1272.98424
501.754	1220.11129
501.962	1272.98424
502.171	1179.92914
502.379	1184.15878
502.587	1327.9737
502.795	1203.19234
503.004	1249.71993
503.212	1296.24884
503.42	1192.6181
503.628	1321.6287
503.837	1281.44406
504.045	1452.76085
504.253	1349.12382
504.461	1325.8587
504.669	1382.96428
504.877	1569.08797
505.085	1619.84774
505.294	1577.548
505.502	1480.25652
505.71	1653.68694
505.918	1450.64579
506.126	1522.55741
506.334	1495.06186
506.542	1473.91137
506.75	1511.98221
506.958	1685.4106
507.166	1596.58297
507.374	1727.70778
507.582	1655.80187
507.79	1719.24844
507.998	1579.663
508.206	1719.24844
508.414	1721.36328
508.622	1808.06849
508.83	1695.98501
509.037	1820.75648
509.245	1685.4106
509.453	1860.93404
509.661	1786.92149
509.869	1966.6555
510.077	1818.64183
510.285	1786.92149
510.492	1846.13198
510.7	2044.8797
510.908	1729.8226
511.116	1875.73586
511.324	1901.10981
511.531	1964.54121
511.739	1805.95381
511.947	1956.08399
512.155	1901.10981
512.362	1949.74102
512.57	1915.91093
512.778	2015.28241
512.985	1877.85038
513.193	2152.68645
513.401	2032.19531
513.608	2144.23174
513.816	2235.11294
514.024	2268.92511
514.231	1930.71177
514.439	2298.50883
514.646	2032.19531
514.854	2302.73493
515.061	2091.38696
515.269	2129.43569
515.477	2002.59746
515.684	2283.7172
515.892	2152.68645
516.099	2201.29851
516.307	2279.49093
516.514	2296.39577
516.722	2260.47228
516.929	2330.20361
517.136	2370.34718
517.344	2437.94905
517.551	2201.29851
517.759	2492.86751
517.966	2499.20377
518.173	2361.8962
518.381	2425.27452
518.588	2530.88355
518.796	2475.97032
519.003	2655.46488
519.21	2530.88355
519.418	2761.00812
519.625	2541.4429
519.832	2716.68393
520.039	2431.61184
520.247	2653.35369
520.454	2577.3425
520.661	2851.74853
520.868	2532.99544
521.076	2925.5878
521.283	2670.24288
521.49	2801.10586
521.697	2834.86853
521.904	2929.80666
522.112	2674.46505
522.319	2936.13482
522.526	2860.18819
522.733	2944.57217
522.94	2965.66451
523.147	2855.96839
523.354	2704.01881
523.561	3208.11544
523.768	2870.73745
523.975	3151.21106
524.183	2936.13482
524.39	3140.67191
524.597	2984.64633
524.804	3189.14864
525.011	3012.06237
525.218	3028.9325
525.425	3056.34436
525.632	3176.50337
525.838	3161.7498
526.045	3281.86241
526.252	3096.4031
526.459	3292.396
526.666	3151.21106
526.873	3359.80086
527.08	3189.14864
527.287	3326.10064
527.494	3203.90071
527.701	3336.63243
527.907	3222.86647
528.114	3477.71617
528.321	3275.54204
528.528	3652.37862
528.735	3391.39076
528.941	3441.92635
529.148	3256.58005
529.355	3740.71261
529.562	3559.80238
529.768	3778.5596
529.975	3416.65983
530.182	3643.9641
530.388	3452.45331
530.595	3807.99177
530.802	3580.84561
531.008	3854.23452
531.215	3635.54928
531.422	3744.91814
531.628	3770.1497
531.835	3900.46765
532.042	3896.26504
532.248	3812.19605
532.455	3843.72565
532.661	3873.14924
532.868	3862.64127
533.074	3852.13279
533.281	3715.47778
533.487	3997.1054
533.694	3824.80843
533.9	4282.56092
534.107	3906.77142
534.313	4123.08945
534.52	4049.60781
534.726	4261.58485
534.933	4070.60516
535.139	4139.88167
535.345	4072.70478
535.552	4188.1518
535.758	4064.30617
535.965	4397.89078
536.171	4106.2959
536.377	4324.50661
536.584	4072.70478
536.79	4320.31243
536.996	4282.56092
537.203	4366.44368
537.409	4293.04815
537.615	4450.29171
537.821	4232.21476
538.028	4511.05961
538.234	4225.92062
538.44	4395.79446
538.646	4550.86299
538.853	4494.2979
539.059	4358.05696
539.265	4548.76827
539.471	4259.48712
539.677	4712.08903
539.883	4628.3518
540.09	4651.38312
540.296	4592.75262
540.502	4779.05283
540.708	4603.22364
540.914	4860.63353
541.12	4500.58371
541.326	4862.72489
541.532	4575.99784
541.738	4877.36374
541.944	4672.31833
542.15	4758.12913
542.356	4781.14507
542.562	4998.61391
542.768	4917.09214
542.974	5019.51129
543.18	4973.53402
543.386	5015.332
543.592	4877.36374
543.798	5063.38826
544.004	5040.40636
544.21	5255.49051
544.415	4927.5456
544.621	5295.13921
544.827	4946.36039
545.033	5274.27253
545.239	5092.6339
545.445	5232.53214
545.651	5253.4035
545.856	5297.22575
546.062	5205.39588
546.268	5044.58509
546.474	5171.992
546.679	5178.25568
546.885	5057.12075
547.091	5389.01031
547.297	5088.45623
547.502	5524.51795
547.708	5146.93517
547.914	5182.43135
548.119	5282.61948
548.325	5572.44298
548.531	5088.45623
548.736	5537.02133
548.942	5545.35645
549.147	5503.67709
549.353	5457.81891
549.559	5539.10515
549.764	5461.98831
549.97	5680.74927
550.175	5678.66706
550.381	5863.89147
550.586	5487.00271
550.792	6071.78587
550.997	5797.31545
551.203	5811.88102
551.408	5766.09962
551.614	5755.69317
551.819	5616.18974
552.025	5857.65099
552.23	5753.61181
552.435	6019.83436
552.641	5797.31545
552.846	5853.49056
553.052	5786.91077
553.257	5901.32986
553.462	5999.04963
553.668	5959.55217
553.873	6007.36381
554.078	6231.70418
554.283	6202.63848
554.489	6196.40951
554.694	6179.79791
554.899	6287.7465
555.105	5994.89241
555.31	6285.67116
555.515	6235.85605
555.72	6443.33023
555.925	6013.59919
556.131	6269.06762
556.336	6156.95451
556.541	6273.21865
556.746	6080.09674
556.951	6395.63183
557.156	5972.02597
557.361	6376.96389
557.567	6271.14315
557.772	6337.54758
557.977	6372.8152
558.182	6501.38125
558.387	6296.04761
558.592	6484.7971
558.797	6534.5451
559.002	6634.0011
559.207	6517.96392
559.412	6484.7971
559.617	6526.25469
559.822	6756.17641
560.027	6430.88836
560.232	6617.42879
560.437	6393.55771
560.642	6642.2867
560.847	6594.63946
561.051	6723.05201
561.256	6658.85679
561.461	6578.06365
561.666	6704.41696
561.871	6700.27559
562.076	6617.42879
562.281	6764.45659
562.485	6741.68521
562.69	6876.20333
562.895	6764.45659
563.1	6787.22521
563.305	6658.85679
563.509	6867.92807
563.714	6720.98154
563.919	6998.22133
564.123	6814.13001
564.328	7155.2817
564.533	6741.68521
564.737	6950.66434
564.942	6785.15545
565.147	7018.89456
565.351	7051.96706
565.556	7016.82734
565.761	6956.8681
565.965	6971.34276
566.17	6977.54584
566.374	7124.29317
566.579	6965.13947
566.784	6801.71289
566.988	7043.69947
567.193	7231.69873
567.397	7171.80688
567.602	7250.28208
567.806	7250.28208
568.011	7415.38921
568.215	7310.14961
568.42	7431.89224
568.624	7312.21368
568.828	7289.50772
569.033	6996.15388
569.237	7481.39301
569.442	7149.0844
569.646	7376.18893
569.85	7299.82894
570.055	7436.01778
570.259	7419.5151
570.463	7625.69948
570.668	7308.08552
570.872	7390.63205
571.076	7471.08138
571.281	7603.02969
571.485	7462.83168
571.689	7502.01466
571.893	7578.29607
572.098	7636.00308
572.302	7347.29949
572.506	7741.06955
572.71	7495.82839
572.914	7730.77134
573.119	7590.66326
573.323	7646.30614
573.527	7504.07671
573.731	7870.7822
573.935	7640.12437
574.139	7753.42671
574.343	7660.72955
574.547	7800.78883
574.751	7590.66326
574.955	8023.03832
575.159	7798.72984
575.364	8064.16945
575.568	7774.02029
575.772	7780.19796
575.976	7825.49512
576.18	7848.13991
576.383	7850.19841
576.587	7914.00145
576.791	7911.94359
576.995	8113.51613
577.199	7897.53805
577.403	7971.61299
577.607	7876.95694
577.811	8092.95642
578.015	8014.81112
578.219	8164.90663
578.422	8173.12795
578.626	8097.06852
578.83	8008.64051
579.034	8242.99636
579.238	8123.79523
579.442	8282.03051
579.645	8308.73401
579.849	8436.0439
580.053	8255.3237
580.257	8358.0241
580.46	8115.57199
580.664	8337.48793
580.868	8298.46383
581.071	8427.8326
581.275	8349.80986
581.479	8407.30301
581.682	8275.8677
581.886	8481.20057
582.09	8413.46209
582.293	8661.73552
582.497	8329.27291
582.7	8538.65934
582.904	8489.40987
583.107	8594.05197
583.311	8470.9385
583.515	8684.2922
583.718	8458.62339
583.922	8678.1406
584.125	8472.99095
584.329	8756.04862
584.532	8694.5445
584.735	8694.5445
584.939	8745.79908
585.142	8965.04053
585.346	8729.39886
585.549	8833.93024
585.753	8663.78622
585.956	8860.56795
586.159	8665.8369
586.363	9128.8269
586.566	8965.04053
586.769	8891.29999
586.973	8680.19116
587.176	9106.31286
587.379	9098.12542
587.582	9122.68691
587.786	8747.84902
587.989	8993.71121
588.192	8895.39729
588.395	9018.28334
588.599	9196.35661
588.802	9096.07851
589.005	8934.31811
589.208	9407.01352
589.411	9094.03159
589.615	8883.10517
589.818	9081.74971
590.021	9298.63927
590.224	9059.2313
590.427	9276.14068
590.63	9147.24594
590.833	9235.22897
591.036	9145.19945
591.239	9572.55404
591.442	9112.45326
591.645	9284.32221
591.848	9265.91338
592.051	9482.64384
592.254	9257.73124
592.457	9437.67713
592.66	9386.56907
592.863	9462.20539
593.066	9496.9498
593.269	9372.25699
593.472	9515.34202
593.675	9676.73
593.878	9472.42482
594.081	9688.98334
594.284	9699.19404
594.486	9807.40396
594.689	9999.22043
594.892	9754.32517
595.095	9586.85511
595.298	9554.16582
595.5	9419.2794
595.703	9946.17776
595.906	9441.76533
596.109	9774.7413
596.311	9713.48836
596.514	9974.74041
596.717	9707.36232
596.92	9980.86061
597.122	9962.49963
597.325	9982.90065
597.528	9660.39135
597.73	10141.97965
597.933	9635.88151
598.136	10017.57909
598.338	10150.13524
598.541	9948.21804
598.743	9974.74041
598.946	10068.56928
599.148	9774.7413
599.351	9913.53123
599.554	9958.41925
599.756	9989.02068
599.959	10035.93658
600.161	10406.92478
600.363	10152.1741
600.566	10284.6707
600.768	10223.52559
600.971	10280.59473
601.173	10084.88427
601.376	10288.7466
601.578	10239.83215
601.78	10380.44043
601.983	10176.63937
602.185	10272.44265
602.388	10040.01587
602.59	10323.38966
602.792	10127.70683
602.995	10305.0497
603.197	10239.83215
603.399	10274.48069
603.601	10225.56396
603.804	10327.46506
604.006	10551.53157
604.208	10543.38641
604.41	10537.27741
604.613	10594.29034
604.815	10364.14127
605.017	10681.82697
605.219	10472.10767
605.421	10349.87881
605.623	10488.40133
605.826	10643.15079
606.028	10394.70151
606.23	10569.85743
606.432	10602.43424
606.634	11011.41887
606.836	10561.71273
607.038	10557.6403
607.24	10567.82127
607.442	10553.56782
607.644	10846.66099
607.846	10557.6403
608.048	10588.18228
608.25	10578.00193
608.452	10602.43424
608.654	10893.45168
608.856	10689.96876
609.058	10763.23623
609.26	10905.65695
609.462	10881.246
609.664	10687.93333
609.866	10928.0322
610.067	10885.31461
610.269	10763.23623
610.471	10630.93634
610.673	10958.54171
610.875	10846.66099
611.077	10901.58857
611.278	10789.69012
611.48	11048.02174
611.682	11058.18857
611.884	11037.85463
612.085	10724.56922
612.287	10826.3153
612.489	11007.35166
612.69	11064.28854
612.892	10895.48592
613.094	11005.31804
613.295	10867.00552
613.497	10899.55437
613.699	10812.07263
613.9	11226.91876
614.102	11054.12187
614.304	11275.69473
614.505	10964.6433
614.707	11233.01608
614.908	10765.27121
615.11	10785.62042
615.311	10801.89894
615.513	10958.54171
615.714	10899.55437
615.916	11115.11782
616.117	10980.91373
616.319	11001.25077
616.52	10940.23631
616.722	10974.81241
616.923	11001.25077
617.124	11336.65642
617.326	10952.44001
617.527	11269.59806
617.729	11045.98834
617.93	11320.40086
618.131	11050.05513
618.333	11033.78771
618.534	10858.86785
618.735	11178.13682
618.937	11017.51959
619.138	11281.79131
619.339	11180.16952
619.54	11499.17731
619.742	11407.76701
619.943	11580.41474
620.144	11296.01631
620.345	11354.94316
620.546	11308.20876
620.748	11346.81582
620.949	11159.84203
621.15	11269.59806
621.351	11021.58669
621.552	11330.56066
621.753	11196.43075
621.954	11306.17671
622.155	11054.12187
622.356	11344.78396
622.558	11354.94316
622.759	11399.6407
622.96	10978.87997
623.161	11472.77189
623.362	11269.59806
623.563	11393.54586
623.764	11302.11258
623.965	11742.84562
624.166	11570.26088
624.366	11480.89681
624.567	11350.87951
624.768	11706.30366
624.969	11338.68832
625.17	11529.64311
625.371	11507.30173
625.572	11350.87951
625.773	11537.76696
625.973	11484.95921
626.174	11675.84984
626.375	11671.78918
626.576	11306.17671
626.777	11497.14618
626.977	11306.17671
627.178	11549.95246
627.379	11300.0805
627.58	11456.5216
627.78	11503.23954
627.981	11785.47433
628.182	11783.44447
628.382	11797.65326
628.583	11665.69812
628.784	11815.92107
628.984	11663.66775
629.185	11655.54618
629.386	11379.32423
629.586	11785.47433
629.787	11629.15007
629.987	11669.75884
630.188	11728.6352
630.388	11665.69812
630.589	11566.19927
630.79	11647.42446
630.99	11478.8656
631.191	11635.24162
631.391	11592.59907
631.591	11777.35487
631.792	11551.98334
631.992	11797.65326
632.193	11817.95079
632.393	11830.1289
632.594	11728.6352
632.794	11757.05561
632.994	11832.15856
633.195	12120.28674
633.395	11803.74261
633.595	11789.534
633.796	11665.69812
633.996	11939.71835
634.196	11791.56383
634.397	12010.73583
634.597	11911.30859
634.797	11968.12652
634.997	11911.30859
635.198	11982.33002
635.398	11657.57659
635.598	12079.71496
635.798	11746.90566
635.998	11870.72041
636.199	11992.47513
636.399	12136.5146
636.599	11710.36402
636.799	12010.73583
636.999	11844.33631
637.199	11939.71835
637.399	12037.11127
637.599	12087.82956
637.799	11722.54488
637.999	12203.44948
638.199	12164.9122
638.399	12215.61859
638.599	12055.37041
638.799	12323.10118
638.999	12414.34457
639.199	12448.81074
639.399	12347.43411
639.599	12444.756
639.799	11996.53312
639.999	12580.57582
640.199	12091.88681
640.399	12055.37041
640.599	11582.44549
640.799	12428.53676
640.998	12361.62786
641.198	12095.94404
641.398	12126.37225
641.598	12523.81879
641.798	12237.92795
641.997	12347.43411
642.197	12122.31525
642.397	12655.56873
642.597	12558.27901
642.796	12426.50932
642.996	12357.57253
643.196	12402.17958
643.395	12396.097
643.595	12499.49283
643.795	12296.73937
643.994	12657.59545
644.194	12631.24762
644.394	12533.95434
644.593	12568.41402
644.793	12572.46798
644.992	12345.4064
645.192	12702.18179
645.392	12825.79288
645.591	12896.70794
645.791	12465.02945
645.99	12434.61902
646.19	12134.48615
646.389	12339.32324
646.589	12671.78232
646.788	12647.46179
646.987	12463.00214
647.187	12848.08119
647.386	12556.25198
647.586	12643.40828
647.785	12613.00621
647.984	12775.13515
648.184	12679.88898
648.383	12744.73882
648.582	12568.41402
648.782	13093.21065
648.981	12846.05501
649.18	13109.41499
649.38	12592.7374
649.579	12971.6682
649.778	12890.62976
649.977	13117.51704
650.177	12623.14039
650.376	12827.81912
650.575	12473.13865
650.774	12767.02959
650.973	12979.77159
651.173	12876.44717
651.372	12872.39495
651.571	13123.59353
651.77	12811.60907
651.969	12977.74575
652.168	12825.79288
652.367	12965.59061
652.566	12882.52545
652.765	12827.81912
652.964	12799.4513
653.163	12969.64234
653.362	12912.91617
653.561	12821.74039
653.76	12781.21427
653.959	12884.55154
654.158	13243.08946
654.357	12870.36883
654.556	12744.73882
654.755	12961.53885
654.954	12602.87189
655.153	12868.34271
655.352	13457.73957
655.551	13287.64331
655.749	13232.96329
655.948	13149.92451
656.147	12945.33162
656.346	13309.91946
656.545	13117.51704
656.743	13018.26158
656.942	13135.74639
657.141	13200.55881
657.34	13044.5958
657.538	13127.6445
657.737	13180.30543
657.936	13427.3673
658.135	12779.1879
658.333	13034.46736
658.532	12981.79743
658.731	13184.35614
658.929	13052.69847
659.128	13070.92919
659.326	13095.23621
659.525	13336.24516
659.724	12937.22788
659.922	13265.36665
660.121	13366.62011
660.319	13334.22014
660.518	13273.46731
660.716	13322.06987
660.915	13162.077
661.113	13518.48156
661.312	12989.90071
661.51	13364.59514
661.709	13119.54254
661.907	13344.34524
662.105	13087.13395
662.304	13627.80895
662.502	12842.00263
662.701	13301.8191
662.899	13058.77542
663.097	13257.26591
663.296	13107.38946
663.494	13540.75279
663.692	13129.66998
663.891	13565.04818
664.089	13309.91946
664.287	13423.31759
664.485	13182.33079
664.684	13676.39569
664.882	13425.34245
665.08	13518.48156
665.278	13617.68647
665.476	13277.51762
665.675	12876.44717
665.873	13117.51704
666.071	13318.01975
666.269	13512.40751
666.467	12945.33162
666.665	13500.25931
666.863	12874.42106
667.061	13251.19032
667.259	13245.11468
667.457	13528.6049
667.655	13261.31629
667.853	13237.01377
668.051	13050.67281
668.249	13184.35614
668.447	13307.89438
668.645	13322.06987
668.843	13439.51631
669.041	13449.64038
669.239	13099.28731
669.437	13382.81971
669.635	13532.65421
669.833	13587.31851
670.031	13066.87795
670.229	13336.24516
670.426	13273.46731
670.624	13629.83343
670.822	13534.67886
671.02	13407.11863
671.218	13611.61294
671.415	13609.58842
671.613	13407.11863
671.811	13352.44525
672.009	13449.64038
672.206	13488.11098
672.404	13230.93805
672.602	13245.11468
672.799	13411.16839
672.997	13471.913
673.195	13247.1399
673.392	13366.62011
673.59	13125.61902
673.788	13289.66844
673.985	13297.7689
674.183	13168.15319
674.38	13445.59076
674.578	13366.62011
674.775	13156.00078
674.973	13506.33342
675.17	13320.04481
675.368	13425.34245
675.565	13309.91946
675.763	13324.09493
675.96	13293.71867
676.158	13328.14502
676.355	13093.21065
676.553	13471.913
676.75	13176.2547
676.947	13528.6049
677.145	13097.26177
677.342	13372.69499
677.539	13386.86957
677.737	13548.85131
677.934	13465.83869
678.131	13571.12195
678.329	13151.94994
678.526	13283.59305
678.723	13034.46736
678.92	13571.12195
679.118	13514.43219
679.315	13615.66196
679.512	13330.17006
679.709	13293.71867
679.906	12967.61648
680.104	13332.1951
680.301	13139.7973
680.498	13070.92919
680.695	13111.44051
680.892	13253.21552
681.089	13101.31286
681.286	13123.59353
681.483	12991.92652
681.68	13048.64715
681.877	13062.8267
682.075	13220.81175
682.272	13109.41499
682.469	13156.00078
682.665	12874.42106
682.862	12998.00392
683.059	13036.49305
683.256	13162.077
683.453	12783.24063
683.65	13192.45752
683.847	13257.26591
684.044	13149.92451
684.241	13040.54444
684.438	13036.49305
684.635	12785.26698
684.831	13320.04481
685.028	13137.77185
685.225	12878.47327
685.422	12979.77159
685.619	13024.33878
685.815	12957.48708
686.012	13026.36451
686.209	12789.31967
686.405	12817.68788
686.602	12687.99554
686.799	13279.54277
686.996	13131.69546
687.192	13099.28731
687.389	13239.03901
687.586	13469.88823
687.782	13170.17857
687.979	13247.1399
688.175	13066.87795
688.372	13016.23584
688.568	13016.23584
688.765	12965.59061
688.962	13068.90358
689.158	13115.49154
689.355	13182.33079
689.551	13459.76435
689.748	13085.10837
689.944	13046.62148
690.14	12835.92401
690.337	13000.02971
690.533	12712.31465
690.73	12793.37234
690.926	12935.20194
691.123	13103.3384
691.319	13034.46736
691.515	13062.8267
691.712	13000.02971
691.908	12844.02882
692.104	12625.16721
692.301	12937.22788
692.497	12548.14384
692.693	12943.3057
692.889	12809.58279
693.086	12627.19402
693.282	12921.02016
693.478	13208.66004
693.674	13109.41499
693.87	13099.28731
694.067	12951.40937
694.263	13004.08127
694.459	12844.02882
694.655	12941.27976
694.851	12927.09809
695.047	13046.62148
695.243	12961.53885
695.439	12914.94217
695.635	12687.99554
695.831	12977.74575
696.027	12677.86232
696.224	12874.42106
696.42	12894.68188
696.615	12995.97813
696.811	12698.1286
697.007	13093.21065
697.203	12769.05599
697.399	12726.50041
697.595	12760.95036
697.791	12570.441
697.987	12754.87108
698.183	12797.42499
698.379	12884.55154
698.575	13054.72413
698.77	12424.48188
698.966	12801.47761
699.162	12558.27901
699.358	12657.59545
699.554	12515.71024
699.749	12570.441
699.945	12726.50041
700.141	12793.37234
700.337	12621.11357
700.532	12815.66162
700.728	12361.62786
700.924	12422.45443
701.119	12394.06945
701.315	12531.92724
701.511	12592.7374
701.706	12929.12406
701.902	12535.98143
702.097	12987.8749
702.293	12839.97643
702.489	12633.27441
702.684	12752.84464
702.88	12789.31967
703.075	12465.02945
703.271	12485.30225
703.466	12321.07339
703.662	12412.31709
703.857	12353.51718
704.053	12647.46179
704.248	12379.87647
704.443	12679.88898
704.639	12635.3012
704.834	12677.86232
705.03	12519.76453
705.225	12473.13865
705.42	12298.76724
705.616	12329.1845
705.811	12250.09632
706.006	12438.67383
706.202	12584.62971
706.397	12756.89751
706.592	12633.27441
706.787	12925.07212
706.983	12621.11357
707.178	12937.22788
707.373	12564.36003
707.568	12570.441
707.763	12349.4618
707.959	12608.9525
708.154	12460.97482
708.349	12657.59545
708.544	12525.84591
708.739	12529.90014
708.934	12762.97678
709.129	12714.3412
709.324	12467.05676
709.519	12604.89876
709.714	12809.58279
709.909	12963.56473
710.104	12787.29333
710.299	12898.73398
710.494	12383.93164
710.689	12657.59545
710.884	12452.86546
711.079	12661.64887
711.274	12286.5999
711.469	12542.06266
711.664	12404.2071
711.859	12718.39429
712.054	12416.37205
712.249	12292.6836
712.443	12122.31525
712.638	12714.3412
712.833	12209.53407
713.028	12481.24775
713.223	12294.71149
713.417	12596.79122
713.612	12150.71359
713.807	12633.27441
714.002	12353.51718
714.196	12274.43229
714.391	12083.77227
714.586	12312.96216
714.78	12097.97264
714.975	12379.87647
715.17	12211.56225
715.364	12377.84887
715.559	12280.51613
715.754	12225.75932
715.948	11947.83513
716.143	12288.6278
716.337	12207.50588
716.532	12491.38397
716.726	12282.54406
716.921	12215.61859
717.115	12136.5146
717.31	11972.1847
717.504	12138.54305
717.699	12430.56419
717.893	11917.39653
718.088	12037.11127
718.282	12006.67795
718.476	11964.06831
718.671	11874.77938
718.865	12138.54305
719.059	11702.24327
719.254	12059.42791
719.448	11854.48421
719.642	12083.77227
719.837	11616.96673
720.031	11960.01006
720.225	11854.48421
720.419	12479.22048
720.614	12102.02982
720.808	12345.4064
721.002	11949.86431
721.196	12227.78744
721.39	11852.45465
721.585	12065.51411
721.779	11809.83188
721.973	11966.09742
722.167	11769.23527
722.361	11870.72041
722.555	11907.24992
722.749	12055.37041
722.943	11777.35487
723.137	11964.06831
723.331	11850.42508
723.525	12104.05839
723.719	11931.60144
723.913	11933.63068
724.107	11623.05844
724.301	11909.27926
724.495	11535.73601
724.689	11911.30859
724.883	11716.45449
725.077	11819.9805
725.271	11907.24992
725.465	12118.25822
725.659	11720.51476
725.853	12134.48615
726.046	11574.32245
726.24	11882.89721
726.434	11688.03161
726.628	11943.77676
726.822	11846.36591
727.015	12158.82713
727.209	11627.11954
727.403	11974.21378
727.596	11767.20535
727.79	11921.45512
727.984	11858.54331
728.177	11992.47513
728.371	12166.94055
728.565	12223.73119
728.758	12059.42791
728.952	12102.02982
729.146	11769.23527
729.339	11923.4844
729.533	11880.86777
729.726	11874.77938
729.92	12116.2297
730.113	11882.89721
730.307	11797.65326
730.5	11819.9805
730.694	11866.66141
730.887	11921.45512
731.081	11698.18284
731.274	11763.14548
731.468	11434.17644
731.661	11641.33308
731.854	11497.14618
732.048	11822.01019
732.241	11844.33631
732.435	11789.534
732.628	11771.26518
732.821	11927.54293
733.014	11671.78918
733.208	11742.84562
733.401	11665.69812
733.594	11706.30366
733.788	11407.76701
733.981	11724.575
734.174	11655.54618
734.367	11746.90566
734.56	12069.57153
734.754	11919.42583
734.947	11576.35322
735.14	11531.67409
735.333	11562.13762
735.526	11897.1031
735.719	11472.77189
735.912	11391.51423
736.105	11387.45093
736.298	11513.39495
736.491	11793.59365
736.684	11614.93614
736.877	11657.57659
737.07	11562.13762
737.263	11880.86777
737.456	11456.5216
737.649	11740.81558
737.842	11643.36355
738.035	11618.99731
738.228	11399.6407
738.421	11706.30366
738.614	11895.07371
738.807	11783.44447
739	11635.24162
739.192	11373.2291
739.385	11495.11505
739.578	11568.23008
739.771	11521.5191
739.964	11381.35592
740.156	11712.39419
740.349	11574.32245
740.542	11647.42446
740.735	11265.53356
740.927	11403.70387
741.12	11279.75913
741.313	11163.90762
741.505	11403.70387
741.698	11424.01916
741.891	11417.92468
742.083	11574.32245
742.276	11363.07034
742.468	11367.13387
742.661	11269.59806
742.854	11446.36485
743.046	11466.67811
743.239	11822.01019
743.431	11740.81558
743.624	11570.26088
743.816	11511.36389
744.009	11501.20843
744.201	11281.79131
744.393	11363.07034
744.586	11456.5216
744.778	11243.17808
744.971	11293.98419
745.163	11566.19927
745.355	11501.20843
745.548	11480.89681
745.74	11334.62451
745.932	11359.00677
746.125	11403.70387
746.317	11446.36485
746.509	11576.35322
746.702	11633.21111
746.894	11330.56066
747.086	11302.11258
747.278	11334.62451
747.471	11310.24081
747.663	11269.59806
747.855	11123.24988
748.047	11314.30486
748.239	11340.72021
748.431	10966.67715
748.623	11342.75209
748.815	11318.36887
749.008	11078.52142
749.2	11293.98419
749.392	11281.79131
749.584	11003.28441
749.776	11086.65426
749.968	11155.77641
750.16	11336.65642
750.352	10948.37215
750.544	11058.18857
750.736	11143.57928
750.928	11235.0485
751.12	11157.80923
751.311	11222.85383
751.503	11354.94316
751.695	11115.11782
751.887	10940.23631
752.079	11291.95207
752.271	10830.38454
752.463	11056.15523
752.654	10765.27121
752.846	11031.75424
753.038	10836.48829
753.23	10972.77861
753.421	10940.23631
753.613	11023.62022
753.805	11141.54639
753.997	11062.25523
754.188	11102.91941
754.38	10982.94749
754.572	10875.14301
754.763	11247.2428
754.955	10909.72528
755.146	11017.51959
755.338	11100.8863
755.53	11151.71074
755.721	10958.54171
755.913	10867.00552
756.104	11062.25523
756.296	11115.11782
756.487	11005.31804
756.679	10932.10028
756.87	10700.14573
757.062	10913.79356
757.253	10614.64972
757.445	10759.16622
757.636	10606.50612
757.827	10557.6403
758.019	10596.32633
758.21	10419.14758
758.401	10520.9862
758.593	10616.68559
758.784	10575.96582
758.975	10744.92081
759.167	10307.08753
759.358	10590.21831
759.549	10626.86476
759.74	10639.07936
759.932	10567.82127
760.123	10543.38641
760.314	10567.82127
760.505	10468.03412
760.696	10433.40693
760.888	10518.94974
761.079	10549.4953
761.27	10525.05908
761.461	10211.2951
761.652	10630.93634
761.843	10329.50274
762.034	10421.18467
762.225	10309.12534
762.416	10404.8876
762.607	10174.60067
762.798	10435.44392
762.989	10404.8876
763.18	10307.08753
763.371	10023.69838
763.562	10260.21412
763.753	10093.04143
763.944	10443.59178
764.135	10358.02886
764.326	10203.14117
764.517	10575.96582
764.708	10247.9851
764.899	10300.97401
765.089	10374.32834
765.28	10290.78454
765.471	10531.1683
765.662	10264.29035
765.853	10290.78454
766.043	10268.36652
766.234	10429.33289
766.425	9848.22689
766.615	9793.11452
766.806	10097.11992
766.997	10101.19836
767.187	9846.18589
767.378	10011.45967
767.569	9684.89896
767.759	9864.5544
767.95	9919.65274
768.141	9750.24177
768.331	9772.69976
768.522	9644.05171
768.712	9737.99118
768.903	9791.07311
769.093	9464.24931
769.284	9817.61026
769.474	9670.60312
769.665	9717.57232
769.855	9919.65274
770.046	9964.53979
770.236	9505.12428
770.426	9999.22043
770.617	9711.44636
770.807	9480.60007
770.998	9357.94411
771.188	9404.96915
771.378	9447.89752
771.569	9570.51097
771.759	9525.55937
771.949	9466.29321
772.139	9425.41212
772.33	9357.94411
772.52	9378.39084
772.71	9509.21143
772.9	9372.25699
773.09	9642.00918
773.281	9686.94116
773.471	9458.11751
773.661	9627.71107
773.851	9607.28387
774.041	9627.71107
774.231	9548.03613
774.421	9286.36756
774.611	9116.54677
774.802	9137.01331
774.992	8893.34865
775.182	9030.56846
775.372	8991.66342
775.562	8891.29999
775.752	9118.5935
775.942	9005.99759
776.131	9022.37845
776.321	9075.60853
776.511	9280.23148
776.701	9149.29241
776.891	9394.74705
777.081	9055.13682
777.271	9278.18609
777.461	9333.40586
777.651	9390.65809
777.84	9165.66359
778.03	9130.87353
778.22	9022.37845
778.41	9122.68691
778.599	9046.94764
778.789	8751.94886
778.979	9001.9022
779.169	9147.24594
779.358	8883.10517
779.548	9010.09291
779.738	8721.19832
779.927	9124.73359
780.117	9077.65561
780.307	9067.42005
780.496	8911.78579
780.686	9075.60853
780.875	8829.83186
781.065	8782.69528
781.254	8655.58331
781.444	8825.7334
781.633	8876.95887
781.823	8749.89895
782.012	8991.66342
782.202	8756.04862
782.391	8536.6075
782.581	8825.7334
782.77	8505.82758
782.96	8901.54311
783.149	8747.84902
783.338	8833.93024
783.528	8579.69224
783.717	8678.1406
783.906	8550.97
784.096	8751.94886
784.285	8481.20057
784.474	8472.99095
784.663	8341.59532
784.853	8715.04771
785.042	8472.99095
785.231	8368.29146
785.42	8620.71761
785.61	8234.77773
785.799	8386.77148
785.988	8193.67986
786.177	8004.52667
786.366	8279.97626
786.555	8095.01248
786.744	8304.626
786.933	8144.35193
787.122	8417.56804
787.312	8345.70263
787.501	8253.26919
787.69	8234.77773
787.879	8257.37819
788.068	8304.626
788.257	8333.38046
788.445	8062.11308
788.634	8333.38046
788.823	8035.37851
789.012	8259.43266
789.201	8152.57405
789.39	8195.73495
789.579	7998.35575
789.768	8105.29249
789.957	7905.76991
790.145	8298.46383
790.334	8064.16945
790.523	8310.78799
790.712	7928.40584
790.9	8136.12949
791.089	7971.61299
791.278	8251.21466
791.467	7951.03928
791.655	8025.09507
791.844	8088.84424
792.033	8119.68365
792.221	7734.89069
792.41	8203.95507
792.599	7809.02459
792.787	7959.26901
792.976	7940.75166
793.164	8004.52667
793.353	7844.02287
793.541	7977.7847
793.73	7825.49512
793.918	7975.72748
794.107	7825.49512
794.295	7699.87356
794.484	7524.69599
794.672	7765.78311
794.861	7720.47261
795.049	7800.78883
795.238	7716.35296
795.426	7971.61299
795.614	7660.72955
795.803	7831.67122
795.991	7813.14235
796.179	7971.61299
796.368	7839.90573
796.556	7732.83102
796.744	7660.72955
796.932	7555.62088
797.121	7502.01466
797.309	7780.19796
797.497	7349.36316
797.685	7555.62088
797.874	7580.35732
798.062	7448.39388
798.25	7138.75511
798.438	7417.45216
798.626	7419.5151
798.814	7217.24378
799.002	7246.1526
799.19	7656.60868
799.378	7436.01778
799.566	7508.20073
799.755	7270.92815
799.943	7656.60868
800.131	7545.31312
800.318	7570.05084
800.506	7495.82839
800.694	7697.81354
800.882	7561.80528
801.07	7547.37471
801.258	7613.33446
801.446	7582.41855
801.634	7147.01858
801.822	7411.26323
802.01	7157.34743
802.197	7289.50772
802.385	7033.36448
802.573	7043.69947
802.761	6876.20333
802.949	7198.65725
803.136	7039.56554
803.324	7328.72544
803.512	7316.34175
803.699	7357.61764
803.887	7155.2817
804.075	7454.58164
804.262	7314.27773
804.45	7477.26842
804.638	7289.50772
804.825	7427.76661
805.013	7200.72251
805.201	7444.2686
805.388	7347.29949
805.576	7625.69948
805.763	7312.21368
805.951	7448.39388
806.138	7208.98332
806.326	7603.02969
806.513	7178.00345
806.701	7388.56882
806.888	7248.21735
807.075	7559.74383
807.263	7252.34678
807.45	7592.72439
807.638	7336.98079
807.825	7502.01466
808.012	7320.46973
808.2	7520.5723
808.387	7266.79911
808.574	7411.26323
808.761	7250.28208
808.949	7419.5151
809.136	7330.78931
809.323	7369.9987
809.51	7388.56882
809.698	7473.14375
809.885	7322.53369
810.072	7369.9987
810.259	7328.72544
810.446	7378.2523
810.633	7388.56882
810.82	7600.96867
811.008	7419.5151
811.195	7691.63335
811.382	7483.45527
811.569	7570.05084
811.756	7398.88479
811.943	7671.03134
812.13	7489.64193
812.317	7617.45622
812.504	7452.51907
812.691	7874.89871
812.878	7650.42722
813.064	7975.72748
813.251	7687.51311
813.438	7961.32639
813.625	7466.95657
813.812	7761.66439
813.999	7650.42722
814.186	7543.2515
814.372	7347.29949
814.559	7535.00482
814.746	7460.7692
814.933	7433.95502
815.12	7378.2523
815.306	7576.23479
815.493	7378.2523
815.68	7640.12437
815.866	7351.42681
816.053	7584.47976
816.24	7334.91698
816.426	7464.89414
816.613	7436.01778
816.799	7708.11343
816.986	7256.47613
817.173	7469.01899
817.359	7171.80688
817.546	7328.72544
817.732	7204.85296
817.919	7262.66998
818.105	7246.1526
818.292	7277.12154
818.478	7229.63381
818.665	7565.9281
818.851	7378.2523
819.037	7357.61764
819.224	7347.29949
819.41	7312.21368
819.597	7196.59197
819.783	7427.76661
819.969	7291.57201
820.156	7287.44341
820.342	7336.98079
820.528	7244.08783
820.714	7072.63446
820.901	7237.89338
821.087	6932.05184
821.273	7248.21735
821.459	6998.22133
821.646	7403.01102
821.832	7188.33063
822.018	7208.98332
822.204	7023.02894
822.39	7308.08552
822.576	6975.47817
822.762	7270.92815
822.948	6857.58348
823.134	7033.36448
823.32	6992.01892
823.507	7118.09486
823.693	6963.07166
823.879	7151.15019
824.065	7018.89456
824.25	7082.96732
824.436	6940.32429
824.622	7178.00345
824.808	6948.59638
824.994	6925.84726
825.18	6857.58348
825.366	7308.08552
825.552	7105.69764
825.738	7080.90079
825.923	6925.84726
826.109	7196.59197
826.295	7023.02894
826.481	7336.98079
826.667	6882.40953
826.852	7080.90079
827.038	6766.52658
827.224	7163.54447
827.409	7074.70107
827.595	6867.92807
827.781	6841.03096
827.966	6956.8681
828.152	6708.55825
828.338	7033.36448
828.523	6783.08566
828.709	6998.22133
828.894	6710.62885
829.08	6845.16923
829.266	6634.0011
829.451	6644.35804
829.637	6515.89116
829.822	6861.72138
830.008	6785.15545
830.193	6559.41409
830.378	6549.05241
830.564	6675.42541
830.749	6526.25469
830.935	6364.51754
831.12	6352.07035
831.305	6803.78246
831.491	6320.94871
831.676	6474.43126
831.861	6461.99148
832.047	6652.64318
832.232	6451.62435
832.417	6412.22398
832.602	6005.2853
832.788	6397.70593
832.973	6580.1357
833.158	6571.84733
833.343	6551.12479
833.528	6526.25469
833.714	6561.48635
833.899	6513.81839
834.084	6360.36857
834.269	6424.66711
834.454	6283.5958
834.639	6472.35802
834.824	6119.56826
835.009	6271.14315
835.194	6204.71475
835.379	6435.03574
835.564	6132.03119
835.749	6476.50447
835.934	6086.32965
836.119	6127.87698
836.304	5922.12566
836.489	6225.4762
836.674	6040.61673
836.859	6227.55222
837.044	6210.94343
837.228	6107.10449
837.413	6021.9127
837.598	6046.85098
837.783	5897.17042
837.968	6202.63848
838.152	5947.07752
838.337	6038.5386
838.522	6005.2853
838.707	6019.83436
838.891	6028.14759
839.076	5996.97103
839.261	5761.93711
839.445	5718.22504
839.63	5697.40611
839.815	5836.84788
839.999	5599.52553
840.184	6055.16298
840.368	5824.36487
840.553	6094.63987
840.737	5949.15668
840.922	6061.39674
841.106	5786.91077
841.291	5830.60648
841.475	5938.76061
841.66	5909.64847
841.844	5859.73118
842.029	5915.88717
842.213	5768.18085
842.397	5878.45175
842.582	5570.35955
842.766	5857.65099
842.951	5503.67709
843.135	5682.83146
843.319	5526.6019
843.504	5603.69172
843.688	5637.01787
843.872	5595.35925
844.056	5662.00851
844.241	5711.97961
844.425	5764.01838
844.609	5605.77479
844.793	5466.15761
844.977	5614.10679
845.161	5451.56464
845.346	5697.40611
845.53	5366.06843
845.714	5678.66706
845.898	5341.03768
846.082	5391.0958
846.266	5541.18894
846.45	5651.59616
846.634	5203.30831
846.818	5678.66706
847.002	5305.57168
847.186	5620.35555
847.37	5409.86411
847.554	5295.13921
847.738	5247.14234
847.922	5336.86556
848.106	5503.67709
848.29	5136.49384
848.473	5290.96606
848.657	5088.45623
848.841	4902.45632
849.025	5109.34366
849.209	4937.99849
849.392	5149.02337
849.576	4910.81978
849.76	4977.71423
849.944	4762.31405
850.127	5130.22876
850.311	5002.79357
850.495	5320.17615
850.678	4983.98438
850.862	5140.67044
851.046	5021.6009
851.229	5094.7227
851.413	5006.97314
851.596	5136.49384
851.78	4996.52405
851.964	5038.31696
852.147	4902.45632
852.331	4960.99283
852.514	4651.38312
852.698	4923.36428
852.881	4789.51383
853.065	4802.06628
853.248	4902.45632
853.431	5182.43135
853.615	4952.63157
853.798	5065.47739
853.982	4831.35214
854.165	4977.71423
854.348	4724.6465
854.532	4902.45632
854.715	4464.96152
854.898	4733.0177
855.081	4511.05961
855.265	4770.68362
855.448	4779.05283
855.631	4643.00841
855.814	4523.62996
855.997	4797.88222
856.181	4500.58371
856.364	4768.59126
856.547	4697.43761
856.73	4584.37541
856.913	4332.89472
857.096	4575.99784
857.279	4467.05712
857.462	4462.8659
857.645	4324.50661
857.828	4508.96447
858.011	4261.58485
858.194	4722.55365
858.377	4397.89078
858.56	4379.02311
858.743	4370.63691
858.926	4416.75669
859.109	4550.86299
859.292	4460.77026
859.475	4303.53484
859.658	4444.00432
859.841	4337.08864
860.023	4318.21531
860.206	4288.85332
860.389	4284.65841
860.572	3982.40243
860.755	4152.47495
860.937	4013.90757
861.12	4165.06748
861.303	3900.46765
861.486	4307.72937
861.668	3997.1054
861.851	4173.46207
862.034	4022.30816
862.216	4232.21476
862.399	4030.70842
862.581	4135.68374
862.764	4049.60781
862.947	4259.48712
863.129	4083.20258
863.312	4202.84049
863.494	3974.00028
863.677	4108.39517
863.859	3950.8927
864.042	3965.59781
864.224	3686.03365
864.406	3892.06235
864.589	3719.68378
864.771	3717.58079
864.954	3585.05404
865.136	4070.60516
865.318	3711.27171
865.501	3784.86682
865.683	3662.89634
865.865	3929.88368
866.048	3805.8896
866.23	4007.60691
866.412	3597.67886
866.594	3850.03103
866.777	3610.30301
866.959	3715.47778
867.141	3587.15822
867.323	3561.90678
867.505	3513.50076
867.687	3576.63711
867.869	3321.8878
868.052	3502.97642
868.234	3538.75729
868.416	3717.58079
868.598	3555.59351
868.78	3753.32897
868.962	3530.33874
869.144	3807.99177
869.326	3587.15822
869.508	3606.09503
869.69	3444.03178
869.872	3585.05404
870.054	3429.29341
870.236	3593.47066
870.417	3500.8715
870.599	3330.31341
870.781	3349.27002
870.963	3479.82129
871.145	3340.84503
871.327	3498.76656
871.508	3300.82257
871.69	3467.19029
871.872	3323.99422
872.054	3656.58577
872.235	3176.50337
872.417	3517.71036
872.599	3319.78135
872.78	3370.33126
872.962	3277.64885
873.144	3462.97981
873.325	3323.99422
873.507	3460.87455
873.689	3271.32839
873.87	3540.86188
874.052	3252.36609
874.233	3412.4485
874.415	3311.3554
874.596	3509.29108
874.778	3182.82608
874.959	3414.55418
875.141	3085.86188
875.322	3315.56841
875.503	3146.99545
875.685	3452.45331
875.866	3222.86647
876.048	3347.16379
876.229	3290.28932
876.41	3248.15206
876.592	3180.71852
876.773	3351.37622
876.954	3193.3636
877.136	3416.65983
877.317	3305.03575
877.498	3484.03148
877.679	3309.24887
877.86	3595.57477
878.042	3317.67489
878.223	3484.03148
878.404	3227.0809
878.585	3374.5433
878.766	3239.72379
878.947	3427.18786
879.128	3305.03575
879.309	3378.75527
879.49	3182.82608
879.672	3317.67489
879.853	3338.73874
880.034	3441.92635
880.215	3286.07589
880.396	3492.45163
880.576	3315.56841
880.757	3317.67489
880.938	3254.47307
881.119	3568.21989
881.3	3298.71595
881.481	3578.74137
881.662	3138.56403
881.843	3431.39895
882.023	3117.48436
882.204	3345.05756
882.385	3286.07589
882.566	3412.4485
882.747	3452.45331
882.927	3427.18786
883.108	3368.22522
883.289	3460.87455
883.469	3214.43741
883.65	3524.02463
883.831	3349.27002
884.011	3589.26238
884.192	3330.31341
884.373	3549.28006
884.553	3298.71595
884.734	3420.8711
884.914	3294.50267
885.095	3498.76656
885.275	3159.64209
885.456	3456.66396
885.636	3420.8711
885.817	3561.90678
885.997	3408.23709
886.178	3715.47778
886.358	3627.13416
886.538	3536.65268
886.719	3241.83089
886.899	3728.09554
887.08	3450.34795
887.26	3585.05404
887.44	3551.38456
887.621	3690.24018
887.801	3406.13136
887.981	3519.81514
888.161	3511.39593
888.342	3635.54928
888.522	3376.6493
888.702	3521.91989
888.882	3404.02562
889.062	3484.03148
889.242	3353.4824
889.423	3410.34281
889.603	3294.50267
889.783	3534.54805
889.963	3340.84503
890.143	3540.86188
890.323	3361.90697
890.503	3652.37862
890.683	3376.6493
890.863	3437.71544
891.043	3138.56403
891.223	3326.10064
891.403	3231.29527
891.583	3465.08506
891.763	3340.84503
891.943	3488.24159
892.122	3208.11544
892.302	3521.91989
892.482	3292.396
892.662	3517.71036
892.842	3117.48436
893.022	3146.99545
893.201	3058.45285
893.381	3307.14232
893.561	3026.82379
893.741	3366.11915
893.92	3066.88668
894.1	3370.33126
894.28	3199.68592
894.459	3281.86241
894.639	3077.42861
894.819	3307.14232
894.998	3218.65197
895.178	3222.86647
895.357	2953.00928
895.537	3100.61948
895.716	3022.60632
895.896	3231.29527
896.075	2919.25942
896.255	2872.84726
896.434	2874.95705
896.614	2997.30021
896.793	3031.0412
896.973	3060.56133
897.152	2923.47836
897.331	3206.00808
897.511	3109.05205
897.69	3136.45614
897.87	2868.62763
898.049	2997.30021
898.228	2912.9309
898.407	3007.84469
898.587	2763.11864
898.766	2906.60225
898.945	2733.57002
899.124	2891.8349
899.304	2788.44394
899.483	3184.93361
899.662	2915.04042
899.841	2750.45527
900.02	2691.35322
900.199	2682.90924
900.378	2604.79282
900.557	2817.98764
900.737	2590.01213
900.916	2765.22916
901.095	2613.23865
901.274	2718.79473
901.453	2507.65196
901.632	2710.35143
901.811	2541.4429
901.989	2628.0184
902.168	2638.57499
902.347	2976.21012
902.526	2632.24107
902.705	2644.90879
902.884	2556.2255
903.063	2687.13125
903.242	2465.40921
903.42	2437.94905
903.599	2258.35906
903.778	2456.96013
903.957	2260.47228
904.135	2290.05653
904.314	2209.75232
904.493	2391.47391
904.672	2120.98063
904.85	2302.73493
905.029	2059.67784
905.207	2450.6232
905.386	2076.58957
905.565	2178.04981
905.743	1989.91227
905.922	2099.84245
906.1	1738.28187
906.279	2074.47563
906.457	1679.06591
906.636	2040.6516
906.814	1801.72443
906.993	1981.45535
907.171	1761.54455
907.35	1896.88087
907.528	1566.97295
907.707	1831.32969
907.885	1602.92793
908.063	1780.57731
908.242	1594.46798
908.42	1721.36328
908.598	1621.96271
908.777	1731.93742
908.955	1725.59295
909.133	1939.16927
909.311	1727.70778
909.49	2004.71163
909.668	1638.88236
909.846	1867.27771
910.024	1715.01876
910.202	1770.00359
910.38	1685.4106
910.559	1630.42255
910.737	1759.42978
910.915	1710.78906
911.093	1552.16783
911.271	1814.41251
911.449	1594.46798
911.627	1600.81295
911.805	1437.95548
911.983	1685.4106
912.161	1660.03172
912.339	1827.10042
912.517	1668.49139
912.695	1892.65191
912.872	1676.95101
913.05	1820.75648
913.228	1755.20022
913.406	1871.50679
913.584	1573.31798
913.762	1814.41251
913.939	1653.68694
914.117	1725.59295
914.295	1566.97295
914.473	1695.98501
914.65	1626.19264
914.828	1797.49504
915.006	1613.50283
915.184	1725.59295
915.361	1543.70773
915.539	1765.77408
915.716	1632.53751
915.894	1797.49504
916.072	1628.3076
916.249	1545.82276
916.427	1575.43299
916.604	1651.57201
916.782	1344.89378
916.959	1721.36328
917.137	1541.59271
917.314	1757.315
917.492	1372.38911
917.669	1486.60167
917.847	1372.38911
918.024	1533.13258
918.201	1401.99965
918.379	1545.82276
918.556	1258.17964
918.733	1469.68126
918.911	1283.55902
919.088	1465.45116
919.265	1237.03044
919.442	1531.01755
919.62	1143.97782
919.797	1497.1769
919.974	1253.94978
920.151	1325.8587
920.328	1374.50414
920.506	1410.45983
920.683	1359.69893
920.86	1414.68993
921.037	1372.38911
921.214	1465.45116
921.391	1268.75434
921.568	1347.0088
921.745	1315.28371
921.922	1476.02642
922.099	1275.09919
922.276	1287.78895
922.453	1313.16871
922.63	1272.98424
922.807	1182.04396
922.984	1220.11129
923.161	1063.6207
923.338	1357.58391
923.514	1110.1424
923.691	1152.43685
923.868	1031.90285
924.045	1078.42279
924.222	1044.58984
924.399	1247.60501
924.575	1044.58984
924.752	1101.68373
924.929	940.98604
925.105	1135.51886
925.282	1010.75834
925.459	1169.3551
925.635	1010.75834
925.812	1069.96443
925.989	883.90545
926.165	951.55712
926.342	953.67136
926.518	1029.78837
926.695	1017.10163
926.871	1101.68373
927.048	955.7856
927.224	1080.5374
927.401	780.33042
927.577	968.47122
927.754	780.33042
927.93	1006.52951
928.107	740.1748
928.283	976.92843
928.459	773.98982
928.636	924.07269
928.812	754.96854
928.988	839.51352
929.165	714.81528
929.341	860.65207
929.517	672.55294
929.693	864.87988
929.87	653.53639
930.046	776.10334
930.222	562.6933
930.398	759.19542
930.574	681.00505
930.751	712.70206
930.927	712.70206
931.103	771.8763
931.279	543.68269
931.455	596.49263
931.631	661.98807
931.807	706.36246
931.983	518.33696
932.159	782.44397
932.335	543.68269
932.511	708.47565
932.687	558.46863
932.863	645.0849
933.039	615.5062
933.215	628.18249
933.391	640.85922
933.566	579.59254
933.742	429.64347
933.918	550.01944
934.094	499.329
934.27	497.21707
934.445	349.42099
934.621	416.97519
934.797	357.86432
934.973	484.54585
935.148	349.42099
935.324	353.64262
935.5	300.87729
935.675	374.75181
935.851	294.5462
936.027	406.41873
936.202	250.23327
936.378	281.88452
936.553	241.79366
936.729	288.21528
936.904	216.47669
937.08	271.33363
937.255	163.74226
937.431	248.12334
937.606	271.33363
937.782	277.66411
937.957	205.9288
938.133	178.50662
938.308	227.02509
938.483	195.3814
938.659	182.72519
938.834	163.74226
939.009	153.19692
939.185	151.08791
939.36	151.08791
939.535	205.9288
939.71	146.86997
939.886	142.6521
940.061	123.67278
940.236	129.99903
940.411	104.6952
940.586	167.96055
940.761	49.88122
940.937	174.28813
941.112	62.52924
941.287	121.56407
941.462	189.0532
941.637	47.77329
941.812	138.43433
941.987	129.99903
942.162	1.40492
942.337	106.80373
942.512	140.5432
942.687	102.58669
942.862	113.12946
943.037	108.91229
943.212	92.04447
943.386	-55.48573
943.561	127.89025
943.736	47.77329
943.911	89.9361
944.086	163.74226
944.26	14.04971
944.435	70.96171
944.61	129.99903
944.785	66.74543
944.959	58.31314
945.134	165.85139
945.309	89.9361
945.483	3.51233
945.658	121.56407
945.833	100.4782
946.007	45.6654
946.182	121.56407
946.357	113.12946
946.531	37.23403
946.706	89.9361
946.88	54.09713
947.055	92.04447
947.229	121.56407
947.404	108.91229
947.578	58.31314
947.752	123.67278
947.927	37.23403
948.101	117.34672
948.276	157.41499
948.45	140.5432
948.624	49.88122
948.799	73.06989
948.973	62.52924
949.147	115.23808
949.321	94.15287
949.496	174.28813
949.67	113.12946
949.844	70.96171
950.018	163.74226
950.193	41.44967
950.367	60.42118
950.541	129.99903
950.715	108.91229
950.889	159.52406
951.063	-74.44523
951.237	138.43433
951.411	104.6952
951.585	108.91229
951.759	127.89025
951.933	148.97893
952.107	129.99903
952.281	108.91229
952.455	155.30595
952.629	134.21663
952.803	98.36974
952.977	127.89025
953.151	127.89025
953.325	98.36974
953.499	146.86997
953.672	87.82774
953.846	121.56407
954.02	174.28813
954.194	180.61589
954.368	58.31314
954.541	87.82774
954.715	49.88122
954.889	180.61589
955.062	94.15287
955.236	96.26129
955.41	174.28813
955.583	94.15287
955.757	87.82774
955.93	178.50662
956.104	28.80304
956.278	134.21663
956.451	94.15287
956.625	41.44967
956.798	127.89025
956.972	148.97893
957.145	127.89025
957.319	159.52406
957.492	98.36974
957.665	117.34672
957.839	47.77329
958.012	16.15725
958.185	113.12946
958.359	121.56407
958.532	56.20513
958.705	115.23808
958.879	75.17808
959.052	104.6952
959.225	87.82774
959.398	47.77329
959.572	70.96171
959.745	87.82774
959.918	83.6111
960.091	70.96171
960.264	22.48004
960.438	106.80373
960.611	193.27198
960.784	89.9361
960.957	146.86997
961.13	155.30595
961.303	125.7815
961.476	75.17808
961.649	49.88122
961.822	75.17808
961.995	117.34672
962.168	58.31314
962.341	37.23403
962.514	47.77329
962.686	85.71941
962.859	115.23808
963.032	108.91229
963.205	79.39455
963.378	16.15725
963.551	11.94218
963.723	132.10782
963.896	66.74543
964.069	138.43433
964.242	87.82774
964.414	75.17808
964.587	16.15725
964.76	138.43433
964.932	100.4782
965.105	45.6654
965.278	68.85356
965.45	75.17808
965.623	75.17808
965.795	81.50281
965.968	68.85356
966.14	127.89025
966.313	104.6952
966.485	73.06989
966.658	87.82774
966.83	62.52924
967.003	111.02086
967.175	22.48004
967.348	39.34183
967.52	24.58768
967.692	30.91075
967.865	70.96171
968.037	-28.09618
968.209	138.43433
968.382	127.89025
968.554	96.26129
968.726	45.6654
968.898	117.34672
969.071	77.2863
969.243	47.77329
969.415	24.58768
969.587	102.58669
969.759	100.4782
969.932	28.80304
970.104	125.7815
970.276	41.44967
970.448	79.39455
970.62	79.39455
970.792	85.71941
970.964	11.94218
971.136	22.48004
971.308	89.9361
971.48	73.06989
971.652	58.31314
971.824	73.06989
971.996	111.02086
972.168	121.56407
972.339	79.39455
972.511	64.63732
972.683	54.09713
972.855	62.52924
973.027	43.55752
973.199	79.39455
973.37	24.58768
973.542	75.17808
973.714	115.23808
973.886	92.04447
974.057	45.6654
974.229	33.01848
974.401	73.06989
974.572	62.52924
974.744	79.39455
974.915	43.55752
975.087	104.6952
975.259	92.04447
975.43	54.09713
975.602	73.06989
975.773	111.02086
975.945	56.20513
976.116	83.6111
976.288	81.50281
976.459	89.9361
976.63	45.6654
976.802	39.34183
976.973	-44.95179
977.145	81.50281
977.316	11.94218
977.487	28.80304
977.659	58.31314
977.83	5.61975
978.001	37.23403
978.172	28.80304
978.344	108.91229
978.515	79.39455
978.686	73.06989
978.857	79.39455
979.028	7.72721
979.2	30.91075
979.371	70.96171
979.542	104.6952
979.713	26.69535
979.884	115.23808
980.055	54.09713
980.226	-4.91714
980.397	47.77329
980.568	33.01848
980.739	113.12946
980.91	104.6952
981.081	96.26129
981.252	75.17808
981.423	51.98916
981.594	81.50281
981.765	73.06989
981.936	54.09713
982.106	47.77329
982.277	115.23808
982.448	7.72721
982.619	43.55752
982.79	22.48004
982.96	66.74543
983.131	45.6654
983.302	20.37242
983.472	5.61975
983.643	14.04971
983.814	54.09713
983.984	37.23403
984.155	20.37242
984.326	11.94218
984.496	28.80304
984.667	37.23403
984.837	33.01848
985.008	37.23403
985.178	111.02086
985.349	3.51233
985.519	64.63732
985.69	-19.66778
985.86	64.63732
986.031	49.88122
986.201	-13.34623
986.371	-19.66778
986.542	89.9361
986.712	111.02086
986.882	75.17808
987.053	73.06989
987.223	37.23403
987.393	-0.70246
987.563	-13.34623
987.734	41.44967
987.904	-34.41722
988.074	45.6654
988.244	22.48004
988.414	54.09713
988.585	54.09713
988.755	-0.70246
988.925	-34.41722
989.095	39.34183
989.265	41.44967
989.435	45.6654
989.605	45.6654
989.775	20.37242
989.945	7.72721
990.115	45.6654
990.285	60.42118
990.455	62.52924
990.625	11.94218
990.795	54.09713
990.965	-13.34623
991.134	-9.13173
991.304	11.94218
991.474	54.09713
991.644	11.94218
991.814	14.04971
991.984	28.80304
992.153	5.61975
992.323	39.34183
992.493	54.09713
992.662	1.40492
992.832	-13.34623
993.002	7.72721
993.171	28.80304
993.341	35.12624
993.511	22.48004
993.68	39.34183
993.85	11.94218
994.019	-2.80981
994.189	28.80304
994.358	14.04971
994.528	-0.70246
994.697	121.56407
994.867	54.09713
995.036	35.12624
995.206	-2.80981
995.375	-36.52418
995.544	33.01848
995.714	22.48004
995.883	20.37242
996.052	49.88122
996.222	-2.80981
996.391	45.6654
996.56	14.04971
996.73	62.52924
996.899	22.48004
997.068	49.88122
997.237	66.74543
997.406	43.55752
997.576	92.04447
997.745	-2.80981
997.914	-21.77492
998.083	-25.98912
998.252	30.91075
998.421	-2.80981
998.59	39.34183
998.759	-47.05863
998.928	45.6654
999.097	5.61975
999.266	89.9361
999.435	62.52924
999.604	20.37242
999.773	37.23403
999.942	87.82774
1000.111	28.80304
1000.28	11.94218
1000.448	66.74543
1000.617	83.6111
1000.786	9.83468
1000.955	-57.59244
1001.124	3.51233
1001.292	47.77329
1001.461	-15.45344
1001.63	28.80304
1001.798	33.01848
1001.967	-23.88203
1002.136	-36.52418
1002.304	-2.80981
1002.473	-34.41722
1002.642	-9.13173
1002.81	-4.91714
1002.979	-9.13173
1003.147	-17.56062
1003.316	-53.37899
1003.484	-0.70246
1003.653	-53.37899
1003.821	45.6654
1003.99	28.80304
1004.158	54.09713
1004.327	92.04447
1004.495	87.82774
1004.663	3.51233
1004.832	45.6654
1005	11.94218
1005.168	5.61975
1005.337	-17.56062
1005.505	3.51233
1005.673	7.72721
1005.842	96.26129
1006.01	138.43433
1006.178	11.94218
1006.346	20.37242
1006.514	-21.77492
1006.683	33.01848
1006.851	-44.95179
1007.019	7.72721
1007.187	70.96171
1007.355	14.04971
1007.523	28.80304
1007.691	-7.02445
1007.859	3.51233
1008.027	75.17808
1008.195	16.15725
1008.363	30.91075
1008.531	-7.02445
1008.699	7.72721
1008.867	16.15725
1009.035	26.69535
1009.203	7.72721
1009.37	16.15725
1009.538	39.34183
1009.706	28.80304
1009.874	81.50281
1010.042	-36.52418
1010.209	-38.63112
1010.377	100.4782
1010.545	-19.66778
1010.713	5.61975
1010.88	-19.66778
1011.048	66.74543
1011.216	-7.02445
1011.383	56.20513
1011.551	-13.34623
1011.718	70.96171
1011.886	24.58768
1012.054	62.52924
1012.221	56.20513
1012.389	70.96171
1012.556	20.37242
1012.724	-21.77492
1012.891	87.82774
1013.058	-53.37899
1013.226	-42.84492
1013.393	-42.84492
1013.561	45.6654
1013.728	-53.37899
1013.895	-28.09618
1014.063	-7.02445
1014.23	3.51233
1014.397	11.94218
1014.565	-0.70246
1014.732	-0.70246
1014.899	22.48004
1015.066	20.37242
1015.233	26.69535
1015.401	14.04971
1015.568	33.01848
1015.735	60.42118
1015.902	41.44967
1016.069	37.23403
1016.236	7.72721
1016.403	58.31314
1016.57	33.01848
1016.737	-74.44523
1016.904	35.12624
1017.071	64.63732
1017.238	-4.91714
1017.405	54.09713
1017.572	33.01848
1017.739	56.20513
1017.906	43.55752
1018.073	92.04447
1018.24	28.80304
1018.407	-21.77492
1018.573	-17.56062
1018.74	-30.20322
1018.907	87.82774
1019.074	-11.23899
1019.241	11.94218
1019.407	39.34183
1019.574	83.6111
1019.741	14.04971
1019.907	30.91075
1020.074	45.6654
1020.241	5.61975
1020.407	-34.41722
1020.574	62.52924
1020.74	30.91075
1020.907	-40.73804
1021.073	37.23403
1021.24	-23.88203
1021.406	51.98916
1021.573	45.6654
1021.739	-25.98912
1021.906	1.40492
1022.072	49.88122
1022.239	14.04971
1022.405	1.40492
1022.571	28.80304
1022.738	37.23403
1022.904	-38.63112
1023.07	41.44967
1023.237	-11.23899
1023.403	22.48004
1023.569	-0.70246
1023.735	24.58768
1023.902	-11.23899
1024.068	56.20513
1024.234	-11.23899
1024.4	28.80304
1024.566	22.48004
1024.732	-0.70246
1024.898	-4.91714
1025.065	75.17808
1025.231	92.04447
1025.397	45.6654
1025.563	-25.98912
1025.729	3.51233
1025.895	-51.27223
1026.061	41.44967
1026.227	62.52924
1026.392	37.23403
1026.558	75.17808
1026.724	47.77329
1026.89	28.80304
1027.056	28.80304
1027.222	24.58768
1027.388	-13.34623
1027.553	-17.56062
1027.719	5.61975
1027.885	-80.7646
1028.051	47.77329
1028.216	-11.23899
1028.382	-15.45344
1028.548	30.91075
1028.713	-57.59244
1028.879	5.61975
1029.045	39.34183
1029.21	26.69535
1029.376	-21.77492
1029.541	41.44967
1029.707	24.58768
1029.873	3.51233
1030.038	-44.95179
1030.204	41.44967
1030.369	47.77329
1030.534	-36.52418
1030.7	30.91075
1030.865	68.85356
1031.031	28.80304
1031.196	3.51233
1031.361	7.72721
1031.527	-13.34623
1031.692	-55.48573
1031.857	45.6654
1032.023	33.01848
1032.188	39.34183
1032.353	37.23403
1032.518	33.01848
1032.684	11.94218
1032.849	22.48004
1033.014	20.37242
1033.179	-13.34623
1033.344	-106.03976
1033.509	-11.23899
1033.674	-7.02445
1033.839	16.15725
1034.004	20.37242
1034.17	-25.98912
1034.335	24.58768
1034.5	20.37242
1034.664	-44.95179
1034.829	62.52924
1034.994	54.09713
1035.159	-72.33872
1035.324	70.96171
1035.489	-21.77492
1035.654	-13.34623
1035.819	-17.56062
1035.984	22.48004
1036.148	-55.48573
1036.313	-4.91714
1036.478	-11.23899
1036.643	30.91075
1036.807	-17.56062
1036.972	20.37242
1037.137	-4.91714
1037.301	-0.70246
1037.466	47.77329
1037.631	-36.52418
1037.795	30.91075
1037.96	-38.63112
1038.124	-2.80981
1038.289	37.23403
1038.454	-13.34623
1038.618	58.31314
1038.783	5.61975
1038.947	11.94218
1039.111	-30.20322
1039.276	-68.12563
1039.44	26.69535
1039.605	5.61975
1039.769	3.51233
1039.933	-11.23899
1040.098	11.94218
1040.262	20.37242
1040.426	-34.41722
1040.591	35.12624
1040.755	39.34183
1040.919	24.58768
1041.083	3.51233
1041.248	-19.66778
1041.412	-4.91714
1041.576	-44.95179
1041.74	-4.91714
1041.904	45.6654
1042.068	-21.77492
1042.232	-17.56062
1042.397	28.80304
1042.561	60.42118
1042.725	28.80304
1042.889	-47.05863
1043.053	3.51233
1043.217	-19.66778
1043.381	83.6111
1043.544	14.04971
1043.708	14.04971
1043.872	-19.66778
1044.036	-89.19007
1044.2	75.17808
1044.364	-21.77492
1044.528	28.80304
1044.691	41.44967
1044.855	35.12624
1045.019	108.91229
1045.183	30.91075
1045.346	3.51233
1045.51	-34.41722
1045.674	22.48004
1045.837	54.09713
1046.001	-11.23899
1046.165	-25.98912
1046.328	-51.27223
1046.492	54.09713
1046.655	24.58768
1046.819	22.48004
1046.983	3.51233
1047.146	79.39455
1047.31	-4.91714
1047.473	-42.84492
1047.636	26.69535
1047.8	-28.09618
1047.963	-25.98912
1048.127	22.48004
1048.29	79.39455
