Data from mixed_try1_USB4F045381__13__00238.txt Node

Date: Thu Apr 03 20:24:14 EDT 2025
User: mmckonesweet
Spectrometer: USB4F04538
Trigger mode: 4
Integration Time (sec): 2.700000E-3
Scans to average: 1
Electric dark correction enabled: true
Nonlinearity correction enabled: true
Boxcar width: 0
XAxis mode: Wavelengths
Number of Pixels in Spectrum: 3648
>>>>>Begin Spectral Data<<<<<
345.52	14.57659
345.736	14.57659
345.952	14.57659
346.168	18.79172
346.384	-0.17561
346.6	-73.91861
346.816	1.93177
347.032	-12.81942
347.248	1.93177
347.464	14.57659
347.68	-25.46235
347.896	-25.46235
348.112	41.97663
348.328	-2.28298
348.544	8.25407
348.76	39.86879
348.975	31.43768
349.191	-2.28298
349.407	-2.28298
349.623	-27.56942
349.839	-17.03383
350.055	-50.74553
350.27	-61.27913
350.486	-10.71218
350.702	23.00695
350.918	35.65319
351.133	39.86879
351.349	65.16435
351.565	25.11459
351.781	16.68414
351.996	6.14661
352.212	31.43768
352.428	48.30027
352.644	-0.17561
352.859	44.08449
353.075	-4.39031
353.291	-19.141
353.506	31.43768
353.722	4.03918
353.938	-14.92664
354.153	-19.141
354.369	-50.74553
354.584	-25.46235
354.8	69.38059
355.016	-59.17246
355.231	54.62413
355.447	-10.71218
355.662	-54.95905
355.878	-50.74553
356.093	-2.28298
356.309	27.22227
356.524	-2.28298
356.74	25.11459
356.955	-10.71218
357.171	-17.03383
357.386	98.89685
357.602	67.27246
357.817	-48.63874
358.033	23.00695
358.248	41.97663
358.464	10.36155
358.679	6.14661
358.895	-21.24814
359.11	31.43768
359.325	14.57659
359.541	33.54542
359.756	33.54542
359.972	46.19237
360.187	-27.56942
360.402	14.57659
360.618	-27.56942
360.833	-10.71218
361.048	41.97663
361.264	16.68414
361.479	6.14661
361.694	33.54542
361.909	1.93177
362.125	-94.98234
362.34	-48.63874
362.555	23.00695
362.77	-12.81942
362.986	-35.99745
363.201	-23.35526
363.416	-27.56942
363.631	6.14661
363.847	23.00695
364.062	10.36155
364.277	-19.141
364.492	39.86879
364.707	1.93177
364.922	16.68414
365.138	18.79172
365.353	8.25407
365.568	-35.99745
365.783	23.00695
365.998	-2.28298
366.213	46.19237
366.428	16.68414
366.643	-25.46235
366.858	107.33087
367.073	12.46906
367.288	58.84015
367.503	4.03918
367.718	-29.67646
367.933	18.79172
368.148	44.08449
368.363	14.57659
368.578	23.00695
368.793	63.05626
369.008	73.59693
369.223	-31.78348
369.438	-12.81942
369.653	73.59693
369.868	-40.21131
370.083	-44.42508
370.298	-0.17561
370.513	14.57659
370.728	10.36155
370.943	-14.92664
371.157	-23.35526
371.372	69.38059
371.587	-76.0251
371.802	16.68414
372.017	31.43768
372.232	-61.27913
372.446	-10.71218
372.661	101.00532
372.876	16.68414
373.091	-35.99745
373.306	-0.17561
373.52	-42.31821
373.735	-31.78348
373.95	73.59693
374.165	-19.141
374.379	33.54542
374.594	6.14661
374.809	73.59693
375.023	-38.10439
375.238	1.93177
375.453	33.54542
375.667	-33.89048
375.882	-35.99745
376.097	60.94819
376.311	-44.42508
376.526	14.57659
376.741	-84.4508
376.955	94.67998
377.17	-4.39031
377.384	-25.46235
377.599	33.54542
377.813	29.32996
378.028	41.97663
378.242	-17.03383
378.457	39.86879
378.672	33.54542
378.886	6.14661
379.101	-6.49763
379.315	31.43768
379.53	10.36155
379.744	73.59693
379.958	12.46906
380.173	90.46319
380.387	29.32996
380.602	71.48875
380.816	31.43768
381.031	48.30027
381.245	-40.21131
381.459	-4.39031
381.674	-17.03383
381.888	73.59693
382.103	4.03918
382.317	-0.17561
382.531	-31.78348
382.746	14.57659
382.96	-6.49763
383.174	-35.99745
383.388	16.68414
383.603	-2.28298
383.817	60.94819
384.031	39.86879
384.246	-25.46235
384.46	-78.13156
384.674	52.51615
384.888	67.27246
385.103	56.73213
385.317	67.27246
385.531	-0.17561
385.745	-14.92664
385.959	-17.03383
386.174	23.00695
386.388	75.70514
386.602	-99.19478
386.816	18.79172
387.03	18.79172
387.244	71.48875
387.458	-8.60492
387.672	-19.141
387.887	-46.53192
388.101	27.22227
388.315	-0.17561
388.529	6.14661
388.743	-14.92664
388.957	33.54542
389.171	-23.35526
389.385	31.43768
389.599	39.86879
389.813	-12.81942
390.027	-35.99745
390.241	1.93177
390.455	39.86879
390.669	6.14661
390.883	-27.56942
391.097	-25.46235
391.311	14.57659
391.525	27.22227
391.738	23.00695
391.952	-2.28298
392.166	-10.71218
392.38	14.57659
392.594	73.59693
392.808	92.57157
393.022	18.79172
393.236	101.00532
393.449	27.22227
393.663	-8.60492
393.877	60.94819
394.091	-0.17561
394.305	-10.71218
394.518	-14.92664
394.732	-14.92664
394.946	31.43768
395.16	-57.06577
395.373	39.86879
395.587	48.30027
395.801	6.14661
396.015	20.89932
396.228	-19.141
396.442	-12.81942
396.656	14.57659
396.869	18.79172
397.083	18.79172
397.297	39.86879
397.51	27.22227
397.724	-78.13156
397.938	25.11459
398.151	37.76098
398.365	6.14661
398.578	39.86879
398.792	-6.49763
399.005	4.03918
399.219	69.38059
399.433	18.79172
399.646	-14.92664
399.86	-33.89048
400.073	25.11459
400.287	-31.78348
400.5	23.00695
400.714	-69.70555
400.927	31.43768
401.141	8.25407
401.354	-10.71218
401.567	-57.06577
401.781	-6.49763
401.994	-27.56942
402.208	10.36155
402.421	12.46906
402.635	8.25407
402.848	94.67998
403.061	33.54542
403.275	-25.46235
403.488	41.97663
403.701	39.86879
403.915	-44.42508
404.128	14.57659
404.341	-2.28298
404.555	-10.71218
404.768	50.4082
404.981	67.27246
405.195	-14.92664
405.408	6.14661
405.621	35.65319
405.834	1.93177
406.048	6.14661
406.261	16.68414
406.474	-78.13156
406.687	31.43768
406.9	31.43768
407.114	8.25407
407.327	14.57659
407.54	-0.17561
407.753	103.11382
407.966	-0.17561
408.179	25.11459
408.392	8.25407
408.605	-35.99745
408.819	136.85268
409.032	-38.10439
409.245	-4.39031
409.458	-25.46235
409.671	-48.63874
409.884	25.11459
410.097	-25.46235
410.31	14.57659
410.523	44.08449
410.736	6.14661
410.949	50.4082
411.162	48.30027
411.375	-27.56942
411.588	98.89685
411.801	12.46906
412.014	-35.99745
412.227	10.36155
412.44	14.57659
412.653	27.22227
412.865	23.00695
413.078	73.59693
413.291	73.59693
413.504	50.4082
413.717	48.30027
413.93	-19.141
414.143	25.11459
414.356	-6.49763
414.568	-33.89048
414.781	6.14661
414.994	48.30027
415.207	39.86879
415.42	37.76098
415.632	23.00695
415.845	39.86879
416.058	-35.99745
416.271	44.08449
416.483	25.11459
416.696	-35.99745
416.909	-6.49763
417.121	1.93177
417.334	-31.78348
417.547	-10.71218
417.759	29.32996
417.972	69.38059
418.185	16.68414
418.397	-17.03383
418.61	1.93177
418.823	31.43768
419.035	37.76098
419.248	8.25407
419.46	-12.81942
419.673	1.93177
419.885	-10.71218
420.098	69.38059
420.311	1.93177
420.523	14.57659
420.736	35.65319
420.948	1.93177
421.161	-50.74553
421.373	-27.56942
421.586	-19.141
421.798	-25.46235
422.01	1.93177
422.223	-61.27913
422.435	-4.39031
422.648	-6.49763
422.86	48.30027
423.073	4.03918
423.285	56.73213
423.497	-19.141
423.71	14.57659
423.922	10.36155
424.134	1.93177
424.347	33.54542
424.559	14.57659
424.771	23.00695
424.984	-4.39031
425.196	39.86879
425.408	-4.39031
425.621	-10.71218
425.833	33.54542
426.045	52.51615
426.257	-38.10439
426.47	48.30027
426.682	132.63502
426.894	-27.56942
427.106	37.76098
427.318	6.14661
427.531	16.68414
427.743	-2.28298
427.955	-69.70555
428.167	23.00695
428.379	8.25407
428.591	-8.60492
428.804	23.00695
429.016	27.22227
429.228	111.54801
429.44	-19.141
429.652	27.22227
429.864	46.19237
430.076	-38.10439
430.288	52.51615
430.5	69.38059
430.712	35.65319
430.924	27.22227
431.136	-31.78348
431.348	25.11459
431.56	12.46906
431.772	-19.141
431.984	10.36155
432.196	82.02988
432.408	-6.49763
432.62	75.70514
432.832	71.48875
433.044	46.19237
433.256	50.4082
433.468	-33.89048
433.679	-105.51324
433.891	65.16435
434.103	-2.28298
434.315	31.43768
434.527	39.86879
434.739	46.19237
434.95	73.59693
435.162	50.4082
435.374	37.76098
435.586	77.81336
435.798	23.00695
436.009	14.57659
436.221	-8.60492
436.433	-17.03383
436.645	6.14661
436.856	56.73213
437.068	8.25407
437.28	27.22227
437.491	6.14661
437.703	-17.03383
437.915	-19.141
438.126	44.08449
438.338	84.13817
438.55	-19.141
438.761	48.30027
438.973	16.68414
439.184	84.13817
439.396	48.30027
439.608	8.25407
439.819	-10.71218
440.031	46.19237
440.242	90.46319
440.454	35.65319
440.665	-50.74553
440.877	-17.03383
441.088	105.22233
441.3	94.67998
441.511	65.16435
441.723	-8.60492
441.934	23.00695
442.146	-10.71218
442.357	31.43768
442.569	39.86879
442.78	-48.63874
442.991	41.97663
443.203	-52.8523
443.414	10.36155
443.626	31.43768
443.837	60.94819
444.048	-2.28298
444.26	60.94819
444.471	39.86879
444.682	54.62413
444.894	92.57157
445.105	10.36155
445.316	-27.56942
445.528	8.25407
445.739	113.65661
445.95	16.68414
446.161	31.43768
446.373	-23.35526
446.584	-12.81942
446.795	-6.49763
447.006	35.65319
447.217	86.24649
447.429	-0.17561
447.64	63.05626
447.851	58.84015
448.062	56.73213
448.273	101.00532
448.484	-10.71218
448.695	18.79172
448.907	56.73213
449.118	-19.141
449.329	-2.28298
449.54	-57.06577
449.751	35.65319
449.962	-19.141
450.173	58.84015
450.384	56.73213
450.595	23.00695
450.806	16.68414
451.017	6.14661
451.228	31.43768
451.439	65.16435
451.65	-27.56942
451.861	23.00695
452.072	10.36155
452.283	23.00695
452.494	8.25407
452.705	77.81336
452.915	29.32996
453.126	-78.13156
453.337	-0.17561
453.548	98.89685
453.759	6.14661
453.97	109.43943
454.181	54.62413
454.391	65.16435
454.602	14.57659
454.813	84.13817
455.024	8.25407
455.235	82.02988
455.445	6.14661
455.656	90.46319
455.867	73.59693
456.078	65.16435
456.288	39.86879
456.499	92.57157
456.71	73.59693
456.921	-27.56942
457.131	60.94819
457.342	44.08449
457.553	10.36155
457.763	-2.28298
457.974	-0.17561
458.184	6.14661
458.395	25.11459
458.606	82.02988
458.816	-8.60492
459.027	23.00695
459.237	86.24649
459.448	-6.49763
459.659	10.36155
459.869	-25.46235
460.08	-2.28298
460.29	82.02988
460.501	39.86879
460.711	31.43768
460.922	16.68414
461.132	56.73213
461.343	67.27246
461.553	41.97663
461.764	56.73213
461.974	23.00695
462.184	37.76098
462.395	-10.71218
462.605	14.57659
462.816	46.19237
463.026	52.51615
463.236	-6.49763
463.447	29.32996
463.657	23.00695
463.867	50.4082
464.078	79.92161
464.288	41.97663
464.498	75.70514
464.709	56.73213
464.919	31.43768
465.129	44.08449
465.339	56.73213
465.55	86.24649
465.76	35.65319
465.97	52.51615
466.18	56.73213
466.391	48.30027
466.601	-8.60492
466.811	90.46319
467.021	69.38059
467.231	77.81336
467.441	-27.56942
467.651	-40.21131
467.862	52.51615
468.072	-52.8523
468.282	92.57157
468.492	50.4082
468.702	23.00695
468.912	-2.28298
469.122	119.98255
469.332	35.65319
469.542	14.57659
469.752	10.36155
469.962	31.43768
470.172	27.22227
470.382	27.22227
470.592	46.19237
470.802	75.70514
471.012	25.11459
471.222	16.68414
471.432	82.02988
471.642	73.59693
471.852	4.03918
472.062	60.94819
472.272	60.94819
472.482	88.35483
472.691	31.43768
472.901	41.97663
473.111	39.86879
473.321	69.38059
473.531	75.70514
473.741	-8.60492
473.95	56.73213
474.16	33.54542
474.37	138.96154
474.58	-17.03383
474.79	65.16435
474.999	50.4082
475.209	12.46906
475.419	107.33087
475.628	65.16435
475.838	48.30027
476.048	39.86879
476.258	23.00695
476.467	31.43768
476.677	14.57659
476.886	69.38059
477.096	75.70514
477.306	50.4082
477.515	14.57659
477.725	39.86879
477.935	77.81336
478.144	79.92161
478.354	16.68414
478.563	141.07043
478.773	27.22227
478.982	46.19237
479.192	138.96154
479.401	134.74384
479.611	151.61516
479.82	77.81336
480.03	50.4082
480.239	52.51615
480.449	136.85268
480.658	103.11382
480.868	67.27246
481.077	141.07043
481.287	109.43943
481.496	56.73213
481.705	185.36184
481.915	94.67998
482.124	44.08449
482.333	31.43768
482.543	101.00532
482.752	96.7884
482.961	109.43943
483.171	84.13817
483.38	136.85268
483.589	185.36184
483.799	50.4082
484.008	187.47118
484.217	107.33087
484.426	200.12766
484.636	149.50617
484.845	149.50617
485.054	149.50617
485.263	166.37868
485.472	221.22341
485.682	157.94226
485.891	160.05133
486.1	111.54801
486.309	187.47118
486.518	183.25252
486.727	212.78487
486.936	233.8818
487.146	174.81543
487.355	187.47118
487.564	179.03394
487.773	214.89448
487.982	183.25252
488.191	208.56572
488.4	208.56572
488.609	191.68993
488.818	176.92467
489.027	195.90876
489.236	259.20069
489.445	276.08147
489.654	168.48784
489.863	212.78487
490.072	252.87071
490.281	160.05133
490.49	322.50973
490.698	286.63257
490.907	231.77202
491.116	244.431
491.325	295.07378
491.534	292.96345
491.743	288.74285
491.952	305.62571
492.16	309.84661
492.369	362.61382
492.578	254.98069
492.787	303.51529
492.996	305.62571
493.204	330.95217
493.413	322.50973
493.622	333.06283
493.831	299.2945
494.039	311.95708
494.248	345.72712
494.457	466.06793
494.665	352.0595
494.874	360.50292
495.083	318.28862
495.291	371.05758
495.5	373.16856
495.709	442.8402
495.917	394.2793
496.126	409.05781
496.335	425.9485
496.543	379.50161
496.752	371.05758
496.96	406.94654
497.169	436.5057
497.377	466.06793
497.586	411.16909
497.794	478.73838
498.003	385.8348
498.211	546.32299
498.42	512.52884
498.628	558.99671
498.837	413.28038
499.045	597.02077
499.254	520.97704
499.462	535.76193
499.671	556.88439
499.879	548.43524
500.087	565.33375
500.296	571.67092
500.504	584.34561
500.713	556.88439
500.921	531.53761
501.129	607.58375
501.338	567.44613
501.546	649.83884
501.754	573.78333
501.962	626.59793
502.171	700.55124
502.379	649.83884
502.587	592.79566
502.795	651.95172
503.004	664.62926
503.212	639.27461
503.42	643.50026
503.628	719.57007
503.837	552.65979
504.045	728.02317
504.253	709.00395
504.461	766.06419
504.669	810.44948
504.877	861.18054
505.085	725.90988
505.294	869.63621
505.502	799.88117
505.71	852.72501
505.918	928.82952
506.126	871.75015
506.334	850.61115
506.542	943.62879
506.75	797.76753
506.958	861.18054
507.166	833.70058
507.374	911.91652
507.582	850.61115
507.79	943.62879
507.998	840.04198
508.206	973.22839
508.414	875.97805
508.622	1083.18066
508.83	861.18054
509.037	985.91434
509.245	935.17202
509.453	992.2574
509.661	914.03062
509.869	928.82952
510.077	875.97805
510.285	1059.92022
510.492	1043.00395
510.7	926.71537
510.908	1078.95145
511.116	983.8
511.324	992.2574
511.531	1231.21446
511.739	1028.20252
511.947	1138.16228
512.155	1106.44172
512.362	1197.3765
512.57	1087.4099
512.778	1074.72225
512.985	1070.49307
513.193	1087.4099
513.401	1224.86978
513.608	1186.80231
513.816	1182.57266
514.024	1133.93281
514.231	1279.85784
514.439	1324.27245
514.646	1275.62793
514.854	1246.01882
515.061	1284.08777
515.269	1216.41025
515.477	1112.78575
515.684	1396.18328
515.892	1121.24452
516.099	1375.0329
516.307	1256.59344
516.514	1508.28089
516.722	1311.58247
516.929	1552.69659
517.136	1332.73246
517.344	1476.55518
517.551	1301.00754
517.759	1529.43128
517.966	1472.32508
518.173	1499.82071
518.381	1408.87355
518.588	1459.63477
518.796	1662.67537
519.003	1594.99673
519.21	1559.04165
519.418	1658.44552
519.625	1451.17456
519.832	1700.74347
520.039	1580.19175
520.247	1652.10074
520.454	1480.78528
520.661	1869.92089
520.868	1468.09497
521.076	1823.3998
521.283	1681.70954
521.49	1715.54747
521.697	1677.47974
521.904	1755.72892
522.112	1713.43262
522.319	1962.95549
522.526	1857.23355
522.733	1886.83705
522.94	1895.29501
523.147	1717.66231
523.354	1645.75593
523.561	2026.38155
523.768	1891.06604
523.975	1958.72688
524.183	1946.04092
524.39	1977.75541
524.597	1935.46913
524.804	1952.38393
525.011	1977.75541
525.218	2043.29417
525.425	1992.55503
525.632	2129.96413
525.838	1943.92658
526.045	1994.66924
526.252	1907.98179
526.459	2089.80154
526.666	2104.5986
526.873	2235.64127
527.08	1958.72688
527.287	2189.14591
527.494	2009.4685
527.701	2383.5515
527.907	2271.56659
528.114	2265.22702
528.321	2087.68765
528.528	2214.50754
528.735	2176.46464
528.941	2248.32109
529.148	2197.59992
529.355	2590.54002
529.562	2187.03238
529.768	2575.75877
529.975	2229.30125
530.182	2381.43884
530.388	2265.22702
530.595	2457.4882
530.802	2261.00059
531.008	2617.98935
531.215	2508.17997
531.422	2516.62797
531.628	2541.97086
531.835	2558.86519
532.042	2451.15128
532.248	2683.43699
532.455	2457.4882
532.661	2636.99152
532.868	2381.43884
533.074	2685.548
533.281	2531.41152
533.487	2653.88149
533.694	2579.98204
533.9	2803.74369
534.107	2601.0977
534.313	2807.96419
534.52	2575.75877
534.726	2719.32243
534.933	2795.30254
535.139	2902.91048
535.345	2883.92352
535.552	2945.0995
535.758	2995.7185
535.965	3181.24541
536.171	2947.2088
536.377	2968.30095
536.584	3025.24224
536.79	3082.17235
536.996	2738.31908
537.203	3010.48075
537.409	3040.00299
537.615	3025.24224
537.821	2881.81379
538.028	3109.57908
538.234	3054.76297
538.44	3153.84578
538.646	3014.69839
538.853	3103.25469
539.059	3002.04527
539.265	3231.82206
539.471	3206.53492
539.677	3259.21374
539.883	3160.16902
540.09	3229.71489
540.296	3212.85693
540.502	3448.76892
540.708	3221.28604
540.914	3332.94635
541.12	3288.70929
541.326	3615.03689
541.532	3278.17555
541.738	3419.29188
541.944	3421.3975
542.15	3545.59714
542.356	3612.93296
542.562	3570.85031
542.768	3537.17883
542.974	3505.60755
543.18	3503.50265
543.386	3648.69731
543.592	3549.80619
543.798	3722.31249
544.004	3591.89257
544.21	3896.79037
544.415	3551.91068
544.621	3850.55647
544.827	3772.77783
545.033	3926.20689
545.239	3716.00354
545.445	3795.90402
545.651	3865.26831
545.856	3848.4547
546.062	3776.98277
546.268	3831.63983
546.474	3703.38511
546.679	3751.75196
546.885	3766.47027
547.091	3858.96336
547.297	3716.00354
547.502	3873.67463
547.708	4020.73308
547.914	3932.50991
548.119	3844.25111
548.325	4020.73308
548.531	3869.47151
548.736	4096.32409
548.942	4018.63294
549.147	3856.86167
549.353	4203.36507
549.559	4209.65989
549.764	3867.36992
549.97	4266.30465
550.175	4029.1334
550.381	4253.71827
550.586	4041.73327
550.792	4268.4023
550.997	4138.30746
551.203	4570.23805
551.408	4226.44514
551.614	4295.66987
551.819	4260.01155
552.025	4469.67659
552.23	4169.78948
552.435	4605.84131
552.641	4348.09728
552.846	4410.99229
553.052	4295.66987
553.257	4639.34436
553.462	4385.83664
553.668	4739.81904
553.873	4499.01227
554.078	4817.23273
554.283	4553.48135
554.489	4756.55976
554.694	4645.62555
554.899	4679.12179
555.105	4553.48135
555.31	4557.67066
555.515	4706.33325
555.72	4948.97341
555.925	4373.25763
556.131	4798.40523
556.336	4641.43811
556.541	4838.15
556.746	4739.81904
556.951	4706.33325
557.156	4549.29195
557.361	4873.70414
557.567	4842.33318
557.772	4917.61482
557.977	4679.12179
558.182	4831.87506
558.387	4948.97341
558.592	4988.68685
558.797	4695.86775
559.002	5015.85442
559.207	4737.72635
559.412	5078.53389
559.617	4863.24772
559.822	5182.95331
560.027	4917.61482
560.232	5055.55384
560.437	4838.15
560.642	5091.06729
560.847	4982.41686
561.051	5015.85442
561.256	5076.44491
561.461	5197.56738
561.666	5065.99966
561.871	5182.95331
562.076	4955.2445
562.281	5339.47315
562.485	5199.65501
562.69	5235.14119
562.895	5341.55919
563.1	5366.58987
563.305	5189.21662
563.509	5408.30015
563.714	5214.26779
563.919	5377.01832
564.123	5341.55919
564.328	5414.55589
564.533	5233.05396
564.737	5383.27511
564.942	5258.09924
565.147	5656.28179
565.351	5410.38542
565.556	5483.35498
565.761	5377.01832
565.965	5424.98164
566.17	5399.95885
566.374	5522.95496
566.579	5485.43941
566.784	5635.45584
566.988	5533.3746
567.193	5758.29484
567.397	5314.43882
567.602	5787.43101
567.806	5533.3746
568.011	5806.15897
568.215	5558.37932
568.42	5760.37615
568.624	5508.36649
568.828	5606.29555
569.033	5566.71347
569.237	5947.59731
569.442	5727.07237
569.646	5727.07237
569.85	5631.29037
570.055	5714.5819
570.259	5872.73178
570.463	5903.92947
570.668	5739.562
570.872	5720.82724
571.076	5839.4484
571.281	6155.3969
571.485	5991.25476
571.689	5924.72497
571.893	5951.75561
572.098	6097.23673
572.302	6074.38305
572.506	5997.49069
572.71	5637.53854
572.914	6292.41592
573.119	5928.88379
573.323	5974.62457
573.527	5922.64553
573.731	6059.83832
573.935	6165.78071
574.139	5982.93985
574.343	5743.72501
574.547	6051.52653
574.751	5980.86107
574.955	6140.85859
575.159	6321.46745
575.364	6346.36511
575.568	6138.78159
575.772	6315.24251
575.976	6358.81268
576.18	6371.25942
576.383	6356.73815
576.587	6292.41592
576.791	6167.8574
576.995	6421.03795
577.199	6335.9915
577.403	6265.4354
577.607	6470.80307
577.811	6489.46155
578.015	6319.39249
578.219	6375.40814
578.422	6309.01736
578.626	6545.42569
578.83	6593.08554
579.034	6649.01847
579.238	6365.03616
579.442	6605.51653
579.645	6520.55482
579.849	6698.72255
580.053	6793.95177
580.257	6748.4134
580.46	6634.51896
580.664	6796.02143
580.868	6630.37603
581.071	6721.49916
581.275	6773.25388
581.479	6719.42868
581.682	6731.85125
581.886	6793.95177
582.09	6719.42868
582.293	7021.47855
582.497	6665.58797
582.7	6889.13269
582.904	6878.78927
583.107	7013.20964
583.311	6624.16147
583.515	6876.72052
583.718	6853.96274
583.922	7141.33748
584.125	6729.78088
584.329	7017.34414
584.532	6926.36432
584.735	6951.18133
584.939	6942.90935
585.142	7000.8056
585.346	6880.858
585.549	7060.75098
585.753	7104.14793
585.956	7217.76005
586.159	7139.27159
586.363	7351.94272
586.566	7137.20567
586.769	7277.63764
586.973	7211.56476
587.176	7391.14786
587.379	7180.5853
587.582	7242.53924
587.786	7230.15004
587.989	7467.47218
588.192	7234.27986
588.395	7277.63764
588.599	7197.1083
588.802	7764.2386
589.005	7292.08808
589.208	7529.33503
589.411	7413.84198
589.615	7339.56051
589.818	7595.30076
590.021	7459.22233
590.224	7391.14786
590.427	7638.57889
590.63	7347.81541
590.833	7438.5962
591.036	7430.34514
591.239	7677.72723
591.442	7479.8463
591.645	7694.20845
591.848	7514.9021
592.051	7702.44855
592.254	7587.05624
592.457	7770.41657
592.66	7679.78745
592.863	7677.72723
593.066	7611.78878
593.269	7826.0098
593.472	7438.5962
593.675	7836.30317
593.878	7718.92775
594.081	7733.34594
594.284	7772.47585
594.486	8288.7067
594.689	7692.14837
594.892	7941.26605
595.095	7959.78336
595.298	7984.47052
595.5	8087.30215
595.703	7974.18456
595.906	8169.53117
596.109	8109.91833
596.311	7803.36254
596.514	7963.89809
596.717	8079.07748
596.92	8157.19885
597.122	7848.65454
597.325	8144.86582
597.528	7751.8821
597.73	8471.45161
597.933	8081.13368
598.136	8331.84014
598.338	8171.58648
598.541	8163.3651
598.743	8257.89181
598.946	8340.05505
599.148	8270.21829
599.351	8524.80903
599.554	8212.68861
599.756	8214.74351
599.959	8567.89605
600.161	8266.10954
600.363	8664.29889
600.566	8434.50431
600.768	8502.23631
600.971	8520.70507
601.173	8311.30148
601.376	8574.05066
601.578	8165.42047
601.78	8567.89605
601.983	8270.21829
602.185	8680.70379
602.388	8463.24164
602.59	8938.92672
602.792	8598.6674
602.995	8846.73721
603.197	8707.35922
603.399	8748.36151
603.601	8623.28145
603.804	8598.6674
604.006	8619.1793
604.208	8787.30689
604.41	8576.10216
604.613	8838.54083
604.815	8440.66262
605.017	8750.41143
605.219	8705.30892
605.421	8885.66609
605.623	8656.096
605.826	8963.50451
606.028	8578.15364
606.23	8844.68814
606.432	8549.4312
606.634	9069.97898
606.836	8584.30796
607.038	8897.95807
607.24	9008.55718
607.442	8848.78626
607.644	8666.34957
607.846	8891.81216
608.048	8883.61736
608.25	8881.56861
608.452	8871.32462
608.654	9196.86813
608.856	8754.51122
609.058	9223.46561
609.26	8748.36151
609.462	8791.40603
609.664	9061.79031
609.866	9180.49903
610.067	9082.26147
610.269	9088.40247
610.471	8953.26407
610.673	9313.46678
610.875	9061.79031
611.077	9245.96894
611.278	9006.50951
611.48	9221.41975
611.682	8922.54012
611.884	9393.2137
612.085	9061.79031
612.287	9235.7404
612.489	8834.44253
612.69	9335.96204
612.892	9205.05227
613.094	9252.10586
613.295	9041.31742
613.497	9354.36576
613.699	9121.15189
613.9	9297.10533
614.102	9184.5914
614.304	9270.51571
614.505	8983.98405
614.707	9344.14164
614.908	9094.54333
615.11	9342.09676
615.311	8897.95807
615.513	9155.94334
615.714	9219.37387
615.916	9452.49657
616.117	9315.51189
616.319	9141.61805
616.52	9160.03612
616.722	9425.92317
616.923	9299.15057
617.124	9434.09989
617.326	9135.47838
617.527	9499.50435
617.729	9466.80418
617.93	9387.08021
618.131	9274.60661
618.333	9335.96204
618.534	9254.15147
618.735	9807.91429
618.937	9470.89193
619.138	9783.4177
619.339	9346.18649
619.54	9711.95686
619.742	9434.09989
619.943	9391.16922
620.144	9213.23615
620.345	9736.45982
620.546	9438.18816
620.748	9811.99684
620.949	9360.50004
621.15	9626.17908
621.351	9184.5914
621.552	9599.62327
621.753	9176.40658
621.954	9683.3673
622.155	9609.83736
622.356	9564.89244
622.558	9511.76586
622.759	9814.0381
622.96	9370.72351
623.161	9564.89244
623.362	9485.19853
623.563	9550.59018
623.764	9468.84806
623.965	9791.58347
624.166	9836.49091
624.366	9777.29321
624.567	9456.58454
624.768	9509.72232
624.969	9499.50435
625.17	9613.92288
625.371	9640.47728
625.572	9879.35038
625.773	9624.13642
625.973	9738.50163
626.174	9777.29321
626.375	9930.36507
626.576	9779.33472
626.777	9981.37063
626.977	9536.28715
627.178	9967.08998
627.379	9650.68981
627.58	9671.1137
627.78	9926.28423
627.981	9924.24379
628.182	9840.57305
628.382	9891.59474
628.583	9763.00221
628.784	9942.60723
628.984	9638.43473
629.185	9875.26881
629.386	9646.60484
629.586	9838.53199
629.787	9750.7522
629.987	10103.74735
630.188	9805.87299
630.388	9867.10548
630.589	9758.91894
630.79	9865.06462
630.99	9822.20297
631.191	9805.87299
631.391	9675.19829
631.591	9840.57305
631.792	9732.37615
631.992	10183.26504
632.193	9720.12476
632.393	10022.16857
632.594	9981.37063
632.794	9738.50163
632.994	9814.0381
633.195	10060.92132
633.395	10050.72373
633.595	10052.76327
633.796	9967.08998
633.996	10348.35065
634.196	10193.45809
634.397	10272.95216
634.597	10164.91668
634.797	10228.1119
634.997	10179.18772
635.198	10217.92001
635.398	10036.4465
635.598	10234.22687
635.798	10087.43341
635.998	10164.91668
636.199	10187.3423
636.399	10442.06408
636.599	10162.8779
636.799	10456.3224
636.999	9938.52657
637.199	10293.33194
637.399	10162.8779
637.599	10171.03292
637.799	9914.04136
637.999	10391.1363
638.199	10354.46324
638.399	10562.22178
638.599	10193.45809
638.799	10604.97917
638.999	10433.91618
639.199	10780.02451
639.399	10348.35065
639.599	10401.32251
639.799	10348.35065
639.999	10576.47485
640.199	10499.0936
640.399	10462.43292
640.599	9901.79797
640.799	10372.8003
640.998	10407.43407
641.198	10592.76333
641.398	10226.07355
641.598	10596.83533
641.798	10380.94977
641.997	10407.43407
642.197	10668.08725
642.397	10511.3129
642.597	10666.05169
642.796	10476.69034
642.996	10832.92778
643.196	10611.08692
643.395	10643.65972
643.595	10869.5485
643.795	10777.98961
643.994	11140.02171
644.194	10828.85858
644.394	10816.65069
644.593	10615.15869
644.793	10891.92599
644.992	10623.30209
645.192	10924.4726
645.392	10747.46468
645.591	11018.02798
645.791	10653.83807
645.99	10633.48106
646.19	10397.24806
646.389	10871.58288
646.589	10784.09427
646.788	10804.44239
646.987	10527.6046
647.187	10796.30328
647.386	10629.40951
647.586	11064.79687
647.785	10820.72004
647.984	11133.92295
648.184	11087.16256
648.383	10792.23366
648.582	10877.68593
648.782	11113.59304
648.981	10910.23382
649.18	11190.84103
649.38	11060.73024
649.579	11255.88021
649.778	11170.5141
649.977	11140.02171
650.177	10714.9018
650.376	11007.86006
650.575	10745.42959
650.774	11268.07387
650.973	10928.54072
651.173	11180.6777
651.372	11349.35563
651.571	11174.57957
651.77	11007.86006
651.969	11320.90885
652.168	11150.18611
652.367	11266.04162
652.566	11375.76874
652.765	11335.13249
652.964	11245.71854
653.163	11217.26448
653.362	11079.02973
653.561	11196.93891
653.76	11186.77573
653.959	10969.21943
654.158	11026.16212
654.357	11048.53009
654.556	10898.0287
654.755	11361.54651
654.954	11097.32834
655.153	11432.65286
655.352	11526.08887
655.551	11428.58997
655.749	11280.26717
655.948	11282.29935
656.147	11515.93376
656.346	11292.4601
656.545	11302.6206
656.743	11428.58997
656.942	11170.5141
657.141	11353.4193
657.34	11359.51472
657.538	11335.13249
657.737	11290.42797
657.936	11666.20572
658.135	11038.363
658.333	11241.65379
658.532	11253.84789
658.731	11207.10182
658.929	11367.64181
659.128	11556.5528
659.326	11519.99584
659.525	11552.49106
659.724	11465.15465
659.922	11727.11263
660.121	11524.05787
660.319	11255.88021
660.518	11481.40461
660.716	11517.9648
660.915	11290.42797
661.113	11426.5585
661.312	11270.10612
661.51	11286.36368
661.709	11412.33799
661.907	11515.93376
662.105	11526.08887
662.304	11589.04534
662.502	11276.20278
662.701	11392.02214
662.899	11322.94083
663.097	11682.44834
663.296	11609.35198
663.494	11580.92243
663.692	11609.35198
663.891	12063.99257
664.089	11731.1728
664.287	11716.96203
664.485	11568.73778
664.684	11763.65296
664.882	11678.38774
665.08	11617.47438
665.278	11706.81121
665.476	11651.99295
665.675	11454.9981
665.873	11562.64533
666.071	11408.2749
666.269	11666.20572
666.467	11442.80994
666.665	11487.49819
666.863	11284.33152
667.061	11698.6904
667.259	11469.21719
667.457	11660.11458
667.655	11601.22943
667.853	11587.01463
668.051	11318.87687
668.249	11593.10674
668.447	11278.23498
668.645	11682.44834
668.843	11524.05787
669.041	11777.86234
669.239	11211.16692
669.437	11796.13091
669.635	11627.62717
669.833	11771.77266
670.031	11718.99216
670.229	11796.13091
670.426	11926.02099
670.624	11796.13091
670.822	11609.35198
671.02	11763.65296
671.218	11907.75725
671.415	11798.1607
671.613	12009.21413
671.811	11915.87455
672.009	11576.86092
672.206	11938.19644
672.404	11556.5528
672.602	11654.02337
672.799	11422.49555
672.997	11798.1607
673.195	11779.89221
673.392	11743.35313
673.59	11320.90885
673.788	11633.71874
673.985	11568.73778
674.183	11763.65296
674.38	11714.93188
674.578	11647.93207
674.775	11489.52937
674.973	11747.41316
675.17	11452.96677
675.368	11769.74275
675.565	11763.65296
675.763	11763.65296
675.96	11706.81121
676.158	11700.72061
676.355	11509.84058
676.553	11999.06935
676.75	11968.6338
676.947	11958.48821
677.145	11247.75089
677.342	11834.69561
677.539	11692.59969
677.737	11859.0507
677.934	11716.96203
678.131	11540.30564
678.329	11544.36748
678.526	11446.8727
678.723	11684.47863
678.92	11909.78659
679.118	11779.89221
679.315	11763.65296
679.512	11487.49819
679.709	11489.52937
679.906	11377.80045
680.104	11229.45932
680.301	11241.65379
680.498	11377.80045
680.695	11621.53552
680.892	11714.93188
681.089	11422.49555
681.286	11446.8727
681.483	11418.43255
681.68	11566.70697
681.877	11649.96251
682.075	11718.99216
682.272	11302.6206
682.469	11759.59307
682.665	11446.8727
682.862	11264.00936
683.059	11182.71038
683.256	11469.21719
683.453	11582.95317
683.65	11706.81121
683.847	11779.89221
684.044	11804.25005
684.241	11463.12336
684.438	11850.93247
684.635	11607.32136
684.831	11767.71283
685.028	11832.66597
685.225	11578.89168
685.422	11483.43581
685.619	11601.22943
685.815	11501.71621
686.012	11580.92243
686.209	11245.71854
686.405	11479.3734
686.602	11753.50315
686.799	11412.33799
686.996	11562.64533
687.192	11743.35313
687.389	11349.35563
687.586	11564.67616
687.782	11463.12336
687.979	11909.78659
688.175	11241.65379
688.372	11857.02115
688.568	11337.1644
688.765	11587.01463
688.962	11274.17057
689.158	11367.64181
689.355	11556.5528
689.551	11637.77974
689.748	11452.96677
689.944	11593.10674
690.14	11493.59169
690.337	11587.01463
690.533	11398.11699
690.73	11357.48292
690.926	11582.95317
691.123	11446.8727
691.319	11664.17535
691.515	11304.65267
691.712	11394.05377
691.908	11396.08539
692.104	11286.36368
692.301	11331.06864
692.497	11044.46328
692.693	11432.65286
692.889	11278.23498
693.086	11345.29193
693.282	11398.11699
693.478	11381.86384
693.674	11503.74732
693.87	11501.71621
694.067	11485.46701
694.263	11530.15085
694.459	11528.11987
694.655	11682.44834
694.851	11398.11699
695.047	11477.34218
695.243	11402.18019
695.439	11300.58852
695.635	11060.73024
695.831	11398.11699
696.027	11044.46328
696.224	11107.49386
696.42	11089.19573
696.615	11365.61005
696.811	11259.9448
697.007	11335.13249
697.203	11282.29935
697.399	11060.73024
697.595	11209.13438
697.791	11172.54684
697.987	11107.49386
698.183	11680.41804
698.379	11475.31095
698.575	11479.3734
698.77	10961.08405
698.966	11123.75813
699.162	11231.49176
699.358	11184.74306
699.554	11105.46078
699.749	11438.74714
699.945	11438.74714
700.141	11503.74732
700.337	11446.8727
700.532	11148.15325
700.728	10938.71082
700.924	11341.22818
701.119	11054.63021
701.315	11123.75813
701.511	11050.56348
701.706	11369.67356
701.902	11213.19945
702.097	11544.36748
702.293	11036.32954
702.489	11268.07387
702.684	11030.22912
702.88	11205.06926
703.075	10881.75458
703.271	11127.82409
703.466	11026.16212
703.662	11333.10057
703.857	10904.13131
704.053	11292.4601
704.248	10987.52339
704.443	11578.89168
704.639	10979.38841
704.834	11343.26006
705.03	11180.6777
705.225	11353.4193
705.42	11018.02798
705.616	11310.74881
705.811	10893.96024
706.006	11044.46328
706.202	11117.65911
706.397	11329.03671
706.592	10912.26796
706.787	11235.55661
706.983	11048.53009
707.178	11394.05377
707.373	10918.37033
707.568	11300.58852
707.763	11020.06153
707.959	11450.93542
708.154	11205.06926
708.349	11113.59304
708.544	11170.5141
708.739	11211.16692
708.934	11349.35563
709.129	11420.46406
709.324	11028.19563
709.519	11121.72513
709.714	11091.2289
709.909	11408.2749
710.104	11225.39442
710.299	11042.42987
710.494	11150.18611
710.689	11178.645
710.884	11018.02798
711.079	11408.2749
711.274	10836.99694
711.469	11276.20278
711.664	11036.32954
711.859	11310.74881
712.054	10916.33622
712.249	11011.92726
712.443	10887.85746
712.638	11074.96325
712.833	10690.47762
713.028	11054.63021
713.223	11064.79687
713.417	11024.1286
713.612	10900.06292
713.807	11237.58901
714.002	10944.81274
714.196	10977.35464
714.391	10659.94494
714.586	10916.33622
714.78	10600.90727
714.975	11081.06295
715.17	10895.99448
715.364	11174.57957
715.559	11239.62141
715.754	11083.09617
715.948	10849.20412
716.143	11046.49669
716.337	10881.75458
716.532	11170.5141
716.726	10969.21943
716.921	11009.89367
717.115	10753.56988
717.31	10881.75458
717.504	10584.61919
717.699	11042.42987
717.893	10716.93707
718.088	11121.72513
718.282	10952.94849
718.476	10631.44529
718.671	10627.37371
718.865	10954.9824
719.059	10607.0151
719.254	10849.20412
719.448	10600.90727
719.642	10682.33584
719.837	10399.28529
720.031	10686.40675
720.225	10374.83769
720.419	10814.61601
720.614	10849.20412
720.808	11298.55643
721.002	10796.30328
721.196	10861.41089
721.39	10657.90933
721.585	10761.70998
721.779	10621.26626
721.973	10843.10058
722.167	10523.53175
722.361	10641.62401
722.555	10747.46468
722.749	10572.40261
722.943	10584.61919
723.137	10602.94323
723.331	10637.55256
723.525	10786.12914
723.719	10389.09902
723.913	10682.33584
724.107	10427.80512
724.301	10277.02822
724.495	10305.55916
724.689	10456.3224
724.883	10366.68807
725.077	10621.26626
725.271	10666.05169
725.465	10635.51681
725.659	10529.64101
725.853	10452.24866
726.046	10325.93679
726.24	10454.28554
726.434	10168.99419
726.628	10472.61686
726.822	10592.76333
727.015	10731.18362
727.209	10346.31309
727.403	10633.48106
727.596	10686.40675
727.79	10649.76677
727.984	10289.25609
728.177	10633.48106
728.371	10586.65524
728.565	10219.95842
728.758	10505.20331
728.952	10741.35937
729.146	10389.09902
729.339	10851.23861
729.533	10582.58312
729.726	10482.80047
729.92	10407.43407
730.113	10592.76333
730.307	10745.42959
730.5	10672.15834
730.694	10234.22687
730.887	10550.00436
731.081	10509.27638
731.274	10617.19456
731.468	10171.03292
731.661	10360.57571
731.854	10395.21082
732.048	10562.22178
732.241	10299.44561
732.435	10649.76677
732.628	10706.7606
732.821	10562.22178
733.014	10727.11324
733.208	10617.19456
733.401	10387.06173
733.594	10584.61919
733.788	10327.97448
733.981	10682.33584
734.174	10521.49531
734.367	10435.95317
734.56	10731.18362
734.754	10456.3224
734.947	10429.84215
735.14	10387.06173
735.333	10468.54332
735.526	10332.04982
735.719	10140.45045
735.912	10543.89549
736.105	10277.02822
736.298	10299.44561
736.491	10364.65063
736.684	10205.6893
736.877	10307.59698
737.07	10260.72365
737.263	10228.1119
737.456	10395.21082
737.649	10293.33194
737.842	10509.27638
738.035	10407.43407
738.228	10421.69394
738.421	10429.84215
738.614	10590.72731
738.807	10505.20331
739	10270.91411
739.192	10283.14222
739.385	10358.53823
739.578	10413.54552
739.771	10356.50074
739.964	10340.20034
740.156	10617.19456
740.349	10372.8003
740.542	10594.79933
740.735	10069.07914
740.927	10262.76177
741.12	9993.61061
741.313	10097.62973
741.505	9983.41066
741.698	10244.41821
741.891	10283.14222
742.083	10366.68807
742.276	10183.26504
742.468	10503.16675
742.661	10340.20034
742.854	10464.46973
743.046	10277.02822
743.239	10297.40773
743.431	10152.68381
743.624	10124.13852
743.816	10246.45643
744.009	10323.89909
744.201	10219.95842
744.393	10150.64496
744.586	10327.97448
744.778	10254.60921
744.971	10344.27552
745.163	9948.72811
745.355	10083.35478
745.548	9877.3096
745.74	10044.605
745.932	10224.03518
746.125	10219.95842
746.317	10250.53285
746.509	10415.58265
746.702	10437.99015
746.894	10456.3224
747.086	10448.17486
747.278	10148.60608
747.471	10181.22639
747.663	10071.11856
747.855	10081.31545
748.047	10166.95544
748.239	10309.63479
748.431	9832.40872
748.623	10189.38091
748.815	10030.32747
749.008	10356.50074
749.2	10274.9902
749.392	10177.14904
749.584	9975.25044
749.776	10113.94311
749.968	10313.71037
750.16	10115.98222
750.352	9985.45068
750.544	10071.11856
750.736	10154.72266
750.928	10152.68381
751.12	10016.04925
751.311	10087.43341
751.503	9952.80863
751.695	9960.96949
751.887	9867.10548
752.079	9963.00967
752.271	9787.50061
752.463	9805.87299
752.654	9736.45982
752.846	9854.86006
753.038	9752.7939
753.23	9683.3673
753.421	9769.12702
753.613	9722.1667
753.805	9971.17024
753.997	9969.13012
754.188	9918.12238
754.38	9883.43189
754.572	9830.3676
754.763	9958.9293
754.955	10003.81021
755.146	10071.11856
755.338	9893.63542
755.53	10024.20832
755.721	9850.77813
755.913	9760.96058
756.104	9769.12702
756.296	10103.74735
756.487	9850.77813
756.679	10120.0604
756.87	9703.78872
757.062	9820.16177
757.253	9809.95557
757.445	9662.94433
757.636	9718.08281
757.827	9883.43189
758.019	9807.91429
758.21	9456.58454
758.401	9650.68981
758.593	9901.79797
758.784	9511.76586
758.975	9679.28283
759.167	9215.28207
759.358	9237.78615
759.549	9577.1509
759.74	9474.97961
759.932	9284.83355
760.123	9789.54205
760.314	9591.45172
760.505	9568.97865
760.696	9483.15478
760.888	9669.07138
761.079	9342.09676
761.27	9568.97865
761.461	9147.75756
761.652	9442.27635
761.843	9266.42475
762.034	9280.74282
762.225	9168.22149
762.416	9295.06008
762.607	9209.14424
762.798	9352.32097
762.989	9250.06024
763.18	9182.54522
763.371	9106.82456
763.562	9139.57151
763.753	9182.54522
763.944	9137.52495
764.135	9215.28207
764.326	9327.78218
764.517	9256.19706
764.708	9436.14403
764.899	9223.46561
765.089	9362.54477
765.28	8947.1196
765.471	9344.14164
765.662	9026.98537
765.853	9012.65245
766.043	9061.79031
766.234	9239.83187
766.425	9061.79031
766.615	8943.0232
766.806	8938.92672
766.997	9039.27004
767.187	8826.24571
767.378	9000.36642
767.569	8805.75241
767.759	8953.26407
767.95	8834.44253
768.141	8734.01154
768.331	8844.68814
768.522	8746.31157
768.712	8656.096
768.903	8840.58995
769.093	8740.16164
769.284	8561.74127
769.474	8961.45645
769.665	8887.7148
769.855	8811.90059
770.046	8660.19748
770.236	8633.53651
770.426	8666.34957
770.617	8861.08018
770.807	8822.1472
770.998	8475.55649
771.188	8606.87239
771.378	8623.28145
771.569	8514.54899
771.759	8637.6384
771.949	8537.12046
772.139	8709.40951
772.33	8477.6089
772.52	8717.61048
772.71	8668.40023
772.9	8551.48293
773.09	8725.81116
773.281	8500.18413
773.471	8416.02832
773.661	8697.1075
773.851	8615.07707
774.041	8664.29889
774.231	8631.48554
774.421	8387.2848
774.611	8403.71013
774.802	8321.57105
774.992	8089.35827
775.182	8179.80754
775.372	8413.97534
775.562	8288.7067
775.752	8401.65703
775.942	8225.01771
776.131	8549.4312
776.321	7887.76228
776.511	8268.16393
776.701	8155.1434
776.891	8157.19885
777.081	8136.6434
777.271	8231.18198
777.461	8315.40937
777.651	8134.58775
777.84	8058.5144
778.03	8241.45539
778.22	8243.51001
778.41	8274.32697
778.599	8208.57876
778.789	8370.85822
778.979	8167.47583
779.169	8118.14179
779.358	8165.42047
779.548	8155.1434
779.738	7945.38115
779.927	8111.97422
780.117	8344.1624
780.307	8046.17558
780.496	7945.38115
780.686	7883.64602
780.875	7737.46524
781.065	7758.06045
781.254	7797.18558
781.444	7731.28626
781.633	7751.8821
781.823	8122.2534
782.012	7793.0675
782.202	7846.59603
782.391	7828.06852
782.581	7723.04734
782.77	7848.65454
782.96	7867.18019
783.149	7523.14961
783.338	7949.49617
783.528	7471.59697
783.717	7887.76228
783.906	7817.77472
784.096	7710.68832
784.285	7622.09309
784.474	7809.53931
784.663	7743.64402
784.853	7745.70357
785.042	7727.16684
785.231	7821.8923
785.42	7580.87263
785.61	7351.94272
785.799	7562.32063
785.988	7529.33503
786.177	7302.40916
786.366	7310.66563
786.555	7308.60155
786.744	7380.83148
786.933	7285.89517
787.122	7584.99506
787.312	7207.43445
787.501	7428.28232
787.69	7364.32414
787.879	7570.56618
788.068	7434.47071
788.257	7450.97214
788.445	7308.60155
788.634	7933.03561
788.823	7640.63952
789.012	7622.09309
789.201	7422.09373
789.39	7290.0238
789.579	7283.83082
789.768	7285.89517
789.957	7331.30527
790.145	7223.95514
790.334	7492.21964
790.523	7448.90953
790.712	7387.02137
790.9	7422.09373
791.089	7405.58988
791.278	7424.15662
791.467	7323.04968
791.655	7413.84198
791.844	7166.12651
792.033	7323.04968
792.221	7122.74361
792.41	7395.27426
792.599	6876.72052
792.787	7116.54525
792.976	7011.14236
793.164	6934.63702
793.353	6930.50071
793.541	7203.30405
793.73	7104.14793
793.918	7108.28046
794.107	6918.09126
794.295	7058.68421
794.484	6847.7556
794.672	7046.28313
794.861	6789.81237
795.049	6911.88622
795.238	6957.38507
795.426	7040.08229
795.614	6690.43946
795.803	6975.99509
795.991	6936.70514
796.179	6953.24927
796.368	7069.01782
796.556	6951.18133
796.744	7004.94037
796.932	7058.68421
797.121	6806.3694
797.309	6688.36863
797.497	6680.08507
797.685	6584.79775
797.874	6744.273
798.062	6851.89371
798.25	6702.86396
798.438	6785.67289
798.626	6495.68062
798.814	6574.43749
799.002	6591.01363
799.19	6868.44528
799.378	6868.44528
799.566	6777.39364
799.755	6620.01831
799.943	6630.37603
800.131	6557.85987
800.318	6938.77323
800.506	6549.57051
800.694	6452.14272
800.882	6731.85125
801.07	6876.72052
801.258	6704.93463
801.446	6738.06223
801.634	6367.1106
801.822	6392.0021
802.01	6456.28963
802.197	6671.80115
802.385	6412.74246
802.573	6306.94226
802.761	6246.75426
802.949	6416.89025
803.136	6508.11814
803.324	6632.4475
803.512	6576.50959
803.699	6680.08507
803.887	6669.73012
804.075	6812.57791
804.262	6673.87217
804.45	6638.66179
804.638	6356.73815
804.825	6491.53459
805.013	6437.62781
805.201	6649.01847
805.388	6611.73172
805.576	6495.68062
805.763	6603.44476
805.951	6789.81237
806.138	6636.59039
806.326	6837.4099
806.513	6549.57051
806.701	6771.18397
806.888	6810.50843
807.075	6913.95459
807.263	6472.87633
807.45	6884.99539
807.638	6988.40075
807.825	6760.83405
808.012	6628.30453
808.2	6744.273
808.387	6450.06923
808.574	6684.2269
808.761	6497.7536
808.949	6485.31538
809.136	6458.36305
809.323	6845.6865
809.51	6802.23028
809.698	6694.58105
809.885	6686.29777
810.072	6787.74264
810.259	6620.01831
810.446	6951.18133
810.633	6530.91809
810.82	6715.28763
811.008	6740.13251
811.195	6785.67289
811.382	6528.84548
811.569	6864.30752
811.756	6539.20829
811.943	6698.72255
812.13	6810.50843
812.317	6812.57791
812.504	6651.08974
812.691	7019.41136
812.878	6984.26562
813.064	7135.13972
813.251	6851.89371
813.438	7091.74981
813.625	7069.01782
813.812	6893.2699
813.999	6762.90408
814.186	7029.74711
814.372	6611.73172
814.559	7120.67751
814.746	6713.21708
814.933	6727.71048
815.12	6586.86973
815.306	6694.58105
815.493	6669.73012
815.68	6938.77323
815.866	6599.30114
816.053	6704.93463
816.24	6719.42868
816.426	6657.30341
816.613	6454.21619
816.799	6735.99193
816.986	6752.55371
817.173	6769.11403
817.359	6437.62781
817.546	6535.06323
817.732	6387.85375
817.919	6620.01831
818.105	6477.02277
818.292	6655.23221
818.478	6570.29322
818.665	6744.273
818.851	6535.06323
819.037	6868.44528
819.224	6632.4475
819.41	6628.30453
819.597	6580.65371
819.783	6796.02143
819.969	6421.03795
820.156	6827.06364
820.342	6694.58105
820.528	6508.11814
820.714	6304.86714
820.901	6437.62781
821.087	6369.18502
821.273	6377.48247
821.459	6557.85987
821.646	6586.86973
821.832	6225.99521
822.018	6680.08507
822.204	6221.84312
822.39	6381.63105
822.576	6255.05722
822.762	6508.11814
822.948	6138.78159
823.134	6321.46745
823.32	6003.7264
823.507	6338.06627
823.693	6190.69944
823.879	6367.1106
824.065	6145.01251
824.25	6456.28963
824.436	6456.28963
824.622	6404.4466
824.808	6292.41592
824.994	6385.77954
825.18	6207.31006
825.366	6729.78088
825.552	6279.96386
825.738	6537.13577
825.923	6447.99572
826.109	6764.97409
826.295	6445.92219
826.481	6514.33658
826.667	6238.45092
826.852	6508.11814
827.038	6157.47371
827.224	6516.40935
827.409	6242.60263
827.595	6599.30114
827.781	6321.46745
827.966	6464.58317
828.152	5899.77008
828.338	6261.2842
828.523	5964.22994
828.709	6410.66853
828.894	6221.84312
829.08	6379.55677
829.266	5897.69035
829.451	6271.66202
829.637	6091.0042
829.822	6317.31751
830.008	6024.5106
830.193	6294.49118
830.378	5960.07193
830.564	6105.54646
830.749	5878.97174
830.935	6072.30531
831.12	5835.28755
831.305	5797.83567
831.491	5743.72501
831.676	5831.12661
831.861	5695.8446
832.047	6111.7785
832.232	5766.61993
832.417	5935.12184
832.602	5710.41822
832.788	5797.83567
832.973	5714.5819
833.158	6238.45092
833.343	5933.04252
833.528	6172.01071
833.714	5847.76981
833.899	6076.46078
834.084	5747.88794
834.269	5883.1316
834.454	5466.67877
834.639	5656.28179
834.824	5516.7029
835.009	5560.46289
835.194	5368.67561
835.379	5808.23974
835.564	5372.84701
835.749	5706.25444
835.934	5541.70988
836.119	5604.21249
836.304	5447.91622
836.489	5770.78234
836.674	5575.04725
836.859	5689.5984
837.044	5466.67877
837.228	5608.37858
837.413	5452.08584
837.598	5783.26899
837.783	5301.92038
837.968	5754.13215
838.152	5345.73121
838.337	5597.96319
838.522	5335.30099
838.707	5447.91622
838.891	5218.44265
839.076	5245.57702
839.261	5109.86581
839.445	5362.41832
839.63	5228.87941
839.815	5297.74739
839.999	5241.40276
840.184	5558.37932
840.368	5281.05446
840.553	5433.32182
840.737	5516.7029
840.922	5525.03894
841.106	5235.14119
841.291	5633.37312
841.475	5201.74262
841.66	5633.37312
841.844	5339.47315
842.029	5404.12955
842.213	5249.75118
842.397	5339.47315
842.582	5086.88958
842.766	5143.28077
842.951	4990.7768
843.135	5074.35591
843.319	4907.16081
843.504	5193.39205
843.688	4802.58928
843.872	4955.2445
844.056	4921.79626
844.241	5297.74739
844.425	4884.15998
844.609	4888.34215
844.793	4877.88654
844.977	5134.92759
845.161	4905.06994
845.346	5147.45723
845.53	4879.97771
845.714	5063.91054
845.898	4624.68748
846.082	4844.42474
846.266	4754.46725
846.45	4994.95664
846.634	4767.02198
846.818	4863.24772
847.002	4668.65483
847.186	5068.08876
847.37	4723.07686
847.554	4900.88813
847.738	4810.9571
847.922	4838.15
848.106	4524.15371
848.29	4821.41636
848.473	4748.18958
848.657	4739.81904
848.841	4570.23805
849.025	4775.39135
849.209	4668.65483
849.392	4628.87527
849.576	4461.29417
849.76	4486.44037
849.944	4551.38666
850.127	4599.55885
850.311	4413.08846
850.495	4689.58818
850.678	4494.82173
850.862	4670.74827
851.046	4434.04889
851.229	4488.53574
851.413	4408.89611
851.596	4503.20273
851.78	4513.6785
851.964	4656.09374
852.147	4444.52828
852.331	4530.43857
852.514	4343.90358
852.698	4373.25763
852.881	4083.72745
853.065	4446.62409
853.248	4314.54529
853.431	4645.62555
853.615	4306.15643
853.798	4572.33254
853.982	4381.64372
854.165	4503.20273
854.348	4314.54529
854.532	4375.35419
854.715	4297.76723
854.898	4553.48135
855.081	4060.63168
855.265	4373.25763
855.448	4146.70313
855.631	4228.5432
855.814	4098.42346
855.997	4251.62046
856.181	3980.82705
856.364	4406.7999
856.547	4186.57795
856.73	4096.32409
856.913	3974.52543
857.096	4245.32692
857.279	4014.43262
857.462	4075.32928
857.645	3959.82092
857.828	4092.1253
858.011	3898.89168
858.194	4062.7314
858.377	3615.03689
858.56	4209.65989
858.743	3890.48632
858.926	3970.32424
859.109	3833.74176
859.292	3720.20952
859.475	3831.63983
859.658	3982.92755
859.841	3882.08063
860.023	3966.12298
860.206	3774.88031
860.389	3798.00629
860.572	3551.91068
860.755	3772.77783
860.937	3585.58008
861.12	3663.42221
861.303	3535.07421
861.486	3638.17895
861.668	3507.71243
861.851	3640.28266
862.034	3598.20488
862.216	3816.92578
862.399	3509.81729
862.581	3814.82369
862.764	3650.80092
862.947	3766.47027
863.129	3541.38803
863.312	3711.79747
863.494	3621.34859
863.677	3478.24245
863.859	3476.13731
864.042	3495.08287
864.224	3250.78583
864.406	3522.44608
864.589	3419.29188
864.771	3402.44629
864.954	3219.17879
865.136	3461.40087
865.318	3252.89283
865.501	3332.94635
865.683	3381.38772
865.865	3377.17579
866.048	3246.57178
866.23	3377.17579
866.412	3195.99792
866.594	3250.78583
866.777	3094.82194
866.959	3217.07152
867.141	3080.06403
867.323	3166.49211
867.505	3056.87148
867.687	3313.98854
867.869	3025.24224
868.052	3259.21374
868.234	3254.99982
868.416	3394.02308
868.598	3143.30673
868.78	3385.59957
868.962	3185.4605
869.144	3434.03084
869.326	2991.50058
869.508	3252.89283
869.69	3065.30536
869.872	3551.91068
870.054	2989.3916
870.236	3149.63021
870.417	3158.06129
870.599	3040.00299
870.781	2807.96419
870.963	3124.33543
871.145	2955.64583
871.327	3042.1116
871.508	2924.00572
871.69	3278.17555
871.872	2957.75506
872.054	3018.91598
872.235	2860.71566
872.417	3130.65934
872.599	2858.60577
872.78	3008.3719
872.962	2879.70404
873.144	2947.2088
873.325	2898.69126
873.507	3195.99792
873.689	2926.11516
873.87	3155.95354
874.052	2896.58162
874.233	2890.25264
874.415	2822.73548
874.596	3149.63021
874.778	2769.97777
874.959	2938.77152
875.141	2822.73548
875.322	3236.03635
875.503	2831.17591
875.685	3109.57908
875.866	3033.67705
876.048	3075.84735
876.229	2942.99019
876.41	2782.6404
876.592	2856.49587
876.773	2907.12964
876.954	2753.09351
877.136	3278.17555
877.317	2919.78679
877.498	3058.97997
877.679	2921.89626
877.86	3042.1116
878.042	2833.28599
878.223	3136.98311
878.404	2976.73739
878.585	2966.1918
878.766	2845.94613
878.947	3151.73801
879.128	2649.65907
879.309	2980.95552
879.49	2833.28599
879.672	3153.84578
879.853	2959.86426
880.034	3054.76297
880.215	2839.61612
880.396	3191.783
880.576	2989.3916
880.757	2999.93636
880.938	2947.2088
881.119	2976.73739
881.3	2909.2392
881.481	3069.5222
881.662	2947.2088
881.843	2985.17359
882.023	2848.05611
882.204	3132.76728
882.385	3065.30536
882.566	3394.02308
882.747	3109.57908
882.927	3158.06129
883.108	2980.95552
883.289	3242.35766
883.469	3263.42759
883.65	3276.06875
883.831	3082.17235
884.011	3191.783
884.192	3185.4605
884.373	3040.00299
884.553	2848.05611
884.734	3149.63021
884.914	2888.14295
885.095	3183.35296
885.275	2905.02007
885.456	3153.84578
885.636	3048.43736
885.817	3242.35766
885.997	3044.2202
886.178	3252.89283
886.358	3195.99792
886.538	3160.16902
886.719	2900.80087
886.899	3263.42759
887.08	3050.54591
887.26	3217.07152
887.44	2837.50609
887.621	3313.98854
887.801	2972.5192
887.981	3284.49584
888.161	3065.30536
888.342	3238.14347
888.522	3126.44342
888.702	3208.64228
888.882	2845.94613
889.062	3134.8752
889.242	3073.73898
889.423	2949.31808
889.603	2807.96419
889.783	3031.56837
889.963	2795.30254
890.143	2955.64583
890.323	3073.73898
890.503	3191.783
890.683	2905.02007
890.863	3014.69839
891.043	2708.76828
891.223	3094.82194
891.403	2886.03324
891.583	2930.33401
891.763	2788.97153
891.943	3021.02475
892.122	2723.544
892.302	3143.30673
892.482	2717.21163
892.662	2991.50058
892.842	2698.2138
893.022	2820.62534
893.201	2782.6404
893.381	3044.2202
893.561	2769.97777
893.741	3056.87148
893.92	2824.84561
894.1	2930.33401
894.28	2875.4845
894.459	3008.3719
894.639	2824.84561
894.819	2873.37471
894.998	2778.41958
895.178	2896.58162
895.357	2601.0977
895.537	2801.63342
895.716	2715.10081
895.896	2803.74369
896.075	2704.54653
896.255	2930.33401
896.434	2499.73179
896.614	3010.48075
896.793	2584.20527
896.973	2835.39605
897.152	2731.98699
897.331	2873.37471
897.511	2687.659
897.69	2742.54041
897.87	2482.83489
898.049	2689.76999
898.228	2482.83489
898.407	2620.10075
898.587	2451.15128
898.766	2702.43563
898.945	2220.84775
899.124	2577.87041
899.304	2512.40399
899.483	2712.98998
899.662	2258.88736
899.841	2558.86519
900.02	2375.10078
900.199	2459.60048
900.378	2434.25236
900.557	2438.47715
900.737	2265.22702
900.916	2425.80264
901.095	2195.48643
901.274	2299.03709
901.453	2229.30125
901.632	2394.11468
901.811	2136.30533
901.989	2282.13235
902.168	2199.7134
902.347	2531.41152
902.526	2284.24548
902.705	2539.85902
902.884	2263.11381
903.063	2334.95764
903.242	2055.97834
903.42	2381.43884
903.599	1907.98179
903.778	2119.39529
903.957	2083.45983
904.135	2096.14319
904.314	1878.37901
904.493	2138.41905
904.672	1802.25311
904.85	1992.55503
905.029	1836.08759
905.207	2062.32033
905.386	1649.9858
905.565	1882.60804
905.743	1690.16909
905.922	1899.52396
906.1	1681.70954
906.279	1711.31777
906.457	1592.88174
906.636	1857.23355
906.814	1493.47557
906.993	1692.28397
907.171	1573.84674
907.35	1673.24993
907.528	1408.87355
907.707	1751.49935
907.885	1427.90899
908.063	1578.07675
908.242	1550.58156
908.42	1537.8914
908.598	1237.55917
908.777	1537.8914
908.955	1432.13909
909.133	1683.82443
909.311	1442.71435
909.49	1645.75593
909.668	1425.79394
909.846	1715.54747
910.024	1410.9886
910.202	1493.47557
910.38	1315.81245
910.559	1430.02404
910.737	1449.0595
910.915	1533.66134
911.093	1504.0508
911.271	1518.85609
911.449	1377.14793
911.627	1430.02404
911.805	1381.378
911.983	1520.97113
912.161	1248.13374
912.339	1688.05421
912.517	1436.36919
912.695	1520.97113
912.872	1485.01538
913.05	1556.92663
913.228	1512.51097
913.406	1546.35152
913.584	1417.33374
913.762	1480.78528
913.939	1529.43128
914.117	1556.92663
914.295	1343.30752
914.473	1525.2012
914.65	1324.27245
914.828	1605.57166
915.006	1377.14793
915.184	1540.00643
915.361	1451.17456
915.539	1525.2012
915.716	1461.74982
915.894	1639.4111
916.072	1296.77759
916.249	1425.79394
916.427	1271.39803
916.604	1353.88261
916.782	1186.80231
916.959	1298.89256
917.137	1241.78899
917.314	1580.19175
917.492	1246.01882
917.669	1358.11266
917.847	1176.22822
918.024	1332.73246
918.201	1201.6062
918.379	1290.43267
918.556	1163.53942
918.733	1256.59344
918.911	1055.69112
919.088	1332.73246
919.265	1176.22822
919.442	1345.42254
919.62	1045.11847
919.797	1112.78575
919.974	1121.24452
920.151	1224.86978
920.328	1220.64001
920.506	1258.70837
920.683	1174.11341
920.86	1243.9039
921.037	1155.08031
921.214	1370.80283
921.391	1176.22822
921.568	1169.8838
921.745	1174.11341
921.922	1235.44426
922.099	1074.72225
922.276	1136.04754
922.453	1036.66044
922.63	1114.90044
922.807	909.80243
922.984	943.62879
923.161	865.40836
923.338	1148.73602
923.514	916.14472
923.691	1055.69112
923.868	930.94368
924.045	907.68835
924.222	998.60053
924.399	1038.77494
924.575	918.25884
924.752	1032.43147
924.929	928.82952
925.105	988.02869
925.282	962.65695
925.459	994.37177
925.635	863.29445
925.812	930.94368
925.989	926.71537
926.165	905.57427
926.342	706.89075
926.518	793.54029
926.695	844.26962
926.871	924.60123
927.048	730.13647
927.224	842.15579
927.401	804.10846
927.577	789.31309
927.754	607.58375
927.93	895.00401
928.107	565.33375
928.283	719.57007
928.459	683.64637
928.636	738.58978
928.812	685.75944
928.988	778.74526
929.165	692.09872
929.341	774.5182
929.517	656.17752
929.693	673.0812
929.87	660.40337
930.046	666.74223
930.222	508.30483
930.398	635.049
930.574	580.12066
930.751	734.3631
930.927	552.65979
931.103	723.7966
931.279	647.72597
931.455	620.25976
931.631	558.99671
931.807	537.87412
931.983	539.98631
932.159	523.08913
932.335	504.08088
932.511	571.67092
932.687	523.08913
932.863	506.19285
933.039	512.52884
933.215	539.98631
933.391	472.40309
933.566	501.96892
933.742	495.63314
933.918	455.50964
934.094	390.05702
934.27	411.16909
934.445	413.28038
934.621	444.95174
934.797	404.83529
934.973	453.39803
935.148	339.39489
935.324	373.16856
935.5	330.95217
935.675	385.8348
935.851	314.06758
936.027	360.50292
936.202	278.19166
936.378	330.95217
936.553	235.99161
936.729	295.07378
936.904	113.65661
937.08	183.25252
937.255	191.68993
937.431	200.12766
937.606	166.37868
937.782	195.90876
937.957	143.17933
938.133	183.25252
938.308	238.10143
938.483	145.28826
938.659	183.25252
938.834	162.16043
939.009	183.25252
939.185	145.28826
939.36	126.30869
939.535	168.48784
939.71	149.50617
939.886	242.32113
940.061	141.07043
940.236	151.61516
940.411	82.02988
940.586	141.07043
940.761	115.76524
940.937	160.05133
941.112	115.76524
941.287	151.61516
941.462	149.50617
941.637	35.65319
941.812	90.46319
941.987	132.63502
942.162	117.87389
942.337	105.22233
942.512	124.19996
942.687	149.50617
942.862	86.24649
943.037	101.00532
943.212	117.87389
943.386	6.14661
943.561	107.33087
943.736	77.81336
943.911	16.68414
944.086	191.68993
944.26	124.19996
944.435	27.22227
944.61	101.00532
944.785	92.57157
944.959	115.76524
945.134	60.94819
945.309	48.30027
945.483	136.85268
945.658	115.76524
945.833	41.97663
946.007	126.30869
946.182	98.89685
946.357	71.48875
946.531	109.43943
946.706	98.89685
946.88	166.37868
947.055	67.27246
947.229	107.33087
947.404	48.30027
947.578	58.84015
947.752	111.54801
947.927	58.84015
948.101	65.16435
948.276	90.46319
948.45	90.46319
948.624	98.89685
948.799	88.35483
948.973	94.67998
949.147	82.02988
949.321	92.57157
949.496	124.19996
949.67	101.00532
949.844	107.33087
950.018	147.39721
950.193	37.76098
950.367	77.81336
950.541	107.33087
950.715	134.74384
950.889	69.38059
951.063	132.63502
951.237	52.51615
951.411	115.76524
951.585	193.79933
951.759	126.30869
951.933	65.16435
952.107	117.87389
952.281	63.05626
952.455	124.19996
952.629	96.7884
952.803	65.16435
952.977	107.33087
953.151	115.76524
953.325	136.85268
953.499	126.30869
953.672	48.30027
953.846	31.43768
954.02	67.27246
954.194	65.16435
954.368	86.24649
954.541	115.76524
954.715	86.24649
954.889	132.63502
955.062	183.25252
955.236	153.72418
955.41	33.54542
955.583	132.63502
955.757	82.02988
955.93	82.02988
956.104	149.50617
956.278	82.02988
956.451	27.22227
956.625	58.84015
956.798	52.51615
956.972	33.54542
957.145	122.09124
957.319	117.87389
957.492	143.17933
957.665	109.43943
957.839	162.16043
958.012	73.59693
958.185	56.73213
958.359	58.84015
958.532	27.22227
958.705	67.27246
958.879	155.83321
959.052	141.07043
959.225	115.76524
959.398	58.84015
959.572	119.98255
959.745	90.46319
959.918	124.19996
960.091	136.85268
960.264	124.19996
960.438	141.07043
960.611	105.22233
960.784	71.48875
960.957	122.09124
961.13	111.54801
961.303	136.85268
961.476	143.17933
961.649	84.13817
961.822	124.19996
961.995	115.76524
962.168	82.02988
962.341	98.89685
962.514	107.33087
962.686	82.02988
962.859	147.39721
963.032	126.30869
963.205	101.00532
963.378	147.39721
963.551	111.54801
963.723	33.54542
963.896	79.92161
964.069	101.00532
964.242	67.27246
964.414	94.67998
964.587	151.61516
964.76	75.70514
964.932	35.65319
965.105	103.11382
965.278	126.30869
965.45	103.11382
965.623	73.59693
965.795	82.02988
965.968	50.4082
966.14	35.65319
966.313	109.43943
966.485	77.81336
966.658	67.27246
966.83	84.13817
967.003	153.72418
967.175	31.43768
967.348	44.08449
967.52	65.16435
967.692	94.67998
967.865	31.43768
968.037	124.19996
968.209	14.57659
968.382	132.63502
968.554	73.59693
968.726	71.48875
968.898	35.65319
969.071	-8.60492
969.243	157.94226
969.415	107.33087
969.587	115.76524
969.759	101.00532
969.932	75.70514
970.104	31.43768
970.276	79.92161
970.448	27.22227
970.62	33.54542
970.792	82.02988
970.964	41.97663
971.136	79.92161
971.308	92.57157
971.48	35.65319
971.652	101.00532
971.824	86.24649
971.996	35.65319
972.168	69.38059
972.339	119.98255
972.511	117.87389
972.683	77.81336
972.855	50.4082
973.027	86.24649
973.199	44.08449
973.37	58.84015
973.542	86.24649
973.714	132.63502
973.886	92.57157
974.057	65.16435
974.229	31.43768
974.401	23.00695
974.572	128.41744
974.744	73.59693
974.915	94.67998
975.087	122.09124
975.259	77.81336
975.43	79.92161
975.602	126.30869
975.773	77.81336
975.945	14.57659
976.116	71.48875
976.288	117.87389
976.459	166.37868
976.63	65.16435
976.802	73.59693
976.973	-0.17561
977.145	52.51615
977.316	44.08449
977.487	-12.81942
977.659	77.81336
977.83	82.02988
978.001	86.24649
978.172	105.22233
978.344	-23.35526
978.515	35.65319
978.686	69.38059
978.857	41.97663
979.028	-40.21131
979.2	69.38059
979.371	71.48875
979.542	71.48875
979.713	56.73213
979.884	141.07043
980.055	-2.28298
980.226	-52.8523
980.397	35.65319
980.568	35.65319
980.739	63.05626
980.91	31.43768
981.081	39.86879
981.252	86.24649
981.423	77.81336
981.594	149.50617
981.765	79.92161
981.936	-27.56942
982.106	31.43768
982.277	23.00695
982.448	101.00532
982.619	39.86879
982.79	10.36155
982.96	73.59693
983.131	6.14661
983.302	33.54542
983.472	52.51615
983.643	14.57659
983.814	4.03918
983.984	65.16435
984.155	39.86879
984.326	16.68414
984.496	65.16435
984.667	56.73213
984.837	-31.78348
985.008	90.46319
985.178	6.14661
985.349	98.89685
985.519	44.08449
985.69	8.25407
985.86	48.30027
986.031	60.94819
986.201	82.02988
986.371	86.24649
986.542	39.86879
986.712	-27.56942
986.882	14.57659
987.053	44.08449
987.223	115.76524
987.393	44.08449
987.563	63.05626
987.734	69.38059
987.904	86.24649
988.074	39.86879
988.244	82.02988
988.414	111.54801
988.585	41.97663
988.755	-25.46235
988.925	27.22227
989.095	58.84015
989.265	-2.28298
989.435	75.70514
989.605	77.81336
989.775	18.79172
989.945	31.43768
990.115	103.11382
990.285	23.00695
990.455	-10.71218
990.625	48.30027
990.795	35.65319
990.965	92.57157
991.134	48.30027
991.304	124.19996
991.474	58.84015
991.644	44.08449
991.814	-12.81942
991.984	77.81336
992.153	111.54801
992.323	94.67998
992.493	-6.49763
992.662	48.30027
992.832	25.11459
993.002	33.54542
993.171	39.86879
993.341	52.51615
993.511	31.43768
993.68	52.51615
993.85	69.38059
994.019	-29.67646
994.189	10.36155
994.358	31.43768
994.528	31.43768
994.697	-10.71218
994.867	16.68414
995.036	23.00695
995.206	67.27246
995.375	77.81336
995.544	23.00695
995.714	86.24649
995.883	58.84015
996.052	6.14661
996.222	58.84015
996.391	48.30027
996.56	8.25407
996.73	18.79172
996.899	107.33087
997.068	65.16435
997.237	65.16435
997.406	10.36155
997.576	-2.28298
997.745	-44.42508
997.914	39.86879
998.083	-4.39031
998.252	10.36155
998.421	23.00695
998.59	39.86879
998.759	23.00695
998.928	14.57659
999.097	56.73213
999.266	-19.141
999.435	31.43768
999.604	27.22227
999.773	-6.49763
999.942	25.11459
1000.111	27.22227
1000.28	115.76524
1000.448	35.65319
1000.617	-2.28298
1000.786	-6.49763
1000.955	31.43768
1001.124	-6.49763
1001.292	29.32996
1001.461	31.43768
1001.63	1.93177
1001.798	23.00695
1001.967	-2.28298
1002.136	56.73213
1002.304	92.57157
1002.473	124.19996
1002.642	48.30027
1002.81	73.59693
1002.979	35.65319
1003.147	39.86879
1003.316	52.51615
1003.484	-0.17561
1003.653	48.30027
1003.821	77.81336
1003.99	23.00695
1004.158	-10.71218
1004.327	-35.99745
1004.495	115.76524
1004.663	50.4082
1004.832	39.86879
1005	31.43768
1005.168	-35.99745
1005.337	39.86879
1005.505	-19.141
1005.673	107.33087
1005.842	39.86879
1006.01	8.25407
1006.178	4.03918
1006.346	-6.49763
1006.514	48.30027
1006.683	31.43768
1006.851	27.22227
1007.019	-27.56942
1007.187	6.14661
1007.355	48.30027
1007.523	-0.17561
1007.691	50.4082
1007.859	75.70514
1008.027	-19.141
1008.195	58.84015
1008.363	65.16435
1008.531	48.30027
1008.699	-35.99745
1008.867	33.54542
1009.035	-12.81942
1009.203	69.38059
1009.37	44.08449
1009.538	56.73213
1009.706	6.14661
1009.874	50.4082
1010.042	-27.56942
1010.209	8.25407
1010.377	151.61516
1010.545	35.65319
1010.713	-2.28298
1010.88	20.89932
1011.048	65.16435
1011.216	-0.17561
1011.383	14.57659
1011.551	124.19996
1011.718	84.13817
1011.886	39.86879
1012.054	44.08449
1012.221	20.89932
1012.389	41.97663
1012.556	73.59693
1012.724	-14.92664
1012.891	-17.03383
1013.058	25.11459
1013.226	14.57659
1013.393	37.76098
1013.561	4.03918
1013.728	35.65319
1013.895	27.22227
1014.063	151.61516
1014.23	-52.8523
1014.397	27.22227
1014.565	31.43768
1014.732	14.57659
1014.899	10.36155
1015.066	67.27246
1015.233	46.19237
1015.401	29.32996
1015.568	23.00695
1015.735	58.84015
1015.902	-8.60492
1016.069	1.93177
1016.236	39.86879
1016.403	18.79172
1016.57	-31.78348
1016.737	-25.46235
1016.904	54.62413
1017.071	10.36155
1017.238	56.73213
1017.405	-76.0251
1017.572	75.70514
1017.739	27.22227
1017.906	-19.141
1018.073	14.57659
1018.24	14.57659
1018.407	27.22227
1018.573	50.4082
1018.74	39.86879
1018.907	-21.24814
1019.074	52.51615
1019.241	6.14661
1019.407	71.48875
1019.574	27.22227
1019.741	56.73213
1019.907	31.43768
1020.074	35.65319
1020.241	-10.71218
1020.407	16.68414
1020.574	98.89685
1020.74	-0.17561
1020.907	31.43768
1021.073	-33.89048
1021.24	-17.03383
1021.406	8.25407
1021.573	12.46906
1021.739	14.57659
1021.906	-33.89048
1022.072	-141.31332
1022.239	37.76098
1022.405	18.79172
1022.571	69.38059
1022.738	46.19237
1022.904	41.97663
1023.07	-4.39031
1023.237	31.43768
1023.403	35.65319
1023.569	12.46906
1023.735	-19.141
1023.902	77.81336
1024.068	6.14661
1024.234	48.30027
1024.4	58.84015
1024.566	-2.28298
1024.732	14.57659
1024.898	31.43768
1025.065	48.30027
1025.231	90.46319
1025.397	8.25407
1025.563	29.32996
1025.729	-6.49763
1025.895	1.93177
1026.061	23.00695
1026.227	-0.17561
1026.392	-35.99745
1026.558	94.67998
1026.724	18.79172
1026.89	52.51615
1027.056	-27.56942
1027.222	6.14661
1027.388	14.57659
1027.553	16.68414
1027.719	-0.17561
1027.885	-31.78348
1028.051	-23.35526
1028.216	-10.71218
1028.382	-25.46235
1028.548	65.16435
1028.713	-2.28298
1028.879	-2.28298
1029.045	29.32996
1029.21	37.76098
1029.376	-65.49239
1029.541	50.4082
1029.707	-4.39031
1029.873	31.43768
1030.038	41.97663
1030.204	-35.99745
1030.369	-8.60492
1030.534	1.93177
1030.7	-23.35526
1030.865	90.46319
1031.031	-12.81942
1031.196	-19.141
1031.361	-0.17561
1031.527	96.7884
1031.692	-69.70555
1031.857	-65.49239
1032.023	-21.24814
1032.188	-0.17561
1032.353	56.73213
1032.518	8.25407
1032.684	58.84015
1032.849	39.86879
1033.014	82.02988
1033.179	56.73213
1033.344	39.86879
1033.509	18.79172
1033.674	20.89932
1033.839	56.73213
1034.004	-10.71218
1034.17	23.00695
1034.335	98.89685
1034.5	86.24649
1034.664	-14.92664
1034.829	8.25407
1034.994	-31.78348
1035.159	33.54542
1035.324	-31.78348
1035.489	-6.49763
1035.654	6.14661
1035.819	39.86879
1035.984	35.65319
1036.148	18.79172
1036.313	41.97663
1036.478	39.86879
1036.643	-92.87609
1036.807	27.22227
1036.972	4.03918
1037.137	48.30027
1037.301	-52.8523
1037.466	6.14661
1037.631	-33.89048
1037.795	-2.28298
1037.96	-10.71218
1038.124	14.57659
1038.289	23.00695
1038.454	41.97663
1038.618	101.00532
1038.783	-35.99745
1038.947	-19.141
1039.111	16.68414
1039.276	23.00695
1039.44	-27.56942
1039.605	41.97663
1039.769	8.25407
1039.933	50.4082
1040.098	-2.28298
1040.262	39.86879
1040.426	-17.03383
1040.591	-14.92664
1040.755	-10.71218
1040.919	35.65319
1041.083	6.14661
1041.248	-42.31821
1041.412	-48.63874
1041.576	73.59693
1041.74	33.54542
1041.904	46.19237
1042.068	18.79172
1042.232	25.11459
1042.397	-0.17561
1042.561	46.19237
1042.725	-0.17561
1042.889	-42.31821
1043.053	20.89932
1043.217	56.73213
1043.381	48.30027
1043.544	52.51615
1043.708	4.03918
1043.872	-14.92664
1044.036	-21.24814
1044.2	84.13817
1044.364	50.4082
1044.528	-27.56942
1044.691	31.43768
1044.855	20.89932
1045.019	18.79172
1045.183	-25.46235
1045.346	39.86879
1045.51	31.43768
1045.674	-76.0251
1045.837	-23.35526
1046.001	-38.10439
1046.165	-10.71218
1046.328	14.57659
1046.492	29.32996
1046.655	46.19237
1046.819	-2.28298
1046.983	39.86879
1047.146	33.54542
1047.31	-25.46235
1047.473	-73.91861
1047.636	50.4082
1047.8	50.4082
1047.963	10.36155
1048.127	16.68414
1048.29	31.43768
