Data from mixed_try1_USB4F045381__11__00236.txt Node

Date: Thu Apr 03 20:23:53 EDT 2025
User: mmckonesweet
Spectrometer: USB4F04538
Trigger mode: 4
Integration Time (sec): 2.700000E-3
Scans to average: 1
Electric dark correction enabled: true
Nonlinearity correction enabled: true
Boxcar width: 0
XAxis mode: Wavelengths
Number of Pixels in Spectrum: 3648
>>>>>Begin Spectral Data<<<<<
345.52	0.17561
345.736	0.17561
345.952	0.17561
346.168	12.82031
346.384	57.08346
346.6	-33.53931
346.816	14.92785
347.032	-20.89695
347.248	-25.11117
347.464	21.25059
347.68	-25.11117
347.896	-4.03909
348.112	14.92785
348.328	-39.86016
348.544	46.54368
348.76	33.89672
348.975	17.0354
349.191	-52.50118
349.407	114.00805
349.623	-52.50118
349.839	4.39042
350.055	-44.07393
350.27	12.82031
350.486	46.54368
350.702	63.4076
350.918	-31.43231
351.133	-14.57544
351.349	-1.93175
351.565	90.81458
351.781	-41.96706
351.996	-25.11117
352.212	54.97546
352.428	52.86748
352.644	31.78897
352.859	48.65159
353.075	-60.92802
353.291	-10.36097
353.506	-96.73754
353.722	31.78897
353.938	38.11228
354.153	21.25059
354.369	-44.07393
354.584	82.38126
354.8	-8.2537
355.016	12.82031
355.231	-12.46822
355.447	54.97546
355.662	-4.03909
355.878	2.283
356.093	-4.03909
356.309	29.68125
356.524	33.89672
356.74	57.08346
356.955	-12.46822
357.171	-37.75323
357.386	-14.57544
357.602	12.82031
357.817	-33.53931
358.033	-20.89695
358.248	-18.7898
358.464	23.35822
358.679	12.82031
358.895	-16.68263
359.11	-35.64629
359.325	67.62381
359.541	-33.53931
359.756	4.39042
359.972	-52.50118
360.187	57.08346
360.402	-29.32529
360.618	44.4358
360.833	-41.96706
361.048	46.54368
361.264	12.82031
361.479	80.27299
361.694	71.84011
361.909	23.35822
362.125	-10.36097
362.34	71.84011
362.555	-29.32529
362.77	42.32793
362.986	-33.53931
363.201	17.0354
363.416	-16.68263
363.631	-37.75323
363.847	12.82031
364.062	4.39042
364.277	59.19149
364.492	12.82031
364.707	27.57355
364.922	12.82031
365.138	40.22009
365.353	6.49786
365.568	-8.2537
365.783	19.14299
365.998	4.39042
366.213	12.82031
366.428	12.82031
366.643	6.49786
366.858	21.25059
367.073	-4.03909
367.288	67.62381
367.503	71.84011
367.718	29.68125
367.933	-14.57544
368.148	-37.75323
368.363	-50.3944
368.578	4.39042
368.793	25.46587
369.008	6.49786
369.223	23.35822
369.438	-8.2537
369.653	-33.53931
369.868	-46.18078
370.083	-25.11117
370.298	-18.7898
370.513	46.54368
370.728	8.60532
370.943	25.46587
371.157	44.4358
371.372	21.25059
371.587	61.29953
371.802	-33.53931
372.017	-12.46822
372.232	-16.68263
372.446	-12.46822
372.661	-23.00407
372.876	0.17561
373.091	17.0354
373.306	-20.89695
373.52	-35.64629
373.735	8.60532
373.95	-10.36097
374.165	-12.46822
374.379	-10.36097
374.594	21.25059
374.809	0.17561
375.023	50.75953
375.238	73.9483
375.453	38.11228
375.667	-35.64629
375.882	-1.93175
376.097	97.13981
376.311	-12.46822
376.526	-23.00407
376.741	-4.03909
376.955	12.82031
377.17	12.82031
377.384	-29.32529
377.599	-35.64629
377.813	-35.64629
378.028	-31.43231
378.242	48.65159
378.457	67.62381
378.672	23.35822
378.886	-31.43231
379.101	-4.03909
379.315	-23.00407
379.53	38.11228
379.744	38.11228
379.958	52.86748
380.173	4.39042
380.387	-10.36097
380.602	-46.18078
380.816	6.49786
381.031	-1.93175
381.245	27.57355
381.459	59.19149
381.674	-4.03909
381.888	57.08346
382.103	12.82031
382.317	-46.18078
382.531	50.75953
382.746	-4.03909
382.96	8.60532
383.174	46.54368
383.388	4.39042
383.603	4.39042
383.817	99.24826
384.031	63.4076
384.246	4.39042
384.46	29.68125
384.674	14.92785
384.888	31.78897
385.103	12.82031
385.317	14.92785
385.531	8.60532
385.745	73.9483
385.959	-33.53931
386.174	-12.46822
386.388	80.27299
386.602	8.60532
386.816	6.49786
387.03	-37.75323
387.244	42.32793
387.458	48.65159
387.672	46.54368
387.887	-41.96706
388.101	38.11228
388.315	-1.93175
388.529	-12.46822
388.743	29.68125
388.957	54.97546
389.171	21.25059
389.385	-10.36097
389.599	-16.68263
389.813	21.25059
390.027	12.82031
390.241	42.32793
390.455	52.86748
390.669	-1.93175
390.883	-35.64629
391.097	-29.32529
391.311	-18.7898
391.525	-1.93175
391.738	12.82031
391.952	2.283
392.166	84.48956
392.38	-4.03909
392.594	54.97546
392.808	48.65159
393.022	31.78897
393.236	27.57355
393.449	67.62381
393.663	23.35822
393.877	-29.32529
394.091	-4.03909
394.305	-4.03909
394.518	23.35822
394.732	69.73195
394.946	-35.64629
395.16	88.70622
395.373	14.92785
395.587	19.14299
395.801	29.68125
396.015	21.25059
396.228	99.24826
396.442	6.49786
396.656	-4.03909
396.869	38.11228
397.083	-4.03909
397.297	-20.89695
397.51	-12.46822
397.724	12.82031
397.938	10.7128
398.151	17.0354
398.365	0.17561
398.578	31.78897
398.792	-8.2537
399.005	54.97546
399.219	92.92297
399.433	-23.00407
399.646	46.54368
399.86	40.22009
400.073	17.0354
400.287	42.32793
400.5	14.92785
400.714	71.84011
400.927	25.46587
401.141	-4.03909
401.354	80.27299
401.567	-46.18078
401.781	-12.46822
401.994	109.79086
402.208	40.22009
402.421	80.27299
402.635	97.13981
402.848	-20.89695
403.061	14.92785
403.275	12.82031
403.488	-4.03909
403.701	-1.93175
403.915	-8.2537
404.128	8.60532
404.341	21.25059
404.555	-12.46822
404.768	4.39042
404.981	-25.11117
405.195	-33.53931
405.408	6.49786
405.621	-12.46822
405.834	-10.36097
406.048	-4.03909
406.261	21.25059
406.474	38.11228
406.687	-33.53931
406.9	-29.32529
407.114	17.0354
407.327	12.82031
407.54	6.49786
407.753	-18.7898
407.966	17.0354
408.179	8.60532
408.392	27.57355
408.605	78.16474
408.819	-54.60793
409.032	27.57355
409.245	52.86748
409.458	-71.461
409.671	65.5157
409.884	-20.89695
410.097	42.32793
410.31	61.29953
410.523	42.32793
410.736	46.54368
410.949	-79.88693
411.162	12.82031
411.375	2.283
411.588	29.68125
411.801	107.68229
412.014	-12.46822
412.227	-41.96706
412.44	97.13981
412.653	8.60532
412.865	23.35822
413.078	-12.46822
413.291	-12.46822
413.504	-25.11117
413.717	17.0354
413.93	12.82031
414.143	4.39042
414.356	67.62381
414.568	46.54368
414.781	-52.50118
414.994	6.49786
415.207	-33.53931
415.42	40.22009
415.632	23.35822
415.845	29.68125
416.058	-6.14641
416.271	33.89672
416.483	46.54368
416.696	-31.43231
416.909	61.29953
417.121	63.4076
417.334	25.46587
417.547	48.65159
417.759	-63.03467
417.972	31.78897
418.185	38.11228
418.397	88.70622
418.61	42.32793
418.823	57.08346
419.035	-20.89695
419.248	40.22009
419.46	8.60532
419.673	4.39042
419.885	-10.36097
420.098	44.4358
420.311	31.78897
420.523	73.9483
420.736	17.0354
420.948	21.25059
421.161	38.11228
421.373	-12.46822
421.586	63.4076
421.798	-44.07393
422.01	23.35822
422.223	126.66015
422.435	-46.18078
422.648	27.57355
422.86	-10.36097
423.073	38.11228
423.285	19.14299
423.497	4.39042
423.71	42.32793
423.922	4.39042
424.134	-29.32529
424.347	92.92297
424.559	12.82031
424.771	29.68125
424.984	33.89672
425.196	-1.93175
425.408	4.39042
425.621	42.32793
425.833	-6.14641
426.045	-58.82135
426.257	59.19149
426.47	-12.46822
426.682	33.89672
426.894	82.38126
427.106	2.283
427.318	-35.64629
427.531	80.27299
427.743	27.57355
427.955	-1.93175
428.167	25.46587
428.379	33.89672
428.591	-16.68263
428.804	12.82031
429.016	25.46587
429.228	84.48956
429.44	-33.53931
429.652	23.35822
429.864	-12.46822
430.076	-33.53931
430.288	42.32793
430.5	17.0354
430.712	6.49786
430.924	38.11228
431.136	25.46587
431.348	0.17561
431.56	14.92785
431.772	76.05651
431.984	-54.60793
432.196	-6.14641
432.408	2.283
432.62	4.39042
432.832	25.46587
433.044	-12.46822
433.256	59.19149
433.468	33.89672
433.679	40.22009
433.891	4.39042
434.103	-10.36097
434.315	-1.93175
434.527	84.48956
434.739	38.11228
434.95	-12.46822
435.162	14.92785
435.374	-4.03909
435.586	8.60532
435.798	40.22009
436.009	80.27299
436.221	-29.32529
436.433	25.46587
436.645	44.4358
436.856	-54.60793
437.068	12.82031
437.28	14.92785
437.491	12.82031
437.703	27.57355
437.915	-18.7898
438.126	-29.32529
438.338	82.38126
438.55	63.4076
438.761	25.46587
438.973	4.39042
439.184	50.75953
439.396	12.82031
439.608	92.92297
439.819	73.9483
440.031	31.78897
440.242	67.62381
440.454	69.73195
440.665	6.49786
440.877	52.86748
441.088	-4.03909
441.3	88.70622
441.511	-84.09974
441.723	-4.03909
441.934	-4.03909
442.146	12.82031
442.357	-37.75323
442.569	-12.46822
442.78	33.89672
442.991	80.27299
443.203	-25.11117
443.414	-35.64629
443.626	-23.00407
443.837	-12.46822
444.048	-16.68263
444.26	-1.93175
444.471	12.82031
444.682	25.46587
444.894	-46.18078
445.105	-35.64629
445.316	-37.75323
445.528	31.78897
445.739	65.5157
445.95	-35.64629
446.161	67.62381
446.373	73.9483
446.584	57.08346
446.795	-12.46822
447.006	80.27299
447.217	54.97546
447.429	-46.18078
447.64	14.92785
447.851	-37.75323
448.062	-50.3944
448.273	38.11228
448.484	-56.71465
448.695	-54.60793
448.907	21.25059
449.118	-31.43231
449.329	12.82031
449.54	-16.68263
449.751	17.0354
449.962	12.82031
450.173	-25.11117
450.384	-79.88693
450.595	67.62381
450.806	29.68125
451.017	21.25059
451.228	99.24826
451.439	46.54368
451.65	-4.03909
451.861	-25.11117
452.072	31.78897
452.283	-27.21824
452.494	0.17561
452.705	2.283
452.915	52.86748
453.126	29.68125
453.337	2.283
453.548	4.39042
453.759	59.19149
453.97	71.84011
454.181	-16.68263
454.391	90.81458
454.602	80.27299
454.813	63.4076
455.024	-58.82135
455.235	25.46587
455.445	36.00449
455.656	69.73195
455.867	-14.57544
456.078	-16.68263
456.288	38.11228
456.499	40.22009
456.71	4.39042
456.921	31.78897
457.131	4.39042
457.342	57.08346
457.553	-4.03909
457.763	12.82031
457.974	29.68125
458.184	-60.92802
458.395	0.17561
458.606	76.05651
458.816	-4.03909
459.027	38.11228
459.237	-20.89695
459.448	-44.07393
459.659	-8.2537
459.869	48.65159
460.08	73.9483
460.29	-35.64629
460.501	76.05651
460.711	40.22009
460.922	21.25059
461.132	57.08346
461.343	-1.93175
461.553	4.39042
461.764	-65.14129
461.974	17.0354
462.184	122.44269
462.395	42.32793
462.605	46.54368
462.816	101.35674
463.026	40.22009
463.236	88.70622
463.447	29.68125
463.657	67.62381
463.867	12.82031
464.078	-29.32529
464.288	-23.00407
464.498	63.4076
464.709	21.25059
464.919	63.4076
465.129	21.25059
465.339	21.25059
465.55	46.54368
465.76	14.92785
465.97	54.97546
466.18	25.46587
466.391	54.97546
466.601	97.13981
466.811	71.84011
467.021	-1.93175
467.231	-12.46822
467.441	-1.93175
467.651	88.70622
467.862	80.27299
468.072	48.65159
468.282	-25.11117
468.492	-29.32529
468.702	-25.11117
468.912	12.82031
469.122	4.39042
469.332	4.39042
469.542	76.05651
469.752	23.35822
469.962	54.97546
470.172	23.35822
470.382	-12.46822
470.592	40.22009
470.802	23.35822
471.012	-12.46822
471.222	-63.03467
471.432	42.32793
471.642	57.08346
471.852	40.22009
472.062	25.46587
472.272	27.57355
472.482	4.39042
472.691	25.46587
472.901	21.25059
473.111	4.39042
473.321	40.22009
473.531	63.4076
473.741	2.283
473.95	-12.46822
474.16	-1.93175
474.37	42.32793
474.58	-35.64629
474.79	73.9483
474.999	-39.86016
475.209	4.39042
475.419	12.82031
475.628	99.24826
475.838	42.32793
476.048	-37.75323
476.258	73.9483
476.467	59.19149
476.677	50.75953
476.886	63.4076
477.096	90.81458
477.306	4.39042
477.515	59.19149
477.725	48.65159
477.935	63.4076
478.144	97.13981
478.354	-37.75323
478.563	29.68125
478.773	38.11228
478.982	42.32793
479.192	-4.03909
479.401	46.54368
479.611	71.84011
479.82	33.89672
480.03	38.11228
480.239	-12.46822
480.449	48.65159
480.658	-86.2061
480.868	42.32793
481.077	-4.03909
481.287	0.17561
481.496	59.19149
481.705	63.4076
481.915	-4.03909
482.124	61.29953
482.333	23.35822
482.543	2.283
482.752	-63.03467
482.961	48.65159
483.171	8.60532
483.38	23.35822
483.589	25.46587
483.799	63.4076
484.008	-52.50118
484.217	6.49786
484.426	46.54368
484.636	40.22009
484.845	38.11228
485.054	59.19149
485.263	-12.46822
485.472	52.86748
485.682	76.05651
485.891	17.0354
486.1	71.84011
486.309	38.11228
486.518	12.82031
486.727	6.49786
486.936	-4.03909
487.146	12.82031
487.355	33.89672
487.564	63.4076
487.773	46.54368
487.982	23.35822
488.191	63.4076
488.4	12.82031
488.609	25.46587
488.818	0.17561
489.027	23.35822
489.236	44.4358
489.445	50.75953
489.654	-4.03909
489.863	33.89672
490.072	59.19149
490.281	17.0354
490.49	17.0354
490.698	50.75953
490.907	-18.7898
491.116	90.81458
491.325	76.05651
491.534	33.89672
491.743	38.11228
491.952	10.7128
492.16	63.4076
492.369	14.92785
492.578	38.11228
492.787	71.84011
492.996	92.92297
493.204	71.84011
493.413	120.334
493.622	80.27299
493.831	90.81458
494.039	6.49786
494.248	31.78897
494.457	65.5157
494.665	101.35674
494.874	8.60532
495.083	12.82031
495.291	107.68229
495.5	-29.32529
495.709	0.17561
495.917	21.25059
496.126	29.68125
496.335	4.39042
496.543	71.84011
496.752	111.89944
496.96	63.4076
497.169	82.38126
497.377	31.78897
497.586	17.0354
497.794	116.11668
498.003	59.19149
498.211	29.68125
498.42	46.54368
498.628	109.79086
498.837	23.35822
499.045	36.00449
499.254	40.22009
499.462	67.62381
499.671	101.35674
499.879	101.35674
500.087	114.00805
500.296	46.54368
500.504	17.0354
500.713	14.92785
500.921	21.25059
501.129	50.75953
501.338	44.4358
501.546	78.16474
501.754	122.44269
501.962	54.97546
502.171	99.24826
502.379	59.19149
502.587	88.70622
502.795	46.54368
503.004	92.92297
503.212	88.70622
503.42	92.92297
503.628	97.13981
503.837	73.9483
504.045	80.27299
504.253	114.00805
504.461	57.08346
504.669	101.35674
504.877	23.35822
505.085	107.68229
505.294	59.19149
505.502	63.4076
505.71	109.79086
505.918	88.70622
506.126	31.78897
506.334	118.22533
506.542	105.57375
506.75	71.84011
506.958	73.9483
507.166	21.25059
507.374	59.19149
507.582	105.57375
507.79	116.11668
507.998	97.13981
508.206	52.86748
508.414	65.5157
508.622	4.39042
508.83	71.84011
509.037	63.4076
509.245	114.00805
509.453	160.40285
509.661	61.29953
509.869	59.19149
510.077	82.38126
510.285	82.38126
510.492	118.22533
510.7	63.4076
510.908	82.38126
511.116	114.00805
511.324	124.55141
511.531	135.09531
511.739	80.27299
511.947	114.00805
512.155	88.70622
512.362	73.9483
512.57	71.84011
512.778	114.00805
512.985	116.11668
513.193	122.44269
513.401	0.17561
513.608	160.40285
513.816	46.54368
514.024	124.55141
514.231	90.81458
514.439	76.05651
514.646	48.65159
514.854	149.85767
515.061	61.29953
515.269	143.53082
515.477	130.87769
515.684	97.13981
515.892	88.70622
516.099	137.20416
516.307	132.98649
516.514	122.44269
516.722	137.20416
516.929	158.29377
517.136	88.70622
517.344	42.32793
517.551	84.48956
517.759	122.44269
517.966	92.92297
518.173	109.79086
518.381	141.42191
518.588	149.85767
518.796	84.48956
519.003	122.44269
519.21	63.4076
519.418	107.68229
519.625	122.44269
519.832	135.09531
520.039	135.09531
520.247	149.85767
520.454	105.57375
520.661	223.68471
520.868	103.46523
521.076	147.7487
521.283	185.7134
521.49	175.16697
521.697	109.79086
521.904	198.36978
522.112	156.18471
522.319	156.18471
522.526	149.85767
522.733	168.83937
522.94	147.7487
523.147	130.87769
523.354	158.29377
523.561	168.83937
523.768	105.57375
523.975	67.62381
524.183	164.62107
524.39	166.73021
524.597	139.31302
524.804	175.16697
525.011	156.18471
525.218	135.09531
525.425	183.60407
525.632	181.49477
525.838	151.96666
526.045	200.47924
526.252	253.22237
526.459	227.90414
526.666	198.36978
526.873	177.27622
527.08	126.66015
527.287	215.24608
527.494	179.38548
527.701	246.89255
527.907	232.12365
528.114	185.7134
528.321	189.93211
528.528	259.55236
528.735	316.52984
528.941	181.49477
529.148	282.76378
529.355	122.44269
529.562	280.65356
529.768	208.91732
529.975	177.27622
530.182	204.69824
530.388	211.02688
530.595	183.60407
530.802	166.73021
531.008	232.12365
531.215	147.7487
531.422	293.31517
531.628	225.79441
531.835	202.58873
532.042	189.93211
532.248	223.68471
532.455	208.91732
532.661	198.36978
532.868	175.16697
533.074	259.55236
533.281	217.35571
533.487	267.99262
533.694	232.12365
533.9	276.43317
534.107	257.44235
534.313	320.75093
534.52	329.19331
534.726	251.11241
534.933	242.67277
535.139	246.89255
535.345	223.68471
535.552	335.52528
535.758	156.18471
535.965	291.20486
536.171	316.52984
536.377	324.97208
536.584	308.08789
536.79	278.54336
536.996	227.90414
537.203	289.09456
537.409	316.52984
537.615	324.97208
537.821	267.99262
538.028	253.22237
538.234	301.75662
538.44	362.96564
538.646	350.30049
538.853	274.323
539.059	411.52097
539.265	295.42551
539.471	367.18749
539.677	341.85741
539.883	316.52984
540.09	320.75093
540.296	295.42551
540.502	400.96472
540.708	259.55236
540.914	377.74241
541.12	278.54336
541.326	356.63299
541.532	284.87402
541.738	434.74613
541.944	394.63116
542.15	485.42577
542.356	337.63597
542.562	409.40968
542.768	322.8615
542.974	379.85345
543.18	358.74385
543.386	403.07593
543.592	400.96472
543.798	415.74358
544.004	333.4146
544.21	430.52323
544.415	381.9645
544.621	428.41181
544.827	386.18665
545.033	544.56279
545.239	426.3004
545.445	519.21698
545.651	443.19213
545.856	485.42577
546.062	400.96472
546.268	451.63837
546.474	464.30819
546.679	500.20897
546.885	489.64947
547.091	548.78728
547.297	411.52097
547.502	502.32091
547.708	443.19213
547.914	407.29842
548.119	527.66536
548.325	460.08485
548.531	451.63837
548.736	519.21698
548.942	384.07557
549.147	460.08485
549.353	529.77749
549.559	498.09704
549.764	548.78728
549.97	582.5852
550.175	487.53762
550.381	654.41676
550.586	563.57345
550.792	631.17557
550.997	512.88085
551.203	595.2603
551.408	569.91058
551.614	512.88085
551.819	595.2603
552.025	713.58257
552.23	553.01184
552.435	527.66536
552.641	555.12413
552.846	662.86847
553.052	599.48543
553.257	586.81018
553.462	561.4611
553.668	599.48543
553.873	610.0485
554.078	694.56402
554.283	648.07811
554.489	696.67715
554.694	662.86847
554.899	637.51393
555.105	717.80903
555.31	741.05536
555.515	563.57345
555.72	724.14881
555.925	578.36028
556.131	751.6223
556.336	667.09439
556.541	734.71533
556.746	683.99855
556.951	755.84914
557.156	679.77244
557.361	692.4509
557.567	688.2247
557.772	667.09439
557.977	698.79028
558.182	749.50889
558.387	679.77244
558.592	819.25658
558.797	715.6958
559.002	772.75693
559.207	715.6958
559.412	690.3378
559.617	690.3378
559.822	766.41643
560.027	700.90343
560.232	800.23344
560.437	692.4509
560.642	783.32462
560.847	800.23344
561.051	781.21107
561.256	717.80903
561.461	823.48405
561.666	910.15478
561.871	802.34708
562.076	798.1198
562.281	935.52439
562.485	772.75693
562.69	924.95358
562.895	859.41896
563.1	946.09537
563.305	738.94201
563.509	848.84961
563.714	863.64677
563.919	1062.38721
564.123	791.77895
564.328	920.72532
564.533	880.55831
564.737	865.76068
564.942	874.21642
565.147	992.6098
565.351	842.5081
565.556	992.6098
565.761	823.48405
565.965	908.04069
566.17	768.52992
566.374	960.89506
566.579	992.6098
566.784	1030.6694
566.988	941.86696
567.193	1077.18928
567.397	954.55229
567.602	1020.09709
567.806	831.93909
568.011	1037.01286
568.215	1039.12736
568.42	1001.06731
568.624	1077.18928
568.828	1022.21154
569.033	937.63857
569.237	1077.18928
569.442	967.23788
569.646	1096.22088
569.85	975.69508
570.055	1127.9411
570.259	1020.09709
570.463	1206.18839
570.668	1113.1382
570.872	1113.1382
571.076	958.78079
571.281	1020.09709
571.485	1104.6795
571.689	1174.46588
571.893	1127.9411
572.098	1051.81447
572.302	1102.56484
572.506	1235.79675
572.71	1037.01286
572.914	1248.48622
573.119	1072.96009
573.323	1085.64772
573.527	1102.56484
573.731	1388.07562
573.935	1142.74422
574.139	1263.29074
574.343	1157.54755
574.547	1366.92527
574.751	1333.08496
574.955	1328.85495
575.159	1263.29074
575.364	1481.13779
575.568	1178.6955
575.772	1457.87222
575.976	1314.04996
576.18	1354.23512
576.383	1271.75052
576.587	1377.50044
576.791	1212.53298
576.995	1280.21034
577.199	1271.75052
577.403	1451.52707
577.607	1445.18191
577.811	1407.11101
578.015	1233.68184
578.219	1584.77425
578.422	1256.94593
578.626	1517.09356
578.83	1466.33243
579.034	1479.02274
579.238	1347.89006
579.442	1656.68309
579.645	1424.0314
579.849	1559.39415
580.053	1487.48294
580.257	1508.63339
580.46	1553.04909
580.664	1576.31424
580.868	1483.25284
581.071	1601.69419
581.275	1491.71303
581.479	1684.17691
581.682	1432.4916
581.886	1523.43867
582.09	1468.44748
582.293	1777.22897
582.497	1525.55371
582.7	1620.72898
582.904	1567.85421
583.107	1601.69419
583.311	1489.59798
583.515	1618.61401
583.718	1352.1201
583.922	1629.18883
584.125	1553.04909
584.329	1627.07387
584.532	1660.91294
584.735	1643.99348
584.939	1582.65925
585.142	1686.2918
585.346	1654.56816
585.549	1811.06428
585.753	1671.48751
585.956	1728.58895
586.159	1593.23424
586.363	1732.8186
586.566	1753.9666
586.769	1720.12963
586.973	1637.64864
587.176	1792.03205
587.379	1654.56816
587.582	1764.54046
587.786	1787.80262
587.989	1836.44003
588.192	1707.44054
588.395	1984.45052
588.599	1859.70055
588.802	2052.10265
589.005	1944.27897
589.208	2162.02171
589.411	1779.34371
589.615	1999.25
589.818	1855.4714
590.021	2085.92606
590.224	1880.84595
590.427	2132.43016
590.63	1844.89847
590.833	2016.1633
591.036	2052.10265
591.239	1990.79319
591.442	1906.21975
591.645	2009.82086
591.848	1781.45845
592.051	2271.91878
592.254	1961.19357
592.457	2168.36256
592.66	1866.04422
592.863	2011.93502
593.066	2094.38162
593.269	2265.57922
593.472	1965.42216
593.675	2159.90808
593.878	2168.36256
594.081	2362.77652
594.284	2030.96209
594.486	2176.8169
594.689	2204.29258
594.892	2235.9935
595.095	2111.29239
595.298	2345.87412
595.5	2026.7339
595.703	2235.9935
595.906	2083.81215
596.109	2197.95217
596.311	2088.03996
596.514	2162.02171
596.717	2225.42674
596.92	2360.66375
597.122	2235.9935
597.325	2297.27621
597.528	2134.54389
597.73	2219.08659
597.933	2290.93698
598.136	2421.92979
598.338	2136.65762
598.541	2225.42674
598.743	2386.01627
598.946	2409.25477
599.148	2373.34019
599.351	2373.34019
599.554	2388.12891
599.756	2527.53969
599.959	2379.67828
600.161	2383.90361
600.363	2312.06742
600.566	2516.97996
600.768	2405.02969
600.971	2538.09914
601.173	2413.47982
601.376	2417.70483
601.578	2347.98695
601.78	2405.02969
601.983	2438.82922
602.185	2449.39101
602.388	2267.69242
602.59	2447.27867
602.792	2421.92979
602.995	2535.98727
603.197	2489.52333
603.399	2546.54648
603.601	2445.16632
603.804	2540.21099
604.006	2396.57938
604.208	2595.11505
604.41	2396.57938
604.613	2654.23335
604.815	2483.18691
605.017	2702.78745
605.219	2709.12009
605.421	2489.52333
605.623	2588.78038
605.826	2742.89219
606.028	2677.45572
606.23	2681.6778
606.432	2533.87539
606.634	2745.00283
606.836	2375.4529
607.038	2593.00351
607.24	2609.89553
607.442	2823.08717
607.644	2593.00351
607.846	2873.72634
608.048	2645.78848
608.25	2776.66089
608.452	2795.65426
608.654	2903.26208
608.856	2675.34466
609.058	2922.24784
609.26	2776.66089
609.462	2886.38486
609.664	2690.12182
609.866	2736.56018
610.067	2643.67723
610.269	2768.21903
610.471	2761.8875
610.673	2970.7616
610.875	2806.20565
611.077	2920.13837
611.278	2736.56018
611.48	2801.98514
611.682	2886.38486
611.884	3133.1186
612.085	2793.54394
612.287	2983.41607
612.489	2770.32952
612.69	2955.99737
612.892	2728.11731
613.094	3069.8736
613.295	2692.23279
613.497	2861.06731
613.699	2780.88173
613.9	2911.70034
614.102	2848.40777
614.304	3038.24579
614.505	2709.12009
614.707	2991.85208
614.908	2941.23242
615.11	3071.982
615.311	3071.982
615.513	2913.80987
615.714	2761.8875
615.916	3006.61452
616.117	2915.91938
616.319	3149.98151
616.52	2852.62767
616.722	3050.89734
616.923	2915.91938
617.124	3206.88615
617.326	2863.17719
617.527	3227.9589
617.729	2972.87072
617.93	3139.44232
618.131	2829.41751
618.333	3175.27393
618.534	3057.2229
618.735	3034.02849
618.937	3010.83222
619.138	3025.5937
619.339	3034.02849
619.54	3232.17325
619.742	2943.34174
619.943	3265.88564
620.144	3158.41258
620.345	3152.0893
620.546	3006.61452
620.748	3139.44232
620.949	2937.01372
621.15	3099.38971
621.351	3034.02849
621.552	2972.87072
621.753	2941.23242
621.954	3221.63725
622.155	3057.2229
622.356	3282.74022
622.558	3162.62802
622.759	3394.37405
622.96	3008.72338
623.161	3274.31307
623.362	2974.97982
623.563	3274.31307
623.764	3126.79475
623.965	3396.47988
624.166	3107.82232
624.366	3350.1476
624.567	3131.01067
624.768	3236.38753
624.969	3010.83222
625.17	3308.02005
625.371	3082.52374
625.572	3234.2804
625.773	2937.01372
625.973	3352.2538
626.174	3299.59371
626.375	3345.93516
626.576	3156.30484
626.777	3413.32587
626.977	3171.05869
627.178	3318.55258
627.379	3177.38153
627.58	3444.90903
627.78	3232.17325
627.981	3333.29741
628.182	3261.67183
628.382	3497.53867
628.583	3147.87371
628.784	3333.29741
628.984	2915.91938
629.185	3329.08469
629.386	3139.44232
629.586	3543.84335
629.787	3086.74033
629.987	3400.69148
630.188	3246.92295
630.388	3438.59272
630.589	3308.02005
630.79	3425.95961
630.99	3265.88564
631.191	3535.42498
631.391	3318.55258
631.591	3447.01444
631.792	3341.72264
631.992	3663.7728
632.193	3436.48725
632.393	3501.74855
632.594	3453.33053
632.794	3573.30533
632.994	3453.33053
633.195	3630.11455
633.395	3409.11448
633.595	3657.46225
633.796	3394.37405
633.996	3644.84063
634.196	3510.1681
634.397	3697.42617
634.597	3388.05646
634.797	3737.38317
634.997	3388.05646
635.198	3756.30773
635.398	3480.69842
635.598	3884.53232
635.798	3573.30533
635.998	3731.07463
636.199	3821.48023
636.399	3787.84516
636.599	3478.5933
636.799	3682.70342
636.999	3428.06518
637.199	3771.02575
637.399	3497.53867
637.599	3855.11024
637.799	3499.64362
637.999	3724.76592
638.199	3619.59536
638.399	3596.45148
638.599	3598.55556
638.799	3939.16291
638.999	3741.58876
639.199	3815.17404
639.399	3703.73563
639.599	3932.86008
639.799	3689.01329
639.999	3810.96981
640.199	3796.2544
640.399	3867.72018
640.599	3461.75174
640.799	4025.28329
640.998	3564.88799
641.198	3840.39774
641.398	3804.66333
641.598	3905.5457
641.798	4010.58225
641.997	4077.77878
642.197	3644.84063
642.397	3943.3647
642.597	3762.61557
642.796	3890.83655
642.996	3710.04492
643.196	3785.74281
643.395	3817.27612
643.595	3968.57372
643.795	3794.15212
643.994	4144.95406
644.194	3901.34318
644.394	4111.36909
644.593	3918.15276
644.793	4144.95406
644.992	4033.68344
645.192	4105.07132
645.392	3863.51695
645.591	4090.37577
645.791	3922.35495
645.99	3924.45602
646.19	3815.17404
646.389	3966.47308
646.589	4031.58343
646.788	4042.08325
646.987	3876.12641
647.187	4172.23788
647.386	3928.65809
647.586	4050.48274
647.785	3838.29587
647.984	4010.58225
648.184	3823.58225
648.383	4123.96408
648.582	4044.18316
648.782	4256.16568
648.981	4109.26985
649.18	4210.00959
649.38	4031.58343
649.579	4199.51814
649.778	3880.32941
649.977	4283.43487
650.177	4149.1518
650.376	4249.87228
650.575	4050.48274
650.774	4285.53235
650.973	4056.78214
651.173	4342.15618
651.372	3941.26382
651.571	4218.40238
651.77	4081.97786
651.969	4438.59002
652.168	4300.21411
652.367	4402.9568
652.566	4161.74452
652.765	4384.0896
652.964	4283.43487
653.163	4379.89665
653.362	4308.60322
653.561	4396.66793
653.76	4207.91135
653.959	4325.38039
654.158	4067.28072
654.357	4245.67657
654.556	3972.77494
654.755	4541.26203
654.954	4392.47524
655.153	4518.21782
655.352	4293.92206
655.551	4593.62523
655.749	4444.87758
655.948	4470.02585
656.147	4220.50052
656.346	4409.24548
656.545	4157.54703
656.743	4365.22064
656.942	4361.02729
657.141	4434.39821
657.34	4392.47524
657.538	4637.59955
657.737	4576.87052
657.936	4451.16495
658.135	4365.22064
658.333	4497.26622
658.532	4312.79764
658.731	4352.64035
658.929	4453.26069
659.128	4379.89665
659.326	4333.76846
659.525	4618.75462
659.724	4333.76846
659.922	4537.07237
660.121	4407.14927
660.319	4438.59002
660.518	4430.2063
660.716	4371.51049
660.915	4541.26203
661.113	4733.88968
661.312	4342.15618
661.51	4681.564
661.709	4465.83469
661.907	4725.51852
662.105	4283.43487
662.304	4656.44267
662.502	4553.83046
662.701	4643.88079
662.899	4436.49413
663.097	4585.24805
663.296	4321.18623
663.494	4825.94853
663.692	4518.21782
663.891	4639.69332
664.089	4430.2063
664.287	4662.72331
664.485	4553.83046
664.684	4721.33281
664.882	4570.58713
665.08	4698.30975
665.278	4526.59784
665.476	4855.23075
665.675	4578.96494
665.873	4637.59955
666.071	4622.94254
666.269	4478.4079
666.467	4472.12139
666.665	4654.34908
666.863	4277.1423
667.061	4610.37852
667.259	4430.2063
667.457	4654.34908
667.655	4442.78175
667.853	4652.25547
668.051	4319.08911
668.249	4754.81601
668.447	4409.24548
668.645	4669.00374
668.843	4656.44267
669.041	4821.765
669.239	4524.50287
669.437	4702.49596
669.635	4620.84859
669.833	4836.40698
670.031	4666.91028
670.229	4779.9246
670.426	4562.20898
670.624	4731.79693
670.822	4660.62978
671.02	4807.12189
671.218	4752.72347
671.415	4813.39764
671.613	4495.17094
671.811	4629.22425
672.009	4859.41356
672.206	4790.38555
672.404	4629.22425
672.602	4807.12189
672.799	4543.35682
672.997	4735.98242
673.195	4610.37852
673.392	4715.05406
673.59	4620.84859
673.788	4761.09346
673.985	4413.43782
674.183	4844.77333
674.38	4696.21661
674.578	4836.40698
674.775	4570.58713
674.973	4604.0962
675.17	4727.61135
675.368	4798.7539
675.565	4597.81369
675.763	4863.59628
675.96	4509.83745
676.158	4800.84593
676.355	4679.47068
676.553	4978.5851
676.75	4687.84382
676.947	4828.04027
677.145	4660.62978
677.342	4694.12345
677.539	4610.37852
677.737	4832.22367
677.934	4570.58713
678.131	4765.27832
678.329	4637.59955
678.526	4838.4986
678.723	4733.88968
678.92	4802.93794
679.118	4643.88079
679.315	4627.13037
679.512	4702.49596
679.709	4913.78175
679.906	4769.46308
680.104	4685.75057
680.301	4652.25547
680.498	4654.34908
680.695	4627.13037
680.892	4752.72347
681.089	4570.58713
681.286	4844.77333
681.483	4560.11438
681.68	4851.04785
681.877	4539.16721
682.075	4832.22367
682.272	4771.55543
682.469	5014.11302
682.665	4627.13037
682.862	4821.765
683.059	4549.64107
683.256	4645.9745
683.453	4578.96494
683.65	4689.93705
683.847	4578.96494
684.044	4821.765
684.241	4543.35682
684.438	4712.9611
684.635	4421.82224
684.831	4673.19058
685.028	4629.22425
685.225	4813.39764
685.422	4449.06918
685.619	4800.84593
685.815	4528.69279
686.012	4897.05473
686.209	4585.24805
686.405	4851.04785
686.602	4522.40788
686.799	4744.35313
686.996	4643.88079
687.192	4660.62978
687.389	4696.21661
687.586	4727.61135
687.782	4696.21661
687.979	4892.87274
688.175	4681.564
688.372	5043.36631
688.568	4562.20898
688.765	4874.05267
688.962	4683.6573
689.158	4712.9611
689.355	4459.54779
689.551	4953.50255
689.748	4771.55543
689.944	4972.31477
690.14	4645.9745
690.337	5012.02333
690.533	4568.49263
690.73	4689.93705
690.926	4679.47068
691.123	4553.83046
691.319	4581.05933
691.515	4855.23075
691.712	4478.4079
691.908	4620.84859
692.104	4750.63092
692.301	4840.5902
692.497	4568.49263
692.693	4486.7896
692.889	4488.88497
693.086	4828.04027
693.282	4740.16782
693.478	4698.30975
693.674	4555.92512
693.87	4777.83234
694.067	4723.42567
694.263	4882.41738
694.459	4694.12345
694.655	4884.50849
694.851	4796.66185
695.047	4884.50849
695.243	4610.37852
695.439	4836.40698
695.635	4652.25547
695.831	4748.53835
696.027	4486.7896
696.224	4627.13037
696.42	4627.13037
696.615	4813.39764
696.811	4622.94254
697.007	4696.21661
697.203	4534.97751
697.399	4746.44575
697.595	4612.47258
697.791	4723.42567
697.987	4509.83745
698.183	4662.72331
698.379	4398.76424
698.575	4903.32753
698.77	4725.51852
698.966	4823.85678
699.162	4482.59879
699.358	4838.4986
699.554	4578.96494
699.749	4635.50576
699.945	4662.72331
700.141	4666.91028
700.337	4622.94254
700.532	4576.87052
700.728	4461.64344
700.924	4888.69066
701.119	4643.88079
701.315	4671.09717
701.511	4356.83387
701.706	4539.16721
701.902	4455.35641
702.097	4796.66185
702.293	4497.26622
702.489	4719.23991
702.684	4551.73578
702.88	4673.19058
703.075	4409.24548
703.271	4723.42567
703.466	4434.39821
703.662	4888.69066
703.857	4664.81681
704.053	4696.21661
704.248	4486.7896
704.443	4723.42567
704.639	4367.31728
704.834	4698.30975
705.03	4664.81681
705.225	4463.73908
705.42	4562.20898
705.616	4685.75057
705.811	4507.7423
706.006	4727.61135
706.202	4312.79764
706.397	4606.19033
706.592	4499.36148
706.787	4635.50576
706.983	4652.25547
707.178	4834.31534
707.373	4648.06818
707.568	4828.04027
707.763	4467.93028
707.959	4836.40698
708.154	4671.09717
708.349	4871.96144
708.544	4687.84382
708.739	4436.49413
708.934	4669.00374
709.129	4687.84382
709.324	4430.2063
709.519	4698.30975
709.714	4712.9611
709.909	4754.81601
710.104	4555.92512
710.299	4719.23991
710.494	4671.09717
710.689	4911.69095
710.884	4522.40788
711.079	4717.147
711.274	4505.64713
711.469	4719.23991
711.664	4470.02585
711.859	4671.09717
712.054	4455.35641
712.249	4545.45159
712.443	4325.38039
712.638	4773.64776
712.833	4576.87052
713.028	4566.3981
713.223	4394.5716
713.417	4698.30975
713.612	4520.31286
713.807	4652.25547
714.002	4478.4079
714.196	4633.41195
714.391	4528.69279
714.586	4537.07237
714.78	4480.50335
714.975	4509.83745
715.17	4560.11438
715.364	4643.88079
715.559	4426.01431
715.754	4591.53097
715.948	4465.83469
716.143	4606.19033
716.337	4459.54779
716.532	4861.50493
716.726	4430.2063
716.921	4608.28443
717.115	4488.88497
717.31	4440.6859
717.504	4568.49263
717.699	4712.9611
717.893	4421.82224
718.088	4547.54635
718.282	4394.5716
718.476	4553.83046
718.671	4514.02768
718.865	4645.9745
719.059	4405.05305
719.254	4564.30355
719.448	4239.38284
719.642	4581.05933
719.837	4289.72725
720.031	4652.25547
720.225	4312.79764
720.419	4706.68209
720.614	4247.77443
720.808	4526.59784
721.002	4394.5716
721.196	4461.64344
721.39	4386.18604
721.585	4673.19058
721.779	4367.31728
721.973	4451.16495
722.167	4275.04474
722.361	4455.35641
722.555	4245.67657
722.749	4493.07564
722.943	4413.43782
723.137	4564.30355
723.331	4622.94254
723.525	4459.54779
723.719	4405.05305
723.913	4560.11438
724.107	4176.43508
724.301	4493.07564
724.495	4249.87228
724.689	4534.97751
724.883	4193.22301
725.077	4520.31286
725.271	4386.18604
725.465	4551.73578
725.659	4560.11438
725.853	4593.62523
726.046	4476.31242
726.24	4331.67148
726.434	4123.96408
726.628	4352.64035
726.822	4241.48077
727.015	4643.88079
727.209	4243.57868
727.403	4446.97339
727.596	4241.48077
727.79	4398.76424
727.984	4210.00959
728.177	4673.19058
728.371	4321.18623
728.565	4440.6859
728.758	4285.53235
728.952	4650.16183
729.146	4409.24548
729.339	4654.34908
729.533	4375.70361
729.726	4354.73712
729.92	4260.36118
730.113	4595.71947
730.307	4509.83745
730.5	4547.54635
730.694	4534.97751
730.887	4484.6942
731.081	4251.9701
731.274	4310.70044
731.468	4073.57962
731.661	4291.82466
731.854	4199.51814
732.048	4371.51049
732.241	4275.04474
732.435	4480.50335
732.628	4293.92206
732.821	4407.14927
733.014	4514.02768
733.208	4635.50576
733.401	4604.0962
733.594	4377.80014
733.788	4562.20898
733.981	4428.11032
734.174	4528.69279
734.367	4610.37852
734.56	4411.34166
734.754	4386.18604
734.947	4516.12276
735.14	4549.64107
735.333	4501.45672
735.526	4528.69279
735.719	4337.96236
735.912	4581.05933
736.105	4604.0962
736.298	4442.78175
736.491	4411.34166
736.684	4413.43782
736.877	4358.93059
737.07	4241.48077
737.263	4321.18623
737.456	4375.70361
737.649	4285.53235
737.842	4375.70361
738.035	4249.87228
738.228	4325.38039
738.421	4480.50335
738.614	4549.64107
738.807	4509.83745
739	4446.97339
739.192	4532.88263
739.385	4381.99314
739.578	4335.86542
739.771	4480.50335
739.964	4165.94193
740.156	4386.18604
740.349	4293.92206
740.542	4465.83469
740.735	4300.21411
740.927	4266.65426
741.12	4304.40871
741.313	4226.79482
741.505	4239.38284
741.698	4287.62981
741.891	4228.89287
742.083	4335.86542
742.276	4283.43487
742.468	4526.59784
742.661	4344.25306
742.854	4287.62981
743.046	4268.75191
743.239	4251.9701
743.431	4314.89482
743.624	4392.47524
743.816	4193.22301
744.009	4440.6859
744.201	4157.54703
744.393	4484.6942
744.586	4304.40871
744.778	4438.59002
744.971	4367.31728
745.163	4233.08893
745.355	4428.11032
745.548	4241.48077
745.74	4377.80014
745.932	4430.2063
746.125	4316.99198
746.317	4650.16183
746.509	4300.21411
746.702	4516.12276
746.894	4451.16495
747.086	4285.53235
747.278	4186.92769
747.471	4216.30421
747.663	4293.92206
747.855	4233.08893
748.047	4266.65426
748.239	4241.48077
748.431	4270.84954
748.623	4205.81308
748.815	4184.82921
749.008	4224.69674
749.2	4065.18104
749.392	4333.76846
749.584	4228.89287
749.776	4283.43487
749.968	4163.84324
750.16	4373.60706
750.352	4189.02616
750.544	4472.12139
750.736	4241.48077
750.928	4316.99198
751.12	4218.40238
751.311	4296.01943
751.503	4302.31142
751.695	4266.65426
751.887	4199.51814
752.079	4249.87228
752.271	4109.26985
752.463	4296.01943
752.654	4325.38039
752.846	4302.31142
753.038	4254.0679
753.23	4270.84954
753.421	4218.40238
753.613	4243.57868
753.805	4256.16568
753.997	4016.88282
754.188	4149.1518
754.38	4358.93059
754.572	4216.30421
754.763	4138.65728
754.955	4207.91135
755.146	4369.41389
755.338	4176.43508
755.53	4266.65426
755.721	4151.25064
755.913	4302.31142
756.104	4149.1518
756.296	4291.82466
756.487	3972.77494
756.679	4195.32141
756.87	4140.75623
757.062	4063.08135
757.253	4006.38176
757.445	3909.74813
757.636	4050.48274
757.827	4144.95406
758.019	4071.48001
758.21	4186.92769
758.401	3905.5457
758.593	4163.84324
758.784	3686.91002
758.975	3907.64693
759.167	3989.57901
759.358	3968.57372
759.549	4058.88189
759.74	4060.98163
759.932	3947.56641
760.123	3987.47857
760.314	3850.90677
760.505	3962.27174
760.696	3989.57901
760.888	3991.67942
761.079	3897.14059
761.27	4008.48201
761.461	3771.02575
761.652	4054.68236
761.843	3846.70321
762.034	4025.28329
762.225	3880.32941
762.416	3943.3647
762.607	3882.43088
762.798	3903.44445
762.989	3855.11024
763.18	3955.96958
763.371	3867.72018
763.562	3838.29587
763.753	3821.48023
763.944	3947.56641
764.135	3670.08318
764.326	3838.29587
764.517	3670.08318
764.708	3716.35404
764.899	3548.05243
765.089	3783.64043
765.28	3583.82659
765.471	3779.43561
765.662	3653.25512
765.853	3625.90693
766.043	3682.70342
766.234	3764.71814
766.425	3548.05243
766.615	3575.40962
766.806	3573.30533
766.997	3787.84516
767.187	3682.70342
767.378	3916.05163
767.569	3762.61557
767.759	3783.64043
767.95	3554.3659
768.141	3659.56578
768.331	3657.46225
768.522	3705.83875
768.712	3341.72264
768.903	3646.94428
769.093	3428.06518
769.284	3552.26143
769.474	3415.43154
769.665	3804.66333
769.855	3596.45148
770.046	3661.6693
770.236	3352.2538
770.426	3619.59536
770.617	3560.67921
770.807	3611.17966
770.998	3465.96224
771.188	3705.83875
771.378	3655.35869
771.569	3623.80309
771.759	3556.47036
771.949	3550.15694
772.139	3853.00851
772.33	3636.42584
772.52	3459.64647
772.71	3663.7728
772.9	3362.78452
773.09	3535.42498
773.281	3520.69212
773.471	3476.48817
773.661	3438.59272
773.851	3573.30533
774.041	3436.48725
774.231	3459.64647
774.421	3356.46614
774.611	3383.84464
774.802	3339.61636
774.992	3413.32587
775.182	3518.58735
775.372	3537.5296
775.562	3468.06746
775.752	3381.73871
775.942	3308.02005
776.131	3556.47036
776.321	3225.8517
776.511	3343.82891
776.701	3267.99252
776.891	3440.69818
777.081	3261.67183
777.271	3339.61636
777.461	3284.84697
777.651	3385.95056
777.84	3190.02676
778.03	3453.33053
778.22	3244.8159
778.41	3326.9783
778.599	3282.74022
778.789	3303.80692
778.979	3187.91926
779.169	3383.84464
779.358	3141.55019
779.548	3324.8719
779.738	3185.81175
779.927	3232.17325
780.117	3215.31545
780.307	3147.87371
780.496	3088.8486
780.686	3396.47988
780.875	3341.72264
781.065	3394.37405
781.254	3105.71419
781.444	3324.8719
781.633	3202.6714
781.823	3308.02005
782.012	3215.31545
782.202	3160.52031
782.391	2911.70034
782.581	2981.30703
782.77	3057.2229
782.96	3192.13424
783.149	2966.54332
783.338	3116.25467
783.528	3074.09038
783.717	3147.87371
783.906	3055.11439
784.096	3192.13424
784.285	2922.24784
784.474	2981.30703
784.663	2962.32499
784.853	2871.61654
785.042	2730.22805
785.231	3023.48496
785.42	2823.08717
785.61	2934.90436
785.799	2801.98514
785.988	2981.30703
786.177	2793.54394
786.366	2869.50672
786.555	2981.30703
786.744	2932.79497
786.933	2894.82358
787.122	2945.45105
787.312	3025.5937
787.501	2886.38486
787.69	2913.80987
787.879	2993.96104
788.068	2757.66642
788.257	3006.61452
788.445	2797.76456
788.634	3055.11439
788.823	2751.33469
789.012	2785.10252
789.201	2671.1225
789.39	2899.04286
789.579	2685.89984
789.768	2945.45105
789.957	2652.12215
790.145	2939.12308
790.334	2810.42611
790.523	2812.53633
790.712	2702.78745
790.9	3023.48496
791.089	2624.67541
791.278	2928.57616
791.467	2652.12215
791.655	2751.33469
791.844	2654.23335
792.033	2738.67086
792.221	2573.99906
792.41	2787.2129
792.599	2586.6688
792.787	2683.78883
792.976	2658.45572
793.164	2761.8875
793.353	2713.34179
793.541	2928.57616
793.73	2831.52759
793.918	2791.4336
794.107	2605.6726
794.295	2793.54394
794.484	2483.18691
794.672	2707.00922
794.861	2502.19586
795.049	2814.64652
795.238	2512.75599
795.426	2637.3434
795.614	2489.52333
795.803	2550.77008
795.991	2451.50334
796.179	2616.22984
796.368	2516.97996
796.556	2692.23279
796.744	2614.11842
796.932	2476.8504
797.121	2337.42268
797.309	2426.15471
797.497	2719.67423
797.685	2700.67654
797.874	2421.92979
798.062	2633.12079
798.25	2265.57922
798.438	2650.01094
798.626	2191.61167
798.814	2540.21099
799.002	2394.46678
799.19	2658.45572
799.378	2377.56559
799.566	2654.23335
799.755	2464.17706
799.943	2635.2321
800.131	2633.12079
800.318	2557.1054
800.506	2495.85964
800.694	2502.19586
800.882	2301.50232
801.07	2753.44528
801.258	2497.97173
801.446	2481.07475
801.634	2303.61536
801.822	2525.42777
802.01	2392.35417
802.197	2702.78745
802.385	2464.17706
802.573	2521.20389
802.761	2402.91712
802.949	2654.23335
803.136	2345.87412
803.324	2650.01094
803.512	2312.06742
803.699	2440.9416
803.887	2438.82922
804.075	2590.89195
804.262	2343.76127
804.45	2542.32283
804.638	2413.47982
804.825	2491.63544
805.013	2326.85816
805.201	2540.21099
805.388	2337.42268
805.576	2709.12009
805.763	2544.43466
805.951	2675.34466
806.138	2523.31584
806.326	2590.89195
806.513	2464.17706
806.701	2491.63544
806.888	2379.67828
807.075	2635.2321
807.263	2307.84141
807.45	2576.11071
807.638	2369.11475
807.825	2576.11071
808.012	2542.32283
808.2	2728.11731
808.387	2516.97996
808.574	2624.67541
808.761	2550.77008
808.949	2573.99906
809.136	2493.74755
809.323	2540.21099
809.51	2525.42777
809.698	2692.23279
809.885	2540.21099
810.072	2631.00946
810.259	2390.24154
810.446	2624.67541
810.633	2609.89553
810.82	2633.12079
811.008	2696.45469
811.195	2540.21099
811.382	2409.25477
811.569	2597.22659
811.756	2468.40155
811.943	2673.23359
812.13	2510.64399
812.317	2609.89553
812.504	2599.33811
812.691	2715.45262
812.878	2561.32889
813.064	2633.12079
813.251	2734.44948
813.438	2734.44948
813.625	2497.97173
813.812	2677.45572
813.999	2367.00202
814.186	2776.66089
814.372	2299.38927
814.559	2825.1973
814.746	2305.72839
814.933	2654.23335
815.12	2542.32283
815.306	2609.89553
815.493	2491.63544
815.68	2696.45469
815.866	2396.57938
816.053	2559.21715
816.24	2362.77652
816.426	2466.28931
816.613	2489.52333
816.799	2654.23335
816.986	2514.86798
817.173	2713.34179
817.359	2432.49201
817.546	2692.23279
817.732	2557.1054
817.919	2776.66089
818.105	2531.76351
818.292	2601.44962
818.478	2421.92979
818.665	2662.67803
818.851	2493.74755
819.037	2645.78848
819.224	2405.02969
819.41	2641.56596
819.597	2286.71078
819.783	2523.31584
819.969	2424.04226
820.156	2728.11731
820.342	2584.55721
820.528	2557.1054
820.714	2609.89553
820.901	2523.31584
821.087	2481.07475
821.273	2633.12079
821.459	2417.70483
821.646	2650.01094
821.832	2333.1969
822.018	2565.55232
822.204	2235.9935
822.39	2438.82922
822.576	2341.64842
822.762	2464.17706
822.948	2219.08659
823.134	2360.66375
823.32	2202.17912
823.507	2481.07475
823.693	2295.16314
823.879	2343.76127
824.065	2466.28931
824.25	2375.4529
824.436	2274.03195
824.622	2497.97173
824.808	2280.37141
824.994	2567.66403
825.18	2295.16314
825.366	2459.95253
825.552	2284.59767
825.738	2447.27867
825.923	2354.3254
826.109	2375.4529
826.295	2111.29239
826.481	2303.61536
826.667	2229.65347
826.852	2151.45348
827.038	2204.29258
827.224	2405.02969
827.409	2045.76055
827.595	2320.51933
827.781	2204.29258
827.966	2464.17706
828.152	2271.91878
828.338	2388.12891
828.523	2212.74635
828.709	2320.51933
828.894	2189.49816
829.08	2242.33344
829.266	2011.93502
829.451	2276.14511
829.637	2058.44468
829.822	2246.56003
830.008	2123.97514
830.193	2011.93502
830.378	2075.35644
830.564	2265.57922
830.749	2111.29239
830.935	2307.84141
831.12	2035.19026
831.305	2286.71078
831.491	2178.93046
831.676	2189.49816
831.861	2024.6198
832.047	2227.54011
832.232	1863.92967
832.417	2193.72518
832.602	1929.47838
832.788	2123.97514
832.973	1956.96496
833.158	1982.33628
833.343	1889.30397
833.528	2016.1633
833.714	1948.50765
833.899	2016.1633
834.084	2058.44468
834.269	2001.36418
834.454	1933.70715
834.639	2058.44468
834.824	1984.45052
835.009	2043.64651
835.194	2049.98862
835.379	2246.56003
835.564	1956.96496
835.749	2185.27111
835.934	2100.72322
836.119	2102.83707
836.304	1933.70715
836.489	2216.97318
836.674	2077.47038
836.859	2164.13534
837.044	1990.79319
837.228	2037.30433
837.413	1891.41846
837.598	2119.74759
837.783	1842.78387
837.968	1969.65073
838.152	1940.05026
838.337	2077.47038
838.522	2024.6198
838.707	1876.61691
838.891	1857.58598
839.076	1950.62199
839.261	1804.72024
839.445	1992.9074
839.63	1842.78387
839.815	1842.78387
839.999	1682.06202
840.184	1825.86688
840.368	1610.15412
840.553	1908.3342
840.737	1838.55465
840.922	2020.39156
841.106	1732.8186
841.291	1732.8186
841.475	1785.6879
841.66	1794.14676
841.844	1743.39264
842.029	1935.82152
842.213	1671.48751
842.397	1830.09616
842.582	1766.65523
842.766	1768.76998
842.951	1584.77425
843.135	1616.49904
843.319	1595.34923
843.504	1842.78387
843.688	1620.72898
843.872	1770.88474
844.056	1542.47397
844.241	1923.13518
844.425	1635.53369
844.609	1667.25769
844.793	1648.22336
844.977	1796.26147
845.161	1722.24446
845.346	1847.01306
845.53	1823.75224
845.714	1772.99949
845.898	1555.16411
846.082	1730.70378
846.266	1569.96922
846.45	1832.21079
846.634	1510.74844
846.818	1618.61401
847.002	1550.93407
847.186	1591.11924
847.37	1502.28826
847.554	1559.39415
847.738	1510.74844
847.922	1652.45323
848.106	1470.56253
848.29	1629.18883
848.473	1404.99596
848.657	1601.69419
848.841	1373.27037
849.025	1466.33243
849.209	1375.3854
849.392	1394.42075
849.576	1375.3854
849.76	1540.35894
849.944	1339.42999
850.127	1470.56253
850.311	1364.81025
850.495	1694.75133
850.678	1493.82808
850.862	1749.73703
851.046	1476.90769
851.229	1595.34923
851.413	1352.1201
851.596	1453.64212
851.78	1383.84555
851.964	1483.25284
852.147	1305.59001
852.331	1466.33243
852.514	1305.59001
852.698	1489.59798
852.881	1229.45205
853.065	1388.07562
853.248	1121.59697
853.431	1326.73995
853.615	1178.6955
853.798	1373.27037
853.982	1299.24506
854.165	1280.21034
854.348	1246.3713
854.532	1297.13008
854.715	1324.62495
854.898	1419.8013
855.081	1242.14147
855.265	1309.81998
855.448	1206.18839
855.631	1225.22226
855.814	1197.72897
855.997	1333.08496
856.181	1307.70499
856.364	1440.9518
856.547	1335.19997
856.73	1305.59001
856.913	1229.45205
857.096	1358.46517
857.279	1229.45205
857.462	1250.60115
857.645	1225.22226
857.828	1195.61413
858.011	1123.71168
858.194	1138.51473
858.377	1132.17054
858.56	1111.02352
858.743	1106.79417
858.926	1261.1758
859.109	1089.87697
859.292	1225.22226
859.475	1060.27265
859.658	1032.78388
859.841	1081.41849
860.023	1115.25289
860.206	1013.75377
860.389	1161.7771
860.572	994.72417
860.755	1051.81447
860.937	986.26673
861.12	1155.43277
861.303	1007.41052
861.486	1153.318
861.668	1028.55493
861.851	1106.79417
862.034	996.83854
862.216	1144.85897
862.399	908.04069
862.581	899.58443
862.764	967.23788
862.947	1125.82639
863.129	1026.44046
863.312	946.09537
863.494	908.04069
863.677	1034.89837
863.859	1062.38721
864.042	1098.33553
864.224	908.04069
864.406	996.83854
864.589	855.19119
864.771	857.30507
864.954	783.32462
865.136	1005.29611
865.318	764.30296
865.501	848.84961
865.683	764.30296
865.865	954.55229
866.048	855.19119
866.23	882.67229
866.412	960.89506
866.594	946.09537
866.777	950.32382
866.959	1030.6694
867.141	732.602
867.323	882.67229
867.505	785.43819
867.687	865.76068
867.869	730.48869
868.052	736.82866
868.234	747.39549
868.416	869.98853
868.598	789.66536
868.78	1011.63935
868.962	791.77895
869.144	840.39428
869.326	846.73576
869.508	920.72532
869.69	855.19119
869.872	984.15239
870.054	903.81255
870.236	1011.63935
870.417	899.58443
870.599	967.23788
870.781	760.07603
870.963	1017.98265
871.145	933.41021
871.327	825.5978
871.508	829.82532
871.69	850.96346
871.872	760.07603
872.054	859.41896
872.235	751.6223
872.417	764.30296
872.599	757.96258
872.78	781.21107
872.962	848.84961
873.144	884.78628
873.325	776.98398
873.507	903.81255
873.689	865.76068
873.87	726.26209
874.052	747.39549
874.233	857.30507
874.415	700.90343
874.596	781.21107
874.778	772.75693
874.959	764.30296
875.141	743.16873
875.322	920.72532
875.503	696.67715
875.685	848.84961
875.866	722.03554
876.048	796.00618
876.229	662.86847
876.41	886.90028
876.592	671.32036
876.773	753.73571
876.954	745.2821
877.136	819.25658
877.317	728.37539
877.498	764.30296
877.679	772.75693
877.86	857.30507
878.042	743.16873
878.223	903.81255
878.404	806.5744
878.585	876.33038
878.766	698.79028
878.947	842.5081
879.128	755.84914
879.309	840.39428
879.49	772.75693
879.672	831.93909
879.853	724.14881
880.034	686.11162
880.215	730.48869
880.396	827.71155
880.576	776.98398
880.757	806.5744
880.938	747.39549
881.119	713.58257
881.3	709.35615
881.481	874.21642
881.662	648.07811
881.843	781.21107
882.023	755.84914
882.204	918.61119
882.385	679.77244
882.566	802.34708
882.747	648.07811
882.927	844.62192
883.108	781.21107
883.289	743.16873
883.469	757.96258
883.65	859.41896
883.831	772.75693
884.011	916.49708
884.192	831.93909
884.373	861.53286
884.553	776.98398
884.734	859.41896
884.914	781.21107
885.095	793.89256
885.275	793.89256
885.456	954.55229
885.636	815.02915
885.817	867.8746
885.997	823.48405
886.178	924.95358
886.358	791.77895
886.538	806.5744
886.719	927.06773
886.899	886.90028
887.08	834.05287
887.26	821.37031
887.44	783.32462
887.621	878.44434
887.801	785.43819
887.981	950.32382
888.161	831.93909
888.342	912.26887
888.522	783.32462
888.702	867.8746
888.882	850.96346
889.062	901.69849
889.242	912.26887
889.423	903.81255
889.603	738.94201
889.783	967.23788
889.963	667.09439
890.143	908.04069
890.323	728.37539
890.503	931.29604
890.683	844.62192
890.863	1003.18171
891.043	798.1198
891.223	878.44434
891.403	764.30296
891.583	899.58443
891.763	781.21107
891.943	941.86696
892.122	798.1198
892.302	846.73576
892.482	713.58257
892.662	825.5978
892.842	793.89256
893.022	848.84961
893.201	815.02915
893.381	798.1198
893.561	694.56402
893.741	793.89256
893.92	802.34708
894.1	850.96346
894.28	789.66536
894.459	903.81255
894.639	791.77895
894.819	757.96258
894.998	620.61188
895.178	882.67229
895.357	698.79028
895.537	764.30296
895.716	635.40113
895.896	762.18949
896.075	679.77244
896.255	772.75693
896.434	629.0628
896.614	707.24295
896.793	654.41676
896.973	757.96258
897.152	536.11396
897.331	696.67715
897.511	696.67715
897.69	726.26209
897.87	650.19098
898.049	675.54638
898.228	603.71062
898.407	650.19098
898.587	591.03522
898.766	588.92269
898.945	654.41676
899.124	612.16115
899.304	654.41676
899.483	673.43336
899.662	635.40113
899.841	565.68581
900.02	679.77244
900.199	719.92228
900.378	681.88549
900.557	645.96525
900.737	514.99288
900.916	620.61188
901.095	470.64331
901.274	629.0628
901.453	578.36028
901.632	599.48543
901.811	464.30819
901.989	563.57345
902.168	411.52097
902.347	565.68581
902.526	506.54484
902.705	527.66536
902.884	555.12413
903.063	546.67503
903.242	591.03522
903.42	495.98513
903.599	553.01184
903.778	462.19651
903.957	521.32906
904.135	519.21698
904.314	460.08485
904.493	415.74358
904.672	517.10492
904.85	561.4611
905.029	358.74385
905.207	428.41181
905.386	493.87323
905.565	407.29842
905.743	434.74613
905.922	367.18749
906.1	464.30819
906.279	542.45056
906.457	341.85741
906.636	434.74613
906.814	377.74241
906.993	358.74385
907.171	409.40968
907.35	403.07593
907.528	303.86702
907.707	367.18749
907.885	320.75093
908.063	316.52984
908.242	289.09456
908.42	394.63116
908.598	291.20486
908.777	362.96564
908.955	299.64623
909.133	367.18749
909.311	267.99262
909.49	377.74241
909.668	327.08269
909.846	312.30883
910.024	291.20486
910.202	310.19835
910.38	352.41131
910.559	312.30883
910.737	265.88252
910.915	335.52528
911.093	308.08789
911.271	329.19331
911.449	333.4146
911.627	405.18717
911.805	392.52001
911.983	379.85345
912.161	324.97208
912.339	396.74233
912.517	375.63139
912.695	320.75093
912.872	337.63597
913.05	341.85741
913.228	217.35571
913.406	329.19331
913.584	392.52001
913.762	360.85473
913.939	346.07892
914.117	426.3004
914.295	341.85741
914.473	379.85345
914.65	386.18665
914.828	371.40941
915.006	354.52214
915.184	324.97208
915.361	316.52984
915.539	377.74241
915.716	318.64038
915.894	367.18749
916.072	316.52984
916.249	276.43317
916.427	299.64623
916.604	388.29776
916.782	316.52984
916.959	346.07892
917.137	308.08789
917.314	320.75093
917.492	267.99262
917.669	343.96815
917.847	310.19835
918.024	282.76378
918.201	316.52984
918.379	267.99262
918.556	261.6624
918.733	341.85741
918.911	164.62107
919.088	289.09456
919.265	299.64623
919.442	278.54336
919.62	259.55236
919.797	225.79441
919.974	208.91732
920.151	257.44235
920.328	286.98428
920.506	284.87402
920.683	303.86702
920.86	198.36978
921.037	350.30049
921.214	240.56291
921.391	244.78265
921.568	310.19835
921.745	238.45306
921.922	232.12365
922.099	208.91732
922.276	263.77245
922.453	227.90414
922.63	206.80777
922.807	265.88252
922.984	293.31517
923.161	240.56291
923.338	324.97208
923.514	183.60407
923.691	211.02688
923.868	211.02688
924.045	200.47924
924.222	208.91732
924.399	267.99262
924.575	230.01389
924.752	221.57502
924.929	265.88252
925.105	227.90414
925.282	158.29377
925.459	204.69824
925.635	173.05775
925.812	232.12365
925.989	166.73021
926.165	211.02688
926.342	192.04149
926.518	166.73021
926.695	173.05775
926.871	244.78265
927.048	132.98649
927.224	139.31302
927.401	215.24608
927.577	164.62107
927.754	158.29377
927.93	181.49477
928.107	130.87769
928.283	175.16697
928.459	97.13981
928.636	232.12365
928.812	156.18471
928.988	181.49477
929.165	206.80777
929.341	137.20416
929.517	202.58873
929.693	158.29377
929.87	175.16697
930.046	168.83937
930.222	151.96666
930.398	160.40285
930.574	122.44269
930.751	143.53082
930.927	122.44269
931.103	162.51195
931.279	132.98649
931.455	90.81458
931.631	130.87769
931.807	124.55141
931.983	145.63975
932.159	151.96666
932.335	82.38126
932.511	126.66015
932.687	149.85767
932.863	198.36978
933.039	141.42191
933.215	124.55141
933.391	132.98649
933.566	122.44269
933.742	137.20416
933.918	105.57375
934.094	97.13981
934.27	105.57375
934.445	162.51195
934.621	109.79086
934.797	149.85767
934.973	101.35674
935.148	151.96666
935.324	147.7487
935.5	130.87769
935.675	103.46523
935.851	76.05651
936.027	128.76891
936.202	63.4076
936.378	90.81458
936.553	114.00805
936.729	97.13981
936.904	88.70622
937.08	82.38126
937.255	14.92785
937.431	132.98649
937.606	2.283
937.782	82.38126
937.957	76.05651
938.133	44.4358
938.308	111.89944
938.483	29.68125
938.659	65.5157
938.834	54.97546
939.009	118.22533
939.185	8.60532
939.36	57.08346
939.535	54.97546
939.71	0.17561
939.886	92.92297
940.061	65.5157
940.236	29.68125
940.411	42.32793
940.586	19.14299
940.761	78.16474
940.937	84.48956
941.112	50.75953
941.287	38.11228
941.462	76.05651
941.637	52.86748
941.812	-4.03909
941.987	48.65159
942.162	67.62381
942.337	38.11228
942.512	82.38126
942.687	29.68125
942.862	4.39042
943.037	4.39042
943.212	-29.32529
943.386	-12.46822
943.561	54.97546
943.736	29.68125
943.911	-1.93175
944.086	38.11228
944.26	88.70622
944.435	10.7128
944.61	54.97546
944.785	116.11668
944.959	21.25059
945.134	116.11668
945.309	48.65159
945.483	4.39042
945.658	29.68125
945.833	46.54368
946.007	-54.60793
946.182	61.29953
946.357	73.9483
946.531	-35.64629
946.706	90.81458
946.88	59.19149
947.055	109.79086
947.229	63.4076
947.404	31.78897
947.578	97.13981
947.752	21.25059
947.927	31.78897
948.101	63.4076
948.276	17.0354
948.45	59.19149
948.624	10.7128
948.799	-4.03909
948.973	61.29953
949.147	80.27299
949.321	50.75953
949.496	48.65159
949.67	40.22009
949.844	88.70622
950.018	126.66015
950.193	12.82031
950.367	-10.36097
950.541	101.35674
950.715	76.05651
950.889	71.84011
951.063	38.11228
951.237	80.27299
951.411	40.22009
951.585	8.60532
951.759	21.25059
951.933	-16.68263
952.107	10.7128
952.281	73.9483
952.455	46.54368
952.629	8.60532
952.803	25.46587
952.977	12.82031
953.151	33.89672
953.325	63.4076
953.499	82.38126
953.672	42.32793
953.846	71.84011
954.02	99.24826
954.194	71.84011
954.368	88.70622
954.541	31.78897
954.715	-14.57544
954.889	63.4076
955.062	65.5157
955.236	90.81458
955.41	14.92785
955.583	6.49786
955.757	71.84011
955.93	-31.43231
956.104	80.27299
956.278	67.62381
956.451	52.86748
956.625	40.22009
956.798	8.60532
956.972	38.11228
957.145	4.39042
957.319	88.70622
957.492	8.60532
957.665	71.84011
957.839	82.38126
958.012	21.25059
958.185	65.5157
958.359	4.39042
958.532	73.9483
958.705	21.25059
958.879	54.97546
959.052	-6.14641
959.225	-20.89695
959.398	130.87769
959.572	33.89672
959.745	65.5157
959.918	124.55141
960.091	-1.93175
960.264	57.08346
960.438	61.29953
960.611	38.11228
960.784	46.54368
960.957	-4.03909
961.13	54.97546
961.303	-44.07393
961.476	54.97546
961.649	92.92297
961.822	88.70622
961.995	59.19149
962.168	69.73195
962.341	105.57375
962.514	65.5157
962.686	29.68125
962.859	73.9483
963.032	4.39042
963.205	25.46587
963.378	73.9483
963.551	-12.46822
963.723	21.25059
963.896	-12.46822
964.069	76.05651
964.242	50.75953
964.414	31.78897
964.587	50.75953
964.76	21.25059
964.932	6.49786
965.105	38.11228
965.278	59.19149
965.45	21.25059
965.623	27.57355
965.795	-8.2537
965.968	-33.53931
966.14	71.84011
966.313	71.84011
966.485	71.84011
966.658	-4.03909
966.83	46.54368
967.003	14.92785
967.175	48.65159
967.348	-35.64629
967.52	21.25059
967.692	-10.36097
967.865	80.27299
968.037	-8.2537
968.209	-8.2537
968.382	73.9483
968.554	71.84011
968.726	-27.21824
968.898	42.32793
969.071	54.97546
969.243	92.92297
969.415	29.68125
969.587	-18.7898
969.759	-14.57544
969.932	46.54368
970.104	-18.7898
970.276	63.4076
970.448	-6.14641
970.62	82.38126
970.792	73.9483
970.964	80.27299
971.136	27.57355
971.308	12.82031
971.48	-4.03909
971.652	42.32793
971.824	65.5157
971.996	4.39042
972.168	29.68125
972.339	63.4076
972.511	54.97546
972.683	19.14299
972.855	82.38126
973.027	29.68125
973.199	-33.53931
973.37	63.4076
973.542	31.78897
973.714	-44.07393
973.886	88.70622
974.057	99.24826
974.229	17.0354
974.401	-8.2537
974.572	42.32793
974.744	124.55141
974.915	105.57375
975.087	71.84011
975.259	67.62381
975.43	63.4076
975.602	-29.32529
975.773	29.68125
975.945	-4.03909
976.116	23.35822
976.288	4.39042
976.459	23.35822
976.63	29.68125
976.802	48.65159
976.973	4.39042
977.145	71.84011
977.316	44.4358
977.487	80.27299
977.659	57.08346
977.83	84.48956
978.001	21.25059
978.172	-41.96706
978.344	12.82031
978.515	80.27299
978.686	-33.53931
978.857	40.22009
979.028	17.0354
979.2	-25.11117
979.371	40.22009
979.542	63.4076
979.713	80.27299
979.884	-12.46822
980.055	38.11228
980.226	25.46587
980.397	23.35822
980.568	42.32793
980.739	29.68125
980.91	46.54368
981.081	-23.00407
981.252	57.08346
981.423	21.25059
981.594	48.65159
981.765	57.08346
981.936	-33.53931
982.106	46.54368
982.277	46.54368
982.448	27.57355
982.619	50.75953
982.79	86.59788
982.96	21.25059
983.131	48.65159
983.302	54.97546
983.472	38.11228
983.643	4.39042
983.814	23.35822
983.984	80.27299
984.155	12.82031
984.326	38.11228
984.496	23.35822
984.667	84.48956
984.837	61.29953
985.008	-25.11117
985.178	48.65159
985.349	-4.03909
985.519	46.54368
985.69	-10.36097
985.86	40.22009
986.031	80.27299
986.201	-12.46822
986.371	29.68125
986.542	23.35822
986.712	71.84011
986.882	29.68125
987.053	25.46587
987.223	8.60532
987.393	-12.46822
987.563	57.08346
987.734	14.92785
987.904	63.4076
988.074	107.68229
988.244	50.75953
988.414	-8.2537
988.585	4.39042
988.755	6.49786
988.925	-52.50118
989.095	73.9483
989.265	31.78897
989.435	25.46587
989.605	21.25059
989.775	116.11668
989.945	71.84011
990.115	-4.03909
990.285	-12.46822
990.455	50.75953
990.625	17.0354
990.795	48.65159
990.965	-1.93175
991.134	12.82031
991.304	-1.93175
991.474	111.89944
991.644	4.39042
991.814	-69.35446
991.984	-6.14641
992.153	-4.03909
992.323	80.27299
992.493	65.5157
992.662	46.54368
992.832	42.32793
993.002	63.4076
993.171	65.5157
993.341	80.27299
993.511	38.11228
993.68	84.48956
993.85	42.32793
994.019	67.62381
994.189	40.22009
994.358	-8.2537
994.528	-25.11117
994.697	17.0354
994.867	50.75953
995.036	12.82031
995.206	42.32793
995.375	48.65159
995.544	54.97546
995.714	80.27299
995.883	6.49786
996.052	88.70622
996.222	48.65159
996.391	88.70622
996.56	-10.36097
996.73	25.46587
996.899	40.22009
997.068	76.05651
997.237	-35.64629
997.406	4.39042
997.576	-4.03909
997.745	90.81458
997.914	52.86748
998.083	-12.46822
998.252	-10.36097
998.421	8.60532
998.59	92.92297
998.759	4.39042
998.928	48.65159
999.097	46.54368
999.266	27.57355
999.435	67.62381
999.604	57.08346
999.773	-20.89695
999.942	-44.07393
1000.111	36.00449
1000.28	6.49786
1000.448	-35.64629
1000.617	54.97546
1000.786	4.39042
1000.955	21.25059
1001.124	-46.18078
1001.292	8.60532
1001.461	4.39042
1001.63	21.25059
1001.798	-4.03909
1001.967	71.84011
1002.136	57.08346
1002.304	42.32793
1002.473	31.78897
1002.642	71.84011
1002.81	33.89672
1002.979	84.48956
1003.147	40.22009
1003.316	0.17561
1003.484	84.48956
1003.653	71.84011
1003.821	38.11228
1003.99	57.08346
1004.158	-20.89695
1004.327	109.79086
1004.495	10.7128
1004.663	38.11228
1004.832	-8.2537
1005	-25.11117
1005.168	54.97546
1005.337	-81.99334
1005.505	69.73195
1005.673	8.60532
1005.842	33.89672
1006.01	21.25059
1006.178	-12.46822
1006.346	59.19149
1006.514	69.73195
1006.683	29.68125
1006.851	-16.68263
1007.019	38.11228
1007.187	17.0354
1007.355	-10.36097
1007.523	38.11228
1007.691	101.35674
1007.859	25.46587
1008.027	21.25059
1008.195	-73.56752
1008.363	-16.68263
1008.531	48.65159
1008.699	-37.75323
1008.867	4.39042
1009.035	-63.03467
1009.203	29.68125
1009.37	21.25059
1009.538	-4.03909
1009.706	31.78897
1009.874	-1.93175
1010.042	-41.96706
1010.209	82.38126
1010.377	-16.68263
1010.545	-98.84375
1010.713	59.19149
1010.88	14.92785
1011.048	4.39042
1011.216	4.39042
1011.383	-8.2537
1011.551	25.46587
1011.718	97.13981
1011.886	67.62381
1012.054	14.92785
1012.221	-1.93175
1012.389	25.46587
1012.556	25.46587
1012.724	-54.60793
1012.891	-23.00407
1013.058	14.92785
1013.226	-12.46822
1013.393	42.32793
1013.561	-27.21824
1013.728	0.17561
1013.895	31.78897
1014.063	21.25059
1014.23	38.11228
1014.397	4.39042
1014.565	33.89672
1014.732	54.97546
1014.899	57.08346
1015.066	46.54368
1015.233	84.48956
1015.401	-1.93175
1015.568	46.54368
1015.735	29.68125
1015.902	21.25059
1016.069	-6.14641
1016.236	38.11228
1016.403	19.14299
1016.57	54.97546
1016.737	63.4076
1016.904	-16.68263
1017.071	29.68125
1017.238	-16.68263
1017.405	57.08346
1017.572	17.0354
1017.739	12.82031
1017.906	-50.3944
1018.073	54.97546
1018.24	-48.28761
1018.407	14.92785
1018.573	42.32793
1018.74	6.49786
1018.907	44.4358
1019.074	2.283
1019.241	65.5157
1019.407	71.84011
1019.574	80.27299
1019.741	40.22009
1019.907	12.82031
1020.074	65.5157
1020.241	-77.78048
1020.407	46.54368
1020.574	88.70622
1020.74	33.89672
1020.907	17.0354
1021.073	23.35822
1021.24	25.46587
1021.406	0.17561
1021.573	73.9483
1021.739	25.46587
1021.906	14.92785
1022.072	-20.89695
1022.239	-18.7898
1022.405	-8.2537
1022.571	-23.00407
1022.738	54.97546
1022.904	-20.89695
1023.07	80.27299
1023.237	12.82031
1023.403	25.46587
1023.569	-79.88693
1023.735	-20.89695
1023.902	-60.92802
1024.068	8.60532
1024.234	4.39042
1024.4	-14.57544
1024.566	-8.2537
1024.732	4.39042
1024.898	17.0354
1025.065	65.5157
1025.231	-58.82135
1025.397	19.14299
1025.563	8.60532
1025.729	-29.32529
1025.895	4.39042
1026.061	-35.64629
1026.227	-58.82135
1026.392	21.25059
1026.558	17.0354
1026.724	6.49786
1026.89	-16.68263
1027.056	-14.57544
1027.222	31.78897
1027.388	103.46523
1027.553	40.22009
1027.719	86.59788
1027.885	-25.11117
1028.051	31.78897
1028.216	21.25059
1028.382	0.17561
1028.548	-4.03909
1028.713	48.65159
1028.879	-14.57544
1029.045	31.78897
1029.21	-25.11117
1029.376	50.75953
1029.541	2.283
1029.707	12.82031
1029.873	40.22009
1030.038	40.22009
1030.204	10.7128
1030.369	-8.2537
1030.534	-20.89695
1030.7	4.39042
1030.865	4.39042
1031.031	57.08346
1031.196	4.39042
1031.361	8.60532
1031.527	8.60532
1031.692	71.84011
1031.857	12.82031
1032.023	-10.36097
1032.188	46.54368
1032.353	-48.28761
1032.518	17.0354
1032.684	-25.11117
1032.849	21.25059
1033.014	80.27299
1033.179	50.75953
1033.344	-16.68263
1033.509	14.92785
1033.674	-77.78048
1033.839	46.54368
1034.004	12.82031
1034.17	38.11228
1034.335	19.14299
1034.5	25.46587
1034.664	86.59788
1034.829	46.54368
1034.994	33.89672
1035.159	-31.43231
1035.324	52.86748
1035.489	36.00449
1035.654	-12.46822
1035.819	14.92785
1035.984	27.57355
1036.148	42.32793
1036.313	4.39042
1036.478	57.08346
1036.643	-33.53931
1036.807	-12.46822
1036.972	42.32793
1037.137	50.75953
1037.301	48.65159
1037.466	-20.89695
1037.631	-18.7898
1037.795	12.82031
1037.96	40.22009
1038.124	38.11228
1038.289	-12.46822
1038.454	31.78897
1038.618	-54.60793
1038.783	63.4076
1038.947	12.82031
1039.111	76.05651
1039.276	8.60532
1039.44	25.46587
1039.605	88.70622
1039.769	46.54368
1039.933	-31.43231
1040.098	-10.36097
1040.262	4.39042
1040.426	38.11228
1040.591	-37.75323
1040.755	-18.7898
1040.919	25.46587
1041.083	-63.03467
1041.248	12.82031
1041.412	19.14299
1041.576	-1.93175
1041.74	-50.3944
1041.904	12.82031
1042.068	12.82031
1042.232	50.75953
1042.397	12.82031
1042.561	-20.89695
1042.725	4.39042
1042.889	57.08346
1043.053	-10.36097
1043.217	27.57355
1043.381	65.5157
1043.544	-29.32529
1043.708	4.39042
1043.872	-73.56752
1044.036	0.17561
1044.2	29.68125
1044.364	4.39042
1044.528	-103.05609
1044.691	-20.89695
1044.855	33.89672
1045.019	57.08346
1045.183	8.60532
1045.346	-67.24789
1045.51	23.35822
1045.674	40.22009
1045.837	-54.60793
1046.001	23.35822
1046.165	42.32793
1046.328	-46.18078
1046.492	25.46587
1046.655	40.22009
1046.819	4.39042
1046.983	21.25059
1047.146	14.92785
1047.31	25.46587
1047.473	-1.93175
1047.636	-29.32529
1047.8	-16.68263
1047.963	33.89672
1048.127	8.60532
1048.29	59.19149
