Data from mixed_try1_USB4F045381__23__00248.txt Node

Date: Thu Apr 03 20:25:39 EDT 2025
User: mmckonesweet
Spectrometer: USB4F04538
Trigger mode: 4
Integration Time (sec): 2.700000E-3
Scans to average: 1
Electric dark correction enabled: true
Nonlinearity correction enabled: true
Boxcar width: 0
XAxis mode: Wavelengths
Number of Pixels in Spectrum: 3648
>>>>>Begin Spectral Data<<<<<
345.52	29.5056
345.736	29.5056
345.952	29.5056
346.168	-52.67674
346.384	2.10739
346.6	-69.53
346.816	33.72107
347.032	-77.95602
347.248	-0
347.464	-16.85823
347.68	105.39804
347.896	-8.42931
348.112	48.47593
348.328	23.18258
348.544	35.82884
348.76	-77.95602
348.975	4.2148
349.191	-27.39383
349.407	29.5056
349.623	-23.17966
349.839	16.85977
350.055	80.0973
350.27	21.07496
350.486	-33.71489
350.702	-67.42343
350.918	-42.14263
351.133	6.32224
351.349	18.96735
351.565	-35.82187
351.781	-50.56997
351.996	71.66443
352.212	-27.39383
352.428	-12.64382
352.644	-33.71489
352.859	-21.07254
353.075	-25.28676
353.291	-21.07254
353.506	4.2148
353.722	-21.07254
353.938	-4.2147
354.153	12.64469
354.369	50.58386
354.584	-14.75104
354.8	50.58386
355.016	40.04444
355.231	4.2148
355.447	35.82884
355.662	6.32224
355.878	2.10739
356.093	6.32224
356.309	-4.2147
356.524	18.96735
356.74	-67.42343
356.955	-21.07254
357.171	-50.56997
357.386	10.53718
357.602	-56.89021
357.817	-27.39383
358.033	29.5056
358.248	-42.14263
358.464	-33.71489
358.679	-12.64382
358.895	120.15828
359.11	-33.71489
359.325	-8.42931
359.541	-0
359.756	-67.42343
359.972	-23.17966
360.187	-12.64382
360.402	-4.2147
360.618	-46.35635
360.833	8.4297
361.048	-31.6079
361.264	-2.10736
361.479	14.75222
361.694	4.2148
361.909	-33.71489
362.125	-27.39383
362.34	-8.42931
362.555	-65.31684
362.77	-12.64382
362.986	-4.2147
363.201	-27.39383
363.416	21.07496
363.631	42.15228
363.847	40.04444
364.062	-80.06246
364.277	35.82884
364.492	16.85977
364.707	-10.53658
364.922	-44.2495
365.138	8.4297
365.353	21.07496
365.568	-25.28676
365.783	-21.07254
365.998	-16.85823
366.213	-44.2495
366.428	-27.39383
366.643	54.79979
366.858	-35.82187
367.073	23.18258
367.288	-109.5499
367.503	-21.07254
367.718	-16.85823
367.933	-56.89021
368.148	-71.63655
368.363	-0
368.578	-0
368.793	52.69182
369.008	-92.70056
369.223	80.0973
369.438	37.93663
369.653	12.64469
369.868	14.75222
370.083	-0
370.298	-29.50088
370.513	8.4297
370.728	-0
370.943	-2.10736
371.157	-33.71489
371.372	4.2148
371.587	-27.39383
371.802	4.2148
372.017	-21.07254
372.232	-31.6079
372.446	-21.07254
372.661	-8.42931
372.876	-96.91306
373.091	21.07496
373.306	-63.21022
373.52	-4.2147
373.735	-37.92881
373.95	-37.92881
374.165	-71.63655
374.379	71.66443
374.594	37.93663
374.809	-12.64382
375.023	-0
375.238	-37.92881
375.453	12.64469
375.667	-2.10736
375.882	54.79979
376.097	-46.35635
376.311	21.07496
376.526	-44.2495
376.741	-105.33773
376.955	18.96735
377.17	-35.82187
377.384	12.64469
377.599	-48.46317
377.813	12.64469
378.028	-8.42931
378.242	4.2148
378.457	12.64469
378.672	6.32224
378.886	-23.17966
379.101	21.07496
379.315	-4.2147
379.53	-16.85823
379.744	-130.6092
379.958	40.04444
380.173	-25.28676
380.387	71.66443
380.602	-27.39383
380.816	21.07496
381.031	-0
381.245	4.2148
381.459	48.47593
381.674	-71.63655
381.888	-58.9969
382.103	63.23193
382.317	6.32224
382.531	8.4297
382.746	-27.39383
382.96	-4.2147
383.174	-21.07254
383.388	-27.39383
383.603	8.4297
383.817	42.15228
384.031	25.29023
384.246	-61.10358
384.46	21.07496
384.674	6.32224
384.888	18.96735
385.103	16.85977
385.317	23.18258
385.531	-42.14263
385.745	29.5056
385.959	21.07496
386.174	25.29023
386.388	-21.07254
386.602	-0
386.816	-35.82187
387.03	-63.21022
387.244	6.32224
387.458	21.07496
387.672	67.44814
387.887	29.5056
388.101	-96.91306
388.315	4.2148
388.529	8.4297
388.743	14.75222
388.957	50.58386
389.171	29.5056
389.385	-35.82187
389.599	4.2148
389.813	35.82884
390.027	37.93663
390.241	-4.2147
390.455	-33.71489
390.669	40.04444
390.883	-109.5499
391.097	33.72107
391.311	-75.84956
391.525	40.04444
391.738	71.66443
391.952	35.82884
392.166	-21.07254
392.38	-33.71489
392.594	-35.82187
392.808	8.4297
393.022	12.64469
393.236	46.36803
393.449	-18.9654
393.663	40.04444
393.877	8.4297
394.091	-27.39383
394.305	4.2148
394.518	-25.28676
394.732	48.47593
394.946	-46.35635
395.16	-31.6079
395.373	31.61332
395.587	-16.85823
395.801	-25.28676
396.015	29.5056
396.228	-27.39383
396.442	-94.80682
396.656	14.75222
396.869	-8.42931
397.083	4.2148
397.297	-29.50088
397.51	61.12386
397.724	8.4297
397.938	-122.1858
398.151	63.23193
398.365	16.85977
398.578	-10.53658
398.792	31.61332
399.005	54.79979
399.219	4.2148
399.433	-4.2147
399.646	-14.75104
399.86	59.01582
400.073	-40.03573
400.287	4.2148
400.5	-4.2147
400.714	-8.42931
400.927	37.93663
401.141	16.85977
401.354	6.32224
401.567	-25.28676
401.781	86.42218
401.994	-54.78349
402.208	4.2148
402.421	-63.21022
402.635	35.82884
402.848	16.85977
403.061	75.88082
403.275	-63.21022
403.488	37.93663
403.701	-56.89021
403.915	-0
404.128	-23.17966
404.341	-10.53658
404.555	14.75222
404.768	25.29023
404.981	-14.75104
405.195	-48.46317
405.408	92.74727
405.621	-21.07254
405.834	-6.32202
406.048	8.4297
406.261	54.79979
406.474	-0
406.687	-4.2147
406.9	29.5056
407.114	37.93663
407.327	4.2148
407.54	-56.89021
407.753	-12.64382
407.966	21.07496
408.179	-31.6079
408.392	-4.2147
408.605	-52.67674
408.819	63.23193
409.032	63.23193
409.245	25.29023
409.458	-16.85823
409.671	18.96735
409.884	21.07496
410.097	-37.92881
410.31	56.90779
410.523	4.2148
410.736	-0
410.949	-27.39383
411.162	37.93663
411.375	-8.42931
411.588	-44.2495
411.801	-4.2147
412.014	-67.42343
412.227	-12.64382
412.44	21.07496
412.653	16.85977
412.865	-2.10736
413.078	16.85977
413.291	29.5056
413.504	-21.07254
413.717	-4.2147
413.93	-4.2147
414.143	-21.07254
414.356	35.82884
414.568	-27.39383
414.781	-40.03573
414.994	14.75222
415.207	21.07496
415.42	16.85977
415.632	-25.28676
415.845	46.36803
416.058	16.85977
416.271	42.15228
416.483	-33.71489
416.696	101.18103
416.909	29.5056
417.121	16.85977
417.334	12.64469
417.547	-0
417.759	-18.9654
417.972	18.96735
418.185	-27.39383
418.397	-52.67674
418.61	80.0973
418.823	-21.07254
419.035	-6.32202
419.248	-40.03573
419.46	-75.84956
419.673	-0
419.885	80.0973
420.098	-44.2495
420.311	-8.42931
420.523	-0
420.736	-56.89021
420.948	16.85977
421.161	-29.50088
421.373	-4.2147
421.586	-14.75104
421.798	6.32224
422.01	29.5056
422.223	12.64469
422.435	-2.10736
422.648	54.79979
422.86	4.2148
423.073	-37.92881
423.285	-2.10736
423.497	21.07496
423.71	-0
423.922	-54.78349
424.134	-29.50088
424.347	63.23193
424.559	16.85977
424.771	67.44814
424.984	29.5056
425.196	21.07496
425.408	12.64469
425.621	18.96735
425.833	16.85977
426.045	-29.50088
426.257	4.2148
426.47	4.2148
426.682	-42.14263
426.894	59.01582
427.106	-23.17966
427.318	31.61332
427.531	-27.39383
427.743	-52.67674
427.955	46.36803
428.167	-14.75104
428.379	37.93663
428.591	82.20557
428.804	-25.28676
429.016	-29.50088
429.228	46.36803
429.44	-54.78349
429.652	54.79979
429.864	-16.85823
430.076	8.4297
430.288	-8.42931
430.5	27.39791
430.712	46.36803
430.924	-0
431.136	10.53718
431.348	23.18258
431.56	50.58386
431.772	12.64469
431.984	6.32224
432.196	-27.39383
432.408	37.93663
432.62	25.29023
432.832	-2.10736
433.044	-33.71489
433.256	-0
433.468	31.61332
433.679	-12.64382
433.891	50.58386
434.103	56.90779
434.315	71.66443
434.527	23.18258
434.739	-12.64382
434.95	-4.2147
435.162	18.96735
435.374	31.61332
435.586	-29.50088
435.798	59.01582
436.009	-4.2147
436.221	23.18258
436.433	-16.85823
436.645	16.85977
436.856	16.85977
437.068	-44.2495
437.28	-35.82187
437.491	33.72107
437.703	-42.14263
437.915	21.07496
438.126	-18.9654
438.338	23.18258
438.55	29.5056
438.761	-27.39383
438.973	-10.53658
439.184	-50.56997
439.396	-8.42931
439.608	-63.21022
439.819	-0
440.031	-46.35635
440.242	-21.07254
440.454	-61.10358
440.665	-8.42931
440.877	40.04444
441.088	-8.42931
441.3	54.79979
441.511	21.07496
441.723	75.88082
441.934	-2.10736
442.146	67.44814
442.357	33.72107
442.569	46.36803
442.78	-54.78349
442.991	-8.42931
443.203	71.66443
443.414	-63.21022
443.626	63.23193
443.837	-0
444.048	37.93663
444.26	12.64469
444.471	6.32224
444.682	-40.03573
444.894	-29.50088
445.105	-37.92881
445.316	71.66443
445.528	-35.82187
445.739	46.36803
445.95	31.61332
446.161	56.90779
446.373	-40.03573
446.584	40.04444
446.795	33.72107
447.006	54.79979
447.217	16.85977
447.429	-2.10736
447.64	14.75222
447.851	-50.56997
448.062	14.75222
448.273	8.4297
448.484	25.29023
448.695	31.61332
448.907	4.2148
449.118	-12.64382
449.329	-46.35635
449.54	-23.17966
449.751	-44.2495
449.962	29.5056
450.173	-0
450.384	46.36803
450.595	23.18258
450.806	42.15228
451.017	-21.07254
451.228	-4.2147
451.439	88.53052
451.65	48.47593
451.861	-16.85823
452.072	-10.53658
452.283	37.93663
452.494	82.20557
452.705	4.2148
452.915	25.29023
453.126	113.83233
453.337	-2.10736
453.548	4.2148
453.759	94.85568
453.97	-61.10358
454.181	16.85977
454.391	-35.82187
454.602	21.07496
454.813	18.96735
455.024	103.28953
455.235	-80.06246
455.445	59.01582
455.656	-0
455.867	103.28953
456.078	-21.07254
456.288	37.93663
456.499	29.5056
456.71	42.15228
456.921	29.5056
457.131	4.2148
457.342	6.32224
457.553	37.93663
457.763	80.0973
457.974	35.82884
458.184	37.93663
458.395	99.07256
458.606	-35.82187
458.816	35.82884
459.027	-12.64382
459.237	-63.21022
459.448	63.23193
459.659	-16.85823
459.869	56.90779
460.08	37.93663
460.29	54.79979
460.501	37.93663
460.711	-4.2147
460.922	61.12386
461.132	-21.07254
461.343	31.61332
461.553	96.96411
461.764	48.47593
461.974	50.58386
462.184	67.44814
462.395	48.47593
462.605	63.23193
462.816	-18.9654
463.026	6.32224
463.236	42.15228
463.447	46.36803
463.657	-69.53
463.867	73.77262
464.078	-8.42931
464.288	29.5056
464.498	96.96411
464.709	61.12386
464.919	59.01582
465.129	40.04444
465.339	99.07256
465.55	71.66443
465.76	10.53718
465.97	46.36803
466.18	12.64469
466.391	40.04444
466.601	52.69182
466.811	54.79979
467.021	56.90779
467.231	48.47593
467.441	75.88082
467.651	42.15228
467.862	63.23193
468.072	6.32224
468.282	29.5056
468.492	75.88082
468.702	29.5056
468.912	-29.50088
469.122	115.94096
469.332	46.36803
469.542	73.77262
469.752	71.66443
469.962	128.59318
470.172	67.44814
470.382	63.23193
470.592	82.20557
470.802	-12.64382
471.012	21.07496
471.222	35.82884
471.432	42.15228
471.642	105.39804
471.852	71.66443
472.062	54.79979
472.272	59.01582
472.482	101.18103
472.691	75.88082
472.901	172.88198
473.111	48.47593
473.321	101.18103
473.531	80.0973
473.741	88.53052
473.95	90.63889
474.16	88.53052
474.37	65.34002
474.58	164.4453
474.79	134.91958
474.999	181.31899
475.209	151.79091
475.419	168.6636
475.628	212.96067
475.838	63.23193
476.048	124.37568
476.258	132.81075
476.467	101.18103
476.677	115.94096
476.886	122.26697
477.096	231.94784
477.306	181.31899
477.515	147.57295
477.725	113.83233
477.935	141.24617
478.144	179.20971
478.354	193.97512
478.563	137.02842
478.773	115.94096
478.982	231.94784
479.192	187.64696
479.401	210.85109
479.611	193.97512
479.82	198.19399
480.03	231.94784
480.239	299.47036
480.449	225.6186
480.658	261.48656
480.868	229.83807
481.077	261.48656
481.287	219.28955
481.496	312.13296
481.705	257.26651
481.915	253.04654
482.124	206.63197
482.333	381.78858
482.543	293.13931
482.752	417.67897
482.961	274.14716
483.171	320.57505
483.38	282.58793
483.589	367.01157
483.799	388.12183
484.008	367.01157
484.217	371.23349
484.426	400.78878
484.636	400.78878
484.845	508.48083
485.054	464.13222
485.263	440.90465
485.472	468.35561
485.682	521.15305
485.891	451.4624
486.1	495.80913
486.309	464.13222
486.518	599.30939
486.727	654.24069
486.936	597.19681
487.146	561.28507
487.355	603.53457
487.564	493.69724
487.773	565.50978
487.982	620.43582
488.191	586.63414
488.4	620.43582
488.609	656.3536
488.818	656.3536
489.027	723.97271
489.236	757.78646
489.445	717.63293
489.654	747.21937
489.863	764.12683
490.072	734.53922
490.281	831.76294
490.49	804.2846
490.698	738.76589
490.907	863.47061
491.116	848.67345
491.325	929.0057
491.534	960.71887
491.743	901.52231
491.952	945.91919
492.16	969.17598
492.369	1032.60768
492.578	967.06169
492.787	1045.29468
492.996	952.26187
493.204	1136.22377
493.413	1000.89111
493.622	1087.58612
493.831	1079.12766
494.039	1138.33851
494.248	1144.68274
494.457	1294.83886
494.665	1182.7489
494.874	1237.73541
495.083	1208.12701
495.291	1163.71566
495.5	1129.87959
495.709	1366.74902
495.917	1216.58649
496.126	1521.14738
496.335	1273.68922
496.543	1466.15618
496.752	1351.94384
496.96	1322.33369
497.169	1375.20915
497.377	1593.05799
497.586	1277.91913
497.794	1565.56294
498.003	1307.52874
498.211	1512.68723
498.42	1415.39495
498.628	1529.60753
498.837	1626.89762
499.045	1578.253
499.254	1614.20782
499.462	1719.95339
499.671	1722.06823
499.879	1703.03457
500.087	1603.63293
500.296	1842.60765
500.504	1743.21641
500.713	1798.19994
500.921	1745.33121
501.129	1870.0971
501.338	1563.44793
501.546	1939.87406
501.754	1774.938
501.962	1914.50131
502.171	1779.16748
502.379	2005.41636
502.587	1927.18779
502.795	2015.98712
503.004	1832.03457
503.212	2026.55773
503.42	2068.83842
503.628	2058.26851
503.837	2089.9777
504.045	2155.50466
504.253	1897.5857
504.461	2250.61047
504.669	2210.4568
504.877	2204.11646
505.085	2218.91047
505.294	2214.68365
505.502	2132.25401
505.71	2423.86622
505.918	2147.04999
506.126	2343.5852
506.334	2119.57144
506.542	2485.12305
506.75	2089.9777
506.958	2516.80396
507.166	2273.85586
507.374	2497.79572
507.582	2423.86622
507.79	2510.46799
507.998	2362.60046
508.206	2548.48231
508.414	2510.46799
508.622	2430.20355
508.83	2349.92371
509.037	2700.50063
509.245	2514.69198
509.453	2518.91593
509.661	2658.27978
509.869	2666.72436
510.077	2565.37635
510.285	2763.82215
510.492	2689.9459
510.7	2818.69103
510.908	2702.61154
511.116	2599.16215
511.324	2630.83352
511.531	2799.699
511.739	2512.57999
511.947	2744.82695
512.155	2643.50129
512.362	2972.69496
512.57	2801.80928
512.778	2917.85309
512.985	2734.27359
513.193	2962.14922
513.401	2787.03703
513.608	3042.28732
513.816	2725.83067
514.024	3014.87413
514.231	3147.69805
514.439	3111.86285
514.646	3048.61307
514.854	3088.67291
515.061	2907.30544
515.269	3149.80586
515.477	2911.52454
515.684	3126.61908
515.892	3050.72162
516.099	3215.13984
516.307	3050.72162
516.514	3303.63137
516.722	3189.85114
516.929	3373.1393
517.136	3202.49579
517.344	3411.04471
517.551	3092.8894
517.759	3316.27057
517.966	3427.88971
518.173	3446.83899
518.381	3301.52477
518.588	3400.516
518.796	3301.52477
519.003	3528.93562
519.21	3455.26042
519.418	3579.44279
519.625	3400.516
519.832	3501.57314
520.039	3400.516
520.247	3577.33853
520.454	3617.31614
520.661	3711.97273
520.868	3560.50385
521.076	3714.07577
521.283	3644.66532
521.49	3772.95304
521.697	3571.02567
521.904	3747.72178
522.112	3693.0445
522.319	3890.66143
522.526	3627.83543
522.733	3884.35721
522.94	3573.12997
523.147	3915.87654
523.354	3899.06679
523.561	4018.80795
523.768	3737.20794
523.975	4067.10575
524.183	3899.06679
524.39	4222.4238
524.597	4025.10829
524.804	4100.69775
525.011	4006.20674
525.218	4153.17456
525.425	4086.0019
525.632	4039.80834
525.838	4169.96436
526.045	4400.68584
526.252	4077.60382
526.459	4111.19416
526.666	4104.89638
526.873	4459.37315
527.08	4243.40385
527.287	4365.04592
527.494	4224.5219
527.701	4499.18688
527.907	4205.63822
528.114	4536.8978
528.321	4295.84465
528.528	4448.89453
528.735	4392.30054
528.941	4538.99264
529.148	4572.50708
529.355	4446.79874
529.562	4421.64756
529.768	4526.42326
529.975	4306.3312
530.182	4693.94902
530.388	4551.56122
530.595	4708.6007
530.802	4572.50708
531.008	4959.59931
531.215	4618.58012
531.422	4852.96503
531.628	4704.41461
531.835	4763.01153
532.042	4788.11906
532.248	5055.72794
532.455	4618.58012
532.661	4995.13079
532.868	4698.13532
533.074	4988.86102
533.281	4825.77422
533.487	5007.66973
533.694	4873.8784
533.9	5279.14163
534.107	5120.48267
534.313	5279.14163
534.52	5145.54303
534.726	5312.52633
534.933	5022.29743
535.139	5178.95163
535.345	5220.704
535.552	5201.91659
535.758	5135.10162
535.965	5322.95782
536.171	5214.44174
536.377	5552.3021
536.584	5393.87641
536.79	5408.47393
536.996	5212.35427
537.203	5358.4205
537.409	5206.09173
537.615	5554.38574
537.821	5377.19212
538.028	5573.13746
538.234	5381.36333
538.44	5589.80405
538.646	5468.93709
538.853	5671.03208
539.059	5606.46913
539.265	5366.76368
539.471	5564.8036
539.677	5802.17077
539.883	5623.13271
540.09	5787.60443
540.296	5637.7121
540.502	6043.38753
540.708	5489.78187
540.914	5910.34167
541.12	5843.78251
541.326	6049.62169
541.532	5864.58484
541.738	6028.84034
541.944	5941.53295
542.15	5912.42125
542.356	5904.10277
542.562	6288.43827
542.768	5887.46468
542.974	6074.5562
543.18	5902.02309
543.386	6161.80032
543.592	6082.86695
543.798	6103.64218
544.004	6188.79605
544.21	6354.83647
544.415	6114.02891
544.621	6390.10079
544.827	6053.77768
545.033	6336.16439
545.239	6053.77768
545.445	6574.61016
545.651	6207.48308
545.856	6429.50588
546.062	6267.68393
546.268	6352.76189
546.474	6302.96492
546.679	6163.87705
546.885	6253.15449
547.091	6363.13456
547.297	6419.13693
547.502	6454.38898
547.708	6209.5593
547.914	6487.56123
548.119	6379.72963
548.325	6377.65533
548.531	6346.538
548.736	6783.77559
548.942	6456.46242
549.147	6688.5412
549.353	6473.0491
549.559	6783.77559
549.764	6485.48814
549.97	6624.3341
550.175	6841.72068
550.381	7056.78965
550.586	6866.54882
550.792	7067.12337
550.997	6721.6717
551.203	6949.2857
551.408	6719.60122
551.614	6864.47993
551.819	6984.43792
552.025	7098.12116
552.23	6922.40019
552.435	7288.13152
552.641	6918.26362
552.846	6990.64058
553.052	7071.2567
553.257	7180.75742
553.462	7197.2804
553.668	7197.2804
553.873	7118.78357
554.078	7193.14979
554.283	7195.21511
554.489	7378.94009
554.694	7199.34568
554.899	7387.19331
555.105	7314.96574
555.31	7430.51704
555.515	7242.7113
555.72	7496.51576
555.925	7172.49539
556.131	7438.76809
556.336	7265.42274
556.541	7529.50684
556.746	7112.58508
556.951	7383.06674
557.156	7284.00285
557.361	7725.27875
557.567	7603.71669
557.772	7887.93379
557.977	7578.98315
558.182	7642.87185
558.387	7803.53412
558.592	7498.57787
558.797	7669.6578
559.002	7957.89741
559.207	7770.58817
559.412	7910.57168
559.617	7461.4567
559.822	7935.26472
560.027	7381.00343
560.232	7848.82608
560.437	7616.08231
560.642	7848.82608
560.847	7906.45588
561.051	7922.91857
561.256	7770.58817
561.461	7896.16604
561.666	7968.18418
561.871	7939.37994
562.076	7857.0599
562.281	8056.62935
562.485	7785.00268
562.69	7990.81327
562.895	8077.19262
563.1	8268.33513
563.305	8001.0984
563.509	8210.80494
563.714	8227.24372
563.919	8292.98619
564.123	8112.14555
564.328	8319.68833
564.533	7910.57168
564.737	8029.89407
564.942	8103.92185
565.147	8262.17192
565.351	8089.52961
565.556	8046.34695
565.761	8202.58508
565.965	8319.68833
566.17	7828.24007
566.374	8054.57291
566.579	8188.19955
566.784	8352.54798
566.988	8385.40265
567.193	8531.13582
567.397	8440.83368
567.602	8666.52046
567.806	8124.48049
568.011	8654.21613
568.215	8615.248
568.42	8559.86061
568.624	8658.31765
568.828	8490.09397
569.033	8344.33353
569.237	8652.16534
569.442	8602.94087
569.646	8422.35823
569.85	8391.56234
570.055	8775.17987
570.259	8705.47978
570.463	8697.27837
570.668	8648.06371
570.872	8785.4281
571.076	8662.41909
571.281	8980.05894
571.485	8867.39764
571.689	8889.93421
571.893	8510.61585
572.098	8967.77122
572.302	8762.88139
572.506	9002.58477
572.71	8687.0262
572.914	8853.05505
573.119	8908.37161
573.323	8908.37161
573.527	8777.22955
573.731	8859.20198
573.935	9049.6774
574.139	9160.20665
574.343	8670.62176
574.547	8900.17739
574.751	8859.20198
574.955	8965.72321
575.159	9039.44066
575.364	9141.78859
575.568	8941.14566
575.772	9006.68015
575.976	9268.6407
576.18	9061.96091
576.383	9104.9483
576.587	9272.73162
576.791	9088.57305
576.995	9227.72776
577.199	9025.10849
577.403	9109.04194
577.607	9041.48804
577.811	9023.06096
578.015	8986.20256
578.219	9440.40261
578.422	9092.66697
578.626	9368.84924
578.83	9180.66954
579.034	9362.71516
579.238	9309.54695
579.442	9656.98734
579.645	9442.44669
579.849	9669.24157
580.053	9513.97968
580.257	9509.89261
580.46	9450.62289
580.664	9722.33686
580.868	9610.00759
581.071	9491.5
581.275	9466.97451
581.479	9857.07108
581.682	9950.9384
581.886	9797.87775
582.09	9779.50485
582.293	9875.43887
582.497	9434.27024
582.7	9718.25297
582.904	9871.35724
583.107	9965.21985
583.311	9777.46334
583.515	9893.80547
583.718	9746.83888
583.922	10024.3783
584.125	9881.56121
584.329	9922.37337
584.532	9801.96045
584.735	10110.03478
584.939	9738.67178
585.142	10120.23032
585.346	9869.31641
585.549	9932.57549
585.753	10046.81456
585.956	10006.02007
586.159	10165.08657
586.363	10187.51218
586.566	9887.68341
586.769	9975.42044
586.973	10061.09128
587.176	10299.61543
587.379	10285.35002
587.582	10387.2315
587.786	9897.88678
587.989	10436.12292
588.192	10114.11304
588.395	10240.51157
588.599	10293.50176
588.802	10550.17405
589.005	10285.35002
589.208	10684.54092
589.411	10436.12292
589.615	10525.73788
589.818	10501.29989
590.021	10425.93783
590.224	10531.8471
590.427	10625.50756
590.63	10778.15918
590.833	10784.26384
591.036	10438.1599
591.239	10690.64724
591.442	10523.70146
591.645	10719.14193
591.848	10576.64453
592.051	10780.19408
592.254	10372.97009
592.457	10912.43747
592.66	10668.25688
592.863	10798.50764
593.066	10706.93021
593.269	10790.3684
593.472	10552.21032
593.675	10859.54599
593.878	10835.13191
594.081	10967.35509
594.284	10794.43804
594.486	10853.44263
594.689	11211.3363
594.892	11085.2988
595.095	11018.19745
595.298	10820.88959
595.5	10904.30083
595.703	11207.2712
595.906	10936.84632
596.109	11176.78168
596.311	11363.7476
596.514	10971.42274
596.717	11105.6302
596.92	11221.49884
597.122	11097.49777
597.325	11282.4687
597.528	10973.45654
597.73	11345.46125
597.933	10918.53984
598.136	11323.11016
598.338	11180.84709
598.541	11384.06483
598.743	11566.87621
598.946	11286.53303
599.148	11201.17349
599.351	11495.79209
599.554	11260.11416
599.756	11520.16509
599.959	11520.16509
600.161	11512.04091
600.363	11377.96976
600.566	11581.09166
600.768	11479.54267
600.971	11644.04037
601.173	11574.99938
601.376	11585.15313
601.578	11623.73529
601.78	11733.37205
601.983	11512.04091
602.185	11741.49226
602.388	11574.99938
602.59	11788.18078
602.792	11485.63627
602.995	11611.55181
603.197	11449.07334
603.399	11566.87621
603.601	11428.75925
603.804	11727.2818
604.006	11717.13121
604.208	11920.10226
604.41	11678.55693
604.613	11694.79912
604.815	11771.94182
605.017	12122.99142
605.219	11572.9686
605.421	11262.14644
605.623	11670.43562
605.826	11972.86106
606.028	11916.04366
606.23	11820.65706
606.432	11780.06137
606.634	12208.18194
606.836	11780.06137
607.038	11778.03149
607.24	11794.27025
607.442	11818.62736
607.644	11968.80289
607.846	12151.38972
608.048	11867.33791
608.25	11903.86767
608.452	11639.97943
608.654	12159.50325
608.856	11851.1016
609.058	11956.62817
609.26	11845.01285
609.462	11942.42396
609.664	12305.52677
609.866	12321.74932
610.067	12185.8714
610.269	11901.83831
610.471	11834.86475
610.673	12212.23831
610.875	11966.77379
611.077	12098.64884
611.278	12120.96291
611.48	12266.99641
611.682	12277.13623
611.884	12451.51389
612.085	12337.97142
612.287	12327.83266
612.489	12175.72995
612.69	12360.27608
612.892	12208.18194
613.094	12380.55233
613.295	12009.38321
613.497	12445.43179
613.699	12236.57589
613.9	12441.37702
614.102	12443.40441
614.304	12094.59163
614.505	12066.19035
614.707	12437.32223
614.908	12127.04841
615.11	12488.00525
615.311	12017.49889
615.513	12084.44849
615.714	12175.72995
615.916	12544.76541
616.117	12145.30449
616.319	12200.06912
616.52	12216.29464
616.722	12313.6381
616.923	12374.46953
617.124	12309.58245
617.326	12269.02439
617.527	12380.55233
617.729	12465.70522
617.93	12431.23999
618.131	12202.09734
618.333	12435.29483
618.534	12504.22295
618.735	12721.09634
618.937	12477.86897
619.138	12937.9032
619.339	12378.52474
619.54	12607.60126
619.742	12378.52474
619.943	12362.30374
620.144	12571.11666
620.345	12662.32444
620.546	12660.29774
620.748	12796.07411
620.949	12664.35114
621.15	12721.09634
621.351	12563.0087
621.552	12581.25147
621.753	12558.95468
621.954	12662.32444
622.155	12204.12554
622.356	12552.8736
622.558	12530.57584
622.759	12680.56453
622.96	12498.14136
623.161	12518.4131
623.362	12441.37702
623.563	12443.40441
623.764	12427.18514
623.965	12921.69549
624.166	12558.95468
624.366	12313.6381
624.567	12558.95468
624.768	12538.68421
624.969	12540.71128
625.17	12467.73253
625.371	12666.37784
625.572	12771.75785
625.773	12840.65183
625.973	12933.8513
626.174	12633.95001
626.375	12763.65225
626.576	12749.46723
626.777	12877.12254
626.977	12688.67108
627.178	13156.67591
627.379	12506.25013
627.58	12818.3633
627.78	12749.46723
627.981	12964.24002
628.182	12765.67866
628.382	12838.62563
628.583	12635.97679
628.784	12783.91608
628.984	12530.57584
629.185	12962.21415
629.386	12779.86336
629.586	12909.53948
629.787	12834.5732
629.987	12749.46723
630.188	12745.41431
630.388	13110.09016
630.589	12678.53788
630.79	12968.29177
630.99	12869.01809
631.191	12658.27102
631.391	12680.56453
631.591	12905.48744
631.792	12619.76235
631.992	13047.2967
632.193	13010.83383
632.393	13138.447
632.594	12858.8874
632.794	12982.4727
632.994	12994.62759
633.195	13067.55316
633.395	12954.11058
633.595	12852.80893
633.796	13053.37369
633.996	13095.9114
634.196	12948.03285
634.397	13585.96881
634.597	13154.6505
634.797	13347.04525
634.997	12767.70506
635.198	13077.68121
635.398	12800.12674
635.598	13229.58788
635.798	13213.38572
635.998	12982.4727
636.199	12933.8513
636.399	13298.44393
636.599	12826.4683
636.799	13077.68121
636.999	12998.67918
637.199	13464.48884
637.399	13197.18328
637.599	13134.39608
637.799	12883.20082
637.999	13174.90445
638.199	13472.58792
638.399	13675.04609
638.599	13345.02024
638.799	13515.10709
638.999	13565.72304
639.199	13766.14133
639.399	13349.07025
639.599	13594.06701
639.799	13223.5121
639.999	13675.04609
640.199	13306.54432
640.399	13535.35374
640.599	12885.2269
640.799	13804.6019
640.998	13434.11676
641.198	13434.11676
641.398	13464.48884
641.598	13385.51962
641.798	13507.00832
641.997	13865.32697
642.197	13600.14063
642.397	13600.14063
642.597	13571.79681
642.796	13636.58169
642.996	13626.45929
643.196	13877.47168
643.395	13411.84335
643.595	13780.31114
643.795	13470.56316
643.994	13719.58233
644.194	13796.50503
644.394	13626.45929
644.593	13628.48378
644.793	14031.29641
644.992	13590.01792
645.192	13492.83535
645.392	13800.55347
645.591	13820.79551
645.791	13634.55722
645.99	13679.0949
646.19	13357.17023
646.389	13614.31229
646.589	13749.94708
646.788	13905.80895
646.987	13569.77222
647.187	14033.32033
647.386	13428.04224
647.586	13871.39934
647.785	13737.80127
647.984	13670.99726
648.184	13762.09279
648.383	13717.55799
648.582	13974.62586
648.782	14201.29723
648.981	14025.22466
649.18	13958.43392
649.38	13790.43234
649.579	13901.7608
649.778	13936.16972
649.977	14304.50495
650.177	13745.89849
650.376	13727.67967
650.575	13482.71168
650.774	13976.64984
650.973	13982.72177
651.173	14063.67874
651.372	13656.82626
651.571	14429.96705
651.77	13806.62611
651.969	14324.74121
652.168	13879.49579
652.367	13960.45792
652.566	13946.28985
652.765	14217.487
652.964	13897.71264
653.163	14411.75519
653.362	14168.91729
653.561	14168.91729
653.76	14027.24858
653.959	14227.60555
654.158	13950.33788
654.357	14043.43985
654.556	14150.70335
654.755	14496.74286
654.954	13863.30284
655.153	14284.26853
655.352	14330.81205
655.551	14423.89644
655.749	14577.68129
655.948	14100.10814
656.147	14209.39213
656.346	14179.03608
656.545	14229.62925
656.743	14011.05715
656.942	14087.96509
657.141	14393.5432
657.34	14259.98457
657.538	14266.05559
657.737	14294.38676
657.936	14326.76482
658.135	14039.39205
658.333	14262.00825
658.532	14253.91354
658.731	14136.53682
658.929	14017.12895
659.128	14355.09526
659.326	14391.51964
659.525	14395.56676
659.724	14367.23678
659.922	14771.92641
660.121	14268.07925
660.319	14334.85927
660.518	14144.63199
660.716	14650.52427
660.915	14403.66099
661.113	14504.83679
661.312	14243.79512
661.51	14516.97765
661.709	14488.6489
661.907	14614.10296
662.105	14152.72713
662.304	14561.49376
662.502	14128.44162
662.701	14312.59948
662.899	14215.46329
663.097	14411.75519
663.296	14245.81881
663.494	14769.90306
663.692	14753.71629
663.891	14856.90621
664.089	14512.93071
664.287	14516.97765
664.485	14132.48923
664.684	14915.58212
664.882	14452.22582
665.08	14553.39997
665.278	14523.04807
665.476	14474.48442
665.675	14146.65578
665.873	14427.94351
666.071	14336.88287
666.269	14282.24487
666.467	14069.75035
666.665	14417.82582
666.863	14357.11885
667.061	14411.75519
667.259	14326.76482
667.457	14403.66099
667.655	14336.88287
667.853	14551.37652
668.051	14170.94105
668.249	14209.39213
668.447	14203.32096
668.645	14458.29637
668.843	14510.90723
669.041	14581.72816
669.239	14120.34639
669.437	14440.08469
669.635	14470.43742
669.833	14603.98586
670.031	14205.34468
670.229	14648.50087
670.426	14355.09526
670.624	14759.78633
670.822	14599.93902
671.02	14844.76631
671.218	14978.30419
671.415	14573.63441
671.613	14583.75159
671.811	14555.42342
672.009	14519.00113
672.206	14389.49608
672.404	14298.43404
672.602	14482.57842
672.799	14405.68454
672.997	14626.24343
673.195	14320.69397
673.392	14393.5432
673.59	14593.86874
673.788	14389.49608
673.985	14401.63743
674.183	14599.93902
674.38	14510.90723
674.578	14555.42342
674.775	14403.66099
674.973	14179.03608
675.17	14168.91729
675.368	14385.44895
675.565	14379.37824
675.763	14302.48132
675.96	14340.93008
676.158	14512.93071
676.355	14201.29723
676.553	14958.07131
676.75	14391.51964
676.947	14516.97765
677.145	14565.54065
677.342	14618.14979
677.539	14523.04807
677.737	14885.23257
677.934	14591.84531
678.131	14577.68129
678.329	14150.70335
678.526	14270.10292
678.723	14266.05559
678.92	14512.93071
679.118	14347.00088
679.315	14274.15024
679.512	14326.76482
679.709	14575.65785
679.906	14158.79845
680.104	14013.08109
680.301	14132.48923
680.498	14280.22122
680.695	14351.04808
680.892	14436.03764
681.089	14067.72648
681.286	14395.56676
681.483	13903.78488
681.68	14168.91729
681.877	14217.487
682.075	14383.42538
682.272	13741.84989
682.469	14197.24976
682.665	13689.21688
682.862	14075.82195
683.059	14055.58321
683.256	14083.91739
683.453	13970.57789
683.65	14264.03192
683.847	14276.1739
684.044	14452.22582
684.241	14120.34639
684.438	14636.36047
684.635	14154.7509
684.831	14510.90723
685.028	14541.25924
685.225	14257.9609
685.422	14114.27494
685.619	14128.44162
685.815	13974.62586
686.012	14146.65578
686.209	13948.31387
686.405	14092.01278
686.602	14221.53443
686.799	14049.51154
686.996	14096.06047
687.192	13996.88952
687.389	14120.34639
687.586	14108.20347
687.782	14104.15581
687.979	14189.15481
688.175	13800.55347
688.372	14051.53543
688.568	13739.82558
688.765	14035.34424
688.962	14047.48765
689.158	14338.90648
689.355	14330.81205
689.551	14393.5432
689.748	14087.96509
689.944	14017.12895
690.14	13885.5681
690.337	13762.09279
690.533	13743.87419
690.73	13758.04423
690.926	13958.43392
691.123	13703.38751
691.319	13703.38751
691.515	14098.0843
691.712	13731.72832
691.908	13756.01995
692.104	13879.49579
692.301	13861.27871
692.497	13596.09155
692.693	13786.38387
692.889	13683.1437
693.086	13604.18969
693.282	14027.24858
693.478	13946.28985
693.674	13861.27871
693.87	14021.17681
694.067	13940.21778
694.263	14160.82223
694.459	14071.77422
694.655	14033.32033
694.851	13887.59219
695.047	13792.45657
695.243	13893.66447
695.439	13855.2063
695.635	13553.57542
695.831	13774.23838
696.027	13756.01995
696.224	13620.3858
696.42	13650.75293
696.615	13944.26583
696.811	13569.77222
697.007	13741.84989
697.203	13782.33539
697.399	13509.03302
697.595	13713.5093
697.791	13612.28777
697.987	13590.01792
698.183	14000.93743
698.379	13545.47693
698.575	13749.94708
698.77	13259.96616
698.966	13494.86007
699.162	13500.93421
699.358	13628.48378
699.554	13490.81062
699.749	13563.69845
699.945	13430.06709
700.141	13660.87513
700.337	13521.18112
700.532	13857.23044
700.728	13407.79359
700.924	13478.66219
701.119	13253.89059
701.315	13294.39371
701.511	13302.49413
701.706	13899.73672
701.902	13598.11609
702.097	13622.4103
702.293	13604.18969
702.489	13458.4145
702.684	13294.39371
702.88	13484.73642
703.075	13061.47628
703.271	13476.63743
703.466	13448.29051
703.662	13363.24516
703.857	13334.89515
704.053	13349.07025
704.248	13266.0417
704.443	13519.15645
704.639	13342.99523
704.834	13553.57542
705.03	13509.03302
705.225	13587.99336
705.42	13393.6193
705.616	13286.29322
705.811	13093.88584
706.006	13535.35374
706.202	13351.09525
706.397	13375.39493
706.592	13132.37061
706.787	13417.91797
706.983	13221.48684
707.178	13596.09155
707.373	13359.19521
707.568	13464.48884
707.763	13261.99135
707.959	13464.48884
708.154	13444.24089
708.349	13452.34011
708.544	13610.26326
708.739	13482.71168
708.934	13452.34011
709.129	13411.84335
709.324	13183.00591
709.519	13462.46406
709.714	13237.68885
709.909	13758.04423
710.104	13488.78589
710.299	13304.51923
710.494	13138.447
710.689	13247.81497
710.884	13132.37061
711.079	13298.44393
711.274	13326.79499
711.469	13205.28454
711.664	13399.69402
711.859	13347.04525
712.054	13018.93683
712.249	13272.11721
712.443	13215.41101
712.638	13417.91797
712.833	12933.8513
713.028	13357.17023
713.223	13312.61956
713.417	13403.74381
713.612	13338.9452
713.807	13458.4145
714.002	13097.93695
714.196	13334.89515
714.391	12836.59942
714.586	13027.03975
714.78	12854.83509
714.975	13126.29418
715.17	12810.25822
715.364	13474.61268
715.559	13116.1667
715.754	12968.29177
715.948	13018.93683
716.143	13211.36043
716.337	12862.93969
716.532	13223.5121
716.726	13183.00591
716.921	12915.61751
717.115	12658.27102
717.31	12818.3633
717.504	12785.94243
717.699	13059.45064
717.893	12858.8874
718.088	12672.45788
718.282	12814.31077
718.476	12658.27102
718.671	12739.3349
718.865	12753.52012
719.059	12629.89642
719.254	12769.73146
719.448	12617.73552
719.642	12881.17473
719.837	12502.19576
720.031	12619.76235
720.225	12544.76541
720.419	13081.7324
720.614	12970.31763
720.808	13257.94098
721.002	13059.45064
721.196	13274.14236
721.39	12735.28193
721.585	12755.54656
721.779	12828.49453
721.973	12836.59942
722.167	12469.75983
722.361	12860.91355
722.555	12678.53788
722.749	12856.86125
722.943	12804.17935
723.137	12800.12674
723.331	12646.11062
723.525	12771.75785
723.719	12658.27102
723.913	12727.17591
724.107	12494.08693
724.301	12496.11415
724.495	12321.74932
724.689	12492.05971
724.883	12575.1706
725.077	12852.80893
725.271	12694.75093
725.465	12735.28193
725.659	12528.54873
725.853	12490.03248
726.046	12512.33165
726.24	12096.62024
726.434	12171.67332
726.628	12565.0357
726.822	12544.76541
727.015	12694.75093
727.209	12139.2192
727.403	12421.1028
727.596	12230.49159
727.79	12475.8417
727.984	12603.54751
728.177	12652.19085
728.371	12463.67791
728.565	12739.3349
728.758	12832.54699
728.952	12581.25147
729.146	12512.33165
729.339	12633.95001
729.533	12522.46737
729.726	12753.52012
729.92	12479.89624
730.113	12771.75785
730.307	12386.63507
730.5	12534.63004
730.694	12479.89624
730.887	12565.0357
731.081	12437.32223
731.274	12729.20242
731.468	12295.38745
731.661	12370.41429
731.854	12025.61445
732.048	12419.07534
732.241	12749.46723
732.435	12603.54751
732.628	12828.49453
732.821	12725.1494
733.014	12646.11062
733.208	12642.05711
733.401	12595.43995
733.594	12273.08032
733.788	12264.96843
733.981	12579.22452
734.174	12333.91593
734.367	12658.27102
734.56	12581.25147
734.754	12485.978
734.947	12149.36132
735.14	12437.32223
735.333	12307.55461
735.526	12406.91044
735.719	12062.1329
735.912	12206.15375
736.105	12114.87735
736.298	12483.95075
736.491	12189.92793
736.684	12143.27607
736.877	12191.95618
737.07	12410.96543
737.263	12088.50577
737.456	12419.07534
737.649	12189.92793
737.842	12331.88818
738.035	12163.55997
738.228	12153.41811
738.421	12313.6381
738.614	12289.30377
738.807	12350.1377
739	12281.1921
739.192	11792.24044
739.385	11989.09345
739.578	12088.50577
739.771	12370.41429
739.964	12175.72995
740.156	12266.99641
740.349	12183.84313
740.542	12175.72995
740.735	12037.78755
740.927	11875.45587
741.12	11968.80289
741.313	11709.01057
741.505	12102.70601
741.698	12076.33384
741.891	12171.67332
742.083	12005.32532
742.276	12062.1329
742.468	12021.55668
742.661	12191.95618
742.854	12283.22003
743.046	12301.47106
743.239	12206.15375
743.431	12145.30449
743.624	12041.84518
743.816	12084.44849
744.009	12086.47713
744.201	12078.36251
744.393	11893.72078
744.586	12131.10537
744.778	11993.15146
744.971	11761.79218
745.163	11928.21935
745.355	11928.21935
745.548	12041.84518
745.74	11867.33791
745.932	12094.59163
746.125	11974.89014
746.317	12058.07542
746.509	11928.21935
746.702	11999.23843
746.894	12258.88443
747.086	11869.36742
747.278	11972.86106
747.471	12155.4465
747.663	11891.69138
747.855	11983.00636
748.047	11962.71557
748.239	11968.80289
748.431	11528.28912
748.623	11857.19028
748.815	11666.37491
749.008	11778.03149
749.2	11574.99938
749.392	11796.30006
749.584	11333.2699
749.776	11776.00161
749.968	11796.30006
750.16	11759.76223
750.352	11729.31189
750.544	11798.32985
750.736	11753.67232
750.928	11733.37205
751.12	11893.72078
751.311	11964.74468
751.503	11719.16134
751.695	11851.1016
751.887	11666.37491
752.079	11794.27025
752.271	11418.60185
752.463	11491.72979
752.654	11396.25469
752.846	11380.00146
753.038	11268.24323
753.23	11438.91642
753.421	11461.26133
753.613	11599.368
753.805	11692.76888
753.997	11625.76584
754.188	11601.39866
754.38	11485.63627
754.572	11505.94767
754.763	11753.67232
754.955	11648.10128
755.146	11639.97943
755.338	11631.85743
755.53	11715.10106
755.721	11514.07197
755.913	11310.91815
756.104	11461.26133
756.296	11373.90634
756.487	11420.63335
756.679	11761.79218
756.87	11412.50728
757.062	11363.7476
757.253	11471.41773
757.445	11089.36517
757.636	11308.88611
757.827	11442.97922
758.019	11447.04198
758.21	11010.06314
758.401	11174.74896
758.593	11264.17872
758.784	11101.56401
758.975	10831.06274
759.167	11022.26454
759.358	11237.75838
759.549	11197.10829
759.74	11229.62869
759.932	11197.10829
760.123	10849.37366
760.314	11178.81439
760.505	11353.58862
760.696	11050.73292
760.888	11132.05942
761.079	10829.02813
761.27	10953.11798
761.461	10806.6467
761.652	11178.81439
761.843	10580.71672
762.034	11030.39858
762.225	10851.40815
762.416	10957.18578
762.607	10932.77829
762.798	10753.73947
762.989	10826.99351
763.18	11085.2988
763.371	10875.82112
763.562	11003.96229
763.753	10735.42355
763.944	11066.99961
764.135	10928.71022
764.326	11036.499
764.517	10818.85493
764.708	11022.26454
764.899	10664.18575
765.089	10835.13191
765.28	10747.63427
765.471	10861.58043
765.662	10521.66501
765.853	10578.68063
766.043	10454.45528
766.234	10605.14883
766.425	10158.97021
766.615	10391.30607
766.806	10395.38059
766.997	10254.77906
767.187	10158.97021
767.378	10438.1599
767.569	10269.04588
767.759	10379.0822
767.95	10289.42592
768.141	10228.28176
768.331	10044.77497
768.522	10250.7027
768.712	10105.95646
768.903	10207.89766
769.093	9899.92741
769.284	10126.34748
769.474	10201.78216
769.665	10032.53714
769.855	10228.28176
770.046	10240.51157
770.236	10044.77497
770.426	10195.66654
770.617	10236.43502
770.807	9930.5351
770.998	9771.33872
771.188	9950.9384
771.378	9844.82521
771.569	10071.28851
771.759	9683.53748
771.949	10079.44604
772.139	9957.05911
772.33	10071.28851
772.52	9857.07108
772.71	10220.12828
772.9	10008.05993
773.09	10079.44604
773.281	10118.19124
773.471	10093.72118
773.661	10158.97021
773.851	10032.53714
774.041	9877.47966
774.231	9824.41424
774.421	9867.27556
774.611	9671.28389
774.802	9554.84689
774.992	9708.04299
775.182	9147.9281
775.372	9750.92234
775.562	9354.53616
775.752	9736.62997
775.942	9652.90247
776.131	9614.09311
776.321	9417.91655
776.511	9720.29492
776.701	9673.3262
776.891	9665.15689
777.081	9511.93615
777.271	9801.96045
777.461	9693.74838
777.651	9889.72411
777.84	9479.23754
778.03	9687.62189
778.22	9659.02975
778.41	9636.56237
778.599	9560.97642
778.789	9744.79713
778.979	9452.6669
779.169	9393.38407
779.358	9464.93061
779.548	9538.50077
779.738	9401.56182
779.927	9530.32733
780.117	9546.67395
780.307	9489.4563
780.496	9186.80808
780.686	9303.41143
780.875	9066.05528
781.065	9383.16151
781.254	9106.99513
781.444	9473.1061
781.633	9340.22228
781.823	9391.33959
782.012	9203.17676
782.202	9154.06745
782.391	8959.57906
782.581	9434.27024
782.77	8916.56555
782.96	9188.85423
783.149	9244.09374
783.338	9023.06096
783.528	8861.25092
783.717	9133.60234
783.906	8787.47769
784.096	9141.78859
784.285	9141.78859
784.474	8984.1547
784.663	8775.17987
784.853	9027.15599
785.042	8793.62636
785.231	9006.68015
785.42	8769.03071
785.61	8861.25092
785.799	8555.7573
785.988	8615.248
786.177	8325.8499
786.366	8621.40131
786.555	8522.92806
786.744	8666.52046
786.933	8426.46402
787.122	8730.08223
787.312	8325.8499
787.501	8551.65391
787.69	8383.34938
787.879	8500.35515
788.068	8641.91113
788.257	8457.255
788.445	8381.29608
788.634	8812.07137
788.823	8771.08045
789.012	8650.11454
789.201	8490.09397
789.39	8791.57682
789.579	8473.6751
789.768	8908.37161
789.957	8315.58053
790.145	8674.72298
790.334	8668.57112
790.523	8656.2669
790.712	8301.20259
790.9	8557.80896
791.089	8216.96963
791.278	8403.88122
791.467	8368.97593
791.655	8426.46402
791.844	8040.17728
792.033	8340.2262
792.221	8243.68123
792.41	8570.11857
792.599	8268.33513
792.787	8358.70861
792.976	8237.51731
793.164	8099.80988
793.353	7957.89741
793.541	8233.40793
793.73	8177.92358
793.918	8342.27987
794.107	7875.58479
794.295	8029.89407
794.484	7778.82516
794.672	8110.08965
794.861	7996.98441
795.049	8157.37014
795.238	7992.87034
795.426	8013.43989
795.614	7630.50789
795.803	8179.97881
795.991	8299.14852
796.179	8262.17192
796.368	7955.84
796.556	8200.53006
796.744	7941.43752
796.932	8101.86588
797.121	7770.58817
797.309	7894.108
797.497	7774.70671
797.685	8046.34695
797.874	7690.25995
798.062	7955.84
798.25	7727.33849
798.438	7803.53412
798.626	7684.07952
798.814	7655.23504
799.002	7626.3864
799.19	7698.50021
799.378	7871.46829
799.566	8116.25727
799.755	7787.06182
799.943	7972.29874
800.131	7770.58817
800.318	8124.48049
800.506	7922.91857
800.694	7972.29874
800.882	7863.23505
801.07	7910.57168
801.258	7558.36952
801.446	7638.75061
801.634	7403.69872
801.822	7642.87185
802.01	7527.44506
802.197	7644.93243
802.385	7618.14317
802.573	7432.57983
802.761	7444.95615
802.949	7407.82485
803.136	7581.0444
803.324	7723.21899
803.512	7370.68651
803.699	7694.38012
803.887	7422.26564
804.075	7490.32932
804.262	7463.51917
804.45	7875.58479
804.638	7591.35031
804.825	7768.52888
805.013	7444.95615
805.201	7768.52888
805.388	7589.28917
805.576	7820.00509
805.763	7714.97973
805.951	7896.16604
806.138	7634.62929
806.326	7832.35744
806.513	7459.39421
806.701	7692.32004
806.888	7591.35031
807.075	7735.57724
807.263	7618.14317
807.45	7815.88747
807.638	7634.62929
807.825	7922.91857
808.012	7337.66872
808.2	7714.97973
808.387	7521.25959
808.574	7712.91987
808.761	7296.3886
808.949	7708.80007
809.136	7356.24192
809.323	7636.68996
809.51	7444.95615
809.698	7752.05373
809.885	7364.4961
810.072	7688.19983
810.259	7782.94353
810.446	7696.44018
810.633	7768.52888
810.82	7910.57168
811.008	7741.75608
811.195	7766.46956
811.382	7809.71089
811.569	7634.62929
811.756	7628.44716
811.943	7758.23206
812.13	7626.3864
812.317	7735.57724
812.504	7698.50021
812.691	8112.14555
812.878	8089.52961
813.064	8169.70244
813.251	8015.49674
813.438	8122.42471
813.625	7741.75608
813.812	8050.45997
813.999	7799.41617
814.186	7906.45588
814.372	7550.12347
814.559	7733.51758
814.746	7508.88806
814.933	7791.18002
815.12	7762.35085
815.306	7749.99424
815.493	7906.45588
815.68	7924.97631
815.866	7515.07392
816.053	7809.71089
816.24	7317.02975
816.426	7566.61523
816.613	7529.50684
816.799	7587.22801
816.986	7605.77768
817.173	7659.35593
817.359	7496.51576
817.546	7622.26483
817.732	7546.00032
817.919	7803.53412
818.105	7279.87409
818.292	7453.2066
818.478	7438.76809
818.665	7708.80007
818.851	7486.20492
819.037	7595.47252
819.224	7362.43259
819.41	7776.76595
819.597	7694.38012
819.783	7727.33849
819.969	7642.87185
820.156	7677.89891
820.342	7659.35593
820.528	7599.59465
820.714	7331.47726
820.901	7653.17456
821.087	7513.01199
821.273	7477.95586
821.459	7420.20273
821.646	7546.00032
821.832	7383.06674
822.018	7387.19331
822.204	7083.65615
822.39	7139.44374
822.576	7222.06222
822.762	7337.66872
822.948	7153.90454
823.134	7189.01909
823.32	7129.11394
823.507	7250.97032
823.693	7091.92201
823.879	7273.68079
824.065	7062.98995
824.25	7131.17994
824.436	7424.32852
824.622	7347.98738
824.808	7236.51681
824.994	7284.00285
825.18	7048.52227
825.366	7366.55959
825.552	7232.38704
825.738	7418.13981
825.923	6845.85893
826.109	7240.64649
826.295	7255.09969
826.481	7403.69872
826.667	6992.70808
826.852	7232.38704
827.038	7042.32151
827.224	7271.61631
827.409	7034.0535
827.595	7756.17264
827.781	7034.0535
827.966	7217.93214
828.152	6866.54882
828.338	7048.52227
828.523	6787.91512
828.709	7077.45653
828.894	6955.48951
829.08	7007.18
829.266	6835.51313
829.451	6860.34209
829.637	6746.51573
829.822	6959.62527
830.008	7040.25454
830.193	6750.65608
830.378	6663.68946
830.564	6947.21772
830.749	6723.74216
830.935	6719.60122
831.12	6495.85337
831.305	6663.68946
831.491	6497.92634
831.676	6671.97374
831.861	6385.95239
832.047	6616.0477
832.232	6587.04239
832.417	6725.8126
832.602	6431.5796
832.788	6572.53805
832.973	6684.39947
833.158	6936.87748
833.343	6703.03652
833.528	6862.41102
833.714	6605.68918
833.899	6694.75361
834.084	6591.18629
834.269	6622.26253
834.454	6640.90579
834.639	6423.28458
834.824	6344.46333
835.009	6435.72697
835.194	6593.2582
835.379	6821.02806
835.564	6392.17495
835.749	6616.0477
835.934	6286.36294
836.119	6219.94004
836.304	6222.01612
836.489	6570.4659
836.674	6356.91103
836.859	6369.35789
837.044	6437.80062
837.228	6414.98919
837.413	6340.31391
837.598	6307.11518
837.783	6057.93357
837.968	6022.60548
838.152	6132.72355
838.337	6192.94889
838.522	6055.85563
838.707	6234.4721
838.891	6024.68379
839.076	6114.02891
839.261	5945.69139
839.445	5962.3242
839.63	6161.80032
839.815	6124.41506
839.999	5885.38481
840.184	6363.13456
840.368	6234.4721
840.553	6444.02142
840.737	6103.64218
840.922	6062.08937
841.106	6145.18559
841.291	6032.9968
841.475	6097.40986
841.66	6311.26535
841.844	6030.91858
842.029	6222.01612
842.213	5516.87657
842.397	5947.77057
842.582	5741.81698
842.766	5958.16614
842.951	5745.97994
843.135	5949.84973
843.319	5800.08994
843.504	6022.60548
843.688	5571.05403
843.872	5754.3056
844.056	5591.88727
844.241	5983.11308
844.425	5681.44333
844.609	5881.22501
844.793	5591.88727
844.977	5837.54135
845.161	5381.36333
845.346	5922.81882
845.53	5668.94976
845.714	5750.14282
845.898	5460.59852
846.082	5612.71815
846.266	5564.8036
846.45	5521.04463
846.634	5562.72007
846.818	5596.05363
847.002	5506.45601
847.186	5745.97994
847.37	5641.87743
847.554	5529.38048
847.738	5325.04405
847.922	5368.84942
848.106	5322.95782
848.29	5245.75094
848.473	5356.33465
848.657	5254.09918
848.841	4921.97049
849.025	5133.01327
849.209	5105.86258
849.392	5329.21643
849.576	5045.28154
849.76	5245.75094
849.944	5074.52999
850.127	5164.3361
850.311	5024.38701
850.495	5222.79137
850.678	4938.69533
850.862	5283.31505
851.046	5137.18995
851.229	5189.3906
851.413	4846.69057
851.596	5216.52918
851.78	4988.86102
851.964	5078.70797
852.147	4919.87978
852.331	5105.86258
852.514	4873.8784
852.698	5061.9955
852.881	4631.14362
853.065	4913.60752
853.248	4924.06117
853.431	5122.57116
853.615	4911.51672
853.798	5139.27825
853.982	4911.51672
854.165	5011.84919
854.348	4955.4187
854.532	5005.57996
854.715	4857.14788
854.898	4932.42369
855.081	4626.95588
855.265	4767.19635
855.448	4716.97259
855.631	4654.17461
855.814	4543.18226
855.997	4681.38956
856.181	4652.081
856.364	5030.65561
856.547	4773.4734
856.73	4626.95588
856.913	4568.31808
857.096	4861.33065
857.279	4415.35928
857.462	4706.50767
857.645	4253.89308
857.828	4549.46651
858.011	4394.3969
858.194	4668.82929
858.377	4425.83965
858.56	4549.46651
858.743	4434.22355
858.926	4442.6071
859.109	4325.20564
859.292	4360.85257
859.475	4283.26008
859.658	4497.09162
859.841	4276.96751
860.023	4369.23917
860.206	4209.83474
860.389	4450.9903
860.572	4117.49175
860.755	4551.56122
860.937	4075.50425
861.12	4325.20564
861.303	4048.20791
861.486	4253.89308
861.668	4167.86571
861.851	4295.84465
862.034	4358.75587
862.216	4310.52567
862.399	4060.80665
862.581	4524.32829
862.764	4203.53993
862.947	4268.57711
863.129	4283.26008
863.312	4228.71804
863.494	4167.86571
863.677	4274.86994
863.859	3995.70516
864.042	3947.39134
864.224	3857.03681
864.406	3991.50439
864.589	3871.74821
864.771	4002.00617
864.954	3791.87463
865.136	4037.70839
865.318	3806.59033
865.501	3987.30353
865.683	3543.66797
865.865	3892.7628
866.048	3812.89676
866.23	3966.29803
866.412	3726.6936
866.594	3968.39867
866.777	3680.42482
866.959	3880.15429
867.141	3650.97622
867.323	3840.22258
867.505	3509.99269
867.687	3594.17203
867.869	3619.42003
868.052	3882.25576
868.234	3594.17203
868.416	4020.90809
868.598	3716.17879
868.78	3754.02986
868.962	3789.77231
869.144	3854.9351
869.326	3358.39677
869.508	3627.83543
869.69	3476.31274
869.872	3741.41353
870.054	3520.51672
870.236	3783.46523
870.417	3634.14678
870.599	3697.25091
870.781	3387.88097
870.963	3411.04471
871.145	3465.78681
871.327	3581.54702
871.508	3387.88097
871.69	3495.25829
871.872	3314.16408
872.054	3480.52299
872.235	3392.09272
872.417	3526.83092
872.599	3349.97208
872.78	3539.45882
872.962	3240.42616
873.144	3457.36573
873.325	3341.54712
873.507	3575.23426
873.689	3585.75543
873.87	3602.58833
874.052	3299.41816
874.233	3472.10242
874.415	3331.01553
874.596	3617.31614
874.778	3349.97208
874.959	3469.99723
875.141	3326.80277
875.322	3413.15039
875.503	3307.8445
875.685	3537.35422
875.866	3242.53324
876.048	3535.24959
876.229	3312.05757
876.41	3265.71007
876.592	3246.74736
876.773	3440.52272
876.954	3261.49625
877.136	3383.66915
877.317	3276.24431
877.498	3547.87705
877.679	3457.36573
877.86	3714.07577
878.042	3303.63137
878.223	3484.73317
878.404	3368.92723
878.585	3499.46821
878.766	3269.92382
878.947	3560.50385
879.128	3349.97208
879.309	3556.29499
879.49	3476.31274
879.672	3537.35422
879.853	3368.92723
880.034	3585.75543
880.215	3290.99155
880.396	3562.60825
880.576	3429.99526
880.757	3690.94127
880.938	3339.44084
881.119	3695.14771
881.3	3457.36573
881.481	3812.89676
881.662	3474.20759
881.843	3366.82118
882.023	3225.6761
882.204	3453.15509
882.385	3307.8445
882.566	3678.32147
882.747	3326.80277
882.927	3566.81699
883.108	3337.33454
883.289	3560.50385
883.469	3259.38932
883.65	3709.86967
883.831	3425.78415
884.011	3402.62178
884.192	3501.57314
884.373	3505.78296
884.553	3290.99155
884.734	3514.20236
884.914	3411.04471
885.095	3697.25091
885.275	3385.77507
885.456	3735.10511
885.636	3312.05757
885.817	3669.90789
885.997	3335.22822
886.178	3579.44279
886.358	3345.75964
886.538	3699.35408
886.719	3461.5763
886.899	3655.18339
887.08	3564.71263
887.26	3619.42003
887.44	3383.66915
887.621	3672.01131
887.801	3537.35422
887.981	3796.07921
888.161	3577.33853
888.342	3531.04029
888.522	3467.89203
888.702	3745.61905
888.882	3566.81699
889.062	3429.99526
889.242	3501.57314
889.423	3638.35426
889.603	3535.24959
889.783	3619.42003
889.963	3404.72753
890.143	3547.87705
890.323	3505.78296
890.503	3737.20794
890.683	3672.01131
890.863	3417.36172
891.043	3261.49625
891.223	3537.35422
891.403	3375.2453
891.583	3720.38477
891.763	3088.67291
891.943	3402.62178
892.122	3362.60901
892.302	3674.11472
892.482	3263.60317
892.662	3392.09272
892.842	3280.45789
893.022	3352.07828
893.201	3320.4835
893.381	3371.03327
893.561	3101.3222
893.741	3463.68156
893.92	3341.54712
894.1	3427.88971
894.28	3221.46165
894.459	3371.03327
894.639	3215.13984
894.819	3467.89203
894.998	3057.04719
895.178	3425.78415
895.357	2962.14922
895.537	3219.35439
895.716	3116.079
895.896	3046.5045
896.075	2917.85309
896.255	2987.45835
896.434	2833.46182
896.614	3101.3222
896.793	2898.86706
896.973	3116.079
897.152	3044.39592
897.331	3286.77814
897.511	3061.26415
897.69	3229.89049
897.87	2970.58584
898.049	2970.58584
898.228	2945.27527
898.407	3090.78116
898.587	2860.89149
898.766	3008.54764
898.945	2943.16596
899.124	3040.1787
899.304	2869.3309
899.483	3122.4031
899.662	2829.24167
899.841	2837.68193
900.02	2506.24394
900.199	2877.77009
900.378	2641.39002
900.557	2998.00319
900.737	2778.59545
900.916	2970.58584
901.095	2711.05504
901.274	2744.82695
901.453	2605.49664
901.632	2493.57154
901.811	2390.06549
901.989	2715.27671
902.168	2299.21318
902.347	2753.26939
902.526	2599.16215
902.705	2848.23194
902.884	2670.94658
903.063	2751.1588
903.242	2415.41629
903.42	2620.2767
903.599	2282.30845
903.778	2497.79572
903.957	2256.95023
904.135	2472.44998
904.314	2314.00433
904.493	2421.75375
904.672	2202.003
904.85	2337.2466
905.029	2269.62951
905.207	2214.68365
905.386	2075.18028
905.565	2278.08217
905.743	2026.55773
905.922	2032.90001
906.1	1813.00273
906.279	2032.90001
906.457	2026.55773
906.636	1971.58881
906.814	1876.4407
906.993	1952.56012
907.171	1880.66974
907.35	1758.01993
907.528	1825.69066
907.707	1897.5857
907.885	1637.4724
908.063	1939.87406
908.242	1586.713
908.42	1948.33146
908.598	1620.55273
908.777	1730.52754
908.955	1762.24947
909.133	1855.29519
909.311	1546.52777
909.49	2037.12816
909.668	1840.49304
909.846	1916.61574
910.024	1713.60886
910.202	1872.21164
910.38	1736.87199
910.559	1857.40976
910.737	1677.65598
910.915	1859.52433
911.093	1639.58735
911.271	1946.21712
911.449	1762.24947
911.627	1821.46137
911.805	1358.28891
911.983	1707.2643
912.161	1576.13799
912.339	1844.72225
912.517	1707.2643
912.695	1838.37843
912.872	1542.29771
913.05	1897.5857
913.228	1821.46137
913.406	1882.78425
913.584	1662.85161
913.762	1612.09285
913.939	1622.6677
914.117	1821.46137
914.295	1510.57218
914.473	1633.24249
914.65	1512.68723
914.828	1821.46137
915.006	1425.97019
915.184	1722.06823
915.361	1686.11556
915.539	1889.12776
915.716	1624.78266
915.894	1851.06603
916.072	1533.83759
916.249	1508.45714
916.427	1561.33292
916.604	1567.67796
916.782	1377.32418
916.959	1705.14944
917.137	1474.61638
917.314	1586.713
917.492	1421.74009
917.669	1516.91731
917.847	1474.61638
918.024	1605.74791
918.201	1284.26401
918.379	1593.05799
918.556	1487.30668
918.733	1599.40296
918.911	1172.17484
919.088	1502.11201
919.265	1347.71381
919.442	1542.29771
919.62	1191.20821
919.797	1423.85514
919.974	1237.73541
920.151	1354.05887
920.328	1411.16485
920.506	1390.01441
920.683	1415.39495
920.86	1409.0498
921.037	1373.09412
921.214	1364.63399
921.391	1195.43789
921.568	1356.17389
921.745	1290.60891
921.922	1406.93476
922.099	1214.47162
922.276	1296.95383
922.453	1161.60087
922.63	1307.52874
922.807	1127.76487
922.984	1237.73541
923.161	1167.94524
923.338	1273.68922
923.514	1146.79749
923.691	1186.97855
923.868	1218.70137
924.045	1199.66758
924.222	1070.66929
924.399	1189.09338
924.575	1009.34873
924.752	1256.76969
924.929	1034.72216
925.105	1172.17484
925.282	1085.4715
925.459	1093.93002
925.635	1036.83665
925.812	1106.61795
925.989	916.3209
926.165	988.20488
926.342	1047.4092
926.518	977.6332
926.695	1011.46315
926.871	958.60461
927.048	956.49035
927.224	952.26187
927.401	903.63637
927.577	1022.03534
927.754	886.72411
927.93	874.04026
928.107	903.63637
928.283	918.43502
928.459	707.06685
928.636	861.3567
928.812	833.87673
928.988	835.99052
929.165	816.96672
929.341	907.86452
929.517	732.42589
929.693	842.33194
929.87	637.33786
930.046	738.76589
930.222	669.03129
930.398	785.26206
930.574	719.74618
930.751	776.80785
930.927	702.8405
931.103	791.60282
931.279	664.80534
931.455	732.42589
931.631	557.06041
931.807	571.84695
931.983	584.52165
932.159	726.08599
932.335	630.9995
932.511	690.1617
932.687	542.27454
932.863	726.08599
933.039	578.18424
933.215	721.85944
933.391	622.54853
933.566	635.22506
933.742	470.46733
933.918	569.73455
934.094	436.68165
934.27	533.82578
934.445	388.12183
934.621	493.69724
934.797	426.12445
934.973	453.574
935.148	383.89964
935.324	278.36751
935.5	383.89964
935.675	362.78973
935.851	301.58075
936.027	390.23295
936.202	329.01742
936.378	329.01742
936.553	269.92688
936.729	286.80843
936.904	253.04654
937.08	274.14716
937.255	164.4453
937.431	267.81677
937.606	164.4453
937.782	234.05762
937.957	109.61514
938.133	189.75633
938.308	215.07028
938.483	183.42829
938.659	227.72833
938.834	134.91958
939.009	191.86571
939.185	115.94096
939.36	124.37568
939.535	130.70195
939.71	126.48442
939.886	164.4453
940.061	59.01582
940.236	158.11802
940.411	107.50658
940.586	118.04961
940.761	86.42218
940.937	101.18103
941.112	122.26697
941.287	73.77262
941.462	8.4297
941.637	134.91958
941.812	118.04961
941.987	124.37568
942.162	132.81075
942.337	160.22709
942.512	54.79979
942.687	90.63889
942.862	50.58386
943.037	56.90779
943.212	101.18103
943.386	80.0973
943.561	65.34002
943.736	71.66443
943.911	101.18103
944.086	101.18103
944.26	153.89993
944.435	177.10045
944.61	63.23193
944.785	92.74727
944.959	37.93663
945.134	4.2148
945.309	107.50658
945.483	109.61514
945.658	54.79979
945.833	84.31387
946.007	48.47593
946.182	73.77262
946.357	54.79979
946.531	29.5056
946.706	54.79979
946.88	109.61514
947.055	86.42218
947.229	71.66443
947.404	105.39804
947.578	137.02842
947.752	134.91958
947.927	8.4297
948.101	105.39804
948.276	103.28953
948.45	42.15228
948.624	99.07256
948.799	124.37568
948.973	99.07256
949.147	63.23193
949.321	210.85109
949.496	71.66443
949.67	16.85977
949.844	99.07256
950.018	84.31387
950.193	109.61514
950.367	46.36803
950.541	56.90779
950.715	80.0973
950.889	122.26697
951.063	143.35507
951.237	92.74727
951.411	92.74727
951.585	54.79979
951.759	130.70195
951.933	122.26697
952.107	37.93663
952.281	130.70195
952.455	147.57295
952.629	61.12386
952.803	120.15828
952.977	37.93663
953.151	151.79091
953.325	101.18103
953.499	103.28953
953.672	77.98905
953.846	25.29023
954.02	52.69182
954.194	92.74727
954.368	84.31387
954.541	37.93663
954.715	31.61332
954.889	37.93663
955.062	75.88082
955.236	147.57295
955.41	134.91958
955.583	65.34002
955.757	56.90779
955.93	105.39804
956.104	113.83233
956.278	84.31387
956.451	107.50658
956.625	40.04444
956.798	132.81075
956.972	69.55627
957.145	65.34002
957.319	59.01582
957.492	40.04444
957.665	174.9912
957.839	105.39804
958.012	122.26697
958.185	124.37568
958.359	80.0973
958.532	139.13728
958.705	92.74727
958.879	84.31387
959.052	67.44814
959.225	88.53052
959.398	54.79979
959.572	92.74727
959.745	105.39804
959.918	96.96411
960.091	14.75222
960.264	88.53052
960.438	63.23193
960.611	61.12386
960.784	54.79979
960.957	113.83233
961.13	109.61514
961.303	65.34002
961.476	113.83233
961.649	124.37568
961.822	71.66443
961.995	48.47593
962.168	88.53052
962.341	29.5056
962.514	59.01582
962.686	25.29023
962.859	71.66443
963.032	4.2148
963.205	103.28953
963.378	96.96411
963.551	50.58386
963.723	118.04961
963.896	88.53052
964.069	122.26697
964.242	59.01582
964.414	96.96411
964.587	69.55627
964.76	109.61514
964.932	56.90779
965.105	-2.10736
965.278	134.91958
965.45	113.83233
965.623	80.0973
965.795	46.36803
965.968	46.36803
966.14	128.59318
966.313	151.79091
966.485	21.07496
966.658	50.58386
966.83	63.23193
967.003	147.57295
967.175	67.44814
967.348	56.90779
967.52	67.44814
967.692	29.5056
967.865	65.34002
968.037	52.69182
968.209	29.5056
968.382	-8.42931
968.554	6.32224
968.726	86.42218
968.898	99.07256
969.071	122.26697
969.243	96.96411
969.415	31.61332
969.587	105.39804
969.759	84.31387
969.932	-12.64382
970.104	61.12386
970.276	71.66443
970.448	40.04444
970.62	25.29023
970.792	59.01582
970.964	48.47593
971.136	82.20557
971.308	-10.53658
971.48	54.79979
971.652	82.20557
971.824	63.23193
971.996	29.5056
972.168	111.72373
972.339	113.83233
972.511	113.83233
972.683	46.36803
972.855	35.82884
973.027	71.66443
973.199	14.75222
973.37	80.0973
973.542	63.23193
973.714	12.64469
973.886	115.94096
974.057	73.77262
974.229	21.07496
974.401	67.44814
974.572	29.5056
974.744	86.42218
974.915	-0
975.087	82.20557
975.259	29.5056
975.43	59.01582
975.602	23.18258
975.773	-12.64382
975.945	25.29023
976.116	71.66443
976.288	54.79979
976.459	-23.17966
976.63	12.64469
976.802	-10.53658
976.973	-0
977.145	21.07496
977.316	71.66443
977.487	113.83233
977.659	101.18103
977.83	8.4297
978.001	21.07496
978.172	118.04961
978.344	54.79979
978.515	71.66443
978.686	6.32224
978.857	118.04961
979.028	40.04444
979.2	56.90779
979.371	73.77262
979.542	73.77262
979.713	71.66443
979.884	23.18258
980.055	-2.10736
980.226	67.44814
980.397	-10.53658
980.568	67.44814
980.739	46.36803
980.91	77.98905
981.081	-10.53658
981.252	65.34002
981.423	166.55444
981.594	48.47593
981.765	75.88082
981.936	-37.92881
982.106	-12.64382
982.277	48.47593
982.448	-25.28676
982.619	-27.39383
982.79	16.85977
982.96	-12.64382
983.131	50.58386
983.302	-16.85823
983.472	4.2148
983.643	54.79979
983.814	92.74727
983.984	75.88082
984.155	44.26014
984.326	4.2148
984.496	4.2148
984.667	-21.07254
984.837	56.90779
985.008	-16.85823
985.178	21.07496
985.349	12.64469
985.519	29.5056
985.69	31.61332
985.86	31.61332
986.031	44.26014
986.201	-29.50088
986.371	-58.9969
986.542	-23.17966
986.712	33.72107
986.882	63.23193
987.053	63.23193
987.223	29.5056
987.393	23.18258
987.563	31.61332
987.734	84.31387
987.904	56.90779
988.074	122.26697
988.244	12.64469
988.414	33.72107
988.585	21.07496
988.755	88.53052
988.925	54.79979
989.095	71.66443
989.265	-29.50088
989.435	21.07496
989.605	21.07496
989.775	31.61332
989.945	14.75222
990.115	71.66443
990.285	73.77262
990.455	54.79979
990.625	37.93663
990.795	12.64469
990.965	23.18258
991.134	65.34002
991.304	50.58386
991.474	59.01582
991.644	-40.03573
991.814	109.61514
991.984	37.93663
992.153	8.4297
992.323	48.47593
992.493	50.58386
992.662	23.18258
992.832	42.15228
993.002	2.10739
993.171	-10.53658
993.341	-29.50088
993.511	-29.50088
993.68	80.0973
993.85	101.18103
994.019	50.58386
994.189	4.2148
994.358	63.23193
994.528	29.5056
994.697	25.29023
994.867	59.01582
995.036	88.53052
995.206	-4.2147
995.375	21.07496
995.544	-2.10736
995.714	54.79979
995.883	12.64469
996.052	-2.10736
996.222	-27.39383
996.391	29.5056
996.56	-46.35635
996.73	-18.9654
996.899	6.32224
997.068	-2.10736
997.237	69.55627
997.406	-25.28676
997.576	12.64469
997.745	27.39791
997.914	16.85977
998.083	21.07496
998.252	37.93663
998.421	-37.92881
998.59	6.32224
998.759	-0
998.928	80.0973
999.097	-23.17966
999.266	8.4297
999.435	14.75222
999.604	8.4297
999.773	8.4297
999.942	-21.07254
1000.111	-25.28676
1000.28	-4.2147
1000.448	-27.39383
1000.617	52.69182
1000.786	33.72107
1000.955	-10.53658
1001.124	-2.10736
1001.292	63.23193
1001.461	40.04444
1001.63	132.81075
1001.798	-8.42931
1001.967	-12.64382
1002.136	164.4453
1002.304	-25.28676
1002.473	-21.07254
1002.642	-31.6079
1002.81	-21.07254
1002.979	88.53052
1003.147	21.07496
1003.316	-44.2495
1003.484	10.53718
1003.653	21.07496
1003.821	-29.50088
1003.99	40.04444
1004.158	-16.85823
1004.327	-69.53
1004.495	-29.50088
1004.663	75.88082
1004.832	-12.64382
1005	71.66443
1005.168	-27.39383
1005.337	44.26014
1005.505	-8.42931
1005.673	65.34002
1005.842	-12.64382
1006.01	-2.10736
1006.178	88.53052
1006.346	80.0973
1006.514	-8.42931
1006.683	25.29023
1006.851	-0
1007.019	-12.64382
1007.187	37.93663
1007.355	63.23193
1007.523	21.07496
1007.691	-63.21022
1007.859	23.18258
1008.027	-12.64382
1008.195	73.77262
1008.363	8.4297
1008.531	-54.78349
1008.699	-54.78349
1008.867	18.96735
1009.035	-46.35635
1009.203	-12.64382
1009.37	-27.39383
1009.538	80.0973
1009.706	16.85977
1009.874	21.07496
1010.042	4.2148
1010.209	-10.53658
1010.377	109.61514
1010.545	71.66443
1010.713	4.2148
1010.88	16.85977
1011.048	4.2148
1011.216	-71.63655
1011.383	42.15228
1011.551	14.75222
1011.718	23.18258
1011.886	48.47593
1012.054	6.32224
1012.221	2.10739
1012.389	12.64469
1012.556	-10.53658
1012.724	23.18258
1012.891	-21.07254
1013.058	46.36803
1013.226	-27.39383
1013.393	-12.64382
1013.561	-37.92881
1013.728	33.72107
1013.895	12.64469
1014.063	-42.14263
1014.23	16.85977
1014.397	18.96735
1014.565	-25.28676
1014.732	-27.39383
1014.899	-75.84956
1015.066	48.47593
1015.233	50.58386
1015.401	-8.42931
1015.568	-12.64382
1015.735	25.29023
1015.902	12.64469
1016.069	8.4297
1016.236	-50.56997
1016.403	4.2148
1016.57	4.2148
1016.737	-29.50088
1016.904	46.36803
1017.071	29.5056
1017.238	-42.14263
1017.405	37.93663
1017.572	37.93663
1017.739	-12.64382
1017.906	-4.2147
1018.073	4.2148
1018.24	-37.92881
1018.407	-31.6079
1018.573	-65.31684
1018.74	63.23193
1018.907	-44.2495
1019.074	-0
1019.241	-21.07254
1019.407	33.72107
1019.574	6.32224
1019.741	-12.64382
1019.907	-37.92881
1020.074	52.69182
1020.241	4.2148
1020.407	50.58386
1020.574	35.82884
1020.74	21.07496
1020.907	-16.85823
1021.073	-52.67674
1021.24	82.20557
1021.406	-21.07254
1021.573	-14.75104
1021.739	-37.92881
1021.906	23.18258
1022.072	27.39791
1022.239	-2.10736
1022.405	33.72107
1022.571	29.5056
1022.738	25.29023
1022.904	-25.28676
1023.07	-25.28676
1023.237	-29.50088
1023.403	-21.07254
1023.569	-71.63655
1023.735	31.61332
1023.902	21.07496
1024.068	-16.85823
1024.234	-27.39383
1024.4	14.75222
1024.566	-44.2495
1024.732	14.75222
1024.898	-21.07254
1025.065	21.07496
1025.231	-4.2147
1025.397	-16.85823
1025.563	25.29023
1025.729	25.29023
1025.895	-40.03573
1026.061	16.85977
1026.227	-42.14263
1026.392	-18.9654
1026.558	75.88082
1026.724	12.64469
1026.89	37.93663
1027.056	-2.10736
1027.222	12.64469
1027.388	-10.53658
1027.553	-12.64382
1027.719	8.4297
1027.885	-27.39383
1028.051	2.10739
1028.216	29.5056
1028.382	-12.64382
1028.548	31.61332
1028.713	75.88082
1028.879	-33.71489
1029.045	12.64469
1029.21	65.34002
1029.376	-37.92881
1029.541	40.04444
1029.707	14.75222
1029.873	69.55627
1030.038	-8.42931
1030.204	59.01582
1030.369	-71.63655
1030.534	54.79979
1030.7	4.2148
1030.865	-61.10358
1031.031	-25.28676
1031.196	2.10739
1031.361	4.2148
1031.527	4.2148
1031.692	-4.2147
1031.857	-6.32202
1032.023	12.64469
1032.188	-37.92881
1032.353	14.75222
1032.518	-14.75104
1032.684	-33.71489
1032.849	-2.10736
1033.014	4.2148
1033.179	-8.42931
1033.344	69.55627
1033.509	16.85977
1033.674	54.79979
1033.839	80.0973
1034.004	42.15228
1034.17	-0
1034.335	18.96735
1034.5	-23.17966
1034.664	-4.2147
1034.829	-33.71489
1034.994	8.4297
1035.159	63.23193
1035.324	-4.2147
1035.489	-25.28676
1035.654	-14.75104
1035.819	8.4297
1035.984	-6.32202
1036.148	-58.9969
1036.313	4.2148
1036.478	-12.64382
1036.643	-80.06246
1036.807	-105.33773
1036.972	16.85977
1037.137	4.2148
1037.301	14.75222
1037.466	-16.85823
1037.631	-10.53658
1037.795	-4.2147
1037.96	4.2148
1038.124	-16.85823
1038.289	-37.92881
1038.454	-27.39383
1038.618	4.2148
1038.783	50.58386
1038.947	-27.39383
1039.111	-16.85823
1039.276	-33.71489
1039.44	37.93663
1039.605	-18.9654
1039.769	6.32224
1039.933	44.26014
1040.098	-12.64382
1040.262	4.2148
1040.426	-29.50088
1040.591	-2.10736
1040.755	-21.07254
1040.919	8.4297
1041.083	-27.39383
1041.248	4.2148
1041.412	96.96411
1041.576	54.79979
1041.74	-42.14263
1041.904	54.79979
1042.068	-33.71489
1042.232	-10.53658
1042.397	-29.50088
1042.561	25.29023
1042.725	50.58386
1042.889	-12.64382
1043.053	-37.92881
1043.217	-40.03573
1043.381	6.32224
1043.544	-0
1043.708	-25.28676
1043.872	27.39791
1044.036	-4.2147
1044.2	25.29023
1044.364	23.18258
1044.528	-18.9654
1044.691	23.18258
1044.855	-29.50088
1045.019	25.29023
1045.183	-42.14263
1045.346	-35.82187
1045.51	59.01582
1045.674	63.23193
1045.837	-23.17966
1046.001	-16.85823
1046.165	21.07496
1046.328	27.39791
1046.492	-35.82187
1046.655	4.2148
1046.819	31.61332
1046.983	10.53718
1047.146	-12.64382
1047.31	-65.31684
1047.473	-44.2495
1047.636	-12.64382
1047.8	21.07496
1047.963	48.47593
1048.127	-46.35635
1048.29	-18.9654
