Data from mixed_try1_USB4F045381__29__00254.txt Node

Date: Thu Apr 03 20:26:16 EDT 2025
User: mmckonesweet
Spectrometer: USB4F04538
Trigger mode: 4
Integration Time (sec): 2.700000E-3
Scans to average: 1
Electric dark correction enabled: true
Nonlinearity correction enabled: true
Boxcar width: 0
XAxis mode: Wavelengths
Number of Pixels in Spectrum: 3648
>>>>>Begin Spectral Data<<<<<
345.52	-50.74553
345.736	-50.74553
345.952	-50.74553
346.168	25.11459
346.384	-21.24814
346.6	4.03918
346.816	-42.31821
347.032	-44.42508
347.248	-12.81942
347.464	56.73213
347.68	-8.60492
347.896	-21.24814
348.112	50.4082
348.328	6.14661
348.544	12.46906
348.76	67.27246
348.975	-67.59898
349.191	-101.30096
349.407	12.46906
349.623	-35.99745
349.839	46.19237
350.055	-4.39031
350.27	29.32996
350.486	18.79172
350.702	29.32996
350.918	4.03918
351.133	8.25407
351.349	-54.95905
351.565	31.43768
351.781	25.11459
351.996	65.16435
352.212	12.46906
352.428	16.68414
352.644	-44.42508
352.859	-27.56942
353.075	86.24649
353.291	-33.89048
353.506	-31.78348
353.722	-4.39031
353.938	-31.78348
354.153	-67.59898
354.369	33.54542
354.584	20.89932
354.8	44.08449
355.016	-50.74553
355.231	-38.10439
355.447	-21.24814
355.662	-54.95905
355.878	37.76098
356.093	12.46906
356.309	1.93177
356.524	-35.99745
356.74	23.00695
356.955	-25.46235
357.171	4.03918
357.386	-71.81209
357.602	-69.70555
357.817	6.14661
358.033	-44.42508
358.248	-21.24814
358.464	31.43768
358.679	-29.67646
358.895	41.97663
359.11	-48.63874
359.325	86.24649
359.541	-50.74553
359.756	-52.8523
359.972	29.32996
360.187	35.65319
360.402	-0.17561
360.618	82.02988
360.833	-25.46235
361.048	-25.46235
361.264	-54.95905
361.479	52.51615
361.694	-2.28298
361.909	113.65661
362.125	79.92161
362.34	-10.71218
362.555	-6.49763
362.77	4.03918
362.986	-2.28298
363.201	79.92161
363.416	1.93177
363.631	23.00695
363.847	-42.31821
364.062	25.11459
364.277	-19.141
364.492	4.03918
364.707	25.11459
364.922	-14.92664
365.138	-10.71218
365.353	-2.28298
365.568	31.43768
365.783	-63.38577
365.998	-65.49239
366.213	105.22233
366.428	-35.99745
366.643	46.19237
366.858	12.46906
367.073	27.22227
367.288	54.62413
367.503	-0.17561
367.718	-38.10439
367.933	16.68414
368.148	-2.28298
368.363	-4.39031
368.578	-4.39031
368.793	25.11459
369.008	-27.56942
369.223	-19.141
369.438	-31.78348
369.653	20.89932
369.868	63.05626
370.083	-21.24814
370.298	-38.10439
370.513	29.32996
370.728	96.7884
370.943	-63.38577
371.157	-113.93748
371.372	27.22227
371.587	-8.60492
371.802	12.46906
372.017	-0.17561
372.232	-8.60492
372.446	-44.42508
372.661	54.62413
372.876	-29.67646
373.091	20.89932
373.306	-27.56942
373.52	-29.67646
373.735	16.68414
373.95	4.03918
374.165	79.92161
374.379	-31.78348
374.594	-10.71218
374.809	-0.17561
375.023	50.4082
375.238	16.68414
375.453	-2.28298
375.667	-4.39031
375.882	-12.81942
376.097	-35.99745
376.311	-67.59898
376.526	69.38059
376.741	-4.39031
376.955	-0.17561
377.17	-17.03383
377.384	12.46906
377.599	-12.81942
377.813	-8.60492
378.028	-71.81209
378.242	20.89932
378.457	-21.24814
378.672	-12.81942
378.886	-63.38577
379.101	4.03918
379.315	-19.141
379.53	-8.60492
379.744	-12.81942
379.958	8.25407
380.173	16.68414
380.387	-42.31821
380.602	54.62413
380.816	-10.71218
381.031	29.32996
381.245	-35.99745
381.459	4.03918
381.674	-10.71218
381.888	-31.78348
382.103	-17.03383
382.317	31.43768
382.531	-111.83146
382.746	-25.46235
382.96	48.30027
383.174	-57.06577
383.388	-33.89048
383.603	-46.53192
383.817	-42.31821
384.031	25.11459
384.246	37.76098
384.46	39.86879
384.674	-38.10439
384.888	14.57659
385.103	-0.17561
385.317	-10.71218
385.531	18.79172
385.745	-8.60492
385.959	-10.71218
386.174	44.08449
386.388	-4.39031
386.602	-27.56942
386.816	73.59693
387.03	37.76098
387.244	12.46906
387.458	4.03918
387.672	-29.67646
387.887	-12.81942
388.101	-29.67646
388.315	79.92161
388.529	8.25407
388.743	25.11459
388.957	-31.78348
389.171	16.68414
389.385	6.14661
389.599	-67.59898
389.813	29.32996
390.027	-48.63874
390.241	73.59693
390.455	1.93177
390.669	14.57659
390.883	-12.81942
391.097	-35.99745
391.311	88.35483
391.525	37.76098
391.738	67.27246
391.952	33.54542
392.166	-4.39031
392.38	8.25407
392.594	-25.46235
392.808	-2.28298
393.022	16.68414
393.236	60.94819
393.449	37.76098
393.663	8.25407
393.877	-17.03383
394.091	-38.10439
394.305	8.25407
394.518	-10.71218
394.732	-14.92664
394.946	-0.17561
395.16	-8.60492
395.373	50.4082
395.587	16.68414
395.801	46.19237
396.015	65.16435
396.228	23.00695
396.442	113.65661
396.656	37.76098
396.869	-0.17561
397.083	4.03918
397.297	33.54542
397.51	23.00695
397.724	29.32996
397.938	8.25407
398.151	12.46906
398.365	-29.67646
398.578	-25.46235
398.792	-8.60492
399.005	-10.71218
399.219	-38.10439
399.433	12.46906
399.646	25.11459
399.86	-21.24814
400.073	-10.71218
400.287	-0.17561
400.5	16.68414
400.714	41.97663
400.927	31.43768
401.141	-31.78348
401.354	67.27246
401.567	-88.66349
401.781	18.79172
401.994	16.68414
402.208	-10.71218
402.421	-97.08857
402.635	33.54542
402.848	-12.81942
403.061	-12.81942
403.275	-8.60492
403.488	-27.56942
403.701	-0.17561
403.915	37.76098
404.128	46.19237
404.341	-27.56942
404.555	-80.238
404.768	14.57659
404.981	50.4082
405.195	-19.141
405.408	1.93177
405.621	4.03918
405.834	-17.03383
406.048	37.76098
406.261	4.03918
406.474	-59.17246
406.687	4.03918
406.9	-40.21131
407.114	-38.10439
407.327	-10.71218
407.54	1.93177
407.753	31.43768
407.966	14.57659
408.179	63.05626
408.392	58.84015
408.605	10.36155
408.819	-10.71218
409.032	-38.10439
409.245	39.86879
409.458	54.62413
409.671	4.03918
409.884	-29.67646
410.097	63.05626
410.31	35.65319
410.523	-17.03383
410.736	29.32996
410.949	-12.81942
411.162	35.65319
411.375	75.70514
411.588	-2.28298
411.801	56.73213
412.014	54.62413
412.227	-10.71218
412.44	12.46906
412.653	12.46906
412.865	18.79172
413.078	6.14661
413.291	-21.24814
413.504	-10.71218
413.717	14.57659
413.93	-29.67646
414.143	-19.141
414.356	4.03918
414.568	-4.39031
414.781	63.05626
414.994	60.94819
415.207	-42.31821
415.42	4.03918
415.632	33.54542
415.845	-21.24814
416.058	-4.39031
416.271	107.33087
416.483	46.19237
416.696	4.03918
416.909	12.46906
417.121	46.19237
417.334	41.97663
417.547	92.57157
417.759	20.89932
417.972	8.25407
418.185	25.11459
418.397	-4.39031
418.61	-71.81209
418.823	-52.8523
419.035	-25.46235
419.248	54.62413
419.46	16.68414
419.673	-44.42508
419.885	6.14661
420.098	-48.63874
420.311	50.4082
420.523	63.05626
420.736	4.03918
420.948	90.46319
421.161	12.46906
421.373	46.19237
421.586	29.32996
421.798	-21.24814
422.01	48.30027
422.223	8.25407
422.435	-2.28298
422.648	-4.39031
422.86	27.22227
423.073	44.08449
423.285	-35.99745
423.497	29.32996
423.71	-8.60492
423.922	79.92161
424.134	-19.141
424.347	25.11459
424.559	41.97663
424.771	-10.71218
424.984	25.11459
425.196	67.27246
425.408	39.86879
425.621	23.00695
425.833	16.68414
426.045	67.27246
426.257	71.48875
426.47	14.57659
426.682	37.76098
426.894	58.84015
427.106	-42.31821
427.318	41.97663
427.531	73.59693
427.743	29.32996
427.955	65.16435
428.167	4.03918
428.379	71.48875
428.591	37.76098
428.804	54.62413
429.016	56.73213
429.228	16.68414
429.44	31.43768
429.652	71.48875
429.864	4.03918
430.076	16.68414
430.288	16.68414
430.5	16.68414
430.712	79.92161
430.924	46.19237
431.136	1.93177
431.348	16.68414
431.56	12.46906
431.772	31.43768
431.984	4.03918
432.196	14.57659
432.408	35.65319
432.62	58.84015
432.832	12.46906
433.044	25.11459
433.256	-23.35526
433.468	29.32996
433.679	-21.24814
433.891	31.43768
434.103	-23.35526
434.315	10.36155
434.527	37.76098
434.739	12.46906
434.95	4.03918
435.162	79.92161
435.374	67.27246
435.586	-17.03383
435.798	46.19237
436.009	-2.28298
436.221	48.30027
436.433	122.09124
436.645	48.30027
436.856	48.30027
437.068	29.32996
437.28	73.59693
437.491	27.22227
437.703	-12.81942
437.915	-4.39031
438.126	18.79172
438.338	20.89932
438.55	12.46906
438.761	67.27246
438.973	37.76098
439.184	-29.67646
439.396	-71.81209
439.608	-4.39031
439.819	20.89932
440.031	1.93177
440.242	-2.28298
440.454	111.54801
440.665	29.32996
440.877	65.16435
441.088	-4.39031
441.3	65.16435
441.511	-19.141
441.723	56.73213
441.934	48.30027
442.146	75.70514
442.357	-8.60492
442.569	20.89932
442.78	46.19237
442.991	29.32996
443.203	20.89932
443.414	105.22233
443.626	41.97663
443.837	25.11459
444.048	8.25407
444.26	27.22227
444.471	29.32996
444.682	31.43768
444.894	20.89932
445.105	20.89932
445.316	71.48875
445.528	105.22233
445.739	-29.67646
445.95	134.74384
446.161	18.79172
446.373	8.25407
446.584	-21.24814
446.795	23.00695
447.006	29.32996
447.217	73.59693
447.429	-0.17561
447.64	37.76098
447.851	65.16435
448.062	50.4082
448.273	8.25407
448.484	107.33087
448.695	31.43768
448.907	29.32996
449.118	48.30027
449.329	-21.24814
449.54	46.19237
449.751	56.73213
449.962	113.65661
450.173	37.76098
450.384	46.19237
450.595	-10.71218
450.806	46.19237
451.017	25.11459
451.228	67.27246
451.439	20.89932
451.65	132.63502
451.861	4.03918
452.072	37.76098
452.283	90.46319
452.494	48.30027
452.705	44.08449
452.915	119.98255
453.126	96.7884
453.337	79.92161
453.548	101.00532
453.759	31.43768
453.97	31.43768
454.181	-4.39031
454.391	-4.39031
454.602	63.05626
454.813	54.62413
455.024	25.11459
455.235	105.22233
455.445	54.62413
455.656	67.27246
455.867	20.89932
456.078	56.73213
456.288	29.32996
456.499	65.16435
456.71	20.89932
456.921	58.84015
457.131	96.7884
457.342	117.87389
457.553	46.19237
457.763	-44.42508
457.974	71.48875
458.184	54.62413
458.395	96.7884
458.606	101.00532
458.816	126.30869
459.027	122.09124
459.237	8.25407
459.448	122.09124
459.659	73.59693
459.869	88.35483
460.08	69.38059
460.29	124.19996
460.501	126.30869
460.711	101.00532
460.922	90.46319
461.132	27.22227
461.343	147.39721
461.553	84.13817
461.764	141.07043
461.974	176.92467
462.184	174.81543
462.395	79.92161
462.605	90.46319
462.816	39.86879
463.026	138.96154
463.236	39.86879
463.447	153.72418
463.657	145.28826
463.867	143.17933
464.078	134.74384
464.288	88.35483
464.498	141.07043
464.709	219.11374
464.919	183.25252
465.129	122.09124
465.339	117.87389
465.55	145.28826
465.76	79.92161
465.97	174.81543
466.18	179.03394
466.391	198.0182
466.601	132.63502
466.811	273.97131
467.021	225.4428
467.231	223.33309
467.441	149.50617
467.651	193.79933
467.862	229.66226
468.072	183.25252
468.282	214.89448
468.492	166.37868
468.702	242.32113
468.912	314.06758
469.122	193.79933
469.332	318.28862
469.542	240.21127
469.752	292.96345
469.962	358.39204
470.172	311.95708
470.382	368.94661
470.592	341.50562
470.802	368.94661
471.012	398.50165
471.222	373.16856
471.432	400.61285
471.642	347.8379
471.852	349.94869
472.062	392.16815
472.272	527.31334
472.482	584.34561
472.691	561.10904
472.901	476.6266
473.111	442.8402
473.321	510.41683
473.531	561.10904
473.741	489.29749
473.95	569.55852
474.16	485.0738
474.37	635.049
474.58	550.54751
474.79	728.02317
474.999	613.9217
475.209	645.61311
475.419	787.19951
475.628	789.31309
475.838	730.13647
476.048	725.90988
476.258	738.58978
476.467	909.80243
476.677	892.88998
476.886	930.94368
477.096	983.8
477.306	1047.23299
477.515	933.05785
477.725	1136.04754
477.935	943.62879
478.144	1047.23299
478.354	992.2574
478.563	1152.96554
478.773	1047.23299
478.982	1258.70837
479.192	1161.42464
479.401	1169.8838
479.611	1207.95077
479.82	1294.66261
480.03	1246.01882
480.239	1518.85609
480.449	1400.41337
480.658	1660.56045
480.868	1529.43128
481.077	1652.10074
481.287	1434.25414
481.496	1690.16909
481.705	1704.9732
481.915	1743.04018
482.124	1730.35131
482.333	1922.78278
482.543	1943.92658
482.752	1977.75541
482.961	1884.72255
483.171	1981.98391
483.38	1823.3998
483.589	2036.95199
483.799	2036.95199
484.008	2347.63481
484.217	2123.62285
484.426	2292.69789
484.636	2191.25942
484.845	2379.32616
485.054	2337.07053
485.263	2303.26319
485.472	2315.94123
485.682	2396.22728
485.891	2294.81097
486.1	2506.06794
486.309	2683.43699
486.518	2759.42521
486.727	2497.61971
486.936	2843.83614
487.146	2607.43216
487.355	2729.87626
487.564	2854.38595
487.773	2831.17591
487.982	2634.88022
488.191	3073.73898
488.4	2934.55279
488.609	3075.84735
488.818	2938.77152
489.027	2999.93636
489.236	2999.93636
489.445	3269.74825
489.654	3130.65934
489.863	3263.42759
490.072	3229.71489
490.281	3328.73363
490.49	3375.0698
490.698	3518.23656
490.907	3442.45271
491.116	3842.14928
491.325	3417.18625
491.534	3837.94556
491.743	3463.50613
491.952	3730.72415
492.16	3732.82702
492.369	3762.26514
492.578	3669.7326
492.787	3798.00629
492.996	3808.51731
493.204	3959.82092
493.413	4048.03292
493.622	4228.5432
493.831	4010.23221
494.039	4117.31682
494.248	4001.83114
494.457	4224.34706
494.665	4190.77486
494.874	4419.37682
495.083	4173.98672
495.291	4333.41896
495.5	4251.62046
495.709	4400.51115
495.917	4511.58339
496.126	4503.20273
496.335	4486.44037
496.543	4528.34364
496.752	4545.10247
496.96	4844.42474
497.169	4612.12357
497.377	4760.74472
497.586	4534.62836
497.794	4915.52407
498.003	4643.53184
498.211	4911.34249
498.42	4777.48363
498.628	5074.35591
498.837	4848.60778
499.045	5208.00531
499.254	5024.21288
499.462	5134.92759
499.671	5172.51398
499.879	5028.39198
500.087	5304.00685
500.296	5422.89653
500.504	5270.62062
500.713	5341.55919
500.921	5253.92526
501.129	5406.21486
501.338	5272.70743
501.546	5533.3746
501.754	5341.55919
501.962	5420.81141
502.171	5404.12955
502.379	5743.72501
502.587	5345.73121
502.795	5758.29484
503.004	5654.1993
503.212	5675.02313
503.42	5697.92661
503.628	5772.8635
503.837	5637.53854
504.045	5885.21149
504.253	5864.4115
504.461	6055.68247
504.669	5872.73178
504.877	5937.20115
505.085	5770.78234
505.294	6049.44852
505.502	5970.46679
505.71	6120.08757
505.918	5980.86107
506.126	6257.1329
506.334	5837.36798
506.542	6178.2405
506.75	5997.49069
506.958	6263.35981
507.166	5982.93985
507.374	6294.49118
507.582	6190.69944
507.79	6319.39249
507.998	6520.55482
508.206	6559.93216
508.414	6190.69944
508.622	6709.0759
508.83	6271.66202
509.037	6727.71048
509.245	6477.02277
509.453	6595.15743
509.661	6580.65371
509.869	6601.37296
510.077	6777.39364
510.285	6599.30114
510.492	6518.4821
510.7	6750.48357
510.908	6663.51686
511.116	6924.29609
511.324	6767.04407
511.531	6944.97738
511.739	6942.90935
511.947	6996.67074
512.155	7042.14926
512.362	7007.00772
512.57	6887.06405
512.778	6870.51412
512.985	7093.81622
513.193	7040.08229
513.401	7201.23882
513.608	7335.43294
513.816	7069.01782
514.024	7477.784
514.231	7089.68337
514.439	7327.17752
514.646	7234.27986
514.854	7387.02137
515.061	7054.55061
515.269	7281.76645
515.477	7215.69497
515.684	7533.45853
515.892	7364.32414
516.099	7527.27324
516.307	7294.15234
516.514	7519.0259
516.722	7640.63952
516.929	7823.95106
517.136	7502.53017
517.344	7753.94157
517.551	7533.45853
517.759	7766.29794
517.966	7815.7159
518.173	7935.09325
518.381	7898.05255
518.588	7788.94933
518.796	7889.82037
519.003	7692.14837
519.21	7947.43867
519.418	8072.90877
519.625	7848.65454
519.832	8173.64178
520.039	7951.55365
520.247	8159.25429
520.454	8225.01771
520.661	8434.50431
520.868	8153.08792
521.076	8457.08395
521.283	8214.74351
521.49	8432.4515
521.697	8381.12498
521.904	8393.44444
522.112	8025.60925
522.319	8280.48983
522.526	8212.68861
522.733	8522.75706
522.94	8473.50406
523.147	8576.10216
523.354	8448.87344
523.561	8613.02593
523.768	8569.94761
523.975	8922.54012
524.183	8623.28145
524.39	8852.8843
524.597	8826.24571
524.804	8850.83529
525.011	8912.29791
525.218	8877.47107
525.425	8842.63905
525.632	8826.24571
525.838	8916.39485
526.045	8953.26407
526.252	8793.45556
526.459	9295.06008
526.666	9272.56117
526.873	9333.9171
527.08	9000.36642
527.287	9127.29192
527.494	9141.61805
527.701	9403.43586
527.907	9049.50679
528.114	9548.54694
528.321	9215.28207
528.528	9554.67662
528.735	9245.96894
528.941	9505.63518
529.148	9425.92317
529.355	9558.76299
529.562	9509.72232
529.768	9554.67662
529.975	9245.96894
530.182	9603.70895
530.388	9481.11101
530.595	9818.12056
530.802	9440.23226
531.008	9930.36507
531.215	9897.71672
531.422	9842.61409
531.628	9607.79457
531.835	10219.95842
532.042	9885.47263
532.248	10103.74735
532.455	9891.59474
532.661	10150.64496
532.868	10142.48938
533.074	10150.64496
533.281	10189.38091
533.487	10124.13852
533.694	10177.14904
533.9	10533.71378
534.107	10020.12881
534.313	10342.23794
534.52	10517.42238
534.726	10497.057
534.933	10325.93679
535.139	10291.29402
535.345	10702.68993
535.552	10568.33031
535.758	10619.23042
535.965	10674.19386
536.171	10521.49531
536.377	10731.18362
536.584	10637.55256
536.79	11011.92726
536.996	10798.33808
537.203	10670.1228
537.409	10613.12281
537.615	10625.33791
537.821	10570.36646
538.028	11050.56348
538.234	10849.20412
538.44	10989.55711
538.646	10869.5485
538.853	10920.40443
539.059	10961.08405
539.265	10930.57476
539.471	11099.36147
539.677	11188.80839
539.883	11115.62608
540.09	11093.26206
540.296	11194.90629
540.502	11530.15085
540.708	11349.35563
540.914	11491.56053
541.12	11507.8095
541.326	11802.22028
541.532	11422.49555
541.738	11704.78102
541.944	11245.71854
542.15	11656.05378
542.356	11483.43581
542.562	11964.57559
542.768	11436.71572
542.974	11643.87117
543.18	11554.52194
543.386	11619.50495
543.592	11629.6577
543.798	11966.6047
544.004	11804.25005
544.21	12256.68742
544.415	12047.76251
544.621	11944.28406
544.827	11976.75012
545.033	12374.30056
545.239	12088.33672
545.445	12645.94173
545.651	12143.10703
545.856	12232.35069
546.062	12118.76535
546.268	12149.19228
546.474	12266.82741
546.679	12143.10703
546.885	12068.05
547.091	12372.27295
547.297	12100.50838
547.502	12252.63137
547.708	12201.92832
547.914	12382.41095
548.119	12356.05178
548.325	12502.02683
548.531	12370.24532
548.736	12516.21703
548.942	12256.68742
549.147	12477.70003
549.353	12587.16337
549.559	12629.72752
549.764	12735.11305
549.97	12753.35125
550.175	12654.04869
550.381	12960.01944
550.586	12589.1903
550.792	13051.17923
550.997	12840.48298
551.203	13006.61349
551.408	12522.29845
551.614	13087.64034
551.819	13115.99791
552.025	13020.79376
552.23	13036.99948
552.435	13223.34333
552.641	13350.9265
552.846	13359.02646
553.052	13030.92237
553.257	13205.11576
553.462	13348.9015
553.668	13156.50713
553.873	13201.06514
554.078	13322.57614
554.283	13300.30028
554.489	13545.30821
554.694	13415.72436
554.899	13359.02646
555.105	13312.45081
555.31	13516.96305
555.515	13413.69949
555.72	13610.09455
555.925	13373.20123
556.131	13844.91689
556.336	13496.71606
556.541	14041.24729
556.746	13433.94803
556.951	13828.72356
557.156	13616.16809
557.361	14031.12775
557.567	14039.22339
557.772	14178.86743
557.977	13875.27889
558.182	13798.36057
558.387	14081.72488
558.592	14227.43691
558.797	13966.36124
559.002	14354.92663
559.207	14095.89181
559.412	14217.31836
559.617	13990.64898
559.822	14126.24917
560.027	13871.23066
560.232	14375.16246
560.437	14227.43691
560.642	14057.43844
560.847	14021.00815
561.051	14340.76145
561.256	14000.76877
561.461	14063.51008
561.666	14079.70102
561.871	14265.88695
562.076	13984.57708
562.281	14184.93868
562.485	13869.20654
562.69	14225.4132
562.895	14255.76858
563.1	14563.34858
563.305	14369.09173
563.509	14700.94027
563.714	14389.32745
563.919	14387.30388
564.123	14417.65719
564.328	14528.94985
564.533	14535.02024
564.737	14617.98117
564.942	14848.64434
565.147	15144.04426
565.351	14767.71111
565.556	14435.86901
565.761	14433.84548
565.965	14854.71429
566.17	14767.71111
566.374	14626.07481
566.579	14791.9912
566.784	14903.2737
566.988	15210.81219
567.193	15196.64929
567.397	15026.69437
567.602	15119.76501
567.806	14822.34116
568.011	15040.85732
568.215	15299.83627
568.42	14901.2504
568.624	15180.46313
568.828	14972.06572
569.033	14828.41113
569.237	15233.06818
569.442	15030.74093
569.646	14848.64434
569.85	15095.48574
570.055	15346.37176
570.259	15241.16128
570.463	15411.11709
570.668	15263.41729
570.872	15162.25369
571.076	15447.53653
571.281	15483.95614
571.485	15388.86084
571.689	15239.138
571.893	15473.83956
572.098	15512.28263
572.302	15755.08708
572.506	15615.47308
572.71	15261.39402
572.914	15823.88411
573.119	15702.47839
573.323	15570.95933
573.527	15611.42636
573.731	15700.45499
573.935	15730.80606
574.139	15554.77259
574.343	15386.83755
574.547	15704.50179
574.751	15726.75924
574.955	15838.04836
575.159	15914.94104
575.364	15838.04836
575.568	15678.19768
575.772	15902.79997
575.976	15825.90757
576.18	15736.8763
576.383	15955.4116
576.587	15860.30659
576.791	16149.67816
576.995	16006.00055
577.199	16006.00055
577.403	15838.04836
577.607	15981.71775
577.811	16402.65221
578.015	16080.87384
578.219	16003.97698
578.422	16184.08102
578.626	16230.62683
578.83	16182.05731
579.034	16305.50682
579.238	16175.98619
579.442	16350.03125
579.645	16556.47516
579.849	16631.36711
580.053	16601.00514
580.257	16329.79276
580.46	16493.73014
580.664	16655.65706
580.868	16497.77814
581.071	16807.47684
581.275	16910.72218
581.479	17007.9004
581.682	16766.99025
581.886	16645.53621
582.09	16639.46372
582.293	16769.01455
582.497	16594.93281
582.7	16619.22226
582.904	16839.86683
583.107	17001.82659
583.311	16951.21237
583.515	16837.84243
583.718	16953.2369
583.922	16702.2137
584.125	17020.04811
584.329	17058.51651
584.532	16918.82013
584.735	17269.0983
584.939	17062.56587
585.142	16878.33077
585.346	17080.78814
585.549	17277.19822
585.753	17005.8758
585.956	17285.29819
586.159	17109.13433
586.363	17402.7532
586.566	17441.23207
586.769	17323.77371
586.973	17107.10958
587.176	17508.06649
587.379	17564.77719
587.582	17722.77043
587.786	17117.23334
587.989	17621.49041
588.192	17463.50983
588.395	17662.00143
588.599	17475.66149
588.802	17700.48811
589.005	17479.71207
589.208	17726.8218
589.411	17777.46511
589.615	17757.20754
589.818	17676.18059
590.021	17876.73217
590.224	17520.21857
590.427	17872.68029
590.63	17765.31053
590.833	17846.34342
591.036	17631.61804
591.239	18142.16094
591.442	17824.05883
591.645	17947.6423
591.848	17882.81002
592.051	18055.02872
592.254	18371.16869
592.457	18523.1915
592.66	18379.27603
592.863	18401.57154
593.066	18172.55748
593.269	18162.42521
593.472	18239.43278
593.675	18462.3798
593.878	18024.63532
594.081	18367.11504
594.284	18233.35304
594.486	18438.05608
594.689	18381.30288
594.892	18561.70737
595.095	18022.60912
595.298	18450.21787
595.5	18565.76175
595.703	18825.27481
595.906	18642.79798
596.109	18811.08102
596.311	18732.00488
596.514	18880.02412
596.717	18606.30643
596.92	18845.55199
597.122	18521.16439
597.325	18784.72164
597.528	18839.46879
597.73	19310.01
597.933	18784.72164
598.136	19040.23335
598.338	18884.07974
598.541	18993.58756
598.743	19070.65568
598.946	18979.39144
599.148	19054.43033
599.351	18853.66298
599.554	19097.02243
599.756	18819.19173
599.959	19127.44647
600.161	18780.66641
600.363	19194.38257
600.566	18942.88804
600.768	19151.78635
600.971	19610.29838
601.173	19101.07892
601.376	19283.63766
601.578	19097.02243
601.78	19356.67048
601.983	19360.72801
602.185	19490.57791
602.388	19484.49082
602.59	19068.6275
602.792	19253.20889
602.995	19092.96596
603.197	19046.31775
603.399	19307.98134
603.601	19032.12089
603.804	19391.16006
604.006	19474.34575
604.208	19577.83038
604.41	19583.91805
604.613	19381.01594
604.815	19376.95832
605.017	19567.68435
605.219	19314.06735
605.421	19245.09471
605.623	19427.67975
605.826	19774.68407
606.028	19734.09246
606.23	19803.0992
606.432	19878.20029
606.634	20131.96274
606.836	19449.99799
607.038	19622.47416
607.24	19602.18128
607.442	19774.68407
607.644	20044.66104
607.846	19612.32767
608.048	19661.03178
608.25	19847.75321
608.452	19880.23013
608.654	19719.88579
608.856	19616.38625
609.058	19930.97747
609.26	19991.87774
609.462	20073.084
609.664	19993.90782
609.866	19985.78755
610.067	19567.68435
610.269	20188.81454
610.471	19502.75221
610.673	20002.02816
610.875	20046.69123
611.077	20010.14856
611.278	19882.25997
611.48	20223.33331
611.682	19807.15857
611.884	20117.75031
612.085	20142.11461
612.287	20381.72913
612.489	19949.24715
612.69	20050.75161
612.892	20036.54035
613.094	20209.11955
613.295	20221.30276
613.497	20062.93285
613.699	19935.03737
613.9	20339.08159
614.102	20158.35781
614.304	20249.73084
614.505	20150.23618
614.707	20294.4052
614.908	19904.58852
615.11	20164.44908
615.311	20014.20879
615.513	19813.24766
615.714	20040.60069
615.916	20062.93285
616.117	20066.9933
616.319	20032.48003
616.52	19987.81761
616.722	20294.4052
616.923	20290.34381
617.124	20144.14499
617.326	19592.035
617.527	20268.00647
617.729	19951.27714
617.93	20158.35781
618.131	20261.91456
618.333	20641.71598
618.534	20603.11986
618.735	20542.18167
618.937	20200.9975
619.138	20418.28564
619.339	20188.81454
619.54	20501.55831
619.742	20454.8435
619.943	20538.11926
620.144	20205.05852
620.345	20436.5644
620.546	20373.60565
620.748	20221.30276
620.949	20302.52803
621.15	20495.46495
621.351	20268.00647
621.552	20450.78145
621.753	20229.42499
621.954	20525.93213
622.155	19930.97747
622.356	20603.11986
622.558	20379.69825
622.759	20217.24168
622.96	20186.78406
623.161	20298.46661
623.362	20270.03712
623.563	20637.65316
623.764	20310.65092
623.965	20716.88117
624.166	20676.25063
624.366	20495.46495
624.567	20706.72338
624.768	20718.91275
624.969	20556.40025
625.17	20684.37661
625.371	20464.99871
625.572	20609.21388
625.773	20456.87454
625.973	20891.6114
626.174	20761.57669
626.375	20670.1562
626.576	20716.88117
626.777	20643.7474
626.977	20586.86931
627.178	20796.11551
627.379	20497.49606
627.58	20572.6503
627.78	20227.39443
627.981	20781.89349
628.182	20828.62372
628.382	20972.89168
628.583	20625.4648
628.784	20985.08429
628.984	20694.53417
629.185	21302.14372
629.386	20613.27659
629.586	21285.88186
629.787	20913.96282
629.987	21261.48956
630.188	21129.3747
630.388	21184.2511
630.589	20853.00558
630.79	20942.41081
630.99	20450.78145
631.191	20507.65171
631.391	20970.8596
631.591	21050.11404
631.792	20816.43302
631.992	21289.9473
632.193	21041.98509
632.393	21194.41372
632.594	20560.46274
632.794	20769.70336
632.994	20635.62176
633.195	20690.47113
633.395	20722.9759
633.595	20649.84168
633.796	20956.6351
633.996	21190.34866
634.196	20877.38803
634.397	21458.67726
634.597	20810.33772
634.797	21635.56821
634.997	20903.80302
635.198	21015.56646
635.398	21263.52223
635.598	21509.50492
635.798	21088.72743
635.998	21044.01732
636.199	21503.40547
636.399	21058.24305
636.599	21037.92064
636.799	21413.95097
636.999	21151.73139
637.199	21430.21485
637.399	21167.99112
637.599	21092.79209
637.799	21021.66301
637.999	21570.50139
638.199	21393.62148
638.399	21446.47899
638.599	21094.82442
638.799	21359.06226
638.999	21334.66821
639.199	21568.46812
639.399	21448.51202
639.599	21318.40584
639.799	20958.66716
639.999	21407.85208
640.199	21131.40711
640.399	21170.0236
640.599	20361.42055
640.799	21881.63825
640.998	21639.63502
641.198	21578.63452
641.398	21228.96739
641.598	21531.86988
641.798	21845.0292
641.997	21676.23701
642.197	21300.11098
642.397	21796.21907
642.597	21704.7061
642.796	21786.05058
642.996	21202.54389
643.196	21670.13659
643.395	21635.56821
643.595	22030.12099
643.795	21946.72408
643.994	22333.25071
644.194	22255.93463
644.394	22087.07864
644.593	21761.64658
644.793	22066.73629
644.992	21737.24315
645.192	21873.5028
645.392	22080.9759
645.591	21908.0789
645.791	21737.24315
645.99	21584.73441
646.19	21627.43464
646.389	21723.00807
646.589	21546.10238
646.788	22066.73629
646.987	21489.17356
647.187	22249.83096
647.386	21816.55636
647.586	21877.57052
647.785	21934.52019
647.984	22040.29179
648.184	21779.94953
648.383	21895.87544
648.582	21983.33657
648.782	22060.63365
648.981	21942.6561
649.18	21771.81485
649.38	22268.14208
649.579	22516.38869
649.778	22227.45111
649.977	22144.03924
650.177	22180.65831
650.376	22103.3528
650.575	21952.82607
650.774	21676.23701
650.973	21871.46895
651.173	21912.14674
651.372	22150.14233
651.571	22192.86494
651.77	22121.66151
651.969	22530.63398
652.168	22300.69592
652.367	22494.00359
652.566	22235.58918
652.765	22408.53722
652.964	22290.52275
653.163	22530.63398
653.362	22215.2441
653.561	21950.79207
653.76	22186.76161
653.959	22209.14065
654.158	22103.3528
654.357	22115.55857
654.556	22040.29179
654.755	22394.29344
654.954	22298.66128
655.153	22274.24586
655.352	22422.78117
655.551	22528.59893
655.749	22201.00276
655.948	22190.83049
656.147	22721.94466
656.346	22736.19244
656.545	22703.62634
656.743	22679.20235
656.942	22616.10937
657.141	22548.94961
657.34	22402.43272
657.538	22703.62634
657.737	22581.51144
657.936	22823.71824
658.135	22367.84119
658.333	22697.52029
658.532	22964.17984
658.731	22371.91073
658.929	22042.32596
659.128	21946.72408
659.326	22162.34863
659.525	22842.0384
659.724	22738.22785
659.922	22630.35588
660.121	22595.75752
660.319	22726.01544
660.518	22827.78936
660.716	22756.54671
660.915	22610.00378
661.113	23021.18334
661.312	22359.70216
661.51	22658.8494
661.709	22416.6766
661.907	22897.00054
662.105	22294.59201
662.304	22508.24861
662.502	22498.07358
662.701	22866.46571
662.899	22815.57604
663.097	22553.01979
663.296	22437.0253
663.494	22734.15703
663.692	22414.64175
663.891	22750.44039
664.089	22518.42372
664.287	22614.07417
664.485	22550.9847
664.684	22866.46571
664.882	22884.78651
665.08	23011.00395
665.278	23334.7487
665.476	22996.75295
665.675	22882.75085
665.873	22540.80929
666.071	22510.28362
666.269	22262.03834
666.467	22225.4166
666.665	22744.33411
666.863	22064.70207
667.061	22483.82869
667.259	22502.14358
667.457	22225.4166
667.655	22673.09643
667.853	22412.6069
668.051	22144.03924
668.249	22392.25863
668.447	22249.83096
668.645	22616.10937
668.843	22620.17978
669.041	23232.93332
669.239	22469.58398
669.437	22809.46942
669.635	22760.6176
669.833	22917.35751
670.031	22296.62664
670.229	22642.5673
670.426	22915.3218
670.624	22890.89351
670.822	22494.00359
671.02	22815.57604
671.218	22626.28543
671.415	22636.46157
671.613	22776.90132
671.811	22835.93165
672.009	22333.25071
672.206	22410.57206
672.404	22158.27985
672.602	22135.90183
672.799	22052.49686
672.997	22345.45899
673.195	22135.90183
673.392	22314.93853
673.59	22168.45182
673.788	21942.6561
673.985	21938.58813
674.183	22445.16489
674.38	22286.4535
674.578	22675.13173
674.775	22260.00377
674.973	22398.36308
675.17	22066.73629
675.368	21877.57052
675.565	22152.17671
675.763	22738.22785
675.96	22144.03924
676.158	22221.34759
676.355	22062.66786
676.553	23070.04556
676.75	22404.46755
676.947	22748.40496
677.145	22404.46755
677.342	22514.35367
677.539	22190.83049
677.737	22579.47629
677.934	22520.45876
678.131	22463.47916
678.329	21859.26591
678.526	22042.32596
678.723	22475.68884
678.92	22807.43389
679.118	22603.89822
679.315	22487.89864
679.512	22367.84119
679.709	22465.5141
679.906	21666.06966
680.104	21725.04164
680.301	22003.67738
680.498	21702.67257
680.695	21879.60438
680.892	21786.05058
681.089	22052.49686
681.286	22298.66128
681.483	21838.92781
681.68	22278.31506
681.877	22278.31506
682.075	22373.9455
682.272	22237.62371
682.469	22345.45899
682.665	22178.62389
682.862	21788.08427
683.059	21601.00096
683.256	21952.82607
683.453	21818.59011
683.65	22156.24546
683.847	22046.39431
684.044	22323.07724
684.241	21745.37756
684.438	21684.37096
684.635	21659.9693
684.831	21822.65762
685.028	21881.63825
685.225	22001.64328
685.422	21466.80951
685.619	21887.73988
685.815	21958.9281
686.012	21745.37756
686.209	21645.73526
686.405	22091.14716
686.602	21792.15166
686.799	21527.80349
686.996	21310.27475
687.192	21596.9343
687.389	21505.43862
687.586	21781.98321
687.782	22162.34863
687.979	22207.10617
688.175	21826.72514
688.372	21759.61294
688.568	21607.10098
688.765	21684.37096
688.962	21637.60161
689.158	21373.29238
689.355	21603.0343
689.551	21838.92781
689.748	21527.80349
689.944	21603.0343
690.14	21710.80672
690.337	21645.73526
690.533	21448.51202
690.73	21379.39107
690.926	21420.04989
691.123	21243.19571
691.319	21454.61115
691.515	21542.03593
691.712	21277.75103
691.908	21682.33747
692.104	21155.7963
692.301	21393.62148
692.497	21015.56646
692.693	21326.53699
692.889	21125.3099
693.086	20861.133
693.282	21072.46898
693.478	21777.91585
693.674	21385.48979
693.87	21346.86516
694.067	21723.00807
694.263	21529.83668
694.459	21517.63758
694.655	21818.59011
694.851	21517.63758
695.047	21399.72028
695.243	21458.67726
695.439	21302.14372
695.635	21285.88186
695.831	21448.51202
696.027	21174.08858
696.224	21066.37213
696.42	21092.79209
696.615	21208.64156
696.811	20710.78649
697.007	20891.6114
697.203	20875.35614
697.399	20739.22868
697.595	20554.36901
697.791	20932.25072
697.987	20572.6503
698.183	21013.53429
698.379	20686.40811
698.575	21342.7995
698.77	20968.82751
698.966	21011.50212
699.162	21098.8891
699.358	21141.5692
699.554	20617.33931
699.749	20987.11641
699.945	20899.73913
700.141	20694.53417
700.337	20765.64002
700.532	20668.12473
700.728	20690.47113
700.924	20733.13386
701.119	20733.13386
701.315	20682.34511
701.511	20395.94539
701.706	20775.79841
701.902	20607.18254
702.097	21186.28362
702.293	20987.11641
702.489	21186.28362
702.684	21003.37348
702.88	21226.93479
703.075	20708.75493
703.271	20765.64002
703.466	20802.21072
703.662	20936.31474
703.857	20775.79841
704.053	20970.8596
704.248	20601.08853
704.443	20714.84961
704.639	20588.90061
704.834	20532.02568
705.03	20156.3274
705.225	20493.43384
705.42	20229.42499
705.616	20761.57669
705.811	19955.33712
706.006	20562.49399
706.202	20255.82268
706.397	20538.11926
706.592	20418.28564
706.787	20241.60845
706.983	20077.14449
707.178	20696.5657
707.373	20156.3274
707.568	20091.35633
707.763	19659.00239
707.959	20282.22108
708.154	19975.6373
708.349	20030.44987
708.544	20548.27532
708.739	20479.21617
708.934	20322.83539
709.129	20434.53341
709.324	20479.21617
709.519	20578.74413
709.714	20493.43384
709.909	20670.1562
710.104	20513.74514
710.299	20330.95846
710.494	20209.11955
710.689	20205.05852
710.884	20428.44047
711.079	20594.99455
711.274	19912.70812
711.469	20597.02587
711.664	20462.96766
711.859	20174.60128
712.054	20265.97583
712.249	20330.95846
712.443	19935.03737
712.638	20198.967
712.833	19937.06733
713.028	20180.69265
713.223	19829.48542
713.417	19951.27714
713.612	20117.75031
713.807	20225.36387
714.002	19878.20029
714.196	20095.4169
714.391	20066.9933
714.586	20345.17398
714.78	20515.7763
714.975	20611.24523
715.17	20036.54035
715.364	20643.7474
715.559	20207.08903
715.754	19977.66734
715.948	19861.96173
716.143	20050.75161
716.337	19669.14936
716.532	20087.29578
716.726	20164.44908
716.921	20402.03813
717.115	20213.18061
717.31	20042.63086
717.504	20129.93238
717.699	19772.65445
717.893	19324.21079
718.088	19669.14936
718.282	19472.31674
718.476	19494.636
718.671	19387.1024
718.865	20040.60069
719.059	19614.35696
719.254	20148.20578
719.448	19596.0935
719.642	19685.38473
719.837	19559.5676
720.031	19559.5676
720.225	19474.34575
720.419	19693.50252
720.614	19368.84314
720.808	19799.03985
721.002	19409.41974
721.196	19709.7383
721.39	19531.1595
721.585	19362.75679
721.779	19180.18363
721.973	19303.92402
722.167	19208.58171
722.361	19271.46604
722.555	19239.00912
722.749	19259.29457
722.943	19222.78106
723.137	19314.06735
723.331	19346.52671
723.525	19677.26701
723.719	19443.91115
723.913	19376.95832
724.107	19172.07004
724.301	19255.23745
724.495	19236.9806
724.689	19230.89506
724.883	19034.149
725.077	18744.17005
725.271	18894.21886
725.465	18837.44107
725.659	18829.33021
725.853	18656.98948
726.046	18622.52474
726.24	18865.82957
726.434	18513.05597
726.628	19113.24847
726.822	19141.64466
727.015	19393.1889
727.209	19030.09278
727.403	18833.38563
727.596	19109.19194
727.79	19393.1889
727.984	19249.1518
728.177	19399.27543
728.371	19078.76845
728.565	19097.02243
728.758	19411.44861
728.952	19320.1534
729.146	19003.72777
729.339	19320.1534
729.533	18983.44746
729.726	18861.77403
729.92	18659.01685
730.113	18634.68864
730.307	18673.20857
730.5	19066.59932
730.694	18567.78895
730.887	18663.07161
731.081	18746.19759
731.274	18594.14287
731.468	18269.83198
731.661	18354.95418
731.854	18683.34563
732.048	18523.1915
732.241	18381.30288
732.435	18444.13696
732.628	18423.8675
732.821	18758.36292
733.014	18527.24573
733.208	18413.73292
733.401	18760.39049
733.594	18701.59258
733.788	19078.76845
733.981	19364.78557
734.174	18914.4974
734.367	19090.93774
734.56	19032.12089
734.754	19111.2202
734.947	18610.36099
735.14	18756.33536
735.333	18602.2519
735.526	18549.54431
735.719	18115.81793
735.912	18160.39877
736.105	18521.16439
736.298	18817.16405
736.491	18624.55205
736.684	18713.7574
736.877	18320.49916
737.07	18219.16712
737.263	18413.73292
737.456	18446.16393
737.649	18281.99189
737.842	18513.05597
738.035	18701.59258
738.228	18464.4068
738.421	18663.07161
738.614	18705.64751
738.807	18823.24711
739	18748.22514
739.192	18158.37233
739.385	18312.39226
739.578	18123.92341
739.771	18474.54186
739.964	17866.6025
740.156	18103.65983
740.349	18279.96523
740.542	18480.62295
740.735	18409.67911
740.927	18166.47811
741.12	18034.76636
741.313	18026.66152
741.505	18251.59236
741.698	18227.27334
741.891	18413.73292
742.083	18267.80534
742.276	17998.29503
742.468	18059.08123
742.661	18217.14057
742.854	18018.55674
743.046	17803.80047
743.239	17882.81002
743.431	18253.61897
743.624	17876.73217
743.816	18202.95485
744.009	18541.43568
744.201	18018.55674
744.393	18087.44923
744.586	17890.91386
744.778	18261.72544
744.971	17931.43389
745.163	17988.1643
745.355	18281.99189
745.548	17917.25172
745.74	18158.37233
745.932	18111.76522
746.125	18061.10749
746.317	18103.65983
746.509	17892.93982
746.702	18273.88527
746.894	18148.24018
747.086	18306.31211
747.278	17961.82484
747.471	18168.50456
747.663	17832.16227
747.855	17799.74884
748.047	17850.39521
748.239	18253.61897
748.431	17779.49089
748.623	17862.55066
748.815	18026.66152
749.008	18087.44923
749.2	17965.87703
749.392	18241.45937
749.584	17447.30779
749.776	18241.45937
749.968	17647.82242
750.16	17540.47229
750.352	17453.38353
750.544	17554.65009
750.736	17943.59018
750.928	17903.06972
751.12	17988.1643
751.311	17817.98129
751.503	17852.42111
751.695	17824.05883
751.887	17416.92949
752.079	17475.66149
752.271	17524.26929
752.463	17558.70092
752.654	17520.21857
752.846	17435.15639
753.038	17246.82375
753.23	17554.65009
753.421	17117.23334
753.613	17277.19822
753.805	17392.62736
753.997	17260.99842
754.188	17362.25032
754.38	17378.45132
754.572	17214.42504
754.763	17657.95027
754.955	17303.52331
755.146	17641.74575
755.338	17451.35828
755.53	17599.20991
755.721	17591.10801
755.913	17599.20991
756.104	17291.3732
756.296	17609.33736
756.487	17435.15639
756.679	17481.73737
756.87	16896.55086
757.062	16720.43186
757.253	16918.82013
757.445	16945.13877
757.636	16888.45302
757.827	17151.65465
758.019	17107.10958
758.21	16673.87473
758.401	16819.62301
758.593	16540.2827
758.784	16524.09038
758.975	16453.25055
759.167	16607.0775
759.358	17173.9277
759.549	16886.42856
759.74	16714.35912
759.932	16681.97153
760.123	16764.96594
760.314	17196.20109
760.505	16902.62426
760.696	16649.58454
760.888	16601.00514
761.079	16406.70004
761.27	16647.56037
761.461	16681.97153
761.652	16712.33488
761.843	16607.0775
762.034	16267.05463
762.225	16317.64976
762.416	16408.72395
762.607	16121.34675
762.798	16362.17443
762.989	16433.01107
763.18	16495.75414
763.371	16192.17588
763.562	16491.70614
763.753	16135.51242
763.944	16410.74786
764.135	16263.00707
764.326	16374.31769
764.517	16566.59552
764.708	16467.41831
764.899	16141.58344
765.089	16202.29449
765.28	15908.8705
765.471	15973.62352
765.662	15846.14225
765.853	16313.60211
766.043	16107.18116
766.234	16394.5566
766.425	15856.25963
766.615	15848.16572
766.806	15724.73583
766.997	15825.90757
767.187	15916.96455
767.378	16040.40155
767.569	15767.22764
767.759	15637.7301
767.95	15682.24445
768.141	15765.20421
768.331	15605.35629
768.522	15848.16572
768.712	15589.16945
768.903	15524.42259
769.093	15370.65121
769.284	15350.41833
769.474	15259.37074
769.665	15611.42636
769.855	15625.5899
770.046	15305.90611
770.236	15125.83482
770.426	15366.60464
770.617	15633.68336
770.807	15374.69779
770.998	15115.71846
771.188	14925.53
771.378	14860.78423
771.569	14779.85117
771.759	14648.33226
771.949	14860.78423
772.139	15103.57883
772.33	14828.41113
772.52	15233.06818
772.71	15287.69661
772.9	15131.90463
773.09	15307.92939
773.281	15154.16061
773.471	14951.83283
773.661	15028.71765
773.851	15210.81219
774.041	14982.18216
774.231	15117.74173
774.421	14771.7578
774.611	14448.01016
774.802	14227.43691
774.992	14599.7704
775.182	14668.56619
775.372	14549.18444
775.562	14415.63365
775.752	14421.70427
775.942	14249.69754
776.131	14478.3628
776.321	14405.51591
776.511	14373.13889
776.701	14245.65017
776.891	14496.57423
777.081	14316.47809
777.271	14405.51591
777.461	14302.31268
777.651	14454.08071
777.84	14421.70427
778.03	14213.27093
778.22	14132.32058
778.41	14486.45678
778.599	14308.38358
778.789	14474.3158
778.979	14456.10423
779.169	14609.8875
779.358	14346.83225
779.548	14632.14504
779.738	14537.0437
779.927	14593.70012
780.117	14450.03368
780.307	14237.55541
780.496	13919.80871
780.686	14233.50801
780.875	14008.86455
781.065	14055.41455
781.254	13970.40922
781.444	14047.31899
781.633	13940.04911
781.823	14055.41455
782.012	14103.98716
782.202	13826.69938
782.391	13614.14358
782.581	13488.61716
782.77	13790.26366
782.96	14160.65358
783.149	14008.86455
783.338	13944.09716
783.528	13832.77191
783.717	14006.84061
783.906	13816.57844
784.096	13790.26366
784.285	13682.975
784.474	13601.99645
784.663	13670.82856
784.853	13585.80009
785.042	13581.75097
785.231	13533.16037
785.42	13363.07642
785.61	13624.26609
785.799	13296.25007
785.988	13363.07642
786.177	13034.97378
786.366	12913.42267
786.555	12739.16602
786.744	12982.30388
786.933	13028.89666
787.122	13109.92137
787.312	13516.96305
787.501	13377.25113
787.69	13243.59577
787.879	13514.93836
788.068	12881.00589
788.257	12974.20052
788.445	12931.65652
788.634	13057.25619
788.823	12960.01944
789.012	13255.74702
789.201	13132.20182
789.39	12759.43054
789.579	12589.1903
789.768	13109.92137
789.957	12966.09708
790.145	13008.63926
790.334	12899.2405
790.523	12735.11305
790.712	12883.03198
790.9	12694.58205
791.089	12595.27104
791.278	12789.82626
791.467	12662.15555
791.655	12753.35125
791.844	12688.50219
792.033	12542.56943
792.221	12315.49693
792.41	12491.89077
792.599	12457.42698
792.787	12682.42229
792.976	12753.35125
793.164	12398.63141
793.353	12524.32557
793.541	12526.35269
793.73	12380.38337
793.918	12617.56661
794.107	12386.46611
794.295	12418.90638
794.484	12171.5043
794.672	12238.43497
794.861	12208.01292
795.049	12281.02311
795.238	12171.5043
795.426	12386.46611
795.614	12057.90635
795.803	12169.47597
795.991	12443.23546
796.179	12429.04362
796.368	12055.8776
796.556	12072.10741
796.744	11696.66017
796.932	12009.21413
797.121	11859.0507
797.309	11869.19829
797.497	11828.60665
797.685	12009.21413
797.874	11863.10976
798.062	11988.92436
798.25	11792.07128
798.438	11749.44317
798.626	11737.263
798.814	11749.44317
799.002	11790.04146
799.19	11751.47317
799.378	11721.02229
799.566	11629.6577
799.755	11485.46701
799.943	11781.92208
800.131	11757.5631
800.318	11871.22779
800.506	11753.50315
800.694	11877.31622
800.882	11609.35198
801.07	11976.75012
801.258	11692.59969
801.446	11747.41316
801.634	11461.09206
801.822	11436.71572
802.01	11481.40461
802.197	11881.37513
802.385	11788.01163
802.573	11540.30564
802.761	11576.86092
802.949	11696.66017
803.136	11469.21719
803.324	11509.84058
803.512	11489.52937
803.699	11522.02686
803.887	11674.3271
804.075	11842.81411
804.262	11857.02115
804.45	11913.84524
804.638	11731.1728
804.825	12240.46305
805.013	11519.99584
805.201	11753.50315
805.388	11649.96251
805.576	11739.29305
805.763	11958.48821
805.951	11785.98179
806.138	11779.89221
806.326	11731.1728
806.513	11603.26008
806.701	11601.22943
806.888	11562.64533
807.075	11649.96251
807.263	11452.96677
807.45	11779.89221
807.638	11580.92243
807.825	11952.40077
808.012	11828.60665
808.2	12039.6473
808.387	11844.84371
808.574	11712.90173
808.761	11578.89168
808.949	12033.56081
809.136	11593.10674
809.323	11911.81592
809.51	12033.56081
809.698	11808.30957
809.885	11692.59969
810.072	11710.87156
810.259	11964.57559
810.446	12061.96384
810.633	12104.56554
810.82	12007.18519
811.008	11828.60665
811.195	11731.1728
811.382	11785.98179
811.569	11708.84139
811.756	11302.6206
811.943	11796.13091
812.13	11857.02115
812.317	11859.0507
812.504	12027.47424
812.691	12226.26635
812.878	12317.52474
813.064	12370.24532
813.251	12305.35778
813.438	12272.91133
813.625	12102.53696
813.812	12033.56081
813.999	11980.80823
814.186	11861.08023
814.372	11850.93247
814.559	11936.16722
814.746	11430.62142
814.933	11609.35198
815.12	11810.33931
815.306	11457.02943
815.493	11560.6145
815.68	11891.52227
815.866	11345.29193
816.053	11745.38315
816.24	11196.93891
816.426	11676.35742
816.613	11625.59663
816.799	11747.41316
816.986	11810.33931
817.173	11631.68822
817.359	11558.58365
817.546	11617.47438
817.732	11314.81286
817.919	11605.29072
818.105	11070.89673
818.292	11471.24845
818.478	11550.46018
818.665	11631.68822
818.851	11448.90406
819.037	11467.18592
819.224	11233.52419
819.41	11223.36195
819.597	11111.55999
819.783	11243.68617
819.969	11253.84789
820.156	11379.83215
820.342	11522.02686
820.528	11603.26008
820.714	11601.22943
820.901	11538.2747
821.087	11489.52937
821.273	11682.44834
821.459	11444.84132
821.646	11595.13743
821.832	11235.55661
822.018	11593.10674
822.204	10985.48966
822.39	11227.42688
822.576	10973.28706
822.762	10979.38841
822.948	11109.52693
823.134	11196.93891
823.32	10895.99448
823.507	11201.00411
823.693	10826.82396
823.879	11123.75813
824.065	10965.15177
824.25	11015.99442
824.436	10961.08405
824.622	11318.87687
824.808	11339.19629
824.994	11180.6777
825.18	10967.18561
825.366	10995.65819
825.552	10920.40443
825.738	11003.79282
825.923	10737.28911
826.109	11170.5141
826.295	10855.30756
826.481	11109.52693
826.667	10920.40443
826.852	11176.61229
827.038	11066.83017
827.224	11517.9648
827.409	11119.69213
827.595	11137.9888
827.781	10993.62451
827.966	11042.42987
828.152	10940.74481
828.338	10780.02451
828.523	10366.68807
828.709	10782.05939
828.894	10429.84215
829.08	10582.58312
829.266	10285.18019
829.451	10448.17486
829.637	10115.98222
829.822	10462.43292
830.008	10403.35971
830.193	10277.02822
830.378	9995.65056
830.564	10342.23794
830.749	10134.33358
830.935	10450.21177
831.12	10332.04982
831.305	10613.12281
831.491	10440.02712
831.676	10370.7629
831.861	10291.29402
832.047	10582.58312
832.232	10405.3969
832.417	10354.46324
832.602	10352.42572
832.788	10330.01216
832.973	10295.36984
833.158	10562.22178
833.343	10411.50839
833.528	10570.36646
833.714	10509.27638
833.899	10395.21082
834.084	10289.25609
834.269	10315.74814
834.454	10095.59049
834.639	10395.21082
834.824	10160.83911
835.009	10124.13852
835.194	9879.35038
835.379	10427.80512
835.564	9975.25044
835.749	10219.95842
835.934	9842.61409
836.119	9895.67608
836.304	9532.20043
836.489	9905.87916
836.674	9550.59018
836.859	9765.04383
837.044	9848.73714
837.228	9750.7522
837.413	9787.50061
837.598	10069.07914
837.783	10158.80031
837.968	10283.14222
838.152	9922.20333
838.337	9856.901
838.522	9793.62487
838.707	9860.98284
838.891	9595.53753
839.076	9513.80939
839.261	9366.63417
839.445	9407.52461
839.63	9530.15704
839.815	9452.49657
839.999	9622.09375
840.184	9816.07934
840.368	9673.15601
840.553	9952.80863
840.737	9771.16859
840.922	9763.00221
841.106	9362.54477
841.291	9354.36576
841.475	9162.08249
841.66	9366.63417
841.844	8883.61736
842.029	9237.78615
842.213	9194.82205
842.397	8981.93617
842.582	8932.78188
842.766	9282.7882
842.951	8861.08018
843.135	9147.75756
843.319	9184.5914
843.504	9180.49903
843.688	9203.00626
843.872	9088.40247
844.056	9221.41975
844.241	9217.32798
844.425	9203.00626
844.609	9211.1902
844.793	8961.45645
844.977	9084.30849
845.161	8729.91139
845.346	9139.57151
845.53	8932.78188
845.714	9074.07321
845.898	8676.60268
846.082	8746.31157
846.266	8574.05066
846.45	8471.45161
846.634	8469.39915
846.818	8600.71868
847.002	8633.53651
847.186	9129.33856
847.37	8576.10216
847.554	8608.92358
847.738	8508.39273
847.922	8555.58632
848.106	8483.76601
848.29	8535.0686
848.473	8276.38127
848.657	8243.51001
848.841	8021.49575
849.025	8237.34609
849.209	8185.97313
849.392	8401.65703
849.576	8171.58648
849.76	8157.19885
849.944	8313.35543
850.127	8185.97313
850.311	8200.35881
850.495	8358.53748
850.678	8124.30917
850.862	8606.87239
851.046	8206.5238
851.229	8212.68861
851.413	8044.11904
851.596	7984.47052
851.78	8081.13368
851.964	7974.18456
852.147	7821.8923
852.331	7924.80484
852.514	7591.17855
852.698	7720.98755
852.881	7389.08463
853.065	7758.06045
853.248	7597.36184
853.431	7965.95542
853.615	7986.52765
853.798	7889.82037
853.982	7494.28179
854.165	7667.42577
854.348	7803.36254
854.532	8130.47638
854.715	7694.20845
854.898	7941.26605
855.081	7523.14961
855.265	7863.06352
855.448	7514.9021
855.631	7681.84766
855.814	7609.72785
855.997	7865.12187
856.181	7605.60593
856.364	7774.53511
856.547	7611.78878
856.73	7430.34514
856.913	7481.90858
857.096	7587.05624
857.279	7308.60155
857.462	7391.14786
857.645	7519.0259
857.828	7329.24141
858.011	7341.62427
858.194	7506.65423
858.377	7314.79373
858.56	7279.70206
858.743	7168.19212
858.926	7304.47331
859.109	7122.74361
859.292	7339.56051
859.475	7395.27426
859.658	7409.71597
859.841	7015.27691
860.023	7393.21107
860.206	6789.81237
860.389	7155.79814
860.572	6990.46828
860.755	7195.043
860.937	7027.68
861.12	7122.74361
861.303	7114.47909
861.486	7058.68421
861.668	6680.08507
861.851	6924.29609
862.034	6992.53579
862.216	7238.40959
862.399	6903.61253
862.581	7161.99523
862.764	6802.23028
862.947	6849.82467
863.129	6454.21619
863.312	6785.67289
863.494	6711.1465
863.677	6816.71681
863.859	6601.37296
864.042	6454.21619
864.224	6086.84905
864.406	6360.8872
864.589	6348.43977
864.771	6423.11176
864.954	6228.07122
865.136	6344.29044
865.318	6265.4354
865.501	6462.50982
865.683	6327.69218
865.865	6387.85375
866.048	6252.98152
866.23	6418.96411
866.412	6255.05722
866.594	6497.7536
866.777	6219.76704
866.959	6078.53848
867.141	6014.11879
867.323	6277.88844
867.505	6086.84905
867.687	6201.08126
867.869	6032.82361
868.052	6169.93406
868.234	6138.78159
868.416	6421.03795
868.598	6282.03927
868.78	6138.78159
868.962	6169.93406
869.144	6462.50982
869.326	6176.16392
869.508	6360.8872
869.69	6132.55046
869.872	6240.52679
870.054	6091.0042
870.236	6122.16478
870.417	6007.88343
870.599	6115.93308
870.781	5708.33634
870.963	6005.80493
871.145	5987.09735
871.327	6045.29244
871.508	6003.7264
871.69	6271.66202
871.872	5804.07818
872.054	6041.13626
872.235	5772.8635
872.417	5976.70343
872.599	5729.15403
872.78	5812.4012
872.962	5906.00912
873.144	5903.92947
873.325	5841.52878
873.507	5849.8501
873.689	5652.11679
873.87	5829.0461
874.052	5585.46394
874.233	5560.46289
874.415	5362.41832
874.596	5733.31729
874.778	5437.49176
874.959	5637.53854
875.141	5747.88794
875.322	5970.46679
875.503	5720.82724
875.685	5893.53083
875.866	5647.95169
876.048	5793.67388
876.229	5722.90898
876.41	5731.23567
876.592	5495.86116
876.773	5714.5819
876.954	5704.17252
877.136	5670.85855
877.317	5712.50007
877.498	5995.41207
877.679	5570.88041
877.86	5727.07237
878.042	5720.82724
878.223	5785.35001
878.404	5816.56257
878.585	5980.86107
878.766	5654.1993
878.947	5822.80444
879.128	5672.94085
879.309	6051.52653
879.49	5839.4484
879.672	6111.7785
879.853	5870.65174
880.034	5985.01861
880.215	5943.43892
880.396	6203.15755
880.576	5727.07237
880.757	5762.45743
880.938	5739.562
881.119	6005.80493
881.3	6036.97998
881.481	6153.32007
881.662	5930.96317
881.843	5791.59295
882.023	5675.02313
882.204	5706.25444
882.385	5487.5238
882.566	5914.32751
882.747	5737.48045
882.927	6145.01251
883.108	5695.8446
883.289	5856.09084
883.469	5541.70988
883.65	6012.04036
883.831	5712.50007
884.011	5928.88379
884.192	5664.61151
884.373	5808.23974
884.553	5660.4467
884.734	5639.62122
884.914	5691.68049
885.095	5700.00861
885.275	5729.15403
885.456	5783.26899
885.636	5866.4916
885.817	5951.75561
885.997	5637.53854
886.178	5982.93985
886.358	5695.8446
886.538	5943.43892
886.719	5756.21351
886.899	5995.41207
887.08	5747.88794
887.26	5957.99288
887.44	5627.1248
887.621	6163.70399
887.801	5781.18794
887.981	6217.69093
888.161	5856.09084
888.342	5987.09735
888.522	5930.96317
888.702	6078.53848
888.882	6111.7785
889.062	6236.37503
889.242	6184.47008
889.423	6346.36511
889.603	5920.56606
889.783	6036.97998
889.963	5895.6106
890.143	6059.83832
890.323	5745.80649
890.503	5960.07193
890.683	5789.51199
890.863	5966.30892
891.043	5712.50007
891.223	5785.35001
891.403	5712.50007
891.583	5860.25122
891.763	5691.68049
891.943	5845.68949
892.122	5704.17252
892.302	5887.29136
892.482	5687.51629
892.662	5664.61151
892.842	5304.00685
893.022	5562.54644
893.201	5462.50948
893.381	5560.46289
893.561	5283.14116
893.741	5633.37312
893.92	5739.562
894.1	5606.29555
894.28	5587.5472
894.459	5437.49176
894.639	5122.39712
894.819	5445.83138
894.998	5228.87941
895.178	5420.81141
895.357	5245.57702
895.537	5431.23681
895.716	5339.47315
895.896	5718.74548
896.075	5299.8339
896.255	5331.12875
896.434	5306.09329
896.614	5475.01706
896.793	5395.78805
896.973	5560.46289
897.152	5343.64521
897.331	5662.52912
897.511	5287.31448
897.69	5251.83823
897.87	5040.9287
898.049	5116.13157
898.228	5122.39712
898.407	5216.35523
898.587	4974.05655
898.766	5072.26688
898.945	4894.61525
899.124	5299.8339
899.304	5084.80069
899.483	5393.70262
899.662	5097.33367
899.841	5020.0337
900.02	4994.95664
900.199	5059.73224
900.378	4869.52164
900.557	5101.51115
900.737	4785.85254
900.916	4869.52164
901.095	4526.24868
901.274	4994.95664
901.453	4739.81904
901.632	4815.14087
901.811	4658.18731
901.989	4421.47289
902.168	4779.57589
902.347	4917.61482
902.526	4283.08529
902.705	4570.23805
902.884	4410.99229
903.063	4559.76528
903.242	4419.37682
903.42	4482.24955
903.599	4427.76099
903.778	4398.41486
903.957	4142.50533
904.135	4356.48441
904.314	3949.31709
904.493	4387.93306
904.672	4060.63168
904.85	4232.73926
905.029	4148.80199
905.207	4310.3509
905.386	3930.40893
905.565	4073.22969
905.743	4033.33344
905.922	4001.83114
906.1	3638.17895
906.279	3730.72415
906.457	3514.02696
906.636	3974.52543
906.814	3560.32848
906.993	3673.93944
907.171	3551.91068
907.35	3669.7326
907.528	3149.63021
907.707	3497.18784
907.885	3341.3716
908.063	3514.02696
908.242	3345.58412
908.42	3476.13731
908.598	3471.92699
908.777	3383.49366
908.955	3391.91723
909.133	3655.0081
909.311	3248.67881
909.49	3661.31871
909.668	3231.82206
909.846	3497.18784
910.024	3271.8551
910.202	3471.92699
910.38	3200.21277
910.559	3442.45271
910.737	3273.96193
910.915	3450.87429
911.093	3332.94635
911.271	3562.43288
911.449	3254.99982
911.627	3566.64163
911.805	3265.53449
911.983	3292.92267
912.161	3217.07152
912.339	3602.413
912.517	3058.97997
912.695	3303.45582
912.872	3158.06129
913.05	3671.83603
913.228	3227.6077
913.406	3596.10079
913.584	3271.8551
913.762	3408.76352
913.939	3368.75173
914.117	3341.3716
914.295	3227.6077
914.473	3509.81729
914.65	3257.10679
914.828	3341.3716
915.006	3187.56801
915.184	3377.17579
915.361	3099.03835
915.539	3568.74598
915.716	3351.90277
915.894	3495.08287
916.072	3339.26531
916.249	3389.81136
916.427	3231.82206
916.604	3354.00895
916.782	3113.79526
916.959	3400.34052
917.137	3006.26304
917.314	3354.00895
917.492	3103.25469
917.669	3124.33543
917.847	2776.30915
918.024	3210.74961
918.201	2843.83614
918.379	3033.67705
918.556	2917.6773
918.733	2987.2826
918.911	2942.99019
919.088	2945.0995
919.265	2953.5366
919.442	2938.77152
919.62	2527.18771
919.797	2997.82744
919.974	2643.32535
920.151	2968.30095
920.328	2801.63342
920.506	3080.06403
920.683	2736.2084
920.86	2810.07441
921.037	2624.32352
921.214	2966.1918
921.391	2702.43563
921.568	2856.49587
921.745	2567.31208
921.922	2607.43216
922.099	2353.97326
922.276	2793.19222
922.453	2539.85902
922.63	2710.87914
922.807	2586.31687
922.984	2518.73994
923.161	2468.04951
923.338	2788.97153
923.514	2440.58953
923.691	2620.10075
923.868	2408.90269
924.045	2632.7689
924.222	2241.98122
924.399	2607.43216
924.575	2051.75031
924.752	2651.77028
924.929	2197.59992
925.105	2622.21214
925.282	2155.32852
925.459	2256.77413
925.635	2201.82687
925.812	2548.30632
925.989	2305.37622
926.165	2305.37622
926.342	1998.89763
926.518	2324.39307
926.695	2241.98122
926.871	2271.56659
927.048	1965.06978
927.224	2222.96114
927.401	2007.35434
927.577	2009.4685
927.754	2032.72383
927.93	2085.57374
928.107	1943.92658
928.283	1981.98391
928.459	1671.13503
928.636	1905.86734
928.812	1745.15498
928.988	1918.55396
929.165	1573.84674
929.341	1916.43953
929.517	1679.59464
929.693	1952.38393
929.87	1704.9732
930.046	1916.43953
930.222	1571.73173
930.398	1715.54747
930.574	1609.80162
930.751	1643.64099
930.927	1578.07675
931.103	1736.69576
931.279	1529.43128
931.455	1717.66231
931.631	1571.73173
931.807	1588.65175
931.983	1453.28961
932.159	1666.9052
932.335	1440.5993
932.511	1499.82071
932.687	1347.53755
932.863	1550.58156
933.039	1254.47851
933.215	1377.14793
933.391	1140.27702
933.566	1478.67023
933.742	1155.08031
933.918	1351.76759
934.094	1140.27702
934.27	1322.15744
934.445	1131.81809
934.621	1298.89256
934.797	1047.23299
934.973	1334.84747
935.148	992.2574
935.324	996.48615
935.5	831.58679
935.675	1009.17253
935.851	799.88117
936.027	852.72501
936.202	738.58978
936.378	890.77596
936.553	850.61115
936.729	840.04198
936.904	578.0082
937.08	694.21183
937.255	529.42547
937.431	645.61311
937.606	497.74505
937.782	573.78333
937.957	428.0599
938.133	463.95624
938.308	425.9485
938.483	428.0599
938.659	400.61285
938.834	518.86497
939.009	434.39422
939.185	309.84661
939.36	242.32113
939.535	244.431
939.71	343.61636
939.886	373.16856
940.061	286.63257
940.236	366.83566
940.411	250.76076
940.586	290.85314
940.761	318.28862
940.937	333.06283
941.112	225.4428
941.287	316.17809
941.462	231.77202
941.637	244.431
941.812	176.92467
941.987	286.63257
942.162	166.37868
942.337	210.67529
942.512	132.63502
942.687	223.33309
942.862	246.5409
943.037	265.53084
943.212	191.68993
943.386	183.25252
943.561	193.79933
943.736	155.83321
943.911	141.07043
944.086	248.65082
944.26	212.78487
944.435	160.05133
944.61	206.45618
944.785	122.09124
944.959	109.43943
945.134	147.39721
945.309	147.39721
945.483	191.68993
945.658	172.70621
945.833	193.79933
946.007	122.09124
946.182	189.58055
946.357	181.14322
946.531	122.09124
946.706	71.48875
946.88	113.65661
947.055	176.92467
947.229	181.14322
947.404	166.37868
947.578	160.05133
947.752	198.0182
947.927	172.70621
948.101	149.50617
948.276	210.67529
948.45	130.52622
948.624	149.50617
948.799	153.72418
948.973	257.09068
949.147	113.65661
949.321	233.8818
949.496	261.31072
949.67	172.70621
949.844	172.70621
950.018	189.58055
950.193	242.32113
950.367	176.92467
950.541	164.26954
950.715	273.97131
950.889	193.79933
951.063	314.06758
951.237	267.64093
951.411	168.48784
951.585	157.94226
951.759	229.66226
951.933	198.0182
952.107	172.70621
952.281	198.0182
952.455	261.31072
952.629	217.0041
952.803	240.21127
952.977	176.92467
953.151	147.39721
953.325	202.23715
953.499	126.30869
953.672	204.34665
953.846	119.98255
954.02	206.45618
954.194	208.56572
954.368	198.0182
954.541	181.14322
954.715	219.11374
954.889	174.81543
955.062	126.30869
955.236	269.75104
955.41	320.39917
955.583	206.45618
955.757	206.45618
955.93	231.77202
956.104	181.14322
956.278	162.16043
956.451	227.55252
956.625	155.83321
956.798	210.67529
956.972	231.77202
957.145	170.59702
957.319	231.77202
957.492	225.4428
957.665	164.26954
957.839	242.32113
958.012	276.08147
958.185	189.58055
958.359	240.21127
958.532	189.58055
958.705	208.56572
958.879	242.32113
959.052	155.83321
959.225	147.39721
959.398	214.89448
959.572	181.14322
959.745	195.90876
959.918	240.21127
960.091	181.14322
960.264	172.70621
960.438	206.45618
960.611	189.58055
960.784	267.64093
960.957	141.07043
961.13	130.52622
961.303	269.75104
961.476	147.39721
961.649	248.65082
961.822	195.90876
961.995	172.70621
962.168	193.79933
962.341	225.4428
962.514	248.65082
962.686	151.61516
962.859	257.09068
963.032	198.0182
963.205	170.59702
963.378	136.85268
963.551	138.96154
963.723	164.26954
963.896	227.55252
964.069	132.63502
964.242	223.33309
964.414	206.45618
964.587	162.16043
964.76	181.14322
964.932	202.23715
965.105	157.94226
965.278	162.16043
965.45	160.05133
965.623	174.81543
965.795	136.85268
965.968	128.41744
966.14	200.12766
966.313	115.76524
966.485	90.46319
966.658	198.0182
966.83	198.0182
967.003	113.65661
967.175	147.39721
967.348	164.26954
967.52	195.90876
967.692	210.67529
967.865	168.48784
968.037	189.58055
968.209	134.74384
968.382	122.09124
968.554	193.79933
968.726	153.72418
968.898	185.36184
969.071	172.70621
969.243	219.11374
969.415	122.09124
969.587	122.09124
969.759	124.19996
969.932	65.16435
970.104	185.36184
970.276	141.07043
970.448	198.0182
970.62	181.14322
970.792	147.39721
970.964	37.76098
971.136	164.26954
971.308	122.09124
971.48	168.48784
971.652	151.61516
971.824	217.0041
971.996	122.09124
972.168	157.94226
972.339	96.7884
972.511	147.39721
972.683	105.22233
972.855	208.56572
973.027	113.65661
973.199	130.52622
973.37	56.73213
973.542	126.30869
973.714	41.97663
973.886	138.96154
974.057	147.39721
974.229	20.89932
974.401	149.50617
974.572	155.83321
974.744	79.92161
974.915	143.17933
975.087	149.50617
975.259	111.54801
975.43	117.87389
975.602	86.24649
975.773	41.97663
975.945	25.11459
976.116	79.92161
976.288	117.87389
976.459	134.74384
976.63	122.09124
976.802	71.48875
976.973	65.16435
977.145	-27.56942
977.316	174.81543
977.487	155.83321
977.659	149.50617
977.83	65.16435
978.001	29.32996
978.172	54.62413
978.344	23.00695
978.515	147.39721
978.686	71.48875
978.857	75.70514
979.028	96.7884
979.2	84.13817
979.371	145.28826
979.542	82.02988
979.713	105.22233
979.884	113.65661
980.055	58.84015
980.226	96.7884
980.397	37.76098
980.568	124.19996
980.739	71.48875
980.91	98.89685
981.081	29.32996
981.252	27.22227
981.423	82.02988
981.594	65.16435
981.765	31.43768
981.936	88.35483
982.106	27.22227
982.277	84.13817
982.448	67.27246
982.619	79.92161
982.79	88.35483
982.96	41.97663
983.131	54.62413
983.302	94.67998
983.472	88.35483
983.643	54.62413
983.814	56.73213
983.984	84.13817
984.155	143.17933
984.326	73.59693
984.496	58.84015
984.667	82.02988
984.837	29.32996
985.008	115.76524
985.178	25.11459
985.349	-10.71218
985.519	27.22227
985.69	33.54542
985.86	-0.17561
986.031	37.76098
986.201	-4.39031
986.371	44.08449
986.542	58.84015
986.712	41.97663
986.882	-14.92664
987.053	101.00532
987.223	50.4082
987.393	54.62413
987.563	60.94819
987.734	71.48875
987.904	8.25407
988.074	63.05626
988.244	44.08449
988.414	50.4082
988.585	63.05626
988.755	60.94819
988.925	67.27246
989.095	-8.60492
989.265	63.05626
989.435	41.97663
989.605	50.4082
989.775	12.46906
989.945	75.70514
990.115	33.54542
990.285	71.48875
990.455	88.35483
990.625	16.68414
990.795	54.62413
990.965	63.05626
991.134	37.76098
991.304	12.46906
991.474	4.03918
991.644	31.43768
991.814	-12.81942
991.984	37.76098
992.153	-0.17561
992.323	-25.46235
992.493	67.27246
992.662	-10.71218
992.832	90.46319
993.002	23.00695
993.171	58.84015
993.341	82.02988
993.511	115.76524
993.68	-12.81942
993.85	92.57157
994.019	94.67998
994.189	117.87389
994.358	29.32996
994.528	-21.24814
994.697	-4.39031
994.867	29.32996
995.036	82.02988
995.206	4.03918
995.375	1.93177
995.544	-2.28298
995.714	96.7884
995.883	41.97663
996.052	50.4082
996.222	75.70514
996.391	29.32996
996.56	23.00695
996.73	-71.81209
996.899	44.08449
997.068	35.65319
997.237	101.00532
997.406	12.46906
997.576	20.89932
997.745	46.19237
997.914	8.25407
998.083	-17.03383
998.252	-12.81942
998.421	-10.71218
998.59	50.4082
998.759	50.4082
998.928	12.46906
999.097	14.57659
999.266	46.19237
999.435	-12.81942
999.604	-2.28298
999.773	-14.92664
999.942	16.68414
1000.111	33.54542
1000.28	79.92161
1000.448	54.62413
1000.617	20.89932
1000.786	56.73213
1000.955	4.03918
1001.124	-4.39031
1001.292	41.97663
1001.461	88.35483
1001.63	4.03918
1001.798	75.70514
1001.967	41.97663
1002.136	63.05626
1002.304	86.24649
1002.473	16.68414
1002.642	6.14661
1002.81	-2.28298
1002.979	8.25407
1003.147	75.70514
1003.316	79.92161
1003.484	-4.39031
1003.653	56.73213
1003.821	4.03918
1003.99	46.19237
1004.158	39.86879
1004.327	-21.24814
1004.495	35.65319
1004.663	18.79172
1004.832	14.57659
1005	-0.17561
1005.168	1.93177
1005.337	29.32996
1005.505	-17.03383
1005.673	31.43768
1005.842	16.68414
1006.01	73.59693
1006.178	23.00695
1006.346	-12.81942
1006.514	10.36155
1006.683	-2.28298
1006.851	71.48875
1007.019	-29.67646
1007.187	-6.49763
1007.355	-4.39031
1007.523	20.89932
1007.691	20.89932
1007.859	14.57659
1008.027	27.22227
1008.195	-27.56942
1008.363	56.73213
1008.531	-42.31821
1008.699	90.46319
1008.867	37.76098
1009.035	-40.21131
1009.203	27.22227
1009.37	46.19237
1009.538	71.48875
1009.706	6.14661
1009.874	14.57659
1010.042	-23.35526
1010.209	20.89932
1010.377	63.05626
1010.545	-25.46235
1010.713	134.74384
1010.88	48.30027
1011.048	-2.28298
1011.216	39.86879
1011.383	23.00695
1011.551	4.03918
1011.718	-2.28298
1011.886	48.30027
1012.054	-67.59898
1012.221	-57.06577
1012.389	4.03918
1012.556	29.32996
1012.724	8.25407
1012.891	37.76098
1013.058	31.43768
1013.226	37.76098
1013.393	16.68414
1013.561	-12.81942
1013.728	16.68414
1013.895	-69.70555
1014.063	39.86879
1014.23	6.14661
1014.397	-46.53192
1014.565	41.97663
1014.732	101.00532
1014.899	41.97663
1015.066	-6.49763
1015.233	14.57659
1015.401	29.32996
1015.568	-8.60492
1015.735	29.32996
1015.902	-19.141
1016.069	29.32996
1016.236	75.70514
1016.403	-44.42508
1016.57	-46.53192
1016.737	31.43768
1016.904	79.92161
1017.071	48.30027
1017.238	29.32996
1017.405	29.32996
1017.572	-38.10439
1017.739	23.00695
1017.906	12.46906
1018.073	33.54542
1018.24	71.48875
1018.407	39.86879
1018.573	41.97663
1018.74	-38.10439
1018.907	41.97663
1019.074	23.00695
1019.241	65.16435
1019.407	-21.24814
1019.574	-29.67646
1019.741	37.76098
1019.907	-86.55716
1020.074	4.03918
1020.241	14.57659
1020.407	65.16435
1020.574	29.32996
1020.74	6.14661
1020.907	-42.31821
1021.073	-8.60492
1021.24	60.94819
1021.406	-21.24814
1021.573	29.32996
1021.739	-0.17561
1021.906	115.76524
1022.072	-31.78348
1022.239	58.84015
1022.405	73.59693
1022.571	4.03918
1022.738	-4.39031
1022.904	-10.71218
1023.07	29.32996
1023.237	6.14661
1023.403	71.48875
1023.569	-92.87609
1023.735	-35.99745
1023.902	-2.28298
1024.068	-63.38577
1024.234	60.94819
1024.4	31.43768
1024.566	12.46906
1024.732	-25.46235
1024.898	-12.81942
1025.065	-29.67646
1025.231	-80.238
1025.397	46.19237
1025.563	33.54542
1025.729	18.79172
1025.895	14.57659
1026.061	16.68414
1026.227	-50.74553
1026.392	8.25407
1026.558	12.46906
1026.724	-8.60492
1026.89	4.03918
1027.056	-40.21131
1027.222	-23.35526
1027.388	20.89932
1027.553	96.7884
1027.719	8.25407
1027.885	23.00695
1028.051	-4.39031
1028.216	-38.10439
1028.382	60.94819
1028.548	-10.71218
1028.713	-25.46235
1028.879	-17.03383
1029.045	-2.28298
1029.21	-0.17561
1029.376	23.00695
1029.541	46.19237
1029.707	-40.21131
1029.873	-69.70555
1030.038	-2.28298
1030.204	20.89932
1030.369	-19.141
1030.534	29.32996
1030.7	-35.99745
1030.865	25.11459
1031.031	4.03918
1031.196	25.11459
1031.361	31.43768
1031.527	-17.03383
1031.692	-14.92664
1031.857	20.89932
1032.023	4.03918
1032.188	14.57659
1032.353	-29.67646
1032.518	-19.141
1032.684	134.74384
1032.849	-4.39031
1033.014	-57.06577
1033.179	-57.06577
1033.344	90.46319
1033.509	12.46906
1033.674	-0.17561
1033.839	6.14661
1034.004	20.89932
1034.17	-19.141
1034.335	-25.46235
1034.5	8.25407
1034.664	-23.35526
1034.829	56.73213
1034.994	-33.89048
1035.159	6.14661
1035.324	31.43768
1035.489	103.11382
1035.654	-4.39031
1035.819	31.43768
1035.984	73.59693
1036.148	23.00695
1036.313	25.11459
1036.478	63.05626
1036.643	-54.95905
1036.807	25.11459
1036.972	29.32996
1037.137	-25.46235
1037.301	-12.81942
1037.466	-21.24814
1037.631	82.02988
1037.795	-76.0251
1037.96	103.11382
1038.124	-21.24814
1038.289	-6.49763
1038.454	41.97663
1038.618	79.92161
1038.783	18.79172
1038.947	46.19237
1039.111	46.19237
1039.276	25.11459
1039.44	-0.17561
1039.605	29.32996
1039.769	54.62413
1039.933	20.89932
1040.098	-4.39031
1040.262	79.92161
1040.426	18.79172
1040.591	71.48875
1040.755	-17.03383
1040.919	-65.49239
1041.083	25.11459
1041.248	-19.141
1041.412	39.86879
1041.576	6.14661
1041.74	14.57659
1041.904	6.14661
1042.068	-19.141
1042.232	79.92161
1042.397	8.25407
1042.561	18.79172
1042.725	-10.71218
1042.889	8.25407
1043.053	14.57659
1043.217	-4.39031
1043.381	8.25407
1043.544	-80.238
1043.708	31.43768
1043.872	25.11459
1044.036	-12.81942
1044.2	29.32996
1044.364	48.30027
1044.528	88.35483
1044.691	-94.98234
1044.855	23.00695
1045.019	-21.24814
1045.183	-35.99745
1045.346	8.25407
1045.51	41.97663
1045.674	-4.39031
1045.837	-4.39031
1046.001	8.25407
1046.165	-21.24814
1046.328	-52.8523
1046.492	33.54542
1046.655	39.86879
1046.819	31.43768
1046.983	-31.78348
1047.146	-12.81942
1047.31	-27.56942
1047.473	-38.10439
1047.636	4.03918
1047.8	88.35483
1047.963	-25.46235
1048.127	-44.42508
1048.29	29.32996
