Data from mixed_try1_USB4F045381__27__00252.txt Node

Date: Thu Apr 03 20:26:16 EDT 2025
User: mmckonesweet
Spectrometer: USB4F04538
Trigger mode: 4
Integration Time (sec): 2.700000E-3
Scans to average: 1
Electric dark correction enabled: true
Nonlinearity correction enabled: true
Boxcar width: 0
XAxis mode: Wavelengths
Number of Pixels in Spectrum: 3648
>>>>>Begin Spectral Data<<<<<
345.52	28.80304
345.736	28.80304
345.952	28.80304
346.168	-47.05863
346.384	58.31314
346.6	18.26482
346.816	79.39455
347.032	-53.37899
347.248	26.69535
347.464	-15.45344
347.68	-95.5089
347.896	-0.70246
348.112	-2.80981
348.328	-15.45344
348.544	26.69535
348.76	20.37242
348.975	11.94218
349.191	-40.73804
349.407	-21.77492
349.623	-61.80579
349.839	3.51233
350.055	-7.02445
350.27	-53.37899
350.486	-44.95179
350.702	49.88122
350.918	-32.31023
351.133	-40.73804
351.349	-53.37899
351.565	47.77329
351.781	5.61975
351.996	54.09713
352.212	-13.34623
352.428	-15.45344
352.644	-11.23899
352.859	-4.91714
353.075	-47.05863
353.291	18.26482
353.506	-17.56062
353.722	22.48004
353.938	3.51233
354.153	-23.88203
354.369	-4.91714
354.584	-51.27223
354.8	-53.37899
355.016	9.83468
355.231	-21.77492
355.447	-91.29638
355.662	18.26482
355.878	-28.09618
356.093	-15.45344
356.309	-2.80981
356.524	-57.59244
356.74	9.83468
356.955	-59.69913
357.171	11.94218
357.386	-23.88203
357.602	-7.02445
357.817	22.48004
358.033	-55.48573
358.248	-53.37899
358.464	-23.88203
358.679	-70.23219
358.895	-57.59244
359.11	-57.59244
359.325	41.44967
359.541	-13.34623
359.756	-61.80579
359.972	-42.84492
360.187	-2.80981
360.402	-49.16544
360.618	26.69535
360.833	-42.84492
361.048	-40.73804
361.264	-51.27223
361.479	-7.02445
361.694	-59.69913
361.909	-21.77492
362.125	-55.48573
362.34	-40.73804
362.555	-30.20322
362.77	62.52924
362.986	20.37242
363.201	-87.08375
363.416	18.26482
363.631	-4.91714
363.847	-32.31023
364.062	-49.16544
364.277	-91.29638
364.492	-21.77492
364.707	64.63732
364.922	-13.34623
365.138	-40.73804
365.353	-42.84492
365.568	9.83468
365.783	1.40492
365.998	60.42118
366.213	24.58768
366.428	1.40492
366.643	-36.52418
366.858	-53.37899
367.073	-11.23899
367.288	-23.88203
367.503	1.40492
367.718	-36.52418
367.933	20.37242
368.148	-9.13173
368.363	-11.23899
368.578	-34.41722
368.793	-19.66778
369.008	-19.66778
369.223	1.40492
369.438	3.51233
369.653	37.23403
369.868	22.48004
370.083	18.26482
370.298	-51.27223
370.513	9.83468
370.728	26.69535
370.943	9.83468
371.157	16.15725
371.372	1.40492
371.587	14.04971
371.802	20.37242
372.017	14.04971
372.232	-66.01904
372.446	47.77329
372.661	-89.19007
372.876	9.83468
373.091	11.94218
373.306	3.51233
373.52	22.48004
373.735	-4.91714
373.95	-23.88203
374.165	18.26482
374.379	-80.7646
374.594	-47.05863
374.809	26.69535
375.023	-23.88203
375.238	18.26482
375.453	22.48004
375.667	-72.33872
375.882	-15.45344
376.097	-15.45344
376.311	-9.13173
376.526	-53.37899
376.741	60.42118
376.955	1.40492
377.17	9.83468
377.384	18.26482
377.599	-21.77492
377.813	-66.01904
378.028	-47.05863
378.242	-21.77492
378.457	22.48004
378.672	-19.66778
378.886	35.12624
379.101	24.58768
379.315	-4.91714
379.53	16.15725
379.744	20.37242
379.958	1.40492
380.173	9.83468
380.387	1.40492
380.602	-2.80981
380.816	11.94218
381.031	1.40492
381.245	-7.02445
381.459	-21.77492
381.674	26.69535
381.888	-47.05863
382.103	-13.34623
382.317	-9.13173
382.531	-15.45344
382.746	-66.01904
382.96	-28.09618
383.174	14.04971
383.388	5.61975
383.603	-49.16544
383.817	28.80304
384.031	-47.05863
384.246	26.69535
384.46	-78.65817
384.674	70.96171
384.888	-19.66778
385.103	-15.45344
385.317	-53.37899
385.531	-11.23899
385.745	-15.45344
385.959	14.04971
386.174	-7.02445
386.388	35.12624
386.602	-19.66778
386.816	35.12624
387.03	16.15725
387.244	-51.27223
387.458	14.04971
387.672	16.15725
387.887	20.37242
388.101	-19.66778
388.315	35.12624
388.529	-23.88203
388.743	-34.41722
388.957	-7.02445
389.171	-2.80981
389.385	-32.31023
389.599	-53.37899
389.813	-19.66778
390.027	-7.02445
390.241	3.51233
390.455	43.55752
390.669	9.83468
390.883	26.69535
391.097	-0.70246
391.311	14.04971
391.525	26.69535
391.738	28.80304
391.952	1.40492
392.166	-15.45344
392.38	-53.37899
392.594	-47.05863
392.808	30.91075
393.022	26.69535
393.236	1.40492
393.449	-7.02445
393.663	7.72721
393.877	64.63732
394.091	-106.03976
394.305	-89.19007
394.518	-0.70246
394.732	-32.31023
394.946	68.85356
395.16	1.40492
395.373	-15.45344
395.587	-76.55171
395.801	-2.80981
396.015	9.83468
396.228	-23.88203
396.442	92.04447
396.656	-72.33872
396.869	-23.88203
397.083	-0.70246
397.297	43.55752
397.51	30.91075
397.724	18.26482
397.938	26.69535
398.151	-2.80981
398.365	-66.01904
398.578	-21.77492
398.792	-49.16544
399.005	-23.88203
399.219	-40.73804
399.433	-7.02445
399.646	-112.35796
399.86	3.51233
400.073	43.55752
400.287	-9.13173
400.5	56.20513
400.714	5.61975
400.927	-7.02445
401.141	-34.41722
401.354	-19.66778
401.567	-152.36765
401.781	83.6111
401.994	-63.91243
402.208	-4.91714
402.421	-57.59244
402.635	-32.31023
402.848	5.61975
403.061	-23.88203
403.275	-80.7646
403.488	-15.45344
403.701	-40.73804
403.915	-47.05863
404.128	-15.45344
404.341	-49.16544
404.555	-2.80981
404.768	-19.66778
404.981	5.61975
405.195	-38.63112
405.408	-11.23899
405.621	14.04971
405.834	-25.98912
406.048	-15.45344
406.261	-36.52418
406.474	-25.98912
406.687	20.37242
406.9	43.55752
407.114	9.83468
407.327	-2.80981
407.54	68.85356
407.753	-40.73804
407.966	-40.73804
408.179	14.04971
408.392	30.91075
408.605	-4.91714
408.819	28.80304
409.032	9.83468
409.245	-49.16544
409.458	-57.59244
409.671	9.83468
409.884	-4.91714
410.097	26.69535
410.31	73.06989
410.523	-30.20322
410.736	-32.31023
410.949	-57.59244
411.162	47.77329
411.375	39.34183
411.588	62.52924
411.801	-13.34623
412.014	-44.95179
412.227	-2.80981
412.44	16.15725
412.653	18.26482
412.865	-30.20322
413.078	22.48004
413.291	-49.16544
413.504	-28.09618
413.717	37.23403
413.93	26.69535
414.143	-32.31023
414.356	77.2863
414.568	54.09713
414.781	14.04971
414.994	-30.20322
415.207	-7.02445
415.42	-30.20322
415.632	5.61975
415.845	-28.09618
416.058	-11.23899
416.271	-42.84492
416.483	9.83468
416.696	35.12624
416.909	68.85356
417.121	22.48004
417.334	49.88122
417.547	1.40492
417.759	18.26482
417.972	20.37242
418.185	-9.13173
418.397	-2.80981
418.61	-4.91714
418.823	-15.45344
419.035	-7.02445
419.248	-11.23899
419.46	-44.95179
419.673	-21.77492
419.885	-36.52418
420.098	35.12624
420.311	26.69535
420.523	47.77329
420.736	22.48004
420.948	22.48004
421.161	-32.31023
421.373	66.74543
421.586	66.74543
421.798	1.40492
422.01	26.69535
422.223	-9.13173
422.435	-28.09618
422.648	-4.91714
422.86	16.15725
423.073	77.2863
423.285	9.83468
423.497	-32.31023
423.71	35.12624
423.922	35.12624
424.134	-23.88203
424.347	28.80304
424.559	20.37242
424.771	18.26482
424.984	-7.02445
425.196	-19.66778
425.408	-2.80981
425.621	18.26482
425.833	9.83468
426.045	1.40492
426.257	26.69535
426.47	28.80304
426.682	39.34183
426.894	11.94218
427.106	26.69535
427.318	-15.45344
427.531	18.26482
427.743	-17.56062
427.955	-32.31023
428.167	20.37242
428.379	-49.16544
428.591	-57.59244
428.804	-30.20322
429.016	33.01848
429.228	-30.20322
429.44	-28.09618
429.652	26.69535
429.864	20.37242
430.076	11.94218
430.288	1.40492
430.5	14.04971
430.712	54.09713
430.924	43.55752
431.136	1.40492
431.348	1.40492
431.56	33.01848
431.772	-21.77492
431.984	26.69535
432.196	-13.34623
432.408	3.51233
432.62	47.77329
432.832	81.50281
433.044	30.91075
433.256	9.83468
433.468	-9.13173
433.679	106.80373
433.891	18.26482
434.103	45.6654
434.315	-17.56062
434.527	89.9361
434.739	113.12946
434.95	9.83468
435.162	9.83468
435.374	5.61975
435.586	26.69535
435.798	37.23403
436.009	-32.31023
436.221	18.26482
436.433	68.85356
436.645	1.40492
436.856	87.82774
437.068	-40.73804
437.28	-55.48573
437.491	47.77329
437.703	43.55752
437.915	-15.45344
438.126	35.12624
438.338	-30.20322
438.55	14.04971
438.761	11.94218
438.973	-15.45344
439.184	18.26482
439.396	43.55752
439.608	9.83468
439.819	68.85356
440.031	58.31314
440.242	33.01848
440.454	62.52924
440.665	87.82774
440.877	-7.02445
441.088	77.2863
441.3	-47.05863
441.511	-53.37899
441.723	35.12624
441.934	-63.91243
442.146	11.94218
442.357	-7.02445
442.569	77.2863
442.78	37.23403
442.991	18.26482
443.203	64.63732
443.414	5.61975
443.626	45.6654
443.837	9.83468
444.048	1.40492
444.26	-15.45344
444.471	20.37242
444.682	9.83468
444.894	89.9361
445.105	24.58768
445.316	45.6654
445.528	51.98916
445.739	-44.95179
445.95	47.77329
446.161	43.55752
446.373	77.2863
446.584	26.69535
446.795	26.69535
447.006	26.69535
447.217	9.83468
447.429	51.98916
447.64	89.9361
447.851	22.48004
448.062	16.15725
448.273	-7.02445
448.484	39.34183
448.695	-82.87101
448.907	14.04971
449.118	1.40492
449.329	20.37242
449.54	56.20513
449.751	35.12624
449.962	70.96171
450.173	3.51233
450.384	35.12624
450.595	9.83468
450.806	1.40492
451.017	98.36974
451.228	37.23403
451.439	89.9361
451.65	51.98916
451.861	5.61975
452.072	68.85356
452.283	85.71941
452.494	-36.52418
452.705	20.37242
452.915	5.61975
453.126	56.20513
453.337	35.12624
453.548	1.40492
453.759	77.2863
453.97	45.6654
454.181	87.82774
454.391	-32.31023
454.602	20.37242
454.813	77.2863
455.024	3.51233
455.235	45.6654
455.445	3.51233
455.656	51.98916
455.867	98.36974
456.078	73.06989
456.288	3.51233
456.499	73.06989
456.71	56.20513
456.921	77.2863
457.131	83.6111
457.342	51.98916
457.553	35.12624
457.763	30.91075
457.974	35.12624
458.184	148.97893
458.395	20.37242
458.606	43.55752
458.816	45.6654
459.027	9.83468
459.237	37.23403
459.448	30.91075
459.659	85.71941
459.869	96.26129
460.08	58.31314
460.29	5.61975
460.501	129.99903
460.711	51.98916
460.922	68.85356
461.132	33.01848
461.343	94.15287
461.553	119.45538
461.764	132.10782
461.974	119.45538
462.184	155.30595
462.395	132.10782
462.605	102.58669
462.816	89.9361
463.026	132.10782
463.236	144.76102
463.447	81.50281
463.657	58.31314
463.867	121.56407
464.078	102.58669
464.288	94.15287
464.498	212.25747
464.709	104.6952
464.919	104.6952
465.129	140.5432
465.339	146.86997
465.55	75.17808
465.76	170.06972
465.97	178.50662
466.18	229.13482
466.391	212.25747
466.601	218.58633
466.811	246.01343
467.021	161.63315
467.231	170.06972
467.441	165.85139
467.651	155.30595
467.862	165.85139
468.072	256.56318
468.282	182.72519
468.492	271.33363
468.702	229.13482
468.912	182.72519
469.122	406.41873
469.332	294.5462
469.542	288.21528
469.752	222.80567
469.962	269.22351
470.172	254.45319
470.382	374.75181
470.592	231.24458
470.802	383.19595
471.012	414.86386
471.222	286.10501
471.432	338.86722
471.642	366.30793
471.852	330.42451
472.062	332.53516
472.272	381.08489
472.482	469.76342
472.691	509.88883
472.901	499.329
473.111	433.86636
473.321	600.71778
473.531	435.97783
473.741	588.04248
473.95	594.38007
474.16	465.54001
474.37	651.4235
474.58	473.9869
474.79	642.97205
474.999	579.59254
475.209	727.49485
475.419	681.00505
475.628	752.85512
475.838	651.4235
476.048	782.44397
476.258	651.4235
476.467	866.9938
476.677	740.1748
476.886	1002.30071
477.096	951.55712
477.306	930.41514
477.515	957.89985
477.725	949.44289
477.935	974.81412
478.144	1044.58984
478.354	898.70358
478.563	1184.15878
478.773	1074.1936
478.982	1289.90392
479.192	1228.57084
479.401	1190.50327
479.611	1251.83485
479.82	1283.55902
480.03	1391.42444
480.239	1497.1769
480.449	1366.04401
480.658	1421.03508
480.868	1437.95548
481.077	1526.78748
481.287	1522.55741
481.496	1605.04292
481.705	1590.238
481.915	1820.75648
482.124	1786.92149
482.333	1820.75648
482.543	1736.16705
482.752	1772.11834
482.961	1852.47575
483.171	1932.82616
483.38	2057.56384
483.589	2085.04527
483.799	1949.74102
484.008	2418.93711
484.217	2095.61472
484.426	2361.8962
484.636	2146.34543
484.845	2410.48708
485.054	2156.91376
485.263	2368.23445
485.472	2262.5855
485.682	2359.78343
485.891	2431.61184
486.1	2571.00753
486.309	2461.18469
486.518	2657.57606
486.727	2685.02025
486.936	2689.24224
487.146	2541.4429
487.355	2784.22319
487.564	2706.12969
487.773	2917.14993
487.982	2849.63858
488.191	2927.69724
488.4	3052.12732
488.609	3043.69305
488.818	2988.86435
489.027	3094.29489
489.236	3157.53436
489.445	3224.9737
489.654	3254.47307
489.863	3317.67489
490.072	3068.9951
490.281	3300.82257
490.49	3364.01307
490.698	3414.55418
490.907	3456.66396
491.116	3511.39593
491.325	3313.46191
491.534	3616.61483
491.743	3340.84503
491.952	3646.06776
492.16	3717.58079
492.369	3831.11435
492.578	3847.92926
492.787	3664.99983
492.996	3919.37841
493.204	3997.1054
493.413	4013.90757
493.622	4003.40637
493.831	3974.00028
494.039	4011.80737
494.248	3971.8997
494.457	4215.42997
494.665	4160.87005
494.874	4259.48712
495.083	4232.21476
495.291	4290.95074
495.5	4532.00975
495.709	4324.50661
495.917	4242.70455
496.126	4674.41173
496.335	4586.46975
496.543	4494.2979
496.752	4368.5403
496.96	4833.44381
497.169	4599.0353
497.377	4820.89341
497.586	4701.62384
497.794	4793.69807
498.003	4653.47675
498.211	4910.81978
498.42	4743.4812
498.628	4879.45492
498.837	4848.08491
499.045	4954.72192
499.254	4904.54722
499.462	4971.44388
499.671	4967.26353
499.879	5295.13921
500.087	5126.05193
500.296	5224.18294
500.504	5167.81609
500.713	5378.58254
500.921	5468.24223
501.129	5213.74592
501.338	5301.39876
501.546	5509.92959
501.754	5230.44488
501.962	5418.20497
502.171	5268.01207
502.379	5534.93749
502.587	5411.94936
502.795	5799.39632
503.004	5528.68584
503.212	5674.50256
503.42	5818.12305
503.628	5730.71527
503.837	5593.27607
504.045	5707.81587
504.253	5886.77139
504.461	6183.95095
504.669	5917.96669
504.877	6051.00703
505.085	5884.69152
505.294	6034.38226
505.502	5944.99832
505.71	6163.18481
505.918	6127.87698
506.126	6171.49155
506.334	6086.32965
506.542	6219.24801
506.75	6275.29413
506.958	6231.70418
507.166	6096.71736
507.374	6337.54758
507.582	6163.18481
507.79	6169.4149
507.998	6200.56218
508.206	6493.08936
508.414	6250.38685
508.622	6464.06483
508.83	6453.69782
509.037	6776.87618
509.245	6461.99148
509.453	6569.77518
509.661	6569.77518
509.869	6619.50041
510.077	6739.61494
510.285	6791.36466
510.492	6836.8926
510.7	6691.99256
510.908	6752.03618
511.116	6685.78005
511.324	6615.35715
511.531	6876.20333
511.739	6826.54631
511.947	6985.81631
512.155	6996.15388
512.362	6942.39234
512.57	6888.61553
512.778	6989.9514
512.985	6938.25621
513.193	6892.75276
513.401	7066.43447
513.608	7171.80688
513.816	7130.49128
514.024	7215.1787
514.231	6973.41047
514.439	7365.87176
514.646	7128.42526
514.854	7355.55405
515.061	7004.42353
515.269	7405.07411
515.477	7262.66998
515.684	7514.38661
515.892	7483.45527
516.099	7460.7692
516.307	7477.26842
516.514	7421.57801
516.722	7543.2515
516.929	7922.23265
517.136	7565.9281
517.344	7815.20119
517.551	7578.29607
517.759	7730.77134
517.966	7664.85033
518.173	7821.37761
518.381	8006.5836
518.588	7827.55384
518.796	7936.63647
519.003	8199.84505
519.21	7932.5212
519.418	8189.56964
519.625	7889.30585
519.832	7979.8419
520.039	8051.83096
520.247	8095.01248
520.454	8210.11996
520.661	8212.17489
520.868	8134.07383
521.076	8364.18457
521.283	8314.89589
521.49	8423.72684
521.697	8269.7047
521.904	8442.20217
522.112	8029.20851
522.319	8277.92199
522.526	8360.07761
522.733	8702.74601
522.94	8548.91827
523.147	8770.39721
523.354	8374.45164
523.561	8585.84652
523.768	8647.3801
523.975	8987.56779
524.183	8628.92179
524.39	8739.64914
524.597	8987.56779
524.804	8833.93024
525.011	8932.2698
525.218	8905.64024
525.425	8946.60755
525.632	8809.33887
525.838	8938.41466
526.045	8907.68877
526.252	9055.13682
526.459	9184.07986
526.666	9120.64022
526.873	9290.45819
527.08	9065.37289
527.287	9022.37845
527.494	9057.18406
527.701	9660.39135
527.907	9249.54883
528.114	9402.92476
528.321	9282.27685
528.528	9654.2641
528.735	9582.76917
528.941	9560.29537
529.148	9300.68449
529.355	9580.72617
529.562	9456.07354
529.768	9613.4122
529.975	9335.4508
530.182	9691.02551
530.388	9521.47248
530.595	9852.30886
530.802	9607.28387
531.008	9989.02068
531.215	9776.78283
531.422	10058.37196
531.628	9838.02172
531.835	10135.86281
532.042	9791.07311
532.248	10172.56196
532.455	10042.05549
532.661	9933.93575
532.868	10052.25339
533.074	10372.29095
533.281	10082.84495
533.487	10168.4845
533.694	10017.57909
533.9	10351.91634
534.107	10058.37196
534.313	10366.17871
534.52	10376.36572
534.726	10278.55673
534.933	10463.96053
535.139	10588.18228
535.345	10449.70254
535.552	10490.43798
535.758	10476.18116
535.965	10639.07936
536.171	10571.89357
536.377	10803.9337
536.584	10567.82127
536.79	10441.55484
536.996	10722.534
537.203	11031.75424
537.409	10675.7205
537.615	10622.79313
537.821	10671.64945
538.028	11135.44765
538.234	10755.09616
538.44	10932.10028
538.646	10846.66099
538.853	11062.25523
539.059	10984.98123
539.265	11283.82348
539.471	10980.91373
539.677	11031.75424
539.883	11251.30749
540.09	11318.36887
540.296	11419.95618
540.502	11373.2291
540.708	11265.53356
540.914	11484.95921
541.12	11482.92801
541.326	11495.11505
541.532	11468.70938
541.738	11545.89067
541.944	11499.17731
542.15	11572.29167
542.356	11718.48463
542.562	11582.44549
542.768	11363.07034
542.974	11521.5191
543.18	11551.98334
543.386	11866.66141
543.592	11856.51377
543.798	12026.96703
544.004	11763.14548
544.21	11824.03988
544.415	11826.06956
544.621	12108.11553
544.827	11939.71835
545.033	12351.4895
545.239	12183.16703
545.445	12404.2071
545.651	12327.15673
545.856	12237.92795
546.062	11882.89721
546.268	12296.73937
546.474	11949.86431
546.679	12110.14408
546.885	12031.02475
547.091	12043.19772
547.297	11763.14548
547.502	12371.76604
547.708	12187.22358
547.914	12112.17263
548.119	12521.79166
548.325	12426.50932
548.531	12254.15239
548.736	12694.07539
548.942	12491.38397
549.147	12456.92015
549.353	12578.54887
549.559	12807.5565
549.764	12619.08674
549.97	12706.23495
550.175	12750.81819
550.381	13006.10704
550.586	12852.13354
550.792	13044.5958
550.997	12927.09809
551.203	13214.73591
551.408	12870.36883
551.614	12947.35755
551.819	12823.76664
552.025	13066.87795
552.23	12912.91617
552.435	13016.23584
552.641	13384.84464
552.846	13200.55881
553.052	13198.5335
553.257	13174.22933
553.462	13301.8191
553.668	13305.86929
553.873	13311.94454
554.078	13532.65421
554.283	13411.16839
554.489	13461.78914
554.694	13502.28402
554.899	13471.913
555.105	13532.65421
555.31	13247.1399
555.515	13293.71867
555.72	13591.36762
555.925	13340.29521
556.131	13534.67886
556.336	13380.79478
556.541	13631.85792
556.746	13729.02922
556.951	13633.88239
557.156	13680.4445
557.361	13844.41085
557.567	14008.35856
557.772	14040.74132
557.977	13836.3142
558.182	13878.82109
558.387	13633.88239
558.592	13955.73524
558.797	14085.26662
559.002	14354.42073
559.207	14239.07318
559.412	13903.11018
559.617	14176.33774
559.822	14109.55268
560.027	13844.41085
560.232	14283.59398
560.437	13915.25459
560.642	13939.54311
560.847	14214.78872
561.051	14352.39714
561.256	13911.20646
561.461	14032.64569
561.666	14139.90982
561.871	14178.36149
562.076	13977.99916
562.281	14139.90982
562.485	14287.64128
562.69	14520.35011
562.895	14489.99789
563.1	14441.43371
563.305	14429.29253
563.509	14751.01848
563.714	14263.35736
563.919	14661.99017
564.123	14162.17141
564.328	14574.98337
564.533	14457.62186
564.737	14714.59802
564.942	14716.62139
565.147	15058.56099
565.351	14753.04184
565.556	14676.15388
565.761	14599.26454
565.965	14775.29865
566.17	14765.18193
566.374	14716.62139
566.579	14732.80829
566.784	14927.04747
566.988	14906.81448
567.193	15254.81837
567.397	15121.28246
567.602	15078.79374
567.806	14801.60203
568.011	15016.07215
568.215	15127.35227
568.42	14987.74619
568.624	15048.44461
568.828	14799.5787
569.033	15163.77115
569.237	15331.70295
569.442	15226.49255
569.646	15088.9101
569.85	15212.32965
570.055	15171.86423
570.259	15392.4016
570.463	15137.46863
570.668	14890.62805
570.872	15240.65546
571.076	15101.04974
571.281	15341.81937
571.485	15360.02895
571.689	15214.35292
571.893	15542.12674
572.098	15857.77724
572.302	15422.75106
572.506	15523.91676
572.71	15436.91418
572.914	15655.43462
573.119	15608.89716
573.323	15451.07732
573.527	15479.40368
573.731	15544.15007
573.935	15799.0968
574.139	15782.90926
574.343	15477.38036
574.547	15675.66844
574.751	15859.80072
574.955	15829.44863
575.159	15667.5749
575.364	16039.89565
575.568	16007.51824
575.772	15805.16714
575.976	15691.85556
576.18	16052.03727
576.383	15817.30787
576.587	16031.80126
576.791	16179.52767
576.995	16327.26296
577.199	16116.79352
577.403	15948.8351
577.607	16215.95468
577.811	16298.92943
578.015	16203.81229
578.219	16535.72859
578.422	16122.8645
578.626	16157.26699
578.83	16337.38217
579.034	15993.35323
579.238	16130.95916
579.442	16545.84884
579.645	16624.78864
579.849	16622.7645
580.053	16438.57691
580.257	16230.12089
580.46	16493.22414
580.664	16813.04382
580.868	16240.23967
581.071	16806.97075
581.275	16626.81279
581.479	16813.04382
581.682	16564.06542
581.886	16586.33037
582.09	16944.63264
582.293	16754.33838
582.497	16470.96027
582.7	16638.95768
582.904	16541.80074
583.107	17029.66512
583.311	16679.44128
583.515	17011.44348
583.718	16523.58437
583.922	16979.04998
584.125	16758.38697
584.329	16821.14129
584.532	16979.04998
584.735	17211.89392
584.939	17003.34504
585.142	17145.07404
585.346	16881.87355
585.549	17272.64201
585.753	17177.47117
585.956	17345.54324
586.159	17582.49979
586.363	17379.97018
586.566	17544.01673
586.769	17296.94199
586.973	17339.46799
587.176	17390.09592
587.379	17525.78831
587.582	17533.8898
587.786	17292.89196
587.989	17497.43351
588.192	17300.99203
588.395	17669.59739
588.599	17760.75259
588.802	17868.12195
589.005	17349.59342
589.208	17839.75929
589.411	17704.033
589.615	17570.34712
589.818	17866.09602
590.021	17667.57179
590.224	17683.77664
590.427	18129.49596
590.63	17653.39273
590.833	18001.8408
591.036	17781.01022
591.239	17914.71921
591.442	17833.68167
591.645	18052.4959
591.848	17955.24007
592.051	18022.10257
592.254	18159.89216
592.457	18174.07733
592.66	18016.024
592.863	18376.74248
593.066	17989.68391
593.269	18737.58057
593.472	18249.0591
593.675	18486.1973
593.878	18305.80544
594.081	18415.2531
594.284	18401.06482
594.486	18542.95605
594.689	18409.17238
594.892	18313.9123
595.095	18334.1797
595.298	18490.2514
595.5	18281.48522
595.703	18847.0728
595.906	18581.47263
596.109	18579.44541
596.311	18613.90874
596.514	18855.18379
596.717	18796.38051
596.92	18867.35041
597.122	18772.04909
597.325	18565.25495
597.528	18776.10429
597.73	18875.46157
597.933	18490.2514
598.136	19013.36106
598.338	18666.61954
598.541	19015.38913
598.743	19145.19424
598.946	18735.55304
599.148	19128.96769
599.351	19337.90459
599.554	19157.36433
599.756	18958.60462
599.959	19317.61754
600.161	18680.81136
600.363	19057.9796
600.566	19009.30493
600.768	19082.31781
600.971	19130.996
601.173	19218.21696
601.376	19494.12874
601.578	18907.90683
601.78	19481.95454
601.983	19504.27401
602.185	19646.31882
602.388	19386.59519
602.59	19512.39031
602.792	19648.34818
602.995	19092.45891
603.197	19285.15912
603.399	19246.61612
603.601	18940.35313
603.804	18989.0245
604.006	19214.16
604.208	19366.30715
604.41	19557.03113
604.613	19654.43629
604.815	19552.97279
605.017	19534.71047
605.219	19283.13051
605.421	19309.50284
605.623	19630.08409
605.826	19924.38017
606.028	19609.79106
606.23	19611.82035
606.432	19593.55693
606.634	19810.71054
606.836	19299.35955
607.038	19354.13453
607.24	19642.26012
607.442	19928.44004
607.644	19792.44343
607.846	20013.70126
608.048	19341.96205
608.25	19804.62147
608.452	19735.61461
608.654	20281.71341
608.856	19435.28818
609.058	19918.29039
609.26	19626.02545
609.462	19883.78236
609.664	20052.27425
609.866	20040.09315
610.067	19991.37022
610.269	20269.52945
610.471	19895.96152
610.673	20281.71341
610.875	19926.4101
611.077	20367.00537
611.278	20034.00265
611.48	20295.92822
611.682	19881.75251
611.884	20267.49881
612.085	19877.69283
612.287	20210.64245
612.489	19800.5621
612.69	19879.72267
612.892	19904.08105
613.094	20576.20503
613.295	20042.12332
613.497	20306.08179
613.699	20291.86683
613.9	20470.58412
614.102	20009.64104
614.304	20048.21387
614.505	19910.17074
614.707	20034.00265
614.908	20109.12143
615.11	20060.39508
615.311	19958.88962
615.513	20046.18368
615.714	19952.79963
615.916	20015.73138
616.117	19999.49054
616.319	20141.60701
616.52	19969.0397
616.722	20279.68274
616.923	20145.66778
617.124	20046.18368
617.326	20040.09315
617.527	20218.76458
617.729	20042.12332
617.93	20178.15458
618.131	20367.00537
618.333	20324.35846
618.534	20448.24268
618.735	20533.54907
618.937	20399.49949
619.138	20131.45515
619.339	20352.78953
619.54	20462.4599
619.742	20635.11391
619.943	20466.522
620.144	20403.56133
620.345	20529.48669
620.546	20383.25229
620.748	20476.67732
620.949	20202.52038
621.15	20612.76875
621.351	20358.882
621.552	20291.86683
621.753	20440.11865
621.954	20399.49949
622.155	20452.30472
622.356	20501.05053
622.558	20259.37627
622.759	20072.57644
622.96	20135.51588
623.161	20082.72769
623.362	20228.91735
623.563	20519.33083
623.764	20649.33382
623.965	20649.33382
624.166	20720.43643
624.366	20553.8612
624.567	20691.99477
624.768	20665.58539
624.969	20767.16377
625.17	20795.60757
625.371	20346.69709
625.572	20631.05112
625.773	20521.36199
625.973	21114.63988
626.174	20490.89495
626.375	20807.79802
626.576	20523.39316
626.777	20381.22141
626.977	20157.85021
627.178	20844.37027
627.379	20602.61203
627.58	20507.14392
627.78	20602.61203
627.981	20507.14392
628.182	20732.62596
628.382	20746.84726
628.583	20887.03958
628.784	20836.24299
628.984	20409.65412
629.185	21090.25167
629.386	20937.83875
629.586	21443.9377
629.787	20885.00767
629.987	21114.63988
630.188	21112.60751
630.388	21567.9598
630.589	20838.2748
630.79	21051.63822
630.99	20887.03958
631.191	20572.14248
631.391	20868.75251
631.591	21021.15496
631.792	20740.75239
631.992	21287.4064
632.193	21023.18715
632.393	21112.60751
632.594	20960.1912
632.794	20600.58069
632.994	20868.75251
633.195	20996.76902
633.395	20775.29049
633.595	20805.76627
633.796	20893.13535
633.996	21269.11209
634.196	21102.4457
634.397	21559.82675
634.597	20994.73688
634.797	21254.88341
634.997	20901.26309
635.198	20986.60838
635.398	20872.81628
635.598	21582.19279
635.798	21397.17911
635.998	21344.32412
636.199	21212.19855
636.399	21238.6223
636.599	20858.59317
636.799	21330.0944
636.999	20913.45483
637.199	21238.6223
637.399	20941.9028
637.599	21106.51041
637.799	20761.06877
637.999	21163.41804
638.199	21448.00376
638.399	21147.15839
638.599	21246.75282
638.799	21413.44273
638.999	21354.48833
639.199	21661.49439
639.399	21372.78416
639.599	21171.54797
639.799	21043.50926
639.999	21301.63554
640.199	20856.56132
640.399	20858.59317
640.599	20657.45957
640.799	21620.82615
640.998	21814.01418
641.198	21616.75942
641.398	21134.96383
641.598	21549.66053
641.798	21630.99307
641.997	21527.29519
642.197	21427.6736
642.397	21675.72864
642.597	21474.43357
642.796	21492.73152
642.996	21563.89327
643.196	21685.89608
643.395	21706.23126
643.595	21608.62599
643.795	21724.53325
643.994	21995.03249
644.194	21942.1476
644.394	22094.70712
644.593	22115.05
644.793	22094.70712
644.992	21773.34009
645.192	22206.59755
645.392	22015.37351
645.591	22011.30528
645.791	21779.44111
645.99	21498.83091
646.19	21557.7935
646.389	21903.50258
646.589	21856.72362
646.788	21934.01169
646.987	21663.52784
647.187	22023.51003
647.386	21352.45548
647.586	21757.0709
647.785	21683.86259
647.984	22218.80446
648.184	21759.10453
648.383	21740.80195
648.582	21909.60434
648.782	21799.77807
648.981	21753.00364
649.18	22035.71492
649.38	22064.19352
649.579	22503.66983
649.778	22009.27117
649.977	22381.57594
650.177	22060.1251
650.376	22200.49415
650.575	21990.96433
650.774	22035.71492
650.973	21657.42749
651.173	21934.01169
651.372	22222.87346
651.571	21988.93026
651.77	22011.30528
651.969	22369.36726
652.168	22167.94322
652.367	22489.42488
652.566	22218.80446
652.765	22524.02008
652.964	22023.51003
653.163	22176.08086
653.362	22257.46056
653.561	21864.85895
653.76	21901.46867
653.959	22235.08055
654.158	22387.68032
654.357	22068.26195
654.556	21936.04567
654.755	22349.01977
654.954	22296.11798
655.153	22373.43681
655.352	22664.44643
655.551	22507.73985
655.749	22607.45979
655.948	22369.36726
656.147	22501.63483
656.346	22662.41114
656.545	22467.0403
656.743	22896.49162
656.942	22776.39245
657.141	22607.45979
657.34	22591.1784
657.538	22729.57738
657.737	22605.4246
657.936	22806.92501
658.135	22458.90056
658.333	22739.75441
658.532	22678.69352
658.731	22387.68032
658.929	22153.70249
659.128	22357.15872
659.326	22275.7718
659.525	22519.95
659.724	22263.56427
659.922	22540.30053
660.121	22369.36726
660.319	22595.24873
660.518	22593.21356
660.716	22589.14324
660.915	23049.17708
661.113	22908.70576
661.312	22389.71512
661.51	22442.62126
661.709	22511.80989
661.907	22503.66983
662.105	22552.51101
662.304	22501.63483
662.502	22338.84615
662.701	22452.7958
662.899	22450.76088
663.097	22880.20629
663.296	22369.36726
663.494	22519.95
663.692	22635.95276
663.891	22851.70748
664.089	22908.70576
664.287	22475.1801
664.485	22611.53017
664.684	23022.71025
664.882	23144.86953
665.08	23051.21302
665.278	23032.88974
665.476	23053.24895
665.675	22890.38459
665.873	22627.81184
666.071	22208.63203
666.269	22499.59983
666.467	22251.35688
666.665	22770.28603
666.863	22176.08086
667.061	22393.78474
667.259	22446.69107
667.457	22658.34059
667.655	22617.63577
667.853	22552.51101
668.051	22456.86564
668.249	22361.22822
668.447	22279.84101
668.645	22601.35424
668.843	22709.22357
669.041	22682.76415
669.239	22666.48172
669.437	22853.74309
669.635	23089.89638
669.833	22637.988
670.031	22576.93237
670.229	22819.13824
670.426	22914.81287
670.624	22829.31604
670.822	22544.37067
671.02	22920.92002
671.218	22825.24491
671.415	22701.08215
671.613	22819.13824
671.811	22473.14514
672.009	22707.18821
672.206	22469.07525
672.404	21976.72589
672.602	22019.44176
672.799	22194.39078
672.997	22408.02851
673.195	22017.40764
673.392	22271.70261
673.59	22241.18414
673.788	22092.67286
673.985	22023.51003
674.183	22806.92501
674.38	22601.35424
674.578	22751.96697
674.775	22257.46056
674.973	22300.18726
675.17	22255.42599
675.368	21903.50258
675.565	22316.46453
675.763	22300.18726
675.96	22369.36726
676.158	22279.84101
676.355	21856.72362
676.553	22758.07329
676.75	22511.80989
676.947	22640.02325
677.145	22228.97699
677.342	22810.99607
677.539	22408.02851
677.737	22668.51701
677.934	22290.01409
678.131	22794.71189
678.329	21881.12978
678.526	22060.1251
678.723	22477.21506
678.92	22829.31604
679.118	22178.11528
679.315	22684.79947
679.512	22589.14324
679.709	22379.54115
679.906	21921.80795
680.104	22041.81741
680.301	21913.67219
680.498	21724.53325
680.695	21513.06295
680.892	21986.89619
681.089	22117.08431
681.286	22277.80641
681.483	21759.10453
681.68	22393.78474
681.877	22405.99368
682.075	22304.25656
682.272	22123.18725
682.469	22208.63203
682.665	21921.80795
682.862	21820.11542
683.059	21561.86001
683.256	22021.4759
683.453	21606.59264
683.65	21838.41937
683.847	22082.50158
684.044	21927.9098
684.241	21769.27277
684.438	22216.76997
684.635	21482.56595
684.831	21950.28357
685.028	21675.72864
685.225	21726.56682
685.422	21669.62822
685.619	21777.40743
685.815	21742.83555
686.012	21848.58836
686.209	21555.76025
686.405	21787.57585
686.602	21704.19772
686.799	21870.96048
686.996	21153.25573
687.192	21618.79278
687.389	21535.42799
687.586	21612.6927
687.782	22068.26195
687.979	22106.9128
688.175	21529.32838
688.372	21960.45362
688.568	22041.81741
688.765	21775.37376
688.962	21519.16246
689.158	21506.96348
689.355	21466.30125
689.551	21592.35933
689.748	21799.77807
689.944	21397.17911
690.14	21537.46119
690.337	21317.89764
690.533	21783.50847
690.73	21641.16008
690.926	21549.66053
691.123	21185.77549
691.319	21391.08032
691.515	21584.22609
691.712	21628.95968
691.908	21718.43255
692.104	20990.67262
692.301	21084.15472
692.497	21171.54797
692.693	21445.97073
692.889	21090.25167
693.086	21167.483
693.282	21220.32886
693.478	21744.86916
693.674	21218.29628
693.87	21517.12929
694.067	21246.75282
694.263	21435.80562
694.459	21454.10289
694.655	21635.05986
694.851	21602.52596
695.047	21460.20205
695.243	21395.14617
695.439	21246.75282
695.635	21228.45924
695.831	21120.73702
696.027	21317.89764
696.224	20992.70475
696.42	21031.31595
696.615	21122.76941
696.811	20866.72063
697.007	20700.12088
697.203	20771.22712
697.399	20807.79802
697.595	20811.86154
697.791	20759.03712
697.987	20322.32771
698.183	20643.23955
698.379	20996.76902
698.575	21382.94865
698.77	20551.82997
698.966	21080.0901
699.162	20434.02566
699.358	20972.38366
699.554	20389.34496
699.749	20858.59317
699.945	20842.33844
700.141	20828.11577
700.337	20679.80574
700.532	20777.32218
700.728	20421.83982
700.924	20917.51878
701.119	20740.75239
701.315	20484.80166
701.511	20377.15966
701.706	20858.59317
701.902	20657.45957
702.097	21027.25154
702.293	20992.70475
702.489	21169.51548
702.684	20773.2588
702.88	20933.77473
703.075	20994.73688
703.271	20836.24299
703.466	20828.11577
703.662	20903.29504
703.857	20836.24299
704.053	21116.67225
704.248	20789.5124
704.443	20649.33382
704.639	20675.74276
704.834	20539.64267
705.03	20356.85117
705.225	20190.3374
705.42	20015.73138
705.616	20442.14965
705.811	20304.05107
706.006	20657.45957
706.202	20261.4069
706.397	20316.23545
706.592	20261.4069
706.787	20362.94368
706.983	20385.28318
707.178	20921.58274
707.373	20356.85117
707.568	20180.18504
707.763	19889.87192
707.959	19855.36489
708.154	20328.41999
708.349	20080.69743
708.544	20484.80166
708.739	20208.61192
708.934	20204.55089
709.129	20352.78953
709.324	20285.77477
709.519	20470.58412
709.714	20281.71341
709.909	20511.20621
710.104	20342.63548
710.299	20413.716
710.494	20165.9719
710.689	20557.92368
710.884	20478.7084
711.079	20507.14392
711.274	20216.73404
711.469	20689.96326
711.664	20295.92822
711.859	20490.89495
712.054	20198.45937
712.249	20044.1535
712.443	20031.97249
712.638	20196.42887
712.833	20109.12143
713.028	20267.49881
713.223	19916.26047
713.417	19626.02545
713.612	19857.39468
713.807	20224.85623
714.002	19820.85908
714.196	20434.02566
714.391	19889.87192
714.586	20324.35846
714.78	20364.97452
714.975	20295.92822
715.17	20291.86683
715.364	20421.83982
715.559	20249.22319
715.754	19887.84206
715.948	20180.18504
716.143	20336.5431
716.337	19887.84206
716.532	20214.70351
716.726	19946.70968
716.921	19950.76964
717.115	20141.60701
717.31	19950.76964
717.504	20023.8519
717.699	19569.20625
717.893	19329.78972
718.088	19636.17209
718.282	19646.31882
718.476	19309.50284
718.671	19735.61461
718.865	19650.37755
719.059	19942.64973
719.254	19859.42448
719.448	19634.14275
719.642	19897.9914
719.837	19410.94139
720.031	19782.29519
720.225	19163.44942
720.419	19431.23034
720.614	19346.01953
720.808	20034.00265
721.002	19514.41939
721.196	19490.07065
721.39	19224.30243
721.585	19414.99915
721.779	19270.95889
721.973	19486.01259
722.167	18788.26997
722.361	19439.34604
722.555	19613.84963
722.749	19293.27363
722.943	18997.13662
723.137	19398.76822
723.331	19498.18683
723.525	19613.84963
723.719	19528.6231
723.913	19378.47993
724.107	19181.70494
724.301	19335.87587
724.495	19084.34602
724.689	19323.70361
724.883	18847.0728
725.077	18729.47049
725.271	19037.6982
725.465	18913.99044
725.659	19023.50147
725.853	19051.89514
726.046	18879.51717
726.24	18741.63563
726.434	18449.71113
726.628	18986.99648
726.822	19029.58576
727.015	19425.14361
727.209	18636.20914
727.403	19041.75445
727.596	18855.18379
727.79	19325.73231
727.984	19130.996
728.177	19206.04614
728.371	19147.22258
728.565	19130.996
728.758	19177.64813
728.952	19534.71047
729.146	19074.20501
729.339	19429.20143
729.533	18879.51717
729.726	19070.14863
729.92	18991.05253
730.113	18845.04506
730.307	18851.12829
730.5	18857.21155
730.694	18692.97593
730.887	18449.71113
731.081	18646.34584
731.274	18701.08572
731.468	18660.53739
731.661	18644.31849
731.854	18662.56476
732.048	18555.11903
732.241	18498.35964
732.435	18664.59215
732.628	18656.48264
732.821	18666.61954
733.014	18640.26381
733.208	18753.80091
733.401	18707.16811
733.594	18879.51717
733.788	18940.35313
733.981	19208.0746
734.174	19187.79018
734.367	19108.68487
734.56	18980.91244
734.754	18522.68472
734.947	18891.68407
735.14	18597.69056
735.333	18619.99062
735.526	18476.06213
735.719	18011.97164
735.912	18293.64526
736.105	18573.36376
736.298	18774.07669
736.491	18317.96575
736.684	18573.36376
736.877	18510.52211
737.07	18275.40525
737.263	18109.23228
737.456	18476.06213
737.649	18267.29868
737.842	18585.52709
738.035	18573.36376
738.228	18579.44541
738.421	18668.64693
738.614	18887.62842
738.807	18966.7165
739	18628.09985
739.192	18344.31355
739.385	18159.89216
739.578	18048.44341
739.771	18198.39519
739.964	18095.04792
740.156	18380.79617
740.349	17955.24007
740.542	18688.92105
740.735	18397.01106
740.927	18232.8464
741.12	17726.31538
741.313	17890.40736
741.505	18313.9123
741.698	18113.28499
741.891	18216.63393
742.083	18437.54934
742.276	18540.9289
742.468	17983.60551
742.661	18194.34218
742.854	18009.94547
743.046	18020.07638
743.239	17625.03507
743.431	17791.13917
743.624	17851.91463
743.816	18070.73229
744.009	18226.7667
744.201	17862.04418
744.393	18005.89313
744.586	18249.0591
744.778	18230.81983
744.971	18072.75857
745.163	18032.23359
745.355	18411.19928
745.548	18013.99782
745.74	18222.71358
745.932	17995.76234
746.125	17803.29402
746.317	18182.18323
746.509	18016.024
746.702	18565.25495
746.894	17947.13578
747.086	18056.54841
747.278	18001.8408
747.471	17748.59817
747.663	17983.60551
747.855	17888.3814
748.047	17926.87532
748.239	18123.41682
748.431	17754.67536
748.623	17910.6672
748.815	18048.44341
749.008	18060.60093
749.2	18236.89955
749.392	17839.75929
749.584	17695.93042
749.776	17746.57244
749.968	17734.41817
750.16	17778.98444
750.352	17588.57618
750.544	17418.44839
750.736	17762.77834
750.928	17805.31983
751.12	17831.6558
751.311	17594.65258
751.503	17718.21265
751.695	17493.38287
751.887	17463.00351
752.079	18097.07425
752.271	17353.64361
752.463	17608.83099
752.654	17076.23255
752.846	17665.5462
753.038	17606.80549
753.23	17592.62711
753.421	17440.72576
753.613	17390.09592
753.805	17224.04333
753.997	17181.52086
754.188	17641.23937
754.38	17373.89477
754.572	17691.87915
754.763	17552.11833
754.955	17173.42149
755.146	17596.67806
755.338	17651.36716
755.53	17414.398
755.721	17416.4232
755.913	17432.62486
756.104	17554.14374
756.296	17718.21265
756.487	17608.83099
756.679	17531.86442
756.87	17003.34504
757.062	16932.48552
757.253	16916.28952
757.445	16671.34448
757.636	16849.48273
757.827	17023.59121
758.019	17102.55391
758.21	16985.12371
758.401	16859.60479
758.593	16509.4162
758.784	16450.72061
758.975	16272.62004
759.167	16626.81279
759.358	17088.38081
759.549	16770.53278
759.74	16885.92245
759.932	16697.65919
760.123	16857.58037
760.314	17037.7637
760.505	16661.22355
760.696	16570.13766
760.888	16843.40952
761.079	16661.22355
761.27	16748.26552
761.461	16545.84884
761.652	16671.34448
761.843	16420.36149
762.034	16519.53631
762.225	16367.74008
762.416	16485.12816
762.607	16078.34431
762.798	16270.59625
762.989	16246.31095
763.18	16491.20014
763.371	16102.62795
763.562	16201.78856
763.753	16163.33806
763.944	16426.43328
764.135	16017.63614
764.326	16250.35849
764.517	16711.82882
764.708	16420.36149
764.899	16126.91182
765.089	16043.94285
765.28	15839.56596
765.471	15825.4017
765.662	15942.76449
765.853	16120.84084
766.043	15983.23542
766.234	16137.03017
766.425	15914.43516
766.615	15973.11764
766.806	15981.21186
766.997	15934.67037
767.187	15538.08007
767.378	16068.22619
767.569	15742.4407
767.759	15788.97958
767.95	15744.46412
768.141	15619.01397
768.331	15683.76199
768.522	15744.46412
768.712	15515.82345
768.903	15511.7768
769.093	15398.47149
769.284	15155.67806
769.474	15175.91077
769.665	15374.19197
769.855	15811.2375
770.046	15604.85045
770.236	15376.21526
770.426	15301.35373
770.617	15521.89343
770.807	15052.49116
770.998	14670.08373
771.188	14935.14066
771.378	14653.8966
771.569	14548.67858
771.759	14579.03025
771.949	14726.7382
772.139	15364.07552
772.33	15121.28246
772.52	15200.19002
772.71	15283.14423
772.9	15105.09629
773.09	15208.2831
773.281	14933.11736
773.471	15068.67737
773.661	15018.09543
773.851	14734.83164
774.041	14846.11519
774.231	14939.18725
774.421	14807.67203
774.611	14451.55132
774.802	14168.2427
774.992	14275.49935
775.182	14653.8966
775.372	14360.4915
775.562	14619.49873
775.752	14641.75621
775.942	14279.54667
776.131	14352.39714
776.321	14253.23898
776.511	14392.86868
776.701	14267.4047
776.891	14528.44398
777.081	14392.86868
777.271	14170.26647
777.461	14465.7159
777.651	14370.60941
777.84	14409.05712
778.03	14101.45736
778.22	14328.1139
778.41	14518.32664
778.599	14257.28634
778.789	14139.90982
778.979	14348.34995
779.169	14522.37358
779.358	14235.02579
779.548	14514.27969
779.738	14409.05712
779.927	14473.80992
780.117	14494.04487
780.307	14245.14425
780.496	14281.57032
780.686	14182.409
780.875	13951.68722
781.065	14255.26266
781.254	13850.4833
781.444	13998.23883
781.633	13951.68722
781.823	13929.42294
782.012	14083.24277
782.202	14222.88357
782.391	13342.32023
782.581	13747.24802
782.77	13575.17111
782.96	13971.92722
783.149	13797.85451
783.338	14233.00209
783.528	14085.26662
783.717	13967.87924
783.906	13856.55573
784.096	13688.54208
784.285	13607.5639
784.474	13552.90055
784.663	13672.34687
784.853	13512.40751
785.042	13469.88823
785.231	13724.98056
785.42	13694.61523
785.61	13556.94977
785.799	13366.62011
785.988	13396.99415
786.177	12939.25383
786.366	12886.57762
786.555	12864.29045
786.744	12983.82326
786.933	12959.51297
787.122	13190.43218
787.312	13340.29521
787.501	13433.44182
787.69	13192.45752
787.879	13196.50817
788.068	12998.00392
788.257	12965.59061
788.445	12765.00319
788.634	13089.15952
788.823	13046.62148
789.012	13194.48285
789.201	13151.94994
789.39	13032.44165
789.579	12856.18586
789.768	13000.02971
789.957	13024.33878
790.145	13166.1278
790.334	13044.5958
790.523	13077.00601
790.712	12720.42083
790.9	13253.21552
791.089	12501.52003
791.278	12959.51297
791.467	13012.18434
791.655	12765.00319
791.844	12404.2071
792.033	12767.02959
792.221	12369.73842
792.41	12523.81879
792.599	12400.15206
792.787	12880.49936
792.976	12450.8381
793.164	12481.24775
793.353	12317.01779
793.541	12438.67383
793.73	12479.22048
793.918	12491.38397
794.107	12458.94749
794.295	12390.01435
794.484	12361.62786
794.672	12487.3295
794.861	11919.42583
795.049	12448.81074
795.238	12191.2801
795.426	12333.24002
795.614	12120.28674
795.803	12394.06945
795.991	12288.6278
796.179	12509.62876
796.368	11899.13248
796.556	11882.89721
796.744	11828.09924
796.932	11970.15562
797.121	11941.74756
797.309	11968.12652
797.497	11826.06956
797.685	11955.95179
797.874	11907.24992
798.062	11842.30671
798.25	11584.47622
798.438	11738.78554
798.626	12039.14009
798.814	11807.80213
799.002	11728.6352
799.19	11765.17542
799.378	11629.15007
799.566	11907.24992
799.755	11677.88016
799.943	11584.47622
800.131	11718.48463
800.318	11543.85975
800.506	11568.23008
800.694	11681.94077
800.882	11694.12237
801.07	11864.6319
801.258	11673.81952
801.446	11572.29167
801.634	11326.49677
801.822	11720.51476
802.01	11588.53766
802.197	11807.80213
802.385	11458.55292
802.573	11621.02788
802.761	11586.50695
802.949	11486.9904
803.136	11543.85975
803.324	11657.57659
803.512	11470.74064
803.699	11507.30173
803.887	11562.13762
804.075	11720.51476
804.262	11507.30173
804.45	11769.23527
804.638	11694.12237
804.825	12085.80092
805.013	11848.3955
805.201	11858.54331
805.388	11759.08558
805.576	11791.56383
805.763	11803.74261
805.951	11767.20535
806.138	11854.48421
806.326	11688.03161
806.513	11690.06187
806.701	11783.44447
806.888	11655.54618
807.075	11923.4844
807.263	11476.83437
807.45	11803.74261
807.638	11690.06187
807.825	11631.18059
808.012	11872.7499
808.2	11872.7499
808.387	11824.03988
808.574	11840.27709
808.761	11424.01916
808.949	11688.03161
809.136	11606.8137
809.323	11661.63737
809.51	11858.54331
809.698	11876.80885
809.885	11580.41474
810.072	11795.62346
810.259	11807.80213
810.446	12142.59993
810.633	11767.20535
810.82	12028.99589
811.008	12035.08244
811.195	11698.18284
811.382	11631.18059
811.569	11690.06187
811.756	11426.05064
811.943	11535.73601
812.13	11929.57219
812.317	12018.85149
812.504	11933.63068
812.691	12302.82297
812.878	12339.32324
813.064	12572.46798
813.251	11880.86777
813.438	12173.02554
813.625	11923.4844
813.812	12022.90928
813.999	11978.27192
814.186	11854.48421
814.372	11728.6352
814.559	11661.63737
814.746	11493.0839
814.933	11499.17731
815.12	11576.35322
815.306	11543.85975
815.493	11586.50695
815.68	11864.6319
815.866	11539.7979
816.053	11484.95921
816.24	11434.17644
816.426	11661.63737
816.613	11594.62976
816.799	11683.97106
816.986	11876.80885
817.173	11730.66528
817.359	11482.92801
817.546	11531.67409
817.732	11322.43284
817.919	11497.14618
818.105	11257.40444
818.292	11413.86164
818.478	11413.86164
818.665	11558.07594
818.851	11218.78886
819.037	11237.08091
819.224	11025.65374
819.41	11289.91994
819.597	10873.10865
819.783	11113.08478
819.969	11133.41471
820.156	11377.29253
820.342	11413.86164
820.528	11582.44549
820.714	11322.43284
820.901	11667.72849
821.087	11460.58423
821.273	11679.91047
821.459	11499.17731
821.646	11580.41474
821.832	11186.26756
822.018	11582.44549
822.204	11052.08851
822.39	11255.37213
822.576	10915.82769
822.762	11019.55315
822.948	10970.7448
823.134	11291.95207
823.32	10812.07263
823.507	11226.91876
823.693	10946.33821
823.879	11088.68744
824.065	10966.67715
824.25	11100.8863
824.436	10917.8618
824.622	11176.10411
824.808	11145.61216
824.994	11210.65878
825.18	11023.62022
825.366	11145.61216
825.552	10767.30619
825.738	10954.47392
825.923	10614.64972
826.109	11363.07034
826.295	10895.48592
826.481	11269.59806
826.667	11054.12187
826.852	11363.07034
827.038	11257.40444
827.224	11426.05064
827.409	11084.62107
827.595	11088.68744
827.781	10718.46351
827.966	10999.21711
828.152	10557.6403
828.338	10867.00552
828.523	10561.71273
828.709	10930.06625
828.894	10258.17598
829.08	10506.73072
829.266	10296.89826
829.451	10455.81319
829.637	10207.21816
829.822	10402.85041
830.008	10370.25355
830.193	10172.56196
830.378	10025.73812
830.564	10209.25664
830.749	10382.47777
830.935	10539.31376
831.12	10243.90865
831.305	10404.8876
831.491	10303.01186
831.676	10494.51124
831.861	10443.59178
832.047	10445.62872
832.232	10219.44882
832.417	10453.77632
832.602	10406.92478
832.788	10021.65863
832.973	10221.48721
833.158	10502.65761
833.343	10321.35194
833.528	10523.02264
833.714	10388.5897
833.899	10331.5404
834.084	10001.26034
834.269	10343.76612
834.454	10056.33245
834.639	10078.76626
834.824	10017.57909
835.009	10268.36652
835.194	9976.7805
835.379	10286.70866
835.564	10123.62876
835.749	9944.13746
835.934	10015.5393
836.119	9909.45015
836.304	9629.7537
836.489	9660.39135
836.674	9966.57995
836.859	10133.82384
837.044	9819.65147
837.228	9807.40396
837.413	9646.09422
837.598	10180.71672
837.783	9846.18589
837.968	10044.0951
838.152	9993.10062
838.337	10072.64812
838.522	9740.03298
838.707	9962.49963
838.891	9619.54038
839.076	9490.81877
839.261	9433.58886
839.445	9625.66842
839.63	9351.80977
839.815	9688.98334
839.999	9290.45819
840.184	9807.40396
840.368	9652.22165
840.553	9909.45015
840.737	9833.93955
840.922	9768.61662
841.106	9380.43542
841.291	9437.67713
841.475	8932.2698
841.66	9284.32221
841.844	8813.43761
842.029	9030.56846
842.213	8948.65573
842.397	8913.83427
842.582	9137.01331
842.766	9202.49476
842.951	8922.02802
843.135	9102.21917
843.319	9053.08955
843.504	9100.1723
843.688	9278.18609
843.872	9447.89752
844.056	9100.1723
844.241	9355.89935
844.425	9085.84374
844.609	9134.96674
844.793	8979.37631
844.977	8801.14117
845.161	8825.7334
845.346	9024.42598
845.53	8756.04862
845.714	9120.64022
845.898	8676.09003
846.082	8751.94886
846.266	8456.57081
846.45	8708.89694
846.634	8483.25292
846.818	8497.61888
847.002	8661.73552
847.186	8641.2275
847.37	8579.69224
847.554	8708.89694
847.738	8688.39318
847.922	8626.87078
848.106	8546.86652
848.29	8249.16012
848.473	8462.7285
848.657	8553.02171
848.841	7994.2417
849.025	8212.17489
849.209	8286.13896
849.392	8076.50721
849.576	8095.01248
849.76	8158.74043
849.944	8199.84505
850.127	8585.84652
850.311	8230.6683
850.495	8448.36027
850.678	8319.00371
850.862	8653.53254
851.046	8088.84424
851.229	8201.90007
851.413	8016.86795
851.596	8216.28467
851.78	7905.76991
851.964	8355.97057
852.147	7916.05928
852.331	7846.0814
852.514	7644.24557
852.698	7598.90763
852.881	7425.70376
853.065	7644.24557
853.248	7778.13876
853.431	7909.88572
853.615	7594.78549
853.798	7965.44109
853.982	7716.35296
854.165	7784.3163
854.348	7837.84714
854.532	8031.2652
854.715	7790.49366
854.898	7771.96103
855.081	7508.20073
855.265	7706.05349
855.448	7572.11218
855.631	7895.48003
855.814	7611.27355
855.997	7689.57324
856.181	7312.21368
856.364	7640.12437
856.547	7668.97103
856.73	7668.97103
856.913	7392.69527
857.096	7761.66439
857.279	7648.36669
857.462	7689.57324
857.645	7359.6812
857.828	7551.49784
858.011	7202.78775
858.194	7460.7692
858.377	7190.396
858.56	7324.59763
858.743	7293.63628
858.926	7281.25035
859.109	7293.63628
859.292	7155.2817
859.475	7103.63136
859.658	7522.63415
859.841	7254.41147
860.023	7223.43889
860.206	6907.23232
860.389	7223.43889
860.572	6805.85202
860.755	7208.98332
860.937	7020.96176
861.12	6913.4375
861.303	6847.23833
861.486	6896.88989
861.668	6826.54631
861.851	6843.1001
862.034	6865.85919
862.216	7163.54447
862.399	6853.44549
862.581	7169.74131
862.764	6638.14394
862.947	6807.92155
863.129	6549.05241
863.312	6316.79876
863.494	6654.7144
863.677	6665.0702
863.859	6459.9181
864.042	6424.66711
864.224	6100.87229
864.406	6381.11248
864.589	6202.63848
864.771	6580.1357
864.954	6175.64478
865.136	6439.18304
865.318	6186.02744
865.501	6325.09857
865.683	6127.87698
865.865	6495.16237
866.048	6275.29413
866.23	6482.72398
866.412	6277.36958
866.594	6235.85605
866.777	5982.42016
866.959	6298.12283
867.141	6233.78013
867.323	6156.95451
867.505	6080.09674
867.687	6183.95095
867.869	5903.40955
868.052	6379.0382
868.234	6034.38226
868.416	6264.9165
868.598	6075.94135
868.78	6293.97237
868.962	6169.4149
869.144	6408.07608
869.326	5963.7102
869.508	6167.33823
869.69	6088.40724
869.872	6107.10449
870.054	6028.14759
870.236	5880.5317
870.417	6026.06932
870.599	6117.49103
870.781	5967.86813
870.963	6163.18481
871.145	5901.32986
871.327	6213.01961
871.508	6026.06932
871.69	6102.94971
871.872	5886.77139
872.054	6017.75599
872.235	5620.35555
872.417	5834.76744
872.599	5647.43105
872.78	5878.45175
872.962	5716.14325
873.144	5911.72806
873.325	5776.50549
873.507	5974.10486
873.689	5657.84364
873.87	5745.28612
874.052	5501.59287
874.233	5355.63936
874.415	5439.05547
874.596	5753.61181
874.778	5384.83927
874.959	5657.84364
875.141	5668.25564
875.322	5959.55217
875.503	5853.49056
875.685	5951.23583
875.866	5711.97961
876.048	6044.77292
876.229	5703.65204
876.41	5882.61162
876.592	5593.27607
876.773	5747.36758
876.954	5426.54545
877.136	5703.65204
877.317	5580.7765
877.498	5861.81133
877.679	5699.48811
877.86	5701.57009
878.042	5603.69172
878.223	5947.07752
878.404	5757.77451
878.585	5924.20511
878.766	5637.01787
878.947	5967.86813
879.128	5649.51362
879.309	5905.48921
879.49	5928.36395
879.672	6036.46044
879.853	5992.81376
880.034	6113.33648
880.215	5942.91911
880.396	6053.08502
880.576	5805.63878
880.757	6021.9127
880.938	5630.76968
881.119	6204.71475
881.3	5807.71955
881.481	5988.65639
881.662	5709.89775
881.843	5676.58482
882.023	5609.94084
882.204	5684.91362
882.385	5537.02133
882.566	5801.47716
882.747	5745.28612
882.927	5863.89147
883.108	5555.77482
883.289	5863.89147
883.469	5797.31545
883.65	6001.12821
883.831	5697.40611
884.011	5809.8003
884.192	5595.35925
884.373	5780.66767
884.553	5526.6019
884.734	5951.23583
884.914	5722.38854
885.095	5776.50549
885.275	5607.85782
885.456	6005.2853
885.636	5745.28612
885.817	5884.69152
885.997	5689.07788
886.178	6100.87229
886.358	5830.60648
886.538	5901.32986
886.719	5780.66767
886.899	5994.89241
887.08	5705.73397
887.26	5934.60201
887.44	5909.64847
887.621	6038.5386
887.801	5766.09962
887.981	5951.23583
888.161	5818.12305
888.342	6011.52075
888.522	5786.91077
888.702	6084.25204
888.882	5978.26255
889.062	6387.3352
889.242	6190.18034
889.423	6196.40951
889.603	5994.89241
889.783	6235.85605
889.963	5697.40611
890.143	5976.18372
890.323	5666.17329
890.503	6038.5386
890.683	5772.34322
890.863	5878.45175
891.043	5584.94312
891.223	5587.02639
891.403	5768.18085
891.583	5936.68132
891.763	5722.38854
891.943	6042.69483
892.122	5786.91077
892.302	5984.49893
892.482	5791.07271
892.662	5757.77451
892.842	5680.74927
893.022	5584.94312
893.201	5436.97053
893.381	5678.66706
893.561	5401.52287
893.741	5493.25578
893.92	5714.06144
894.1	5641.18321
894.28	5514.09781
894.459	5668.25564
894.639	5222.09559
894.819	5355.63936
894.998	5268.01207
895.178	5509.92959
895.357	5328.52104
895.537	5301.39876
895.716	5126.05193
895.896	5422.37526
896.075	5343.12371
896.255	5497.42437
896.434	5393.18126
896.614	5547.44017
896.793	5345.20971
896.973	5614.10679
897.152	5405.69354
897.331	5726.55195
897.511	5265.9252
897.69	5209.57095
897.87	4929.63622
898.049	5184.51915
898.228	5188.69469
898.407	5209.57095
898.587	4990.25432
898.766	5345.20971
898.945	4766.49888
899.124	5188.69469
899.304	5017.42166
899.483	5422.37526
899.662	5042.49574
899.841	5322.26241
900.02	4996.52405
900.199	5050.85302
900.378	4848.08491
900.557	5034.13808
900.737	4709.99604
900.916	4613.6941
901.095	4582.28105
901.274	4659.75748
901.453	4540.38919
901.632	4655.57034
901.811	4372.73349
901.989	4854.35932
902.168	4515.24981
902.347	4816.70976
902.526	4511.05961
902.705	4657.66392
902.884	4385.31253
903.063	4709.99604
903.242	4397.89078
903.42	4544.57878
903.599	4280.46341
903.778	4464.96152
903.957	4020.20804
904.135	4188.1518
904.314	4041.20829
904.493	4381.1196
904.672	3986.60338
904.85	4154.57376
905.029	4062.20647
905.207	4288.85332
905.386	3990.80425
905.565	4133.58475
905.743	3866.84452
905.922	3847.92926
906.1	3629.23797
906.279	3585.05404
906.457	3559.80238
906.636	3755.43163
906.814	3734.40416
906.993	3618.71874
907.171	3591.36653
907.35	3452.45331
907.528	3237.61669
907.707	3576.63711
907.885	3345.05756
908.063	3574.53284
908.242	3412.4485
908.42	3237.61669
908.598	3364.01307
908.777	3742.81538
908.955	3391.39076
909.133	3532.4434
909.311	3389.28489
909.49	3555.59351
909.668	3273.43522
909.846	3564.01117
910.024	3406.13136
910.202	3549.28006
910.38	3170.18051
910.559	3502.97642
910.737	3163.85751
910.915	3545.07101
911.093	3437.71544
911.271	3673.41359
911.449	3422.9767
911.627	3429.29341
911.805	3305.03575
911.983	3187.04114
912.161	3281.86241
912.339	3528.23405
912.517	3077.42861
912.695	3498.76656
912.872	3307.14232
913.05	3530.33874
913.228	3368.22522
913.406	3582.94983
913.584	3361.90697
913.762	3511.39593
913.939	3401.91985
914.117	3530.33874
914.295	3092.18666
914.473	3538.75729
914.65	3068.9951
914.828	3332.41977
915.006	3079.53695
915.184	3532.4434
915.361	3130.13236
915.539	3469.2955
915.716	3168.07286
915.894	3484.03148
916.072	3182.82608
916.249	3319.78135
916.427	3203.90071
916.604	3246.04502
916.782	3212.3301
916.959	3195.47105
917.137	3106.94393
917.314	3305.03575
917.492	3113.26824
917.669	3248.15206
917.847	2834.86853
918.024	3216.5447
918.201	2862.29807
918.379	3197.57849
918.556	2847.52862
918.733	2944.57217
918.911	2798.99557
919.088	3165.96519
919.265	2666.02066
919.442	2921.3689
919.62	2809.54686
919.797	3052.12732
919.974	2638.57499
920.151	2938.24418
920.328	2765.22916
920.506	3024.71506
920.683	2752.56586
920.86	2963.55534
921.037	2674.46505
921.214	2847.52862
921.391	2613.23865
921.568	2860.18819
921.745	2625.90704
921.922	2731.4593
922.099	2560.449
922.276	2680.79821
922.453	2404.14945
922.63	2782.1128
922.807	2505.53993
922.984	2473.85812
923.161	2393.58653
923.338	2815.87746
923.514	2613.23865
923.691	2575.23086
923.868	2368.23445
924.045	2706.12969
924.222	2300.62188
924.399	2579.45414
924.575	2328.0907
924.752	2444.28618
924.929	2342.88092
925.105	2494.97961
925.282	2216.0926
925.459	2334.42942
925.635	2161.14104
925.812	2454.84783
925.989	2317.52596
926.165	2311.187
926.342	2015.28241
926.518	2209.75232
926.695	2063.90582
926.871	2211.86576
927.048	2038.53754
927.224	2106.18398
927.401	2076.58957
927.577	2156.91376
927.754	2015.28241
927.93	2057.56384
928.107	1835.55894
928.283	2030.08122
928.459	1729.8226
928.636	1810.18317
928.812	1666.37647
928.988	1818.64183
929.165	1755.20022
929.341	1844.01738
929.517	1784.80677
929.693	1992.02648
929.87	1778.46257
930.046	1924.36859
930.222	1708.6742
930.398	1672.72121
930.574	1598.69796
930.751	1687.52549
930.927	1480.25652
931.103	1550.05281
931.279	1560.62791
931.455	1759.42978
931.631	1554.28285
931.807	1774.23309
931.983	1395.65452
932.159	1712.90391
932.335	1421.03508
932.511	1552.16783
932.687	1351.23884
932.863	1427.38022
933.039	1249.71993
933.215	1429.49528
933.391	1327.9737
933.566	1416.80498
933.742	1194.73294
933.918	1171.4699
934.094	1082.65201
934.27	1234.91554
934.445	970.58551
934.621	1243.37517
934.797	1057.27703
934.973	1101.68373
935.148	913.50209
935.324	966.35693
935.5	786.67111
935.675	921.95856
935.851	769.7628
936.027	924.07269
936.202	674.66595
936.378	839.51352
936.553	820.48959
936.729	892.36148
936.904	607.0556
937.08	632.40802
937.255	478.21043
937.431	503.55289
937.606	509.88883
937.782	577.48009
937.957	465.54001
938.133	518.33696
938.308	408.52999
938.483	476.09866
938.659	452.87013
938.834	492.99327
939.009	364.197
939.185	336.75651
939.36	298.76691
939.535	315.65046
939.71	345.19943
939.886	321.98209
940.061	381.08489
940.236	313.53995
940.411	353.64262
940.586	262.89326
940.761	229.13482
940.937	214.36707
941.112	233.35436
941.287	256.56318
941.462	229.13482
941.637	267.11341
941.812	218.58633
941.987	205.9288
942.162	193.27198
942.337	271.33363
942.512	199.6003
942.687	269.22351
942.862	155.30595
943.037	136.32547
943.212	153.19692
943.386	180.61589
943.561	119.45538
943.736	191.16258
943.911	172.17891
944.086	161.63315
944.26	212.25747
944.435	203.81928
944.61	170.06972
944.785	178.50662
944.959	115.23808
945.134	197.49084
945.309	174.28813
945.483	151.08791
945.658	127.89025
945.833	182.72519
946.007	182.72519
946.182	148.97893
946.357	153.19692
946.531	98.36974
946.706	174.28813
946.88	127.89025
947.055	96.26129
947.229	231.24458
947.404	195.3814
947.578	140.5432
947.752	132.10782
947.927	172.17891
948.101	172.17891
948.276	189.0532
948.45	113.12946
948.624	178.50662
948.799	178.50662
948.973	170.06972
949.147	170.06972
949.321	157.41499
949.496	165.85139
949.67	199.6003
949.844	157.41499
950.018	191.16258
950.193	167.96055
950.367	157.41499
950.541	214.36707
950.715	94.15287
950.889	172.17891
951.063	248.12334
951.237	189.0532
951.411	267.11341
951.585	163.74226
951.759	326.20327
951.933	180.61589
952.107	229.13482
952.281	106.80373
952.455	205.9288
952.629	212.25747
952.803	176.39736
952.977	180.61589
953.151	180.61589
953.325	96.26129
953.499	199.6003
953.672	191.16258
953.846	220.69599
954.02	127.89025
954.194	233.35436
954.368	136.32547
954.541	231.24458
954.715	241.79366
954.889	119.45538
955.062	231.24458
955.236	298.76691
955.41	180.61589
955.583	271.33363
955.757	161.63315
955.93	220.69599
956.104	258.67319
956.278	216.47669
956.451	229.13482
956.625	148.97893
956.798	170.06972
956.972	172.17891
957.145	178.50662
957.319	218.58633
957.492	195.3814
957.665	186.94385
957.839	186.94385
958.012	212.25747
958.185	254.45319
958.359	237.57397
958.532	94.15287
958.705	142.6521
958.879	170.06972
959.052	210.14789
959.225	136.32547
959.398	243.90353
959.572	104.6952
959.745	191.16258
959.918	212.25747
960.091	195.3814
960.264	138.43433
960.438	157.41499
960.611	195.3814
960.784	151.08791
960.957	203.81928
961.13	203.81928
961.303	155.30595
961.476	96.26129
961.649	172.17891
961.822	159.52406
961.995	153.19692
962.168	220.69599
962.341	193.27198
962.514	191.16258
962.686	153.19692
962.859	227.02509
963.032	184.83451
963.205	224.91537
963.378	157.41499
963.551	203.81928
963.723	174.28813
963.896	170.06972
964.069	155.30595
964.242	163.74226
964.414	132.10782
964.587	102.58669
964.76	250.23327
964.932	178.50662
965.105	85.71941
965.278	180.61589
965.45	178.50662
965.623	155.30595
965.795	89.9361
965.968	142.6521
966.14	148.97893
966.313	184.83451
966.485	132.10782
966.658	100.4782
966.83	106.80373
967.003	121.56407
967.175	113.12946
967.348	307.20854
967.52	170.06972
967.692	127.89025
967.865	85.71941
968.037	77.2863
968.209	155.30595
968.382	161.63315
968.554	182.72519
968.726	138.43433
968.898	138.43433
969.071	111.02086
969.243	180.61589
969.415	146.86997
969.587	246.01343
969.759	98.36974
969.932	98.36974
970.104	144.76102
970.276	115.23808
970.448	157.41499
970.62	77.2863
970.792	142.6521
970.964	51.98916
971.136	167.96055
971.308	111.02086
971.48	142.6521
971.652	94.15287
971.824	186.94385
971.996	119.45538
972.168	104.6952
972.339	106.80373
972.511	172.17891
972.683	45.6654
972.855	54.09713
973.027	140.5432
973.199	115.23808
973.37	85.71941
973.542	127.89025
973.714	148.97893
973.886	81.50281
974.057	144.76102
974.229	85.71941
974.401	129.99903
974.572	94.15287
974.744	22.48004
974.915	119.45538
975.087	79.39455
975.259	237.57397
975.43	165.85139
975.602	104.6952
975.773	81.50281
975.945	26.69535
976.116	56.20513
976.288	106.80373
976.459	115.23808
976.63	138.43433
976.802	85.71941
976.973	104.6952
977.145	129.99903
977.316	121.56407
977.487	43.55752
977.659	70.96171
977.83	94.15287
978.001	98.36974
978.172	121.56407
978.344	43.55752
978.515	28.80304
978.686	102.58669
978.857	94.15287
979.028	9.83468
979.2	20.37242
979.371	33.01848
979.542	54.09713
979.713	51.98916
979.884	26.69535
980.055	22.48004
980.226	111.02086
980.397	115.23808
980.568	37.23403
980.739	45.6654
980.91	-2.80981
981.081	68.85356
981.252	54.09713
981.423	140.5432
981.594	159.52406
981.765	68.85356
981.936	43.55752
982.106	39.34183
982.277	9.83468
982.448	73.06989
982.619	51.98916
982.79	24.58768
982.96	79.39455
983.131	45.6654
983.302	9.83468
983.472	11.94218
983.643	127.89025
983.814	102.58669
983.984	60.42118
984.155	1.40492
984.326	64.63732
984.496	30.91075
984.667	35.12624
984.837	51.98916
985.008	1.40492
985.178	-7.02445
985.349	132.10782
985.519	56.20513
985.69	39.34183
985.86	70.96171
986.031	94.15287
986.201	7.72721
986.371	60.42118
986.542	11.94218
986.712	81.50281
986.882	96.26129
987.053	87.82774
987.223	28.80304
987.393	111.02086
987.563	39.34183
987.734	136.32547
987.904	33.01848
988.074	85.71941
988.244	37.23403
988.414	43.55752
988.585	51.98916
988.755	68.85356
988.925	73.06989
989.095	-28.09618
989.265	9.83468
989.435	87.82774
989.605	81.50281
989.775	9.83468
989.945	115.23808
990.115	9.83468
990.285	30.91075
990.455	39.34183
990.625	1.40492
990.795	60.42118
990.965	-30.20322
991.134	62.52924
991.304	5.61975
991.474	64.63732
991.644	-38.63112
991.814	-13.34623
991.984	62.52924
992.153	96.26129
992.323	3.51233
992.493	45.6654
992.662	26.69535
992.832	3.51233
993.002	30.91075
993.171	56.20513
993.341	26.69535
993.511	60.42118
993.68	22.48004
993.85	-15.45344
994.019	-15.45344
994.189	62.52924
994.358	-30.20322
994.528	22.48004
994.697	18.26482
994.867	45.6654
995.036	58.31314
995.206	37.23403
995.375	-57.59244
995.544	-30.20322
995.714	81.50281
995.883	94.15287
996.052	-21.77492
996.222	11.94218
996.391	-32.31023
996.56	28.80304
996.73	75.17808
996.899	45.6654
997.068	70.96171
997.237	51.98916
997.406	26.69535
997.576	-2.80981
997.745	45.6654
997.914	39.34183
998.083	62.52924
998.252	45.6654
998.421	5.61975
998.59	37.23403
998.759	-11.23899
998.928	20.37242
999.097	68.85356
999.266	35.12624
999.435	62.52924
999.604	-66.01904
999.773	77.2863
999.942	-53.37899
1000.111	98.36974
1000.28	-0.70246
1000.448	-21.77492
1000.617	45.6654
1000.786	9.83468
1000.955	43.55752
1001.124	-15.45344
1001.292	104.6952
1001.461	-55.48573
1001.63	5.61975
1001.798	-42.84492
1001.967	18.26482
1002.136	-7.02445
1002.304	1.40492
1002.473	20.37242
1002.642	87.82774
1002.81	18.26482
1002.979	60.42118
1003.147	14.04971
1003.316	-11.23899
1003.484	20.37242
1003.653	62.52924
1003.821	51.98916
1003.99	43.55752
1004.158	1.40492
1004.327	-53.37899
1004.495	-32.31023
1004.663	41.44967
1004.832	3.51233
1005	54.09713
1005.168	49.88122
1005.337	5.61975
1005.505	26.69535
1005.673	3.51233
1005.842	14.04971
1006.01	35.12624
1006.178	96.26129
1006.346	1.40492
1006.514	30.91075
1006.683	-28.09618
1006.851	66.74543
1007.019	3.51233
1007.187	-36.52418
1007.355	18.26482
1007.523	28.80304
1007.691	1.40492
1007.859	-28.09618
1008.027	5.61975
1008.195	33.01848
1008.363	-23.88203
1008.531	30.91075
1008.699	37.23403
1008.867	-13.34623
1009.035	79.39455
1009.203	-2.80981
1009.37	-15.45344
1009.538	18.26482
1009.706	51.98916
1009.874	-7.02445
1010.042	-4.91714
1010.209	-38.63112
1010.377	1.40492
1010.545	-4.91714
1010.713	28.80304
1010.88	20.37242
1011.048	20.37242
1011.216	26.69535
1011.383	62.52924
1011.551	14.04971
1011.718	51.98916
1011.886	-7.02445
1012.054	39.34183
1012.221	26.69535
1012.389	30.91075
1012.556	1.40492
1012.724	26.69535
1012.891	-23.88203
1013.058	51.98916
1013.226	1.40492
1013.393	62.52924
1013.561	68.85356
1013.728	14.04971
1013.895	-19.66778
1014.063	70.96171
1014.23	-30.20322
1014.397	51.98916
1014.565	-66.01904
1014.732	18.26482
1014.899	56.20513
1015.066	20.37242
1015.233	26.69535
1015.401	-32.31023
1015.568	-11.23899
1015.735	18.26482
1015.902	43.55752
1016.069	-19.66778
1016.236	-17.56062
1016.403	-61.80579
1016.57	28.80304
1016.737	28.80304
1016.904	73.06989
1017.071	-38.63112
1017.238	-59.69913
1017.405	9.83468
1017.572	24.58768
1017.739	96.26129
1017.906	-30.20322
1018.073	1.40492
1018.24	-32.31023
1018.407	-30.20322
1018.573	43.55752
1018.74	56.20513
1018.907	14.04971
1019.074	43.55752
1019.241	-19.66778
1019.407	22.48004
1019.574	60.42118
1019.741	37.23403
1019.907	35.12624
1020.074	-47.05863
1020.241	102.58669
1020.407	-15.45344
1020.574	3.51233
1020.74	-17.56062
1020.907	-15.45344
1021.073	-2.80981
1021.24	-57.59244
1021.406	9.83468
1021.573	51.98916
1021.739	-7.02445
1021.906	26.69535
1022.072	9.83468
1022.239	-15.45344
1022.405	47.77329
1022.571	3.51233
1022.738	20.37242
1022.904	37.23403
1023.07	30.91075
1023.237	-61.80579
1023.403	-21.77492
1023.569	-38.63112
1023.735	-21.77492
1023.902	-2.80981
1024.068	9.83468
1024.234	-17.56062
1024.4	-7.02445
1024.566	-23.88203
1024.732	-89.19007
1024.898	45.6654
1025.065	35.12624
1025.231	-7.02445
1025.397	-44.95179
1025.563	-23.88203
1025.729	9.83468
1025.895	-55.48573
1026.061	-7.02445
1026.227	3.51233
1026.392	43.55752
1026.558	-36.52418
1026.724	-11.23899
1026.89	24.58768
1027.056	11.94218
1027.222	33.01848
1027.388	-4.91714
1027.553	-13.34623
1027.719	28.80304
1027.885	-89.19007
1028.051	-23.88203
1028.216	-68.12563
1028.382	-23.88203
1028.548	22.48004
1028.713	3.51233
1028.879	5.61975
1029.045	9.83468
1029.21	-30.20322
1029.376	-21.77492
1029.541	75.17808
1029.707	9.83468
1029.873	-7.02445
1030.038	-38.63112
1030.204	-53.37899
1030.369	62.52924
1030.534	9.83468
1030.7	-4.91714
1030.865	-7.02445
1031.031	-2.80981
1031.196	-42.84492
1031.361	5.61975
1031.527	-30.20322
1031.692	20.37242
1031.857	9.83468
1032.023	1.40492
1032.188	-61.80579
1032.353	56.20513
1032.518	33.01848
1032.684	-9.13173
1032.849	-15.45344
1033.014	-36.52418
1033.179	-21.77492
1033.344	-19.66778
1033.509	18.26482
1033.674	-15.45344
1033.839	-7.02445
1034.004	-66.01904
1034.17	-63.91243
1034.335	-2.80981
1034.5	54.09713
1034.664	1.40492
1034.829	-0.70246
1034.994	37.23403
1035.159	-23.88203
1035.324	-32.31023
1035.489	-36.52418
1035.654	-4.91714
1035.819	-40.73804
1035.984	-47.05863
1036.148	-44.95179
1036.313	22.48004
1036.478	-11.23899
1036.643	81.50281
1036.807	22.48004
1036.972	-15.45344
1037.137	-55.48573
1037.301	-30.20322
1037.466	-2.80981
1037.631	1.40492
1037.795	-15.45344
1037.96	9.83468
1038.124	5.61975
1038.289	-57.59244
1038.454	-4.91714
1038.618	-32.31023
1038.783	-53.37899
1038.947	14.04971
1039.111	3.51233
1039.276	-15.45344
1039.44	-23.88203
1039.605	22.48004
1039.769	-36.52418
1039.933	-2.80981
1040.098	37.23403
1040.262	-11.23899
1040.426	18.26482
1040.591	16.15725
1040.755	-89.19007
1040.919	9.83468
1041.083	75.17808
1041.248	-38.63112
1041.412	-112.35796
1041.576	43.55752
1041.74	1.40492
1041.904	18.26482
1042.068	24.58768
1042.232	35.12624
1042.397	43.55752
1042.561	-36.52418
1042.725	-55.48573
1042.889	-7.02445
1043.053	-11.23899
1043.217	5.61975
1043.381	26.69535
1043.544	-44.95179
1043.708	16.15725
1043.872	33.01848
1044.036	-36.52418
1044.2	7.72721
1044.364	9.83468
1044.528	-23.88203
1044.691	18.26482
1044.855	28.80304
1045.019	41.44967
1045.183	-38.63112
1045.346	-17.56062
1045.51	-11.23899
1045.674	20.37242
1045.837	5.61975
1046.001	-44.95179
1046.165	-47.05863
1046.328	-32.31023
1046.492	1.40492
1046.655	47.77329
1046.819	-15.45344
1046.983	-38.63112
1047.146	60.42118
1047.31	-0.70246
1047.473	-7.02445
1047.636	-15.45344
1047.8	-28.09618
1047.963	-4.91714
1048.127	28.80304
1048.29	18.26482
