Data from mixed_try1_USB4F045381__30__00255.txt Node

Date: Thu Apr 03 20:26:46 EDT 2025
User: mmckonesweet
Spectrometer: USB4F04538
Trigger mode: 4
Integration Time (sec): 2.700000E-3
Scans to average: 1
Electric dark correction enabled: true
Nonlinearity correction enabled: true
Boxcar width: 0
XAxis mode: Wavelengths
Number of Pixels in Spectrum: 3648
>>>>>Begin Spectral Data<<<<<
345.52	-39.15785
345.736	-39.15785
345.952	-39.15785
346.168	-62.33245
346.384	0.87808
346.6	-64.43909
346.816	21.95313
347.032	-62.33245
347.248	32.49155
347.464	34.5993
347.68	-5.44397
347.896	30.38382
348.112	-34.94396
348.328	11.4153
348.544	97.84262
348.76	-64.43909
348.975	2.98547
349.191	28.27611
349.407	80.97574
349.623	-60.2258
349.839	59.89417
350.055	2.98547
350.27	-68.65227
350.486	72.54284
350.702	-7.55127
350.918	36.70708
351.133	-49.69214
351.349	-87.61033
351.565	32.49155
351.781	40.92271
351.996	19.84552
352.212	-37.05092
352.428	26.16843
352.644	-28.62294
352.859	32.49155
353.075	-45.4785
353.291	13.52282
353.506	51.46218
353.722	-28.62294
353.938	24.06077
354.153	-15.98024
354.369	72.54284
354.584	-43.37164
354.8	43.03055
355.016	47.24632
355.231	57.78613
355.447	-28.62294
355.662	-32.83698
355.878	-18.08741
356.093	-56.01241
356.309	-28.62294
356.524	5.09289
356.74	0.87808
356.955	-37.05092
357.171	-24.40881
357.386	21.95313
357.602	47.24632
357.817	45.13842
358.033	43.03055
358.248	47.24632
358.464	-1.2293
358.679	-24.40881
358.895	-18.08741
359.11	-20.19457
359.325	17.73793
359.541	-93.92922
359.756	36.70708
359.972	-5.44397
360.187	-34.94396
360.402	43.03055
360.618	40.92271
360.833	-43.37164
361.048	0.87808
361.264	-24.40881
361.479	-30.72997
361.694	-41.26476
361.909	-11.7658
362.125	-37.05092
362.34	43.03055
362.555	-28.62294
362.77	40.92271
362.986	7.20034
363.201	9.30781
363.416	28.27611
363.631	-18.08741
363.847	-34.94396
364.062	24.06077
364.277	-1.2293
364.492	-87.61033
364.707	-5.44397
364.922	-32.83698
365.138	26.16843
365.353	-74.97185
365.568	26.16843
365.783	43.03055
365.998	53.57014
366.213	-47.58533
366.428	2.98547
366.643	-7.55127
366.858	13.52282
367.073	-1.2293
367.288	55.67812
367.503	108.38515
367.718	15.63036
367.933	-41.26476
368.148	-64.43909
368.363	13.52282
368.578	2.98547
368.793	13.52282
369.008	-26.51589
369.223	9.30781
369.438	32.49155
369.653	66.2184
369.868	-18.08741
370.083	-108.67238
370.298	-60.2258
370.513	-11.7658
370.728	-24.40881
370.943	-37.05092
371.157	80.97574
371.372	32.49155
371.587	13.52282
371.802	-30.72997
372.017	30.38382
372.232	2.98547
372.446	-13.87303
372.661	-74.97185
372.876	26.16843
373.091	36.70708
373.306	55.67812
373.52	89.40901
373.735	7.20034
373.95	13.52282
374.165	24.06077
374.379	-47.58533
374.594	-53.90568
374.809	93.62577
375.023	9.30781
375.238	-26.51589
375.453	-28.62294
375.667	-28.62294
375.882	-11.7658
376.097	2.98547
376.311	30.38382
376.526	28.27611
376.741	-28.62294
376.955	93.62577
377.17	-1.2293
377.384	95.73419
377.599	-15.98024
377.813	-28.62294
378.028	-18.08741
378.242	-11.7658
378.457	-3.33665
378.672	32.49155
378.886	32.49155
379.101	17.73793
379.315	13.52282
379.53	-15.98024
379.744	-66.54569
379.958	21.95313
380.173	74.65103
380.387	-70.75882
380.602	32.49155
380.816	21.95313
381.031	-26.51589
381.245	13.52282
381.459	-41.26476
381.674	-1.2293
381.888	21.95313
382.103	21.95313
382.317	-53.90568
382.531	-68.65227
382.746	28.27611
382.96	-62.33245
383.174	19.84552
383.388	-11.7658
383.603	-7.55127
383.817	55.67812
384.031	28.27611
384.246	30.38382
384.46	26.16843
384.674	-15.98024
384.888	-28.62294
385.103	24.06077
385.317	-22.3017
385.531	24.06077
385.745	28.27611
385.959	30.38382
386.174	21.95313
386.388	17.73793
386.602	30.38382
386.816	7.20034
387.03	24.06077
387.244	-37.05092
387.458	-26.51589
387.672	-9.65855
387.887	-20.19457
388.101	-37.05092
388.315	-64.43909
388.529	51.46218
388.743	-26.51589
388.957	26.16843
389.171	-22.3017
389.385	15.63036
389.599	13.52282
389.813	-51.79892
390.027	66.2184
390.241	17.73793
390.455	0.87808
390.669	97.84262
390.883	-28.62294
391.097	21.95313
391.311	38.81488
391.525	-32.83698
391.738	9.30781
391.952	-20.19457
392.166	-24.40881
392.38	26.16843
392.594	-24.40881
392.808	24.06077
393.022	-28.62294
393.236	26.16843
393.449	2.98547
393.663	5.09289
393.877	-66.54569
394.091	-7.55127
394.305	-87.61033
394.518	66.2184
394.732	-79.18478
394.946	-7.55127
395.16	-11.7658
395.373	55.67812
395.587	26.16843
395.801	-1.2293
396.015	-1.2293
396.228	-60.2258
396.442	-3.33665
396.656	80.97574
396.869	-24.40881
397.083	21.95313
397.297	-18.08741
397.51	-3.33665
397.724	-32.83698
397.938	9.30781
398.151	-15.98024
398.365	-3.33665
398.578	21.95313
398.792	30.38382
399.005	47.24632
399.219	13.52282
399.433	24.06077
399.646	-45.4785
399.86	13.52282
400.073	38.81488
400.287	9.30781
400.5	-37.05092
400.714	-7.55127
400.927	30.38382
401.141	-64.43909
401.354	28.27611
401.567	-53.90568
401.781	-39.15785
401.994	43.03055
402.208	9.30781
402.421	47.24632
402.635	-77.07833
402.848	-58.11912
403.061	9.30781
403.275	-3.33665
403.488	-51.79892
403.701	-28.62294
403.915	-11.7658
404.128	-9.65855
404.341	5.09289
404.555	-28.62294
404.768	55.67812
404.981	30.38382
405.195	-20.19457
405.408	7.20034
405.621	-34.94396
405.834	11.4153
406.048	9.30781
406.261	-74.97185
406.474	-20.19457
406.687	11.4153
406.9	21.95313
407.114	32.49155
407.327	-7.55127
407.54	26.16843
407.753	9.30781
407.966	19.84552
408.179	-24.40881
408.392	-37.05092
408.605	15.63036
408.819	-58.11912
409.032	13.52282
409.245	34.5993
409.458	-18.08741
409.671	13.52282
409.884	-20.19457
410.097	5.09289
410.31	-32.83698
410.523	-20.19457
410.736	-68.65227
410.949	13.52282
411.162	-22.3017
411.375	-5.44397
411.588	5.09289
411.801	9.30781
412.014	21.95313
412.227	7.20034
412.44	-5.44397
412.653	34.5993
412.865	-11.7658
413.078	-45.4785
413.291	66.2184
413.504	-30.72997
413.717	55.67812
413.93	-3.33665
414.143	13.52282
414.356	30.38382
414.568	-28.62294
414.781	43.03055
414.994	49.35423
415.207	13.52282
415.42	-3.33665
415.632	-15.98024
415.845	21.95313
416.058	-53.90568
416.271	-18.08741
416.483	-43.37164
416.696	21.95313
416.909	17.73793
417.121	47.24632
417.334	-45.4785
417.547	-70.75882
417.759	13.52282
417.972	15.63036
418.185	-28.62294
418.397	0.87808
418.61	9.30781
418.823	30.38382
419.035	99.95108
419.248	83.08402
419.46	-3.33665
419.673	24.06077
419.885	85.19233
420.098	-1.2293
420.311	74.65103
420.523	2.98547
420.736	59.89417
420.948	21.95313
421.161	-3.33665
421.373	28.27611
421.586	-18.08741
421.798	89.40901
422.01	17.73793
422.223	-3.33665
422.435	7.20034
422.648	-37.05092
422.86	-30.72997
423.073	-28.62294
423.285	-47.58533
423.497	-20.19457
423.71	-20.19457
423.922	5.09289
424.134	-28.62294
424.347	40.92271
424.559	-20.19457
424.771	30.38382
424.984	-32.83698
425.196	9.30781
425.408	53.57014
425.621	-66.54569
425.833	66.2184
426.045	-60.2258
426.257	13.52282
426.47	13.52282
426.682	15.63036
426.894	5.09289
427.106	47.24632
427.318	24.06077
427.531	-20.19457
427.743	9.30781
427.955	9.30781
428.167	13.52282
428.379	7.20034
428.591	15.63036
428.804	-37.05092
429.016	0.87808
429.228	55.67812
429.44	13.52282
429.652	38.81488
429.864	26.16843
430.076	34.5993
430.288	9.30781
430.5	-22.3017
430.712	-18.08741
430.924	32.49155
431.136	47.24632
431.348	-41.26476
431.56	17.73793
431.772	49.35423
431.984	38.81488
432.196	-15.98024
432.408	-34.94396
432.62	28.27611
432.832	-28.62294
433.044	-96.03546
433.256	17.73793
433.468	-5.44397
433.679	13.52282
433.891	-37.05092
434.103	24.06077
434.315	-37.05092
434.527	72.54284
434.739	72.54284
434.95	-37.05092
435.162	5.09289
435.374	97.84262
435.586	-47.58533
435.798	21.95313
436.009	-41.26476
436.221	-96.03546
436.433	78.86748
436.645	5.09289
436.856	-5.44397
437.068	68.32652
437.28	34.5993
437.491	0.87808
437.703	-20.19457
437.915	-11.7658
438.126	-1.2293
438.338	47.24632
438.55	5.09289
438.761	64.1103
438.973	30.38382
439.184	85.19233
439.396	17.73793
439.608	-11.7658
439.819	-1.2293
440.031	-24.40881
440.242	-7.55127
440.454	57.78613
440.665	47.24632
440.877	55.67812
441.088	57.78613
441.3	5.09289
441.511	5.09289
441.723	80.97574
441.934	7.20034
442.146	108.38515
442.357	-32.83698
442.569	114.71092
442.78	-3.33665
442.991	-58.11912
443.203	5.09289
443.414	40.92271
443.626	21.95313
443.837	112.60231
444.048	47.24632
444.26	51.46218
444.471	15.63036
444.682	72.54284
444.894	-11.7658
445.105	7.20034
445.316	-51.79892
445.528	165.32411
445.739	-22.3017
445.95	5.09289
446.161	83.08402
446.373	91.51738
446.584	-20.19457
446.795	17.73793
447.006	21.95313
447.217	7.20034
447.429	-37.05092
447.64	40.92271
447.851	49.35423
448.062	55.67812
448.273	-11.7658
448.484	-20.19457
448.695	-28.62294
448.907	0.87808
449.118	53.57014
449.329	-37.05092
449.54	-11.7658
449.751	-11.7658
449.962	97.84262
450.173	51.46218
450.384	-11.7658
450.595	70.43467
450.806	91.51738
451.017	40.92271
451.228	95.73419
451.439	116.81956
451.65	66.2184
451.861	-9.65855
452.072	-11.7658
452.283	51.46218
452.494	7.20034
452.705	34.5993
452.915	66.2184
453.126	21.95313
453.337	51.46218
453.548	30.38382
453.759	-3.33665
453.97	66.2184
454.181	80.97574
454.391	21.95313
454.602	-11.7658
454.813	68.32652
455.024	45.13842
455.235	66.2184
455.445	-15.98024
455.656	125.25432
455.867	9.30781
456.078	-37.05092
456.288	64.1103
456.499	43.03055
456.71	21.95313
456.921	26.16843
457.131	24.06077
457.342	38.81488
457.553	64.1103
457.763	64.1103
457.974	-15.98024
458.184	21.95313
458.395	89.40901
458.606	99.95108
458.816	66.2184
459.027	106.2766
459.237	57.78613
459.448	76.75925
459.659	99.95108
459.869	85.19233
460.08	38.81488
460.29	74.65103
460.501	80.97574
460.711	7.20034
460.922	-11.7658
461.132	9.30781
461.343	26.16843
461.553	116.81956
461.764	47.24632
461.974	78.86748
462.184	-32.83698
462.395	85.19233
462.605	-37.05092
462.816	55.67812
463.026	80.97574
463.236	80.97574
463.447	55.67812
463.657	89.40901
463.867	80.97574
464.078	55.67812
464.288	114.71092
464.498	87.30066
464.709	49.35423
464.919	95.73419
465.129	108.38515
465.339	72.54284
465.55	62.00222
465.76	11.4153
465.97	209.6205
466.18	30.38382
466.391	97.84262
466.601	59.89417
466.811	123.1456
467.021	93.62577
467.231	116.81956
467.441	32.49155
467.651	169.54242
467.862	74.65103
468.072	62.00222
468.282	59.89417
468.492	144.23379
468.702	106.2766
468.912	156.88773
469.122	184.30718
469.332	177.9793
469.542	102.05957
469.752	173.76082
469.962	102.05957
470.172	55.67812
470.382	199.07293
470.592	72.54284
470.802	74.65103
471.012	114.71092
471.222	226.49765
471.432	182.19786
471.642	241.26619
471.852	89.40901
472.062	123.1456
472.272	213.83967
472.482	173.76082
472.691	167.43326
472.901	213.83967
473.111	203.2919
473.321	211.73008
473.531	194.85404
473.741	144.23379
473.95	190.63523
474.16	211.73008
474.37	291.9083
474.58	270.8061
474.79	270.8061
474.999	268.69598
475.209	253.9257
475.419	169.54242
475.628	279.24676
475.838	258.14568
476.048	319.34389
476.258	325.67561
476.467	395.33488
476.677	344.67174
476.886	410.11344
477.096	386.89035
477.306	270.8061
477.515	359.44748
477.725	355.22575
477.935	410.11344
478.144	420.67004
478.354	372.11307
478.563	446.00751
478.773	477.68249
478.982	437.56144
479.192	490.35343
479.401	519.921
479.611	528.3694
479.82	545.26687
480.03	530.48154
480.239	665.68575
480.449	564.27757
480.658	524.14517
480.868	587.51435
481.077	701.60782
481.287	572.72712
481.496	701.60782
481.705	648.7824
481.915	697.38152
482.124	693.15527
482.333	847.44038
482.543	758.66706
482.752	841.09888
482.961	849.55422
483.171	800.93799
483.38	781.91558
483.589	834.75747
483.799	891.83297
484.008	1027.14528
484.217	845.32654
484.426	925.6583
484.636	1027.14528
484.845	1149.7934
485.054	948.91433
485.263	1099.04041
485.472	967.94264
485.682	1082.12336
485.891	1143.44913
486.1	1137.10491
486.309	1225.92723
486.518	1232.27191
486.727	1162.48203
486.936	1314.75496
487.146	1221.69745
487.355	1257.65091
487.564	1263.99572
487.773	1545.294
487.982	1401.47089
488.191	1486.0729
488.4	1412.04612
488.609	1390.89568
488.818	1517.79857
489.027	1475.49765
489.236	1507.22337
489.445	1638.35363
489.654	1513.56849
489.863	1699.68604
490.072	1602.39919
490.281	1868.86362
490.49	1625.66389
490.698	1716.60489
490.907	1818.11317
491.116	1978.81254
491.325	1807.53982
491.534	1839.25952
491.743	1813.88384
491.952	1906.92457
492.16	1847.71793
492.369	1991.49793
492.578	1985.15526
492.787	2067.60527
492.996	2122.56596
493.204	2270.51
493.413	2340.23984
493.622	2213.45083
493.831	2035.89495
494.039	2266.28362
494.248	2287.41515
494.457	2295.8675
494.665	2336.01409
494.874	2431.08373
495.083	2363.48077
495.291	2433.19615
495.5	2405.73387
495.709	2359.25524
495.917	2382.49517
496.126	2583.14947
496.335	2502.89988
496.543	2661.2706
496.752	2509.23598
496.96	2629.60191
497.169	2678.15941
497.377	2602.15345
497.586	2483.89096
497.794	2963.02805
498.003	2663.38174
498.211	2884.97838
498.42	2730.93162
498.628	2853.33099
498.837	2836.45107
499.045	2756.25938
499.254	3007.31747
499.462	2891.30748
499.671	2937.71684
499.879	3055.81723
500.087	2855.44091
500.296	3024.18787
500.504	2998.8819
500.713	2880.75892
500.921	2937.71684
501.129	3095.87605
501.338	3015.7528
501.546	3302.40252
501.754	3089.55135
501.962	3275.01534
502.171	3300.29592
502.379	3359.27433
502.587	3258.16027
502.795	3460.34823
503.004	3435.08359
503.212	3451.92697
503.42	3293.976
503.628	3376.1228
503.837	3350.84967
504.045	3430.87257
504.253	3544.54487
504.461	3552.96292
504.669	3479.29501
504.877	3609.77702
505.085	3611.88098
505.294	3649.74912
505.502	3454.03231
505.71	3712.849
505.918	3529.81257
506.126	3773.82907
506.334	3571.90246
506.542	3794.85289
506.75	3468.7692
506.958	3813.77264
507.166	3799.05741
507.374	3914.65087
507.582	3721.26101
507.79	3872.62386
507.998	3857.91251
508.206	3855.81081
508.414	3763.31643
508.622	4074.27949
508.83	3788.54595
509.037	3908.34733
509.245	3830.58886
509.453	4217.0036
509.661	4067.98061
509.869	4166.64149
510.077	4143.55479
510.285	4009.18209
510.492	4065.88094
510.7	4217.0036
510.908	4154.04906
511.116	4351.24249
511.324	4107.87035
511.531	4361.72619
511.739	4114.16804
511.947	4233.78826
512.155	4403.65555
512.362	4365.91952
512.57	4338.66134
512.778	4445.57619
512.985	4321.88526
513.193	4560.81258
513.401	4426.71299
513.608	4678.07512
513.816	4244.27798
514.024	4562.90717
514.231	4544.05508
514.439	4686.44833
514.646	4531.48603
514.854	4665.51463
515.061	4556.62334
515.269	4730.40174
515.477	4686.44833
515.684	4757.60601
515.892	4661.32763
516.099	4797.3592
516.307	4786.89863
516.514	4933.29476
516.722	4489.58342
516.929	4937.47586
517.136	4646.67239
517.344	4740.86538
517.551	4912.38789
517.759	5023.16809
517.966	5067.04421
518.173	4945.83778
518.381	5071.22236
518.588	5050.3307
518.796	4845.47051
519.003	5016.89924
519.21	5121.35288
519.418	5177.73372
519.625	5117.17585
519.832	5096.28929
520.039	4952.10898
520.247	5315.48198
520.454	5071.22236
520.661	5411.42805
520.868	5221.57374
521.076	5321.74084
521.283	5254.96876
521.49	5363.46122
521.697	5273.75083
521.904	5496.9033
522.112	5194.43589
522.319	5813.44155
522.526	5135.97176
522.733	5632.33174
522.94	5348.86015
523.147	5492.7347
523.354	5492.7347
523.561	5530.24877
523.768	5626.08339
523.975	5855.05073
524.183	5603.17096
524.39	5596.92161
524.597	5521.91297
524.804	5663.57032
525.011	5821.76414
525.218	5983.97924
525.425	5788.47151
525.632	5778.06632
525.838	5813.44155
526.045	5840.48859
526.252	5763.49807
526.459	5813.44155
526.666	5923.68525
526.873	6112.81716
527.08	5871.69176
527.287	5983.97924
527.494	5936.1615
527.701	6245.71636
527.907	6040.0972
528.114	6175.12563
528.321	5884.17155
528.528	6339.10364
528.735	6262.32201
528.941	6245.71636
529.148	6046.33147
529.355	6137.74308
529.562	6164.74235
529.768	6287.22767
529.975	6077.49963
530.182	6386.81665
530.388	6283.07696
530.595	6254.01937
530.802	6241.56471
531.008	6770.149
531.215	6505.00884
531.422	6666.62352
531.628	6527.80917
531.835	6610.69587
532.042	6614.83923
532.248	6805.33463
532.455	6670.76564
532.661	6813.61265
532.868	6567.18496
533.074	6627.26877
533.281	6341.17838
533.487	6629.34028
533.694	6569.25714
533.9	7084.5172
534.107	6714.25236
534.313	7092.78301
534.52	7076.25102
534.726	7057.65082
534.933	6761.86907
535.139	6912.92041
535.345	7024.5793
535.552	7307.5695
535.758	6836.3753
535.965	7196.07565
536.171	7059.7176
536.377	7231.1825
536.584	6952.2153
536.79	7255.95997
536.996	7255.95997
537.203	7034.91477
537.409	7163.02806
537.615	7127.90875
537.821	6877.7549
538.028	7375.67309
538.234	7208.46703
538.44	7503.5612
538.646	7396.30584
538.853	7621.06268
539.059	7266.28297
539.265	7458.19107
539.471	7284.863
539.677	7470.56578
539.883	7445.81559
540.09	7684.93793
540.296	7515.93305
540.502	7765.26828
540.708	7485.00195
540.914	7777.62396
541.12	7371.54627
541.326	7647.85156
541.532	7342.65614
541.738	7948.46743
541.944	7921.71821
542.15	8018.41056
542.356	7884.6751
542.562	8080.10558
542.768	7750.85236
542.974	8090.38632
543.18	7738.49505
543.386	7901.13953
543.592	8178.77993
543.798	8022.52413
544.004	7999.8985
544.21	8215.77095
544.415	7890.84941
544.621	8030.75103
544.827	7975.21318
545.033	8310.2745
545.239	8063.65536
545.445	8248.64648
545.651	7993.72744
545.856	8230.15462
546.062	8038.97759
546.268	8246.5919
546.474	8223.99031
546.679	8328.75946
546.885	8260.97349
547.091	8316.43633
547.297	8248.64648
547.502	8482.73983
547.708	8304.11249
547.914	8382.15162
548.119	8164.39279
548.325	8441.68899
548.531	8269.19111
548.736	8480.68747
548.942	8421.16069
549.147	8293.84208
549.353	8347.24285
549.559	8730.93643
549.764	8445.79442
549.97	8609.94918
550.175	8687.88056
550.381	8708.38437
550.586	8334.92077
550.792	8806.77712
550.997	8653.01984
551.203	8712.48491
551.408	8689.93102
551.614	8821.12256
551.819	8853.9088
552.025	8802.67826
552.23	8872.34904
552.435	8784.2325
552.641	9064.8611
552.846	8886.69044
553.052	8810.87591
553.257	8858.00676
553.462	8855.95779
553.668	9107.84797
553.873	8974.76847
554.078	9189.70678
554.283	9285.85622
554.489	9064.8611
554.694	9287.90155
554.899	9187.66064
555.105	9085.33199
555.31	9214.25911
555.515	9165.15201
555.72	9420.81259
555.925	8968.62456
556.131	9269.49298
556.336	8921.51592
556.541	9445.34246
556.746	9156.96654
556.951	9523.00507
557.156	9222.44268
557.361	9392.19146
557.567	9498.48253
557.772	9394.23593
557.977	9488.26413
558.182	9580.21542
558.387	9639.456
558.592	9631.28567
558.797	9527.09194
559.002	9602.68754
559.207	9326.75967
559.412	9596.55897
559.617	9394.23593
559.822	9625.15776
560.027	9482.1329
560.232	9766.06463
560.437	9570.0002
560.642	9825.26473
560.847	9676.21943
561.051	9670.09254
561.256	9721.14573
561.461	9637.41344
561.666	9570.0002
561.871	9637.41344
562.076	9596.55897
562.281	9837.51145
562.485	9743.6061
562.69	9904.85887
562.895	9545.48205
563.1	9982.39064
563.305	9598.60184
563.509	9853.83958
563.714	9637.41344
563.919	9976.27048
564.123	9990.55066
564.328	10141.46992
564.533	9896.6964
564.737	9882.41152
564.942	9941.58707
565.147	10143.50884
565.351	10129.2361
565.556	10225.05437
565.761	9849.75764
565.965	10063.98053
566.17	10176.1297
566.374	10227.09272
566.579	10220.97761
566.784	10172.05228
566.988	10225.05437
567.193	10422.71248
567.397	10269.89508
567.602	10257.66644
567.806	10017.06914
568.011	10200.59302
568.215	10400.3039
568.42	10379.93109
568.624	10186.32299
568.828	10453.2671
569.033	10245.43732
569.237	10436.97166
569.442	10326.95564
569.646	10286.19917
569.85	10237.2843
570.055	10551.0225
570.259	10365.66935
570.463	10453.2671
570.668	10304.54024
570.872	10371.7816
571.076	10634.49894
571.281	10626.35581
571.485	10347.33187
571.689	10628.39161
571.893	10471.59848
572.098	10512.33116
572.302	10634.49894
572.506	10722.02519
572.71	10365.66935
572.914	10811.56395
573.119	10669.10503
573.323	10978.37153
573.527	10453.2671
573.731	10795.28588
573.935	10862.4281
574.139	10903.11422
574.343	10665.03391
574.547	11041.41315
574.751	10599.88929
574.955	10953.96544
575.159	10701.67225
575.364	10850.22137
575.568	10966.16869
575.772	11254.86405
575.976	10939.72781
576.18	11014.97764
576.383	10805.45976
576.587	11238.60521
576.791	10770.86736
576.995	11114.60956
577.199	11086.14596
577.403	10872.60006
577.607	11169.49772
577.811	11218.28073
578.015	10917.35328
578.219	11228.4431
578.422	11043.44658
578.626	11510.85612
578.83	11307.70075
579.034	11301.60456
579.238	10992.60766
579.442	11299.57248
579.645	11202.0204
579.849	11547.41384
580.053	11378.8163
580.257	11338.18035
580.46	11364.59417
580.664	11600.21411
580.868	11374.75289
581.071	11372.72116
581.275	11346.30786
581.479	11717.9771
581.682	11474.29533
581.886	11588.02998
582.09	11445.85701
582.293	11535.22827
582.497	11512.88718
582.7	11646.91685
582.904	11608.33667
583.107	11829.62149
583.311	11488.51378
583.515	11665.19053
583.718	11236.57281
583.922	11644.8864
584.125	11720.00723
584.329	11683.46349
584.532	11821.50277
584.735	11778.87727
584.939	11462.10771
585.142	11691.58457
585.346	11789.02655
585.549	12083.26511
585.753	12012.25753
585.956	12107.60839
586.159	12056.89198
586.363	12225.25228
586.566	11961.53191
586.769	12052.83446
586.973	11722.03735
587.176	12115.72257
587.379	11843.82891
587.582	11949.35702
587.786	11959.50278
587.989	12083.26511
588.192	11738.27803
588.395	12115.72257
588.599	12131.95057
588.802	12387.4799
589.005	12225.25228
589.208	12411.81022
589.411	12428.0299
589.615	12251.61735
589.818	12040.66171
590.021	12379.36957
590.224	12032.54638
590.427	12478.71367
590.63	12206.99883
590.833	12373.28676
591.036	12322.59423
591.239	12535.47466
591.442	12385.45232
591.645	12705.72831
591.848	12527.36625
592.051	12616.55319
592.254	12573.9882
592.457	12819.20758
592.66	12484.79544
592.863	12438.16698
593.066	12573.9882
593.269	12782.73404
593.472	12545.61002
593.675	12973.18759
593.878	12823.26008
594.081	12849.60082
594.284	12632.76772
594.486	12948.87698
594.689	12800.97103
594.892	12934.69545
595.095	12675.329
595.298	12752.33803
595.5	12817.18132
595.703	12946.85107
595.906	12794.89208
596.109	12902.27955
596.311	13015.7294
596.514	13062.32029
596.717	13112.95965
596.92	13295.23751
597.122	12944.82514
597.325	12973.18759
597.528	13027.8838
597.73	13038.01233
597.933	12865.81005
598.136	12977.23929
598.338	13139.29094
598.541	13155.49442
598.743	13297.26262
598.946	13272.96102
599.148	13163.59605
599.351	13033.96093
599.554	13137.26548
599.756	12790.83942
599.959	13153.469
600.161	13475.45633
600.363	13056.24336
600.566	13260.80999
600.768	13094.72982
600.971	13238.5327
601.173	13165.62145
601.376	13420.78652
601.578	13428.88593
601.78	13584.78781
601.983	13125.11265
602.185	13191.95118
602.388	13360.03895
602.59	13374.21371
602.792	13388.38826
602.995	13341.81397
603.197	13268.9107
603.399	13688.03599
603.601	13337.76393
603.804	13594.91057
604.006	13511.90133
604.208	13487.6048
604.41	13588.83693
604.613	13388.38826
604.815	13329.6638
605.017	13485.58006
605.219	13309.41319
605.421	13643.49863
605.623	13702.20663
605.826	14001.78074
606.028	13530.12339
606.23	13965.34925
606.432	13736.62042
606.634	13888.43557
606.836	13459.25816
607.038	13748.76625
607.24	13724.47448
607.442	13817.59054
607.644	13530.12339
607.846	13635.40075
608.048	13216.25488
608.25	13534.1727
608.452	13570.6158
608.654	13953.20523
608.856	13619.20484
609.058	13681.9628
609.26	13588.83693
609.462	13558.46823
609.664	13821.63892
609.866	13999.75679
610.067	14030.1158
610.269	13963.32525
610.471	13645.52309
610.673	13862.1221
610.875	13807.46953
611.077	13920.82074
611.278	13934.98904
611.48	13742.69335
611.682	13953.20523
611.884	13937.01307
612.085	13686.01159
612.287	13993.68492
612.489	13738.64473
612.69	13987.61303
612.892	13665.7675
613.094	14226.42505
613.295	13773.05757
613.497	13870.2186
613.699	13926.89288
613.9	14220.35393
614.102	14050.35483
614.304	14058.45038
614.505	14127.26107
614.707	13987.61303
614.908	13813.54214
615.11	14135.35628
615.311	13985.58907
615.513	14032.13971
615.714	13951.18122
615.916	13748.76625
616.117	13651.59645
616.319	14240.59095
616.52	13914.74857
616.722	13892.48375
616.923	13981.54112
617.124	13985.58907
617.326	13641.47416
617.527	14189.99804
617.729	13939.0371
617.93	13874.26684
618.131	14102.97524
618.333	13949.15721
618.534	14056.4265
618.735	14432.83372
618.937	14007.85258
619.138	14232.49616
619.339	13953.20523
619.54	14147.49902
619.742	14064.52202
619.943	14161.66546
620.144	14072.6175
620.345	14355.93843
620.546	13941.06113
620.748	14266.89878
620.949	14123.21345
621.15	14202.14045
621.351	13910.70045
621.552	13963.32525
621.753	14028.09188
621.954	14015.94833
622.155	14019.99619
622.356	14248.6857
622.558	14019.99619
622.759	14202.14045
622.96	14028.09188
623.161	14232.49616
623.362	14169.76053
623.563	14606.85237
623.764	14285.11171
623.965	14566.38375
624.166	14351.89124
624.366	14254.75674
624.567	14396.40991
624.768	14370.10352
624.969	13860.09797
625.17	14250.70938
625.371	14202.14045
625.572	14347.84405
625.773	14129.28487
625.973	14289.15901
626.174	14380.22139
626.375	14315.46628
626.576	14337.72604
626.777	14570.43063
626.977	14204.16418
627.178	14574.47751
627.379	14129.28487
627.58	14060.47426
627.78	14066.54589
627.981	14157.61792
628.182	14293.2063
628.382	14493.539
628.583	14100.95141
628.784	13971.42122
628.984	14242.61464
629.185	14254.75674
629.386	14064.52202
629.586	14525.91465
629.787	14139.40387
629.987	14584.59469
630.188	14345.82045
630.388	14641.25036
630.589	14236.54356
630.79	14669.57788
630.99	14222.37764
631.191	14497.58598
631.391	14515.79729
631.591	14457.11598
631.792	14270.94611
631.992	14335.70244
632.193	14540.07889
632.393	14434.85725
632.594	14165.713
632.794	14268.92245
632.994	14074.64137
633.195	14335.70244
633.395	14382.24496
633.595	14643.27376
633.796	14562.33686
633.996	14635.18015
634.196	14248.6857
634.397	15114.70683
634.597	14635.18015
634.797	14754.55935
634.997	14420.6925
635.198	14400.45703
635.398	14477.35105
635.598	14867.86583
635.798	14778.83949
635.998	14635.18015
636.199	14748.48929
636.399	14531.98505
636.599	14236.54356
636.799	14501.63294
636.999	14584.59469
637.199	14683.74157
637.399	14732.30245
637.599	14924.51835
637.799	14270.94611
637.999	14744.44259
638.199	14833.46944
638.399	14811.21286
638.599	14910.35526
638.799	15209.80056
638.999	14819.30617
639.199	14985.21709
639.399	14861.79589
639.599	14886.07561
639.799	14633.15674
639.999	14964.98421
640.199	14867.86583
640.399	14746.46594
640.599	14355.93843
640.799	14867.86583
640.998	14958.91434
641.198	15001.40336
641.398	14562.33686
641.598	15056.0319
641.798	15027.70601
641.997	15060.07845
642.197	14950.82118
642.397	15088.40429
642.597	14926.54165
642.796	15011.51977
642.996	14661.48432
643.196	15422.24524
643.395	15153.14897
643.595	15049.96207
643.795	14855.72595
643.994	15167.31187
644.194	14930.58824
644.394	15159.21879
644.593	14669.57788
644.793	15345.36012
644.992	15165.2886
645.192	15007.47321
645.392	14825.37615
645.591	15001.40336
645.791	15076.26464
645.99	14932.61154
646.19	15084.35774
646.389	15238.12637
646.589	15106.61374
646.788	15043.89224
646.987	14843.58604
647.187	14977.12394
647.386	14793.00286
647.586	15130.893
647.785	15143.03262
647.984	15290.73152
648.184	15037.8224
648.383	15230.03328
648.582	15197.66093
648.782	15549.71425
648.981	15029.72929
649.18	15341.31355
649.38	15367.61628
649.579	15414.15204
649.778	15051.98534
649.977	15489.01443
650.177	15228.01
650.376	15329.17385
650.575	15288.70824
650.774	15228.01
650.973	15189.56785
651.173	15505.201
651.372	15286.68497
651.571	15339.29026
651.77	15187.54457
651.969	15262.40565
652.168	15136.96281
652.367	15658.97554
652.566	15321.08072
652.765	15395.94237
652.964	15369.63957
653.163	15387.84919
653.362	15104.59047
653.561	15302.87119
653.76	15197.66093
653.959	15060.07845
654.158	15238.12637
654.357	15535.55091
654.556	15280.61514
654.755	15743.95826
654.954	15246.21946
655.153	15426.29184
655.352	15503.17767
655.551	15683.25615
655.749	15855.24789
655.948	15638.74179
656.147	15701.46669
656.346	15832.98969
656.545	15671.11583
656.743	15826.9193
656.942	15187.54457
657.141	15576.01769
657.34	15312.98759
657.538	15551.73759
657.737	15460.68804
657.936	15717.65391
658.135	15221.94019
658.333	15503.17767
658.532	15458.66473
658.731	15820.84892
658.929	15379.75602
659.128	15521.3876
659.326	15555.78426
659.525	15772.28622
659.724	15527.45758
659.922	15715.6305
660.121	15335.2437
660.319	15778.35652
660.518	15828.94276
660.716	15590.18113
660.915	15784.42684
661.113	15893.6942
661.312	15472.82791
661.51	15541.62091
661.709	15788.47372
661.907	15721.70072
662.105	15569.94765
662.304	15525.43425
662.502	15458.66473
662.701	15766.21593
662.899	15491.03775
663.097	15685.27954
663.296	15926.07039
663.494	15835.01316
663.692	15752.05194
663.891	15820.84892
664.089	15901.78822
664.287	15986.77665
664.485	15671.11583
664.684	15768.23936
664.882	15604.34461
665.08	15654.92878
665.278	15464.73466
665.476	15636.71842
665.675	15816.802
665.873	15624.57822
666.071	15584.11108
666.269	15576.01769
666.467	15345.36012
666.665	15711.58369
666.863	15379.75602
667.061	15687.30293
667.259	15739.91143
667.457	15820.84892
667.655	15727.77095
667.853	15377.73273
668.051	15567.92431
668.249	15660.99891
668.447	15373.68615
668.645	15592.20448
668.843	15853.22441
669.041	15517.34094
669.239	15276.56858
669.437	15468.78128
669.635	15474.85122
669.833	15478.89785
670.031	15563.87762
670.229	15752.05194
670.426	15580.06438
670.624	15828.94276
670.822	15559.83094
671.02	15919.99983
671.218	15772.28622
671.415	15942.25861
671.613	15794.54405
671.811	15885.6002
672.009	15521.3876
672.206	15739.91143
672.404	15329.17385
672.602	15331.19713
672.799	15602.32125
672.997	15533.52757
673.195	15456.64142
673.392	15424.26854
673.59	15244.19619
673.788	15246.21946
673.985	15347.38341
674.183	15440.45496
674.38	15333.22041
674.578	15594.22783
674.775	15491.03775
674.973	15478.89785
675.17	15302.87119
675.368	15466.75797
675.565	15402.01225
675.763	15298.82463
675.96	15426.29184
676.158	15656.95216
676.355	15357.49984
676.553	15723.72413
676.75	15337.26698
676.947	15559.83094
677.145	15161.24206
677.342	15357.49984
677.539	15343.33683
677.737	15895.7177
677.934	15766.21593
678.131	15484.9678
678.329	15290.73152
678.526	15278.59186
678.723	15436.40835
678.92	15752.05194
679.118	15800.61438
679.315	15748.0051
679.512	15225.98673
679.709	15327.15056
679.906	15167.31187
680.104	15369.63957
680.301	15108.63701
680.498	15045.91551
680.695	14795.0262
680.892	15114.70683
681.089	15138.98608
681.286	15278.59186
681.483	15294.77808
681.68	15353.45326
681.877	15280.61514
682.075	15489.01443
682.272	15021.63617
682.469	15260.38238
682.665	15011.51977
682.862	15110.66028
683.059	15072.2181
683.256	15256.33583
683.453	14898.21544
683.65	15169.33514
683.847	15234.07982
684.044	15203.73074
684.241	14813.23619
684.438	15193.61439
684.635	15060.07845
684.831	15248.24273
685.028	15084.35774
685.225	14898.21544
685.422	15076.26464
685.619	15047.93879
685.815	15076.26464
686.012	15102.5672
686.209	14750.51265
686.405	15070.19482
686.602	15029.72929
686.799	14942.72801
686.996	14708.02207
687.192	14578.52439
687.389	14576.50095
687.586	14871.91245
687.782	14908.33196
687.979	14869.88914
688.175	14726.23236
688.372	14829.42279
688.568	14497.58598
688.765	14857.74926
688.962	15005.44992
689.158	14902.26205
689.355	14845.60936
689.551	14752.536
689.748	14497.58598
689.944	14740.39588
690.14	14511.75034
690.337	15001.40336
690.533	14884.05231
690.73	14669.57788
690.926	14513.77382
691.123	14669.57788
691.319	14740.39588
691.515	14847.63268
691.712	14625.06311
691.908	14639.22695
692.104	14673.62465
692.301	14679.69481
692.497	14772.76947
692.693	14657.43754
692.889	14857.74926
693.086	14540.07889
693.282	14637.20355
693.478	14817.28284
693.674	14570.43063
693.87	14529.96158
694.067	14477.35105
694.263	14758.60605
694.459	14766.69944
694.655	15015.56633
694.851	14718.13891
695.047	15037.8224
695.243	14691.83508
695.439	14631.13333
695.635	14584.59469
695.831	14404.50413
696.027	14147.49902
696.224	14068.56976
696.42	14366.05636
696.615	14600.78211
696.811	14200.11672
697.007	14104.99907
697.203	14058.45038
697.399	14248.6857
697.595	14272.96978
697.791	14489.49202
697.987	14446.9984
698.183	14671.60127
698.379	14519.84424
698.575	14552.21962
698.77	14121.18964
698.966	14171.78429
699.162	14149.52281
699.358	14092.85605
699.554	13991.66096
699.749	14283.08806
699.945	14015.94833
700.141	14412.59833
700.337	14189.99804
700.532	14098.92757
700.728	13953.20523
700.924	13949.15721
701.119	14019.99619
701.315	14086.78451
701.511	13910.70045
701.706	14254.75674
701.902	14104.99907
702.097	14254.75674
702.293	14242.61464
702.489	14432.83372
702.684	14161.66546
702.88	14236.54356
703.075	14218.33022
703.271	13924.86884
703.466	13872.24272
703.662	14224.40135
703.857	14252.73306
704.053	14121.18964
704.248	14123.21345
704.443	14001.78074
704.639	14189.99804
704.834	14438.9043
705.03	14109.04673
705.225	14123.21345
705.42	14056.4265
705.616	14234.51986
705.811	13839.85649
706.006	13914.74857
706.202	13872.24272
706.397	14007.85258
706.592	13995.70888
706.787	14392.36279
706.983	14125.23726
707.178	14272.96978
707.373	14098.92757
707.568	14327.60799
707.763	14141.42766
707.959	14252.73306
708.154	14084.76066
708.349	13985.58907
708.544	13975.46919
708.739	14082.7368
708.934	13799.37268
709.129	13997.73284
709.324	13849.97727
709.519	14123.21345
709.714	13683.9872
709.909	13963.32525
710.104	13564.54203
710.299	13775.08182
710.494	13730.54746
710.689	13712.32843
710.884	13625.27833
711.079	13953.20523
711.274	13461.28294
711.469	13934.98904
711.664	13532.14804
711.859	13764.96051
712.054	13536.19734
712.249	13852.00141
712.443	13635.40075
712.638	13769.00904
712.833	13434.96044
713.028	13882.36327
713.223	13663.74308
713.417	13793.3
713.612	13542.27126
713.807	14064.52202
714.002	13827.71147
714.196	13854.02555
714.391	13856.0497
714.586	13605.03324
714.78	13362.06393
714.975	13683.9872
715.17	13477.48108
715.364	13598.95965
715.559	13633.37627
715.754	13432.93561
715.948	13351.939
716.143	13556.44362
716.337	13169.67223
716.532	13718.40147
716.726	13627.30282
716.921	13560.49283
717.115	13353.964
717.31	13548.34515
717.504	13459.25816
717.699	13483.55532
717.893	13364.0889
718.088	13279.03648
718.282	13216.25488
718.476	13455.20858
718.671	13208.15372
718.865	13426.86108
719.059	13270.93586
719.254	13542.27126
719.448	13110.93413
719.642	13264.86035
719.837	12999.52326
720.031	13250.68402
720.225	13078.52521
720.419	13222.3307
720.614	13299.28773
720.808	13501.77784
721.002	13086.62755
721.196	13108.90861
721.39	12845.54846
721.585	13315.48842
721.779	13046.11506
721.973	13198.02717
722.167	12981.29097
722.361	13151.44358
722.555	13064.34592
722.749	13159.54525
722.943	12948.87698
723.137	13074.47401
723.331	13238.5327
723.525	13210.17901
723.719	13220.30543
723.913	13226.38123
724.107	12995.47168
724.301	12792.86576
724.495	13068.39717
724.689	13123.08716
724.883	12651.00859
725.077	12811.1025
725.271	12762.47017
725.465	13031.93522
725.659	12750.31158
725.853	12616.55319
726.046	12669.24898
726.24	12600.33828
726.434	12687.48888
726.628	12965.08414
726.822	12401.6727
727.015	13029.90951
727.209	12819.20758
727.403	12736.1263
727.596	12632.76772
727.79	12849.60082
727.984	12541.5559
728.177	13035.98663
728.371	12764.49658
728.565	12685.46225
728.758	12760.44375
728.952	12877.96674
729.146	12703.70173
729.339	12861.75778
729.533	12655.06205
729.726	12713.83456
729.92	12519.25774
730.113	12655.06205
730.307	12553.7182
730.5	12827.31256
730.694	12950.9029
730.887	12592.23068
731.081	12725.99378
731.274	13038.01233
731.468	12306.3717
731.661	12845.54846
731.854	12756.3909
732.048	12788.81309
732.241	12667.22229
732.435	12845.54846
732.628	12707.75488
732.821	12752.33803
733.014	12405.72773
733.208	12565.88028
733.401	12553.7182
733.594	12456.41332
733.788	12576.01517
733.981	12871.88842
734.174	13196.00184
734.367	12819.20758
734.56	12624.6605
734.754	12794.89208
734.947	12800.97103
735.14	12600.33828
735.333	12930.64354
735.526	12811.1025
735.719	12328.67756
735.912	12498.98603
736.105	12665.1956
736.298	12598.31139
736.491	12653.03532
736.684	12679.38232
736.877	12604.39205
737.07	12626.68732
737.263	12594.25759
737.456	12626.68732
737.649	12561.82628
737.842	12350.98257
738.035	12387.4799
738.228	12346.92718
738.421	12655.06205
738.614	12529.39336
738.807	12752.33803
739	12632.76772
739.192	12229.30853
739.385	12490.87716
739.578	12338.81631
739.771	12444.24915
739.964	12024.43094
740.156	12525.33913
740.349	12430.05733
740.542	12348.95488
740.735	12296.2324
740.927	12614.52635
741.12	12460.46798
741.313	12259.72943
741.505	12464.52263
741.698	12225.25228
741.891	12290.14873
742.083	12387.4799
742.276	12275.95326
742.468	12444.24915
742.661	12255.67341
742.854	12399.64518
743.046	12012.25753
743.239	12257.70142
743.431	12198.88599
743.624	12219.16786
743.816	12190.77304
744.009	12241.47709
744.201	12419.92011
744.393	12058.92073
744.586	11927.03562
744.778	12231.33664
744.971	11898.62514
745.163	12091.37966
745.355	12357.06562
745.548	12073.12175
745.74	12093.40828
745.932	12241.47709
746.125	12146.14967
746.317	12265.81342
746.509	12083.26511
746.702	12209.02702
746.894	12225.25228
747.086	12016.31536
747.278	11896.59576
747.471	12012.25753
747.663	11914.8599
747.855	12115.72257
748.047	11894.56637
748.239	12235.39284
748.431	12044.71932
748.623	12186.71651
748.815	11758.57809
749.008	11985.88083
749.2	11937.18183
749.392	11904.71323
749.584	11967.61925
749.776	12152.23488
749.968	11935.1526
750.16	11851.94726
750.352	11650.97773
750.544	11600.21411
750.736	11860.06547
750.928	11933.12337
751.12	11811.35418
751.311	11902.68388
751.503	11851.94726
751.695	11797.14581
751.887	11851.94726
752.079	11904.71323
752.271	11734.21791
752.463	11825.56214
752.654	11786.99671
752.846	12178.60338
753.038	11843.82891
753.23	11752.48816
753.421	11476.32656
753.613	11498.66953
753.805	11616.45909
753.997	11490.54495
754.188	11653.00816
754.38	11590.06069
754.572	11622.5508
754.763	11754.51815
754.955	11427.57424
755.146	11839.76969
755.338	11541.3211
755.53	11464.139
755.721	11397.10119
755.913	11413.35376
756.104	11518.98032
756.296	11655.03858
756.487	11791.05637
756.679	11699.7055
756.87	11445.85701
757.062	11502.73176
757.253	11610.36729
757.445	11754.51815
757.636	11539.29017
757.827	11460.07641
758.019	11512.88718
758.21	11626.6119
758.401	11600.21411
758.593	11630.67296
758.784	11468.20156
758.975	11057.68024
759.167	11173.5632
759.358	11155.2682
759.549	11057.68024
759.74	11165.4322
759.932	11269.09
760.123	11136.97234
760.314	11025.14536
760.505	11104.44423
760.696	11153.23537
760.888	11395.06958
761.079	10968.20252
761.27	11293.47616
761.461	10968.20252
761.652	11348.33971
761.843	11029.21238
762.034	10980.40529
762.225	10838.01422
762.416	11112.57652
762.607	10709.81357
762.798	10905.1484
762.989	10935.65982
763.18	10779.00706
763.371	10551.0225
763.562	10738.30668
763.753	10532.69559
763.944	11075.97988
764.135	10998.7087
764.326	11057.68024
764.517	10813.59866
764.708	10862.4281
764.899	10675.21162
765.089	10854.29033
765.28	10699.63689
765.471	10724.06042
765.662	10461.41451
765.853	10571.38454
766.043	10316.76702
766.234	10872.60006
766.425	10453.2671
766.615	10589.7093
766.806	10738.30668
766.997	10673.1761
767.187	10355.48199
767.378	10212.82394
767.569	10090.49234
767.759	10147.58664
767.95	10061.94106
768.141	10227.09272
768.331	10216.9008
768.522	10404.37831
768.712	10339.18154
768.903	10654.85589
769.093	10353.44448
769.284	10428.82364
769.474	10363.6319
769.665	10398.26668
769.855	10257.66644
770.046	9990.55066
770.236	10057.86208
770.426	10441.0456
770.617	10280.08523
770.807	10216.9008
770.998	10078.25642
771.188	10261.74271
771.378	9892.61508
771.569	9957.90919
771.759	10017.06914
771.949	10151.66439
772.139	10282.12323
772.33	9959.94939
772.52	10125.15804
772.71	10023.18845
772.9	9959.94939
773.09	9898.73704
773.281	10012.98953
773.471	9878.32999
773.661	9906.89945
773.851	10104.76695
774.041	9721.14573
774.231	9866.08505
774.421	9616.98699
774.611	9502.56978
774.802	9437.1661
774.992	9621.0724
775.182	9588.38732
775.372	9580.21542
775.562	9482.1329
775.752	9710.93586
775.942	9610.85874
776.131	9347.20892
776.321	9437.1661
776.511	9813.01747
776.701	9490.30785
776.891	9706.8518
777.081	9375.83509
777.271	9516.87465
777.461	9328.80467
777.651	9621.0724
777.84	9488.26413
778.03	9518.91814
778.22	9326.75967
778.41	9698.68351
778.599	9253.12866
778.789	9578.17241
778.979	9469.87
779.169	9388.10246
779.358	9349.25375
779.548	9490.30785
779.738	9091.47292
779.927	9377.87969
780.117	9408.54678
780.307	9253.12866
780.496	9118.08182
780.686	9269.49298
780.875	9077.14384
781.065	9228.58018
781.254	8831.36876
781.444	9240.85472
781.633	8921.51592
781.823	9122.17524
782.012	9150.82726
782.202	9156.96654
782.391	9007.53335
782.581	9138.54823
782.77	8948.14369
782.96	9302.2184
783.149	8997.29481
783.338	8872.34904
783.528	8728.88634
783.717	8987.05583
783.906	8849.81078
784.096	8876.44667
784.285	8796.52984
784.474	8839.56539
784.663	8886.69044
784.853	8933.80603
785.042	8884.64172
785.231	8831.36876
785.42	8835.46711
785.61	8778.08358
785.799	8517.62705
785.988	8819.07327
786.177	8517.62705
786.366	8581.23082
786.555	8675.57739
786.744	8373.9383
786.933	8271.24547
787.122	8646.86739
787.312	8525.83501
787.501	8468.37291
787.69	8359.56424
787.879	8583.28226
788.068	8345.18922
788.257	8482.73983
788.445	8310.2745
788.634	8653.01984
788.823	8511.47088
789.012	8732.98651
789.201	8724.78609
789.39	8454.00505
789.579	8330.81325
789.768	8402.68358
789.957	8164.39279
790.145	8334.92077
790.334	8277.40842
790.523	8197.27624
790.712	8211.66116
790.9	8125.33705
791.089	8123.28129
791.278	8519.67907
791.467	8080.10558
791.655	8363.67121
791.844	8250.70103
792.033	8135.61558
792.221	7866.15103
792.41	8199.33129
792.599	8199.33129
792.787	8043.09076
792.976	8125.33705
793.164	8133.55991
793.353	8028.69433
793.541	8137.67122
793.73	7892.90748
793.918	8137.67122
794.107	7966.98408
794.295	7946.40992
794.484	7796.15607
794.672	8038.97759
794.861	7816.74532
795.049	8008.12629
795.238	7800.27408
795.426	7800.27408
795.614	7808.50987
795.803	7849.68379
795.991	7899.08154
796.179	7849.68379
796.368	7913.48698
796.556	7964.92676
796.744	7478.81515
796.932	7709.65837
797.121	7637.54857
797.309	7874.38415
797.497	7668.45594
797.685	7666.3956
797.874	7637.54857
798.062	7709.65837
798.25	7586.02565
798.438	7862.03434
798.626	7851.74226
798.814	7571.59685
799.002	7573.65817
799.19	8020.46736
799.378	7524.18053
799.566	8113.00216
799.755	7449.94084
799.943	7874.38415
800.131	7859.97597
800.318	7783.80151
800.506	7255.95997
800.694	7400.43213
800.882	7464.37853
801.07	7950.52491
801.258	7464.37853
801.446	7857.91757
801.634	7647.85156
801.822	7705.5385
802.01	7614.88013
802.197	7759.09015
802.385	7416.93643
802.573	7952.58238
802.761	7555.1055
802.949	7561.28992
803.136	7491.18856
803.324	7639.60921
803.512	7214.66243
803.699	7286.92733
803.887	7117.57832
804.075	7505.62323
804.262	7441.69026
804.45	7637.54857
804.638	7183.68347
804.825	7610.75832
805.013	7373.60969
805.201	7462.31606
805.388	7268.34751
805.576	7929.94911
805.763	7843.50823
805.951	7966.98408
806.138	7553.04399
806.326	7567.47414
806.513	7515.93305
806.701	7485.00195
806.888	7505.62323
807.075	7569.53551
807.263	7371.54627
807.45	7684.93793
807.638	7340.59239
807.825	7534.48939
808.012	7474.69051
808.2	7497.37498
808.387	7612.81923
808.574	7538.61278
808.761	7540.67445
808.949	7619.00185
809.136	7581.90325
809.323	7660.21444
809.51	7590.14798
809.698	7569.53551
809.885	7730.25642
810.072	7775.56473
810.259	7478.81515
810.446	7396.30584
810.633	7528.30414
810.82	7728.19671
811.008	7503.5612
811.195	7711.71827
811.382	7670.51627
811.569	7598.39237
811.756	7439.62756
811.943	7767.32761
812.13	7447.87823
812.317	7752.91184
812.504	7555.1055
812.691	7824.98043
812.878	7336.46484
813.064	7668.45594
813.251	7487.06418
813.438	7812.62763
813.625	7586.02565
813.812	7606.63642
813.999	7233.24741
814.186	7553.04399
814.372	7355.03815
814.559	7678.75734
814.746	7447.87823
814.933	7596.3313
815.12	7458.19107
815.306	7458.19107
815.493	7262.15384
815.68	7586.02565
815.866	7251.83061
816.053	7346.78356
816.24	7222.92264
816.426	7623.12349
816.613	7565.41275
816.799	7783.80151
816.986	7569.53551
817.173	7654.0331
817.359	7575.71947
817.546	7489.12638
817.732	7392.17947
817.919	7520.05684
818.105	7295.18446
818.292	7342.65614
818.478	7208.46703
818.665	7311.69767
818.851	7090.71659
819.037	7363.29239
819.224	7218.79258
819.41	7251.83061
819.597	7361.22886
819.783	7379.79981
819.969	7105.18107
820.156	7392.17947
820.342	7264.21842
820.528	7433.43933
820.714	7253.8953
820.901	7794.09703
821.087	7542.73609
821.273	7478.81515
821.459	7410.74748
821.646	7557.167
821.832	7447.87823
822.018	7416.93643
822.204	7036.98179
822.39	7503.5612
822.576	7185.74889
822.762	7206.40186
822.948	7001.8393
823.134	7276.60543
823.32	7189.87966
823.507	7322.0177
823.693	6995.63701
823.879	7074.18442
824.065	7049.38348
824.25	7379.79981
824.436	7111.3798
824.622	7142.37042
824.808	7229.11757
824.994	7260.08924
825.18	7109.31358
825.366	6836.3753
825.552	6954.28323
825.738	7059.7176
825.923	6710.1112
826.109	6902.57829
826.295	6770.149
826.481	7125.84271
826.667	6836.3753
826.852	7041.11578
827.038	6966.69031
827.224	7049.38348
827.409	6811.54318
827.595	7028.71356
827.781	6898.44129
827.966	6929.46662
828.152	6826.02898
828.338	6966.69031
828.523	6575.47354
828.709	6861.20415
828.894	6681.12054
829.08	6828.09829
829.266	6326.65474
829.451	6645.91153
829.637	6401.33555
829.822	6602.40886
830.008	6598.26522
830.193	6469.76644
830.378	6453.17946
830.564	6594.12149
830.749	6538.17203
830.935	6554.75141
831.12	6420.00103
831.305	6792.91693
831.491	6264.39761
831.676	6432.44364
831.861	6285.15232
832.047	6560.96829
832.232	6347.40244
832.417	6505.00884
832.602	6337.02888
832.788	6399.26149
832.973	6457.32634
833.158	6366.07338
833.343	6146.05097
833.528	6579.61769
833.714	6189.66123
833.899	6270.62427
834.084	6206.27194
834.269	6303.82957
834.454	6281.00157
834.639	6123.20337
834.824	6216.65287
835.009	6307.97981
835.194	6191.73765
835.379	6492.57111
835.564	6214.57673
835.749	6415.85331
835.934	6079.57732
836.119	6320.42997
836.304	5921.6058
836.489	6175.12563
836.674	6158.5121
836.859	6353.6263
837.044	5921.6058
837.228	6222.88115
837.413	5936.1615
837.598	6195.89042
837.783	6019.31477
837.968	6175.12563
838.152	5923.68525
838.337	6040.0972
838.522	5857.13095
838.707	5932.00284
838.891	5757.25417
839.076	5950.71604
839.261	5890.41112
839.445	6067.11083
839.63	5892.49093
839.815	5971.50625
839.999	5742.68427
840.184	6073.34418
840.368	5904.9693
840.553	5988.13671
840.737	5686.47523
840.922	5742.68427
841.106	5671.8997
841.291	5855.05073
841.475	5684.39308
841.66	5815.52223
841.844	5565.67172
842.029	5707.2954
842.213	5565.67172
842.397	5738.52123
842.582	5551.08663
842.766	5751.01007
842.951	5494.81901
843.135	5751.01007
843.319	5357.20376
843.504	5430.19429
843.688	5530.24877
843.872	5715.6228
844.056	5592.75527
844.241	5792.63342
844.425	5549.00295
844.609	5559.42111
844.793	5280.0111
844.977	5407.25751
845.161	5290.44441
845.346	5461.46714
845.53	5183.99721
845.714	5238.272
845.898	5204.87399
846.082	5434.36431
846.266	5211.13657
846.45	5338.43012
846.634	5140.14837
846.818	5254.96876
847.002	5106.73286
847.186	5403.08688
847.37	5158.94199
847.554	5250.79471
847.738	5008.54046
847.922	5213.22405
848.106	5064.95511
848.29	5161.03005
848.473	5087.93402
848.657	5048.24141
848.841	5031.52624
849.025	5156.8539
849.209	4979.28179
849.392	5069.1333
849.576	5037.7946
849.76	4912.38789
849.944	4964.65076
850.127	5115.08729
850.311	4770.16054
850.495	5035.70517
850.678	4602.7001
850.862	5012.7199
851.046	4793.17504
851.229	5096.28929
851.413	4690.63479
851.596	4975.10161
851.78	4694.82117
851.964	4991.82177
852.147	4738.77269
852.331	4883.11442
852.514	4661.32763
852.698	4805.72725
852.881	4598.51175
853.065	4745.05067
853.248	4678.07512
853.431	4866.38471
853.615	4812.00305
853.798	4780.62202
853.982	4550.33931
854.165	4604.79425
854.348	4468.6288
854.532	4701.10057
854.715	4598.51175
854.898	4841.2874
855.081	4512.63095
855.265	4648.76606
855.448	4175.03602
855.631	4382.69196
855.814	4462.34199
855.997	4510.53583
856.181	4347.04886
856.364	4481.20184
856.547	4212.80723
856.73	4652.95334
856.913	4246.37586
857.096	4571.2853
857.279	4447.67199
857.462	4661.32763
857.645	4493.77408
857.828	4667.6081
858.011	4428.80898
858.194	4590.13478
858.377	4393.17403
858.56	4477.01091
858.743	4368.01615
858.926	4382.69196
859.109	3939.86322
859.292	4149.85141
859.475	4160.34537
859.658	4342.85514
859.841	3897.84103
860.023	4124.66378
860.206	4040.68331
860.389	4151.95025
860.572	3832.6908
860.755	4004.98158
860.937	3885.2328
861.12	3914.65087
861.303	3746.49519
861.486	4028.08338
861.668	3902.04361
861.851	4141.45587
862.034	3897.84103
862.216	4074.27949
862.399	3782.23883
862.581	3977.67626
862.764	3677.09451
862.947	3981.87731
863.129	3527.70788
863.312	3843.20019
863.494	3784.34122
863.677	3763.31643
863.859	3666.57743
864.042	3847.40381
864.224	3414.02776
864.406	3662.37047
864.589	3588.73634
864.771	3767.52155
864.954	3378.22878
865.136	3765.419
865.318	3456.13763
865.501	3603.46501
865.683	3302.40252
865.865	3721.26101
866.048	3561.38068
866.23	3384.54662
866.412	3479.29501
866.594	3540.33573
866.777	3363.48655
866.959	3519.28894
867.141	3502.45019
867.323	3527.70788
867.505	3359.27433
867.687	3527.70788
867.869	3275.01534
868.052	3569.79814
868.234	3306.61568
868.416	3574.00676
868.598	3435.08359
868.78	3649.74912
868.962	3536.12652
869.144	3580.31955
869.326	3487.71533
869.508	3653.95631
869.69	3302.40252
869.872	3451.92697
870.054	3300.29592
870.236	3325.57403
870.417	3350.84967
870.599	3251.83934
870.781	3157.00742
870.963	3392.97015
871.145	3131.71331
871.327	3443.50542
871.508	3178.08406
871.69	3536.12652
871.872	3260.26721
872.054	3506.65999
872.235	3161.22288
872.417	3249.73232
872.599	2956.70045
872.78	3317.14827
872.962	3036.84003
873.144	3357.16819
873.325	3038.94867
873.507	3321.36119
873.689	3218.12516
873.87	3352.95586
874.052	2975.68285
874.233	3237.08991
874.415	3045.2745
874.596	3405.60493
874.778	3131.71331
874.959	3260.26721
875.141	3114.84929
875.322	3460.34823
875.503	3055.81723
875.685	3260.26721
875.866	3169.6536
876.048	3182.29919
876.229	3028.40532
876.41	3228.6613
876.592	3013.64399
876.773	3218.12516
876.954	2967.24637
877.136	3102.20061
877.317	3009.42633
877.498	3300.29592
877.679	3072.68479
877.86	3275.01534
878.042	3192.83673
878.223	3228.6613
878.404	2912.40352
878.585	3049.49164
878.766	2973.57375
878.947	3317.14827
879.128	3064.25113
879.309	3152.7919
879.49	3121.17342
879.672	3159.11516
879.853	3256.05331
880.034	3266.58794
880.215	2982.01004
880.396	3066.35957
880.576	2952.48197
880.757	3173.86886
880.938	3152.7919
881.119	3350.84967
881.3	3275.01534
881.481	3245.51825
881.662	3017.86159
881.843	3190.72926
882.023	3070.5764
882.204	3190.72926
882.385	2887.0881
882.566	3224.44689
882.747	3095.87605
882.927	3148.57631
883.108	3083.22651
883.289	3287.65594
883.469	3085.3348
883.65	3192.83673
883.831	2996.77297
884.011	3414.02776
884.192	3310.82877
884.373	3329.78681
884.553	3157.00742
884.734	3281.33571
884.914	3144.36066
885.095	3312.93529
885.275	3026.29661
885.456	3329.78681
885.636	3007.31747
885.817	3144.36066
885.997	2994.66403
886.178	3430.87257
886.358	3165.43827
886.538	3401.39341
886.719	3085.3348
886.899	3275.01534
887.08	3165.43827
887.26	3264.48105
887.44	3190.72926
887.621	3401.39341
887.801	3005.2086
887.981	3464.55875
888.161	3291.86933
888.342	3350.84967
888.522	3291.86933
888.702	3382.44069
888.882	3275.01534
889.062	3363.48655
889.242	3342.42473
889.423	3403.49918
889.603	2977.79193
889.783	3388.75842
889.963	3154.89967
890.143	3262.37414
890.323	3089.55135
890.503	3213.91059
890.683	2963.02805
890.863	3173.86886
891.043	3043.1659
891.223	3060.03421
891.403	3108.52502
891.583	3411.92208
891.763	3064.25113
891.943	3325.57403
892.122	2906.07486
892.302	3275.01534
892.482	2973.57375
892.662	3207.5886
892.842	2760.48048
893.022	3152.7919
893.201	2844.89114
893.381	3087.44308
893.561	2802.68856
893.741	3110.63313
893.92	2893.41715
894.1	3161.22288
894.28	2971.46464
894.459	2944.04484
894.639	2667.60399
894.819	2863.88047
894.998	2743.59574
895.178	3102.20061
895.357	2646.49222
895.537	2973.57375
895.716	2821.68041
895.896	3030.51402
896.075	2821.68041
896.255	2914.51304
896.434	2699.26927
896.614	2857.55082
896.793	2697.15834
896.973	2984.11908
897.152	2855.44091
897.331	2958.80966
897.511	2754.1488
897.69	2819.57026
897.87	2771.03301
898.049	2735.15305
898.228	2730.93162
898.407	2659.15944
898.587	2612.71079
898.766	2709.82371
898.945	2593.70736
899.124	2714.0454
899.304	2591.5958
899.483	2616.93365
899.662	2524.01982
899.841	2762.59101
900.02	2304.3197
900.199	2720.37783
900.378	2405.73387
900.557	2602.15345
900.737	2540.91494
900.916	2671.8262
901.095	2450.09512
901.274	2519.79592
901.453	2333.9012
901.632	2388.83312
901.811	2181.74854
901.989	2323.33659
902.168	2124.67973
902.347	2500.78782
902.526	2198.65666
902.705	2420.52147
902.884	2194.42968
903.063	2363.48077
903.242	2255.71751
903.42	2331.7883
903.599	2109.88318
903.778	2219.79105
903.957	1923.83999
904.135	2054.92133
904.314	1909.03901
904.493	2310.65875
904.672	1997.84054
904.85	2122.56596
905.029	2143.70332
905.207	2029.5527
905.386	2016.86801
905.565	2116.22461
905.743	1851.94711
905.922	1830.80103
906.1	1716.60489
906.279	1957.66973
906.457	1653.1582
906.636	1801.19576
906.814	1644.69846
906.993	1881.55079
907.171	1729.2939
907.35	1788.50753
907.528	1672.19248
907.707	1796.96637
907.885	1445.88693
908.063	1851.94711
908.242	1361.2852
908.42	1608.74413
908.598	1445.88693
908.777	1670.07757
908.955	1560.09916
909.133	1788.50753
909.311	1382.43552
909.49	1737.75316
909.668	1401.47089
909.846	1674.30739
910.024	1477.6127
910.202	1598.16922
910.38	1439.54177
910.559	1577.01925
910.737	1568.55921
910.915	1606.62915
911.093	1509.33841
911.271	1703.91577
911.449	1560.09916
911.627	1604.51417
911.805	1551.63908
911.983	1822.34247
912.161	1549.52405
912.339	1625.66389
912.517	1405.70098
912.695	1729.2939
912.872	1519.91361
913.05	1780.04862
913.228	1551.63908
913.406	1722.94941
913.584	1577.01925
913.762	1577.01925
913.939	1560.09916
914.117	1746.21237
914.295	1627.77886
914.473	1646.8134
914.65	1532.60383
914.828	1676.42229
915.006	1581.24925
915.184	1638.35363
915.361	1450.11703
915.539	1686.99676
915.716	1390.89568
915.894	1585.47925
916.072	1376.09041
916.249	1585.47925
916.427	1469.1525
916.604	1538.94892
916.782	1435.31167
916.959	1610.85911
917.137	1433.19661
917.314	1517.79857
917.492	1365.51526
917.669	1492.41805
917.847	1433.19661
918.024	1390.89568
918.201	1263.99572
918.379	1530.48879
918.556	1232.27191
918.733	1458.57724
918.911	1255.53598
919.088	1426.85146
919.265	1141.33439
919.442	1331.67496
919.62	1124.41658
919.797	1335.90498
919.974	1088.46722
920.151	1405.70098
920.328	1179.40043
920.506	1433.19661
920.683	1344.36503
920.86	1454.34714
921.037	1283.03028
921.214	1416.27622
921.391	1145.56388
921.568	1234.38681
921.745	1082.12336
921.922	1225.92723
922.099	1137.10491
922.276	1414.16117
922.453	1137.10491
922.63	1189.97456
922.807	986.97151
922.984	1179.40043
923.161	1003.88651
923.338	1141.33439
923.514	1018.68746
923.691	1156.1377
923.868	978.51417
924.045	1022.91636
924.222	972.17123
924.399	1221.69745
924.575	1027.14528
924.752	1145.56388
924.929	1054.63385
925.105	1103.26973
925.282	889.71896
925.459	1122.30187
925.635	997.54333
925.812	1052.51931
925.989	874.92107
926.165	984.85717
926.342	921.43002
926.518	1086.35259
926.695	893.947
926.871	891.83297
927.048	832.64368
927.224	841.09888
927.401	745.98656
927.577	843.21271
927.754	792.48349
927.93	917.20178
928.107	714.28698
928.283	758.66706
928.459	686.81598
928.636	830.52991
928.812	718.51345
928.988	841.09888
929.165	722.73996
929.341	925.6583
929.517	657.23398
929.693	741.75982
929.87	705.83416
930.046	777.68849
930.222	581.17689
930.398	684.7029
930.574	631.87982
930.751	697.38152
930.927	598.07705
931.103	680.47679
931.279	549.49137
931.455	703.72099
931.631	595.96448
931.807	663.57279
931.983	581.17689
932.159	589.62687
932.335	568.50232
932.511	555.82823
932.687	469.23549
932.863	604.41482
933.039	435.44996
933.215	598.07705
933.391	401.66845
933.566	583.28936
933.742	454.45383
933.918	591.73939
934.094	410.11344
934.27	488.24157
934.445	384.77926
934.621	435.44996
934.797	393.22373
934.973	473.45896
935.148	327.78622
935.324	420.67004
935.5	308.79138
935.675	363.66927
935.851	304.5705
936.027	359.44748
936.202	294.01862
936.378	361.55837
936.553	285.57744
936.729	291.9083
936.904	218.05892
937.08	308.79138
937.255	232.82691
937.431	287.68771
937.606	224.38794
937.782	177.9793
937.957	173.76082
938.133	150.56067
938.308	156.88773
938.483	163.21498
938.659	243.37606
938.834	163.21498
939.009	165.32411
939.185	93.62577
939.36	85.19233
939.535	76.75925
939.71	148.45169
939.886	114.71092
940.061	72.54284
940.236	97.84262
940.411	110.49372
940.586	131.58062
940.761	114.71092
940.937	190.63523
941.112	97.84262
941.287	89.40901
941.462	66.2184
941.637	102.05957
941.812	116.81956
941.987	144.23379
942.162	140.01598
942.337	87.30066
942.512	135.79826
942.687	47.24632
942.862	91.51738
943.037	49.35423
943.212	95.73419
943.386	127.36306
943.561	64.1103
943.736	55.67812
943.911	106.2766
944.086	89.40901
944.26	72.54284
944.435	118.92822
944.61	76.75925
944.785	192.74463
944.959	123.1456
945.134	13.52282
945.309	106.2766
945.483	57.78613
945.658	114.71092
945.833	59.89417
946.007	106.2766
946.182	76.75925
946.357	148.45169
946.531	123.1456
946.706	106.2766
946.88	72.54284
947.055	70.43467
947.229	21.95313
947.404	51.46218
947.578	49.35423
947.752	140.01598
947.927	21.95313
948.101	97.84262
948.276	32.49155
948.45	154.77869
948.624	43.03055
948.799	21.95313
948.973	89.40901
949.147	32.49155
949.321	110.49372
949.496	97.84262
949.67	68.32652
949.844	80.97574
950.018	47.24632
950.193	51.46218
950.367	38.81488
950.541	173.76082
950.715	80.97574
950.889	21.95313
951.063	87.30066
951.237	156.88773
951.411	72.54284
951.585	89.40901
951.759	118.92822
951.933	125.25432
952.107	-28.62294
952.281	11.4153
952.455	142.12488
952.629	26.16843
952.803	30.38382
952.977	106.2766
953.151	108.38515
953.325	93.62577
953.499	146.34273
953.672	158.99679
953.846	114.71092
954.02	150.56067
954.194	131.58062
954.368	118.92822
954.541	64.1103
954.715	97.84262
954.889	80.97574
955.062	99.95108
955.236	49.35423
955.41	140.01598
955.583	68.32652
955.757	76.75925
955.93	188.52586
956.104	34.5993
956.278	13.52282
956.451	99.95108
956.625	110.49372
956.798	91.51738
956.972	97.84262
957.145	51.46218
957.319	121.0369
957.492	74.65103
957.665	125.25432
957.839	129.47183
958.012	51.46218
958.185	64.1103
958.359	150.56067
958.532	150.56067
958.705	80.97574
958.879	91.51738
959.052	64.1103
959.225	83.08402
959.398	93.62577
959.572	116.81956
959.745	140.01598
959.918	38.81488
960.091	13.52282
960.264	129.47183
960.438	74.65103
960.611	51.46218
960.784	114.71092
960.957	83.08402
961.13	144.23379
961.303	85.19233
961.476	99.95108
961.649	43.03055
961.822	118.92822
961.995	165.32411
962.168	47.24632
962.341	140.01598
962.514	40.92271
962.686	49.35423
962.859	64.1103
963.032	118.92822
963.205	40.92271
963.378	118.92822
963.551	116.81956
963.723	127.36306
963.896	89.40901
964.069	131.58062
964.242	64.1103
964.414	38.81488
964.587	30.38382
964.76	125.25432
964.932	93.62577
965.105	102.05957
965.278	32.49155
965.45	30.38382
965.623	80.97574
965.795	118.92822
965.968	156.88773
966.14	114.71092
966.313	11.4153
966.485	97.84262
966.658	91.51738
966.83	26.16843
967.003	106.2766
967.175	55.67812
967.348	74.65103
967.52	62.00222
967.692	76.75925
967.865	89.40901
968.037	93.62577
968.209	40.92271
968.382	40.92271
968.554	110.49372
968.726	80.97574
968.898	140.01598
969.071	95.73419
969.243	76.75925
969.415	127.36306
969.587	49.35423
969.759	72.54284
969.932	59.89417
970.104	68.32652
970.276	47.24632
970.448	76.75925
970.62	74.65103
970.792	137.90711
970.964	51.46218
971.136	47.24632
971.308	55.67812
971.48	30.38382
971.652	45.13842
971.824	43.03055
971.996	64.1103
972.168	45.13842
972.339	108.38515
972.511	59.89417
972.683	74.65103
972.855	57.78613
973.027	34.5993
973.199	64.1103
973.37	80.97574
973.542	57.78613
973.714	83.08402
973.886	55.67812
974.057	30.38382
974.229	131.58062
974.401	78.86748
974.572	24.06077
974.744	59.89417
974.915	74.65103
975.087	-41.26476
975.259	57.78613
975.43	21.95313
975.602	114.71092
975.773	40.92271
975.945	45.13842
976.116	21.95313
976.288	72.54284
976.459	34.5993
976.63	184.30718
976.802	47.24632
976.973	99.95108
977.145	72.54284
977.316	55.67812
977.487	-9.65855
977.659	114.71092
977.83	30.38382
978.001	-43.37164
978.172	83.08402
978.344	43.03055
978.515	34.5993
978.686	26.16843
978.857	78.86748
979.028	-15.98024
979.2	68.32652
979.371	55.67812
979.542	116.81956
979.713	-18.08741
979.884	78.86748
980.055	15.63036
980.226	38.81488
980.397	-20.19457
980.568	57.78613
980.739	93.62577
980.91	38.81488
981.081	-28.62294
981.252	85.19233
981.423	83.08402
981.594	-7.55127
981.765	-37.05092
981.936	7.20034
982.106	26.16843
982.277	40.92271
982.448	74.65103
982.619	55.67812
982.79	55.67812
982.96	80.97574
983.131	47.24632
983.302	89.40901
983.472	38.81488
983.643	97.84262
983.814	-9.65855
983.984	-30.72997
984.155	64.1103
984.326	-62.33245
984.496	-49.69214
984.667	43.03055
984.837	26.16843
985.008	17.73793
985.178	70.43467
985.349	34.5993
985.519	9.30781
985.69	55.67812
985.86	32.49155
986.031	32.49155
986.201	5.09289
986.371	26.16843
986.542	66.2184
986.712	19.84552
986.882	-53.90568
987.053	26.16843
987.223	5.09289
987.393	0.87808
987.563	5.09289
987.734	0.87808
987.904	38.81488
988.074	21.95313
988.244	15.63036
988.414	0.87808
988.585	-11.7658
988.755	49.35423
988.925	-18.08741
989.095	72.54284
989.265	40.92271
989.435	-96.03546
989.605	-51.79892
989.775	9.30781
989.945	21.95313
990.115	57.78613
990.285	49.35423
990.455	5.09289
990.625	40.92271
990.795	91.51738
990.965	-1.2293
991.134	38.81488
991.304	32.49155
991.474	0.87808
991.644	85.19233
991.814	13.52282
991.984	49.35423
992.153	64.1103
992.323	-18.08741
992.493	13.52282
992.662	24.06077
992.832	15.63036
993.002	17.73793
993.171	-20.19457
993.341	13.52282
993.511	28.27611
993.68	-28.62294
993.85	80.97574
994.019	64.1103
994.189	34.5993
994.358	-37.05092
994.528	30.38382
994.697	0.87808
994.867	-15.98024
995.036	55.67812
995.206	89.40901
995.375	74.65103
995.544	5.09289
995.714	-5.44397
995.883	-3.33665
996.052	26.16843
996.222	32.49155
996.391	55.67812
996.56	5.09289
996.73	13.52282
996.899	38.81488
997.068	-1.2293
997.237	47.24632
997.406	-1.2293
997.576	-39.15785
997.745	2.98547
997.914	74.65103
998.083	72.54284
998.252	19.84552
998.421	38.81488
998.59	30.38382
998.759	5.09289
998.928	34.5993
999.097	-51.79892
999.266	32.49155
999.435	-26.51589
999.604	30.38382
999.773	24.06077
999.942	85.19233
1000.111	38.81488
1000.28	-24.40881
1000.448	55.67812
1000.617	15.63036
1000.786	-9.65855
1000.955	45.13842
1001.124	19.84552
1001.292	-3.33665
1001.461	-1.2293
1001.63	9.30781
1001.798	-1.2293
1001.967	106.2766
1002.136	43.03055
1002.304	38.81488
1002.473	-41.26476
1002.642	72.54284
1002.81	7.20034
1002.979	-3.33665
1003.147	-3.33665
1003.316	-9.65855
1003.484	-24.40881
1003.653	38.81488
1003.821	30.38382
1003.99	-1.2293
1004.158	-11.7658
1004.327	43.03055
1004.495	13.52282
1004.663	21.95313
1004.832	-11.7658
1005	24.06077
1005.168	40.92271
1005.337	2.98547
1005.505	-3.33665
1005.673	66.2184
1005.842	26.16843
1006.01	11.4153
1006.178	36.70708
1006.346	118.92822
1006.514	5.09289
1006.683	-7.55127
1006.851	36.70708
1007.019	13.52282
1007.187	17.73793
1007.355	26.16843
1007.523	47.24632
1007.691	-3.33665
1007.859	-32.83698
1008.027	13.52282
1008.195	24.06077
1008.363	-45.4785
1008.531	59.89417
1008.699	13.52282
1008.867	-68.65227
1009.035	-7.55127
1009.203	72.54284
1009.37	21.95313
1009.538	13.52282
1009.706	38.81488
1009.874	13.52282
1010.042	72.54284
1010.209	38.81488
1010.377	34.5993
1010.545	-41.26476
1010.713	-53.90568
1010.88	38.81488
1011.048	-11.7658
1011.216	5.09289
1011.383	89.40901
1011.551	26.16843
1011.718	-22.3017
1011.886	24.06077
1012.054	36.70708
1012.221	-20.19457
1012.389	38.81488
1012.556	-28.62294
1012.724	32.49155
1012.891	80.97574
1013.058	68.32652
1013.226	-34.94396
1013.393	26.16843
1013.561	-24.40881
1013.728	5.09289
1013.895	95.73419
1014.063	80.97574
1014.23	-5.44397
1014.397	74.65103
1014.565	7.20034
1014.732	13.52282
1014.899	-11.7658
1015.066	-3.33665
1015.233	-68.65227
1015.401	38.81488
1015.568	64.1103
1015.735	11.4153
1015.902	38.81488
1016.069	2.98547
1016.236	15.63036
1016.403	7.20034
1016.57	64.1103
1016.737	-28.62294
1016.904	21.95313
1017.071	28.27611
1017.238	-39.15785
1017.405	106.2766
1017.572	-9.65855
1017.739	-3.33665
1017.906	-11.7658
1018.073	21.95313
1018.24	21.95313
1018.407	-7.55127
1018.573	-70.75882
1018.74	-32.83698
1018.907	40.92271
1019.074	55.67812
1019.241	13.52282
1019.407	-45.4785
1019.574	-3.33665
1019.741	-26.51589
1019.907	-9.65855
1020.074	-18.08741
1020.241	13.52282
1020.407	-3.33665
1020.574	-24.40881
1020.74	-28.62294
1020.907	-11.7658
1021.073	24.06077
1021.24	-91.82295
1021.406	55.67812
1021.573	15.63036
1021.739	45.13842
1021.906	15.63036
1022.072	49.35423
1022.239	38.81488
1022.405	30.38382
1022.571	30.38382
1022.738	32.49155
1022.904	28.27611
1023.07	-3.33665
1023.237	11.4153
1023.403	38.81488
1023.569	43.03055
1023.735	-58.11912
1023.902	5.09289
1024.068	68.32652
1024.234	5.09289
1024.4	15.63036
1024.566	-45.4785
1024.732	-11.7658
1024.898	-37.05092
1025.065	40.92271
1025.231	-3.33665
1025.397	-9.65855
1025.563	34.5993
1025.729	30.38382
1025.895	40.92271
1026.061	45.13842
1026.227	30.38382
1026.392	13.52282
1026.558	-34.94396
1026.724	85.19233
1026.89	-34.94396
1027.056	17.73793
1027.222	-20.19457
1027.388	-49.69214
1027.553	5.09289
1027.719	-3.33665
1027.885	17.73793
1028.051	30.38382
1028.216	-30.72997
1028.382	13.52282
1028.548	17.73793
1028.713	47.24632
1028.879	-32.83698
1029.045	32.49155
1029.21	-32.83698
1029.376	-133.94335
1029.541	28.27611
1029.707	64.1103
1029.873	7.20034
1030.038	-11.7658
1030.204	15.63036
1030.369	47.24632
1030.534	26.16843
1030.7	30.38382
1030.865	26.16843
1031.031	-45.4785
1031.196	-104.46018
1031.361	7.20034
1031.527	30.38382
1031.692	51.46218
1031.857	-1.2293
1032.023	-45.4785
1032.188	-1.2293
1032.353	38.81488
1032.518	-28.62294
1032.684	-28.62294
1032.849	13.52282
1033.014	-24.40881
1033.179	-37.05092
1033.344	5.09289
1033.509	-20.19457
1033.674	-26.51589
1033.839	-3.33665
1034.004	-70.75882
1034.17	-11.7658
1034.335	21.95313
1034.5	-62.33245
1034.664	-9.65855
1034.829	-26.51589
1034.994	83.08402
1035.159	36.70708
1035.324	7.20034
1035.489	43.03055
1035.654	-1.2293
1035.819	-13.87303
1035.984	13.52282
1036.148	47.24632
1036.313	-28.62294
1036.478	15.63036
1036.643	-26.51589
1036.807	-56.01241
1036.972	40.92271
1037.137	-32.83698
1037.301	9.30781
1037.466	34.5993
1037.631	30.38382
1037.795	-26.51589
1037.96	43.03055
1038.124	24.06077
1038.289	-41.26476
1038.454	-18.08741
1038.618	17.73793
1038.783	-28.62294
1038.947	9.30781
1039.111	-1.2293
1039.276	-1.2293
1039.44	13.52282
1039.605	17.73793
1039.769	-45.4785
1039.933	-39.15785
1040.098	-56.01241
1040.262	-32.83698
1040.426	64.1103
1040.591	5.09289
1040.755	-3.33665
1040.919	55.67812
1041.083	5.09289
1041.248	13.52282
1041.412	-37.05092
1041.576	0.87808
1041.74	7.20034
1041.904	85.19233
1042.068	11.4153
1042.232	-15.98024
1042.397	47.24632
1042.561	32.49155
1042.725	-24.40881
1042.889	5.09289
1043.053	-9.65855
1043.217	-79.18478
1043.381	47.24632
1043.544	97.84262
1043.708	-13.87303
1043.872	47.24632
1044.036	17.73793
1044.2	-7.55127
1044.364	-49.69214
1044.528	43.03055
1044.691	-9.65855
1044.855	21.95313
1045.019	-26.51589
1045.183	-24.40881
1045.346	30.38382
1045.51	-3.33665
1045.674	40.92271
1045.837	59.89417
1046.001	-37.05092
1046.165	-11.7658
1046.328	17.73793
1046.492	-9.65855
1046.655	15.63036
1046.819	47.24632
1046.983	-47.58533
1047.146	13.52282
1047.31	21.95313
1047.473	21.95313
1047.636	-5.44397
1047.8	-15.98024
1047.963	9.30781
1048.127	-11.7658
1048.29	-51.79892
