Data from mixed_try1_USB4F045381__3__00228.txt Node

Date: Thu Apr 03 20:22:56 EDT 2025
User: mmckonesweet
Spectrometer: USB4F04538
Trigger mode: 4
Integration Time (sec): 2.700000E-3
Scans to average: 1
Electric dark correction enabled: true
Nonlinearity correction enabled: true
Boxcar width: 0
XAxis mode: Wavelengths
Number of Pixels in Spectrum: 3648
>>>>>Begin Spectral Data<<<<<
345.52	-79.71139
345.736	-79.71139
345.952	-79.71139
346.168	-24.93558
346.384	46.71934
346.6	44.61145
346.816	-8.0781
347.032	-107.09281
347.248	-41.79148
347.464	34.07236
347.68	8.78094
347.896	19.31862
348.112	8.78094
348.328	25.64151
348.544	69.90763
348.76	-14.39983
348.975	-39.68458
349.191	-8.0781
349.407	-10.18537
349.623	0.35123
349.839	101.53244
350.055	36.18013
350.27	76.23219
350.486	36.18013
350.702	-3.86348
350.918	-100.77442
351.133	0.35123
351.349	-92.34952
351.565	97.31551
351.781	25.64151
351.996	44.61145
352.212	-16.50703
352.428	12.99594
352.644	63.58328
352.859	10.88843
353.075	-62.85911
353.291	4.56604
353.506	-8.0781
353.722	-62.85911
353.938	34.07236
354.153	63.58328
354.369	44.61145
354.584	-8.0781
354.8	74.12398
355.016	-5.9708
355.231	78.34042
355.447	-46.00521
355.662	25.64151
355.878	10.88843
356.093	-8.0781
356.309	0.35123
356.524	61.47521
356.74	-20.72135
356.955	0.35123
357.171	-16.50703
357.386	-58.64579
357.602	-12.29261
357.817	25.64151
358.033	17.21104
358.248	-41.79148
358.464	-12.29261
358.679	40.39575
358.895	-62.85911
359.11	97.31551
359.325	-27.04265
359.541	-83.9242
359.756	34.07236
359.972	42.50359
360.187	31.96461
360.402	-5.9708
360.618	17.21104
360.833	-3.86348
361.048	76.23219
361.264	-22.82848
361.479	-16.50703
361.694	-16.50703
361.909	-5.9708
362.125	59.36716
362.34	-56.53909
362.555	69.90763
362.77	-10.18537
362.986	27.74919
363.201	10.88843
363.416	44.61145
363.631	-16.50703
363.847	-16.50703
364.062	-5.9708
364.277	12.99594
364.492	8.78094
364.707	17.21104
364.922	-24.93558
365.138	57.25913
365.353	-5.9708
365.568	44.61145
365.783	2.45862
365.998	-35.47071
366.213	19.31862
366.428	27.74919
366.643	61.47521
366.858	8.78094
367.073	12.99594
367.288	29.85689
367.503	-100.77442
367.718	69.90763
367.933	-41.79148
368.148	-12.29261
368.363	61.47521
368.578	25.64151
368.793	59.36716
369.008	46.71934
369.223	-37.57766
369.438	10.88843
369.653	0.35123
369.868	0.35123
370.083	38.28793
370.298	57.25913
370.513	19.31862
370.728	-14.39983
370.943	65.69137
371.157	-22.82848
371.372	-8.0781
371.587	-33.36373
371.802	-50.21884
372.017	40.39575
372.232	-37.57766
372.446	-69.17891
372.661	25.64151
372.876	21.42623
373.091	-39.68458
373.306	-52.32561
373.52	17.21104
373.735	53.04315
373.95	21.42623
374.165	-16.50703
374.379	29.85689
374.594	-14.39983
374.809	10.88843
375.023	50.93519
375.238	59.36716
375.453	-50.21884
375.667	36.18013
375.882	10.88843
376.097	-54.43236
376.311	34.07236
376.526	27.74919
376.741	19.31862
376.955	-18.61421
377.17	31.96461
377.384	21.42623
377.599	17.21104
377.813	8.78094
378.028	65.69137
378.242	61.47521
378.457	17.21104
378.672	-8.0781
378.886	0.35123
379.101	27.74919
379.315	67.79949
379.53	63.58328
379.744	4.56604
379.958	25.64151
380.173	10.88843
380.387	-33.36373
380.602	25.64151
380.816	-12.29261
381.031	27.74919
381.245	-1.75614
381.459	42.50359
381.674	19.31862
381.888	8.78094
382.103	27.74919
382.317	-41.79148
382.531	-31.25673
382.746	0.35123
382.96	42.50359
383.174	29.85689
383.388	-1.75614
383.603	17.21104
383.817	19.31862
384.031	-1.75614
384.246	40.39575
384.46	59.36716
384.674	36.18013
384.888	17.21104
385.103	112.07516
385.317	8.78094
385.531	36.18013
385.745	-67.07234
385.959	29.85689
386.174	12.99594
386.388	-14.39983
386.602	15.10348
386.816	12.99594
387.03	59.36716
387.244	29.85689
387.458	-24.93558
387.672	-16.50703
387.887	-22.82848
388.101	69.90763
388.315	-8.0781
388.529	76.23219
388.743	12.99594
388.957	29.85689
389.171	0.35123
389.385	-8.0781
389.599	-5.9708
389.813	12.99594
390.027	23.53386
390.241	-119.7289
390.455	-31.25673
390.669	-16.50703
390.883	-35.47071
391.097	67.79949
391.311	8.78094
391.525	17.21104
391.738	-22.82848
391.952	-10.18537
392.166	-14.39983
392.38	-24.93558
392.594	12.99594
392.808	-16.50703
393.022	27.74919
393.236	-50.21884
393.449	-16.50703
393.663	34.07236
393.877	42.50359
394.091	44.61145
394.305	4.56604
394.518	8.78094
394.732	8.78094
394.946	29.85689
395.16	27.74919
395.373	36.18013
395.587	46.71934
395.801	-10.18537
396.015	-8.0781
396.228	67.79949
396.442	-14.39983
396.656	50.93519
396.869	-5.9708
397.083	69.90763
397.297	19.31862
397.51	25.64151
397.724	-41.79148
397.938	-20.72135
398.151	12.99594
398.365	-24.93558
398.578	-16.50703
398.792	36.18013
399.005	57.25913
399.219	44.61145
399.433	-67.07234
399.646	34.07236
399.86	31.96461
400.073	67.79949
400.287	8.78094
400.5	34.07236
400.714	-3.86348
400.927	36.18013
401.141	-37.57766
401.354	2.45862
401.567	-10.18537
401.781	-14.39983
401.994	63.58328
402.208	86.77357
402.421	67.79949
402.635	21.42623
402.848	29.85689
403.061	84.66525
403.275	42.50359
403.488	12.99594
403.701	97.31551
403.915	0.35123
404.128	69.90763
404.341	63.58328
404.555	4.56604
404.768	38.28793
404.981	-18.61421
405.195	6.67348
405.408	-29.1497
405.621	72.0158
405.834	48.82725
406.048	118.40105
406.261	44.61145
406.474	82.55695
406.687	21.42623
406.9	78.34042
407.114	84.66525
407.327	29.85689
407.54	38.28793
407.753	25.64151
407.966	-3.86348
408.179	76.23219
408.392	114.18377
408.605	17.21104
408.819	17.21104
409.032	84.66525
409.245	42.50359
409.458	80.44868
409.671	0.35123
409.884	34.07236
410.097	46.71934
410.31	0.35123
410.523	17.21104
410.736	55.15113
410.949	21.42623
411.162	95.20708
411.375	-3.86348
411.588	25.64151
411.801	42.50359
412.014	50.93519
412.227	8.78094
412.44	86.77357
412.653	78.34042
412.865	27.74919
413.078	105.74946
413.291	50.93519
413.504	-18.61421
413.717	67.79949
413.93	-8.0781
414.143	95.20708
414.356	-8.0781
414.568	19.31862
414.781	105.74946
414.994	25.64151
415.207	53.04315
415.42	61.47521
415.632	63.58328
415.845	93.09867
416.058	95.20708
416.271	-20.72135
416.483	67.79949
416.696	84.66525
416.909	25.64151
417.121	118.40105
417.334	25.64151
417.547	124.72714
417.759	25.64151
417.972	53.04315
418.185	25.64151
418.397	38.28793
418.61	76.23219
418.823	27.74919
419.035	67.79949
419.248	48.82725
419.46	67.79949
419.673	80.44868
419.885	46.71934
420.098	76.23219
420.311	38.28793
420.523	93.09867
420.736	57.25913
420.948	103.64094
421.161	69.90763
421.373	84.66525
421.586	126.83588
421.798	118.40105
422.01	23.53386
422.223	57.25913
422.435	120.50972
422.648	76.23219
422.86	59.36716
423.073	34.07236
423.285	69.90763
423.497	46.71934
423.71	135.27105
423.922	116.2924
424.134	95.20708
424.347	59.36716
424.559	160.57861
424.771	82.55695
424.984	72.0158
425.196	69.90763
425.408	67.79949
425.621	8.78094
425.833	29.85689
426.045	166.90597
426.257	128.94464
426.47	109.96657
426.682	72.0158
426.894	17.21104
427.106	86.77357
427.318	55.15113
427.531	145.81549
427.743	103.64094
427.955	124.72714
428.167	93.09867
428.379	90.99028
428.591	122.61842
428.804	101.53244
429.016	118.40105
429.228	105.74946
429.44	105.74946
429.652	109.96657
429.864	137.37989
430.076	202.76452
430.288	135.27105
430.5	101.53244
430.712	160.57861
430.924	137.37989
431.136	131.05342
431.348	187.99852
431.56	204.87403
431.772	225.97022
431.984	223.86052
432.196	103.64094
432.408	236.51906
432.62	76.23219
432.832	139.48876
433.044	219.64116
433.256	112.07516
433.468	234.40925
433.679	173.23352
433.891	257.61818
434.103	177.45199
434.315	219.64116
434.527	171.12431
434.739	177.45199
434.95	244.95848
435.162	166.90597
435.374	253.3982
435.586	196.43612
435.798	147.92445
436.009	276.60902
436.221	232.29947
436.433	333.59049
436.645	187.99852
436.856	173.23352
437.068	266.05836
437.28	297.71172
437.491	215.42188
437.703	323.03738
437.915	236.51906
438.126	306.15332
438.338	306.15332
438.55	263.94829
438.761	304.04289
438.973	325.14796
439.184	318.81625
439.396	363.14154
439.608	249.1783
439.819	312.48471
440.031	346.25481
440.242	306.15332
440.454	361.03064
440.665	375.80731
440.877	270.27857
441.088	304.04289
441.3	337.81186
441.511	390.5848
441.723	346.25481
441.934	327.25857
442.146	401.14065
442.357	447.59118
442.569	320.92681
442.78	468.70756
442.991	371.58532
443.203	367.3634
443.414	392.69594
443.626	426.47635
443.837	390.5848
444.048	464.48416
444.26	439.14506
444.471	422.25357
444.682	481.37812
444.894	447.59118
445.105	405.3631
445.316	510.94483
445.528	481.37812
445.739	413.80821
445.95	481.37812
446.161	485.60176
446.373	523.61715
446.584	475.04277
446.795	472.93102
447.006	629.23887
447.217	481.37812
447.429	477.15454
447.64	483.48993
447.851	475.04277
448.062	458.14918
448.273	515.16888
448.484	487.7136
448.695	620.78794
448.907	415.91952
449.118	618.67523
449.329	608.11191
449.54	665.1575
449.751	576.42387
449.962	646.14132
450.173	519.39299
450.384	633.46441
450.595	650.36706
450.806	724.32492
451.017	610.22455
451.228	578.53632
451.439	635.5772
451.65	684.17464
451.861	605.99929
452.072	794.0687
452.283	730.6648
452.494	701.07953
452.705	692.62699
452.915	853.25348
453.126	737.00477
453.337	717.98514
453.548	857.48123
453.759	857.48123
453.97	808.86421
454.181	766.59256
454.391	819.43272
454.602	973.75696
454.813	887.07645
455.024	1022.38774
455.235	903.98872
455.445	963.18551
455.656	882.84846
455.867	980.09991
456.078	1056.21976
456.288	1024.5022
456.499	950.5
456.71	1128.11733
456.921	920.90149
457.131	1136.57623
457.342	1066.79256
457.553	1026.61666
457.763	1030.84561
457.974	1242.31771
458.184	1111.19974
458.395	1219.05385
458.606	1216.93897
458.816	1307.88124
459.027	1267.69687
459.237	1293.07638
459.448	1314.22621
459.659	1288.84644
459.869	1487.65919
460.08	1405.17222
460.29	1504.57956
460.501	1614.56032
460.711	1517.26981
460.922	1470.73879
461.132	1584.9505
461.343	1667.43393
461.553	1515.15477
461.764	1601.87044
461.974	1601.87044
462.184	1686.46804
462.395	1709.73163
462.605	1876.79312
462.816	1639.93984
463.026	1743.56888
463.236	1781.63467
463.447	1986.74094
463.657	1851.41846
463.867	2062.84883
464.078	2155.85694
464.288	2166.42508
464.498	2191.7878
464.709	2312.2435
464.919	2022.68186
465.129	2371.40354
465.339	2198.12829
465.55	2405.20573
465.76	2147.40227
465.97	2578.39832
466.18	2392.53022
466.391	2671.29842
466.601	2485.47507
466.811	2713.51769
467.021	2675.52058
467.231	2772.61586
467.441	2595.29102
467.651	2768.39491
467.862	2897.10903
468.072	3051.07305
468.282	3006.79026
468.492	2842.25364
468.702	2987.80985
468.912	3325.04743
469.122	3249.20557
469.332	3388.23195
469.542	3114.32228
469.752	3419.81829
469.962	3482.97893
470.172	3735.45558
470.382	3516.65797
470.592	3836.36914
470.802	3693.39504
471.012	3745.96951
471.222	3930.93418
471.432	3918.32785
471.642	3876.30154
471.852	4138.8322
472.062	4067.45569
472.272	4247.94925
472.482	4201.79133
472.691	4499.53609
472.901	4329.74922
473.111	4516.29735
473.321	4566.57264
473.531	4959.94769
473.741	4637.77404
473.95	4982.93937
474.16	4899.31993
474.37	5008.01802
474.58	5158.41997
474.79	5145.89107
474.999	5208.52719
475.209	5062.34369
475.419	5162.59608
475.628	5465.11529
475.838	5456.77655
476.048	5633.8938
476.258	5596.40083
476.467	5846.20957
476.677	5914.8474
476.886	6110.22051
477.096	6043.73388
477.306	6166.29988
477.515	6031.26495
477.725	6172.52986
477.935	6164.22317
478.144	6400.81704
478.354	6147.60866
478.563	6715.80527
478.773	6757.21145
478.982	6866.89363
479.192	7038.53205
479.401	7117.06179
479.611	7061.26766
479.82	6980.64731
480.03	7174.90519
480.239	7494.79733
480.449	7465.92536
480.658	7564.8974
480.868	7789.46411
481.077	7912.97252
481.287	7721.5025
481.496	7840.93502
481.705	8087.81618
481.915	8241.96904
482.124	8013.7827
482.333	8135.10167
482.543	8404.2234
482.752	8400.11719
482.961	8428.85903
483.171	8773.47179
483.38	8843.15133
483.589	8970.16055
483.799	9183.05677
484.008	9113.47664
484.217	9064.3493
484.426	9516.36378
484.636	9183.05677
484.845	9330.33841
485.054	9330.33841
485.263	9573.57557
485.472	9522.49421
485.682	9734.92845
485.891	9771.67898
486.1	9885.98281
486.309	9924.7539
486.518	10106.29633
486.727	10081.82528
486.936	10251.0424
487.146	10332.55923
487.355	10440.53636
487.564	10552.5497
487.773	10672.66722
487.982	10735.76275
488.191	10900.57147
488.4	10827.33262
488.609	10933.1173
488.818	10896.50304
489.027	10971.76171
489.236	11319.38486
489.445	11605.79838
489.654	11364.08623
489.863	11749.95067
490.072	11445.34917
490.281	11615.95144
490.49	11532.68957
490.698	11798.66815
490.907	11800.69794
491.116	11928.55756
491.325	12054.35603
491.534	12115.21543
491.743	12236.91391
491.952	12378.86267
492.16	12096.95834
492.369	12443.74231
492.578	12457.93382
492.787	12431.5779
492.996	12691.03547
493.204	12658.60881
493.413	12806.54336
493.622	12804.51706
493.831	12859.22509
494.039	13146.88636
494.248	13039.53159
494.457	13292.70612
494.665	13238.02639
494.874	13523.54324
495.083	13408.13107
495.291	13723.9684
495.5	13412.18083
495.709	13476.97489
495.917	13551.88824
496.126	13746.23587
496.335	14007.34659
496.543	13942.57914
496.752	13869.71257
496.96	14011.39447
497.169	13898.04999
497.377	14023.53806
497.586	14104.49311
497.794	14365.55046
498.003	14302.81859
498.211	14343.29095
498.42	14302.81859
498.628	14323.05486
498.837	14717.63307
499.045	14632.65089
499.254	14509.221
499.462	14972.57154
499.671	15079.80537
499.879	14958.40852
500.087	15073.73555
500.296	15223.45764
500.504	15035.29331
500.713	15041.36314
500.921	15265.94638
501.129	15344.8543
501.338	15168.82932
501.546	15563.37179
501.754	15470.29877
501.962	15478.39202
502.171	15308.43521
502.379	15832.48383
502.587	15814.27268
502.795	15864.85943
503.004	16018.64793
503.212	16087.45065
503.42	15927.58803
503.628	16002.4593
503.837	15820.34305
504.045	15840.5777
504.253	16285.7747
504.461	16316.13189
504.669	16607.58353
504.877	16621.75243
505.085	16253.39414
505.294	16662.23564
505.502	16372.79978
505.71	16716.88943
505.918	16344.46565
506.126	16876.81244
506.334	16712.84094
506.542	17089.39317
506.75	16729.03494
506.958	16779.6422
507.166	17137.98727
507.374	17026.62816
507.582	16733.08347
507.79	17194.68244
507.998	17419.46099
508.206	17391.10849
508.414	17162.28493
508.622	17577.43617
508.83	17508.57282
509.037	17411.36022
509.245	17277.70447
509.453	17557.18186
509.661	17674.66139
509.869	17532.87711
510.077	17551.10563
510.285	17775.94578
510.492	17775.94578
510.7	17717.19981
510.908	17938.01853
511.116	17678.7126
511.324	17779.99733
511.531	18067.69287
511.739	17636.1755
511.947	17978.5402
512.155	18239.93943
512.362	18164.95827
512.57	18077.82429
512.778	18004.88004
512.985	18227.77998
513.193	18489.23787
513.401	18479.10267
513.608	18456.80556
513.816	18556.13262
514.024	18663.57846
514.231	18706.15437
514.439	18600.73145
514.646	18562.21416
514.854	18947.45089
515.061	18359.51449
515.269	18742.6494
515.477	18760.89739
515.684	18752.78713
515.892	18900.80934
516.099	18935.28333
516.307	19318.63188
516.514	19198.94656
516.722	19357.17767
516.929	19253.71603
517.136	19065.07818
517.344	19298.34523
517.551	19377.46552
517.759	19387.60961
517.966	19620.95218
518.173	19604.71787
518.381	19578.33768
518.588	19673.71553
518.796	20256.33033
519.003	19913.2156
519.21	19854.35
519.418	19769.10263
519.625	19903.06611
519.832	19984.265
520.039	20028.92726
520.247	20270.54478
520.454	20260.39158
520.661	20305.06643
520.868	20217.74931
521.076	20583.31454
521.283	20571.12684
521.49	20776.30633
521.697	20351.77412
521.904	20493.94161
522.112	20317.25083
522.319	20729.57856
522.526	20469.56858
522.733	21052.65435
522.94	20721.45221
523.147	20512.22178
523.354	20644.25526
523.561	20821.00451
523.768	21115.65607
523.975	21351.43906
524.183	21201.01948
524.39	21410.39328
524.597	21603.54263
524.804	21855.70671
525.011	21436.82212
525.218	21089.23551
525.425	21306.71742
525.632	21532.37818
525.838	21770.2896
526.045	21499.84747
526.252	21741.81875
526.459	21802.82865
526.666	21758.08771
526.873	21945.19858
527.08	21831.30113
527.287	21945.19858
527.494	21619.80947
527.701	22288.99678
527.907	22126.23874
528.114	22634.93515
528.321	22213.71823
528.528	22423.28989
528.735	22321.55122
528.941	22183.20135
529.148	21886.21447
529.355	22227.95973
529.562	22498.58233
529.768	22575.91481
529.975	22130.3074
530.182	22655.28768
530.388	22242.20141
530.595	23233.44238
530.802	22455.84818
531.008	22761.12647
531.215	23178.4654
531.422	23092.95038
531.628	23109.23851
531.835	23298.60332
532.042	23414.67934
532.248	23530.76553
532.455	23465.59309
532.661	23498.17892
532.868	23145.88757
533.074	23453.37361
533.281	23479.84929
533.487	23551.13257
533.694	23357.65826
533.9	23919.82775
534.107	23665.19359
534.313	23895.3809
534.52	23740.56051
534.726	24033.91851
534.933	23970.76003
535.139	24015.5819
535.345	24343.6372
535.552	24097.07969
535.758	24105.22971
535.965	24304.91895
536.171	24280.46582
536.377	24763.48402
536.584	24657.49324
536.79	24327.33466
536.996	24321.22125
537.203	24339.56155
537.409	24321.22125
537.615	24745.13899
537.821	25016.2573
538.028	24863.36592
538.234	24838.90452
538.44	24959.17633
538.646	24590.23331
538.853	25326.15599
539.059	24869.48132
539.265	24881.71219
539.471	25283.33804
539.677	24757.36899
539.883	25362.85783
540.09	25167.12268
540.296	25399.56035
540.502	25485.20218
540.708	25421.99
540.914	25713.59777
541.12	25364.89684
541.326	25381.209
541.532	25530.06362
541.738	25952.21539
541.944	25395.48226
542.15	25884.9104
542.356	25866.55484
542.562	26223.49458
542.768	25999.1261
542.974	25797.21298
543.18	25689.12563
543.386	26398.92429
543.592	26080.71219
543.798	26023.60163
544.004	26194.93743
544.21	26535.60461
544.415	26470.32357
544.621	26629.44891
544.827	26256.13174
545.033	26886.51703
545.239	26672.29195
545.445	26968.13079
545.651	26882.43641
545.856	26794.7043
546.062	27013.01932
546.268	27006.89812
546.474	26586.60654
546.679	26325.48711
546.885	26655.97072
547.091	26784.50307
547.297	26576.40608
547.502	26780.42259
547.708	26715.13567
547.914	26739.61808
548.119	27319.09504
548.325	26760.02026
548.531	26788.58356
548.736	27427.24886
548.942	27553.77293
549.147	27176.25595
549.353	27363.98864
549.559	27896.63575
549.764	27280.32379
549.97	27557.85443
550.175	27794.58975
550.381	28108.90059
550.586	27676.22007
550.792	27902.7586
550.997	28104.81846
551.203	28182.3797
551.408	28221.16092
551.614	28080.32576
551.819	28535.50733
552.025	28117.06486
552.23	28194.62636
552.435	28247.69567
552.641	28564.08554
552.846	28427.32031
553.052	28208.91418
553.257	28088.48998
553.462	28849.87888
553.668	28758.0145
553.873	28410.99045
554.078	28453.85647
554.283	28521.21831
554.489	28684.52452
554.694	28892.74964
554.899	28980.53407
555.105	28937.66236
555.31	29023.40623
555.515	28831.50583
555.72	29264.31545
555.925	28562.04423
556.131	29350.0663
556.336	29064.23728
556.541	29143.85903
556.746	29219.39907
556.951	29358.23314
557.156	29033.61395
557.361	29011.15699
557.567	29256.14879
557.772	29580.78613
557.977	29372.52516
558.182	29162.2335
558.387	29505.23921
558.592	29558.32608
558.797	29631.83218
559.002	29439.9025
559.207	29143.85903
559.412	29256.14879
559.617	29029.53086
559.822	29856.44283
560.027	29644.08333
560.232	29674.71138
560.437	29878.90463
560.642	30009.59413
560.847	30117.82489
561.051	29911.57657
561.256	29811.51964
561.461	30242.39641
561.666	30091.27742
561.871	29995.29974
562.076	30103.53007
562.281	30550.78128
562.485	30107.6143
562.69	30534.4423
562.895	30736.64304
563.1	30634.51986
563.305	30195.4263
563.509	30387.39507
563.714	30436.4101
563.919	30542.61178
564.123	30603.88354
564.328	30650.85935
564.533	30775.45073
564.737	30444.57934
564.942	30887.79153
565.147	30916.38804
565.351	30842.85471
565.556	30454.79091
565.761	30507.89162
565.965	30724.38809
566.17	30493.5952
566.374	30679.45365
566.579	31053.24661
566.784	31194.19736
566.988	30908.21758
567.193	31322.89785
567.397	30730.51556
567.602	31171.72648
567.806	30326.12729
568.011	30873.49338
568.215	31186.02611
568.42	31351.49881
568.624	31396.44379
568.828	31235.054
569.033	31206.45429
569.237	31380.10007
569.442	31463.86274
569.646	30738.68554
569.85	31198.283
570.055	31541.49891
570.259	31588.4904
570.463	31443.43257
570.668	31545.58509
570.872	31606.87862
571.076	31600.7492
571.281	31827.54841
571.485	31610.96491
571.689	31408.70165
571.893	31835.72177
572.098	31845.93851
572.302	32350.7064
572.506	31794.85526
572.71	31279.99701
572.914	31778.50887
573.119	31645.69866
573.323	31974.67347
573.527	32031.89145
573.731	32422.24249
573.935	32095.24174
574.139	32085.02382
574.343	31921.54384
574.547	32461.0775
574.751	32602.11682
574.955	32179.03057
575.159	32283.26054
575.364	32117.72133
575.568	32722.72452
575.772	32436.55003
575.976	32508.08939
576.18	32289.39189
576.383	32685.92806
576.587	32591.89621
576.791	32430.41821
576.995	32743.16734
577.199	32326.18036
577.403	32293.47946
577.607	32835.16308
577.811	33358.61843
578.015	32945.56474
578.219	33217.51298
578.422	32871.9628
578.626	32968.05489
578.83	32657.30914
579.034	32906.71885
579.238	33004.85765
579.442	33137.76374
579.645	32980.32238
579.849	33792.25046
580.053	33581.55306
580.257	33053.92933
580.46	33432.24422
580.664	33440.4251
580.868	33084.59992
581.071	33391.34052
581.275	33867.94644
581.479	33143.89815
581.682	33100.95782
581.886	33522.23661
582.09	33949.7852
582.293	34244.45199
582.497	33820.89163
582.7	33450.65127
582.904	33618.37149
583.107	33589.73484
583.311	33628.59902
583.515	33898.63532
583.718	33567.23505
583.922	33980.47617
584.125	34099.15545
584.329	33957.96938
584.532	33790.20468
584.735	34340.64467
584.939	33814.75418
585.142	34502.34968
585.346	33939.55505
585.549	34244.45199
585.753	34307.89727
585.956	34619.03857
586.159	34688.6489
586.363	35079.78897
586.566	34307.89727
586.769	34461.40935
586.973	34156.45326
587.176	34455.26844
587.379	34283.33737
587.582	35094.12709
587.786	34504.39674
587.989	35174.01514
588.192	35159.67573
588.395	35049.06519
588.599	34901.60548
588.802	35776.49196
589.005	35096.17541
589.208	35598.16141
589.411	35573.56726
589.615	35530.5293
589.818	35249.81309
590.021	35555.12214
590.224	35006.05366
590.427	35362.49806
590.63	35260.05656
590.833	35137.14284
591.036	35471.0997
591.239	35751.89221
591.442	35075.6924
591.645	35301.03168
591.848	36012.28016
592.051	35694.49585
592.254	35395.28197
592.457	35731.39302
592.66	35426.01805
592.863	35971.26815
593.066	36067.65003
593.269	36198.9142
593.472	35971.26815
593.675	36463.56874
593.878	35922.05675
594.081	35977.4198
594.284	36104.56564
594.486	35870.79834
594.689	36342.51249
594.892	36149.6873
595.095	36324.04818
595.298	36178.40257
595.5	36200.9654
595.703	36757.06845
595.906	36496.40132
596.109	36777.59792
596.311	36410.21924
596.514	36443.0492
596.717	36237.88794
596.92	36672.90455
597.122	36716.0115
597.325	36500.50551
597.528	36605.17091
597.73	36970.60808
597.933	36461.51676
598.136	37108.21647
598.338	36492.29716
598.541	36886.41538
598.743	36980.87628
598.946	36486.14096
599.148	37017.84323
599.351	36941.85805
599.554	36915.16281
599.756	36440.99728
599.959	36783.75689
600.161	36436.89346
600.363	36755.01553
600.566	36670.85191
600.768	36943.91158
600.971	36921.32314
601.173	37063.02814
601.376	36560.01908
601.578	36668.79928
601.78	36974.71534
601.983	36755.01553
602.185	37071.24394
602.388	36321.99662
602.59	36650.32588
602.792	37210.93006
602.995	37239.69309
603.197	37227.3659
603.399	37315.71658
603.601	37426.68793
603.804	37404.08089
604.006	37691.87562
604.208	37397.91549
604.41	37315.71658
604.613	37106.16238
604.815	37036.32755
605.017	37743.28352
605.219	37467.79397
605.421	37159.57102
605.623	37574.68388
605.826	38350.2813
606.028	37395.86037
606.23	37486.29267
606.432	36835.08402
606.634	37827.6032
606.836	37708.32561
607.038	37488.34812
607.24	37811.14953
607.442	37256.12975
607.644	37295.1687
607.846	37749.4528
608.048	37545.9038
608.25	37842.00059
608.452	37850.22784
608.654	38642.72838
608.856	37644.58468
609.058	37932.5075
609.26	37695.98807
609.462	37922.22183
609.664	37965.42301
609.866	37650.75283
610.067	37916.05053
610.269	37899.59408
610.471	38072.41294
610.673	38358.51682
610.875	38146.49607
611.077	38302.92976
611.278	38125.91633
611.48	38185.59989
611.682	38165.01855
611.884	38095.0483
612.085	37953.07945
612.287	38811.68881
612.489	38337.92828
612.69	38457.35391
612.892	37679.53845
613.094	37981.88155
613.295	37634.30459
613.497	37710.3819
613.699	37889.30907
613.9	38395.57837
614.102	38323.51683
614.304	37492.45904
614.505	38082.70162
614.707	38218.53179
614.908	38167.07665
615.11	38572.68952
615.311	38253.52433
615.513	38058.00915
615.714	38068.29753
615.916	37842.00059
616.117	38272.05079
616.319	38309.10579
616.52	38033.31787
616.722	38397.63742
616.923	37973.65221
617.124	38193.83266
617.326	38039.49058
617.527	38296.75381
617.729	38298.81246
617.93	38381.16521
618.131	38307.04711
618.333	38020.97269
618.534	38436.76118
618.735	38605.64769
618.937	38006.57034
619.138	38368.81141
619.339	38496.48252
619.54	38323.51683
619.742	38160.90238
619.943	37837.88701
620.144	38169.13475
620.345	38793.14136
620.546	38432.64275
620.748	38626.24772
620.949	38756.04871
621.15	38595.34802
621.351	38482.06634
621.552	38197.9491
621.753	37967.4803
621.954	38626.24772
622.155	37831.7167
622.356	38321.45808
622.558	38202.06557
622.759	38568.56991
622.96	38430.58354
623.161	38698.35492
623.362	38130.03221
623.563	38745.74572
623.764	38572.68952
623.965	39059.06041
624.166	38733.38243
624.366	38383.2242
624.567	38165.01855
624.768	38679.812
624.969	38167.07665
625.17	38309.10579
625.371	37924.27895
625.572	38393.51932
625.773	38385.28321
625.973	39061.12242
626.174	38527.37578
626.375	38399.69649
626.576	38146.49607
626.777	38379.10622
626.977	37926.33608
627.178	38327.63434
627.379	38004.5129
627.58	37556.18223
627.78	38078.58612
627.981	38294.69518
628.182	38589.16832
628.382	38183.54172
628.583	38432.64275
628.784	38307.04711
628.984	37852.28468
629.185	38545.9127
629.386	37767.96107
629.586	38480.00693
629.787	38084.75938
629.987	39011.63701
630.188	39133.2985
630.388	38780.77681
630.589	38245.29057
630.79	38811.68881
630.99	38624.18767
631.191	38789.01981
631.391	38854.96911
631.591	38807.56709
631.792	38490.3041
631.992	38564.45034
632.193	38733.38243
632.393	39096.1779
632.594	38613.88759
632.794	38576.80917
632.994	39160.10976
633.195	39108.55109
633.395	39209.61177
633.595	39180.73492
633.796	39118.86234
633.996	38968.34176
634.196	38834.35894
634.397	39234.36487
634.597	38690.11353
634.797	39399.42166
634.997	38861.15235
635.198	38543.85301
635.398	38657.14944
635.598	39073.49463
635.798	39316.88538
635.998	38735.44296
636.199	38894.13101
636.399	38966.28019
636.599	38564.45034
636.799	38630.36783
636.999	38449.11671
637.199	38628.30777
637.399	39013.69879
637.599	38821.99328
637.799	38282.34356
637.999	39182.79749
638.199	39228.17647
638.399	39112.67556
638.599	38737.50349
638.799	38751.92748
638.999	38968.34176
639.199	39228.17647
639.399	38679.812
639.599	39339.58128
639.799	38922.9893
639.999	39191.04786
640.199	39087.92931
640.399	39494.35807
640.599	37652.8089
640.799	39465.46214
640.998	39345.77128
641.198	39424.18564
641.398	39209.61177
641.598	39492.29401
641.798	39333.39137
641.997	40083.03454
642.197	39288.00142
642.397	39564.54213
642.597	39422.12192
642.796	39149.79755
642.996	38786.95905
643.196	38918.86657
643.395	38444.99817
643.595	38894.13101
643.795	39343.70794
643.994	39746.24967
644.194	39226.11368
644.394	39880.51684
644.593	39601.70314
644.793	39994.16217
644.992	40186.39945
645.192	39632.67316
645.392	40163.65686
645.591	40101.63823
645.791	39393.23089
645.99	39535.64139
646.19	39226.11368
646.389	39552.15586
646.589	39717.33633
646.788	39969.3641
646.987	39506.74264
647.187	39775.16503
647.386	39481.97386
647.586	39323.07506
647.785	39269.43417
647.984	40194.66982
648.184	40252.56721
648.383	39671.90517
648.582	39387.04021
648.782	39888.78088
648.981	39259.11938
649.18	39638.86744
649.38	39620.28488
649.579	39793.75456
649.778	39622.34956
649.977	39878.45086
650.177	39180.73492
650.376	39570.7354
650.575	39162.17224
650.774	39261.18232
650.973	39415.93082
651.173	39514.99923
651.372	39531.51288
651.571	39541.83424
651.77	39556.28457
651.969	39696.68518
652.168	39715.27117
652.367	39859.85748
652.566	40298.06402
652.765	39903.24336
652.964	39715.27117
653.163	40105.77251
653.362	40324.95099
653.561	40176.06175
653.76	39645.06182
653.959	39502.61441
654.158	39961.09841
654.357	39242.61622
654.556	38793.14136
654.755	39704.94552
654.954	39882.58284
655.153	39868.1211
655.352	40399.41693
655.551	39804.08243
655.749	39812.34492
655.948	39973.497
656.147	40287.72337
656.346	40364.25068
656.545	39876.38489
656.743	39824.73897
656.942	40058.23096
657.141	40157.45456
657.34	39839.19917
657.538	40248.4314
657.737	40318.74614
657.936	40403.55435
658.135	39612.02622
658.333	40252.56721
658.532	39870.18703
658.731	39791.68901
658.929	39436.56817
659.128	39366.40525
659.326	39321.01182
659.525	40008.62842
659.724	39351.96137
659.922	40039.62929
660.121	39733.85799
660.319	39475.78189
660.518	39428.31311
660.716	39985.89598
660.915	40078.9005
661.113	40478.03544
661.312	40062.36478
661.51	40575.29641
661.709	40314.60963
661.907	40467.68998
662.105	40037.56249
662.304	40252.56721
662.502	39857.7916
662.701	39892.91297
662.899	39748.31498
663.097	39990.02905
663.296	40116.10838
663.494	40950.08881
663.692	40548.39196
663.891	40099.57111
664.089	39942.50124
664.287	39950.76655
664.485	40093.36982
664.684	40517.35072
664.882	39861.92337
665.08	40225.68522
665.278	40111.974
665.476	39837.1334
665.675	40227.753
665.873	39595.50941
666.071	39752.44564
666.269	39298.3169
666.467	39147.73513
666.665	39374.65911
666.863	39306.56946
667.061	39998.29533
667.259	39791.68901
667.457	40494.58875
667.655	39799.95125
667.853	39702.88042
668.051	39810.27929
668.249	39562.47772
668.447	39725.59707
668.645	39490.22996
668.843	39556.28457
669.041	39750.38031
669.239	38887.94733
669.437	39870.18703
669.635	40244.29563
669.833	40043.76292
670.031	40163.65686
670.229	39647.12663
670.426	39698.75025
670.624	39992.09561
670.822	39135.36085
671.02	39399.42166
671.218	39614.09087
671.415	39149.79755
671.613	39085.86718
671.811	38863.21344
672.009	39007.51347
672.206	38999.26651
672.404	39145.67273
672.602	39843.33075
672.799	39560.41333
672.997	39399.42166
673.195	39026.06969
673.392	39308.63263
673.59	39401.48527
673.788	39030.19339
673.985	39131.23617
674.183	38873.51906
674.38	39015.76058
674.578	39529.44864
674.775	39329.26482
674.973	39026.06969
675.17	39481.97386
675.368	39271.49716
675.565	38817.87146
675.763	39063.18443
675.96	39083.80506
676.158	39052.87447
676.355	38442.93891
676.553	39729.72751
676.75	39240.55337
676.947	39632.67316
677.145	38993.08139
677.342	39562.47772
677.539	38931.23486
677.737	39519.12758
677.934	39013.69879
678.131	39329.26482
678.329	38708.65685
678.526	38560.3308
678.723	39219.92539
678.92	38904.43733
679.118	38525.31617
679.315	38372.92931
679.512	38358.51682
679.709	38937.41914
679.906	38508.83958
680.104	38399.69649
680.301	38502.66101
680.498	38403.81465
680.695	38762.23061
680.892	38842.60289
681.089	38352.34017
681.286	38624.18767
681.483	37895.48005
681.68	37733.00155
681.877	38084.75938
682.075	38146.49607
682.272	37706.26933
682.469	38222.64843
682.665	38286.46074
682.862	37488.34812
683.059	37467.79397
683.256	37733.00155
683.453	37809.09286
683.65	37714.49449
683.847	38335.86948
684.044	38379.10622
684.241	37780.30027
684.438	38257.64126
684.635	37716.5508
684.831	38169.13475
685.028	37778.24372
685.225	37839.9438
685.422	37759.73509
685.619	38183.54172
685.815	37749.4528
686.012	38045.66336
686.209	37379.4197
686.405	37940.73618
686.602	37447.24057
686.799	37155.46249
686.996	37264.34826
687.192	37486.29267
687.389	37266.40291
687.586	37874.91038
687.782	37700.10055
687.979	37706.26933
688.175	37387.63997
688.372	37804.97953
688.568	37307.49734
688.765	37237.63854
688.962	37395.86037
689.158	37434.90889
689.355	37052.75854
689.551	37060.97421
689.748	36968.55446
689.944	36857.6693
690.14	37262.29362
690.337	37568.5166
690.533	37445.18527
690.73	36369.18404
690.926	36954.17933
691.123	36781.70389
691.319	36691.3786
691.515	37371.19954
691.712	36779.6509
691.908	36818.65888
692.104	36874.09547
692.301	36740.64535
692.497	36498.45341
692.693	36582.5946
692.889	36178.40257
693.086	36071.75167
693.282	36455.36085
693.478	36681.11517
693.674	36775.54494
693.87	36701.64219
694.067	36555.91452
694.263	37083.56786
694.459	36987.03728
694.655	37184.22279
694.851	37077.40587
695.047	36952.12576
695.243	36525.13116
695.439	36157.89154
695.635	36125.07513
695.831	36670.85191
696.027	36311.73891
696.224	36564.12366
696.42	36166.09589
696.615	35887.20065
696.811	36633.90553
697.007	36161.9937
697.203	36500.50551
697.399	36100.46381
697.595	35903.60332
697.791	36473.82875
697.987	35725.24337
698.183	36479.98483
698.379	35692.44606
698.575	36371.23574
698.77	36266.60683
698.966	35897.45227
699.162	36289.1725
699.358	36071.75167
699.554	35827.74397
699.749	36006.12821
699.945	36061.49762
700.141	35706.79471
700.337	35165.82116
700.532	35641.203
700.728	35788.79213
700.924	35987.67268
701.119	35770.34195
701.315	35581.76522
701.511	35298.98288
701.706	36237.88794
701.902	35680.14742
702.097	35989.72327
702.293	35610.45877
702.489	35155.57879
702.684	35692.44606
702.88	35208.8404
703.075	35018.34246
703.271	34942.56415
703.466	35339.95987
703.662	35329.71544
703.857	35208.8404
704.053	35411.6744
704.248	35620.70671
704.443	35846.19554
704.639	34942.56415
704.834	35614.55793
705.03	35690.39627
705.225	35323.56884
705.42	35112.56215
705.616	35337.91098
705.811	34657.93786
706.006	35133.04601
706.202	34813.55039
706.397	34191.24263
706.592	34254.68485
706.787	34629.27508
706.983	35149.43343
707.178	35874.89888
707.373	35909.75441
707.568	35598.16141
707.763	34694.79122
707.959	35243.66706
708.154	34903.65337
708.349	34348.83167
708.544	35112.56215
708.739	35124.85241
708.934	34727.55092
709.129	34748.0263
709.324	34649.74841
709.519	35241.6184
709.714	34784.88305
709.909	35305.1293
710.104	34891.36609
710.299	34989.66885
710.494	34531.00887
710.689	34827.88438
710.884	34981.47656
711.079	34821.74122
711.274	33996.84501
711.469	34533.05599
711.664	34205.56798
711.859	34516.67918
712.054	34086.87772
712.249	34402.04872
712.443	34086.87772
712.638	34533.05599
712.833	34328.36428
713.028	35352.25336
713.223	34680.45919
713.417	34453.22148
713.612	34205.56798
713.807	34058.2302
714.002	33497.69264
714.196	33730.87871
714.391	33685.87464
714.586	33818.84581
714.78	33929.32499
714.975	34070.50762
715.17	33526.32732
715.364	33970.24576
715.559	34021.3987
715.754	33618.37149
715.948	33739.06143
716.143	33700.19395
716.337	33344.30275
716.532	34250.5917
716.726	34009.12179
716.921	33424.06338
717.115	33010.99152
717.31	33047.79529
717.504	33503.82859
717.699	33730.87871
717.893	33166.39118
718.088	33618.37149
718.282	33732.92438
718.476	34019.35254
718.671	33822.93746
718.865	33943.6471
719.059	33068.2422
719.254	32681.83962
719.448	32338.44335
719.642	33074.37633
719.837	32916.94136
720.031	33305.44664
720.225	32567.36698
720.419	33150.03258
720.614	33070.28691
720.808	33571.3259
721.002	33070.28691
721.196	32804.49727
721.39	32726.81306
721.585	32896.49641
721.779	33094.82359
721.973	32855.60727
722.167	32514.22146
722.361	32559.19064
722.555	31974.67347
722.749	32620.51407
722.943	32530.57376
723.137	33006.90227
723.331	32941.47565
723.525	32651.17657
723.719	32452.90164
723.913	32847.42956
724.107	31972.63
724.301	32015.5433
724.495	31745.81642
724.689	32217.8607
724.883	31743.77316
725.077	32677.75118
725.271	32244.42913
725.465	32054.37037
725.659	31966.4996
725.853	31766.24915
726.046	32099.32892
726.24	31952.19539
726.434	31378.05711
726.628	31894.97951
726.822	31519.02503
727.015	32119.76494
727.209	31635.4828
727.403	31731.51363
727.596	32085.02382
727.79	32510.13341
727.984	32534.66186
728.177	32029.84793
728.371	31882.71916
728.565	31631.39647
728.758	31772.379
728.952	31911.32676
729.146	31610.96491
729.339	31782.59546
729.533	31633.43963
729.726	31711.08121
729.92	31621.18067
730.113	31876.58901
730.307	31504.72358
730.5	31615.05121
730.694	31580.3179
730.887	31653.87138
731.081	31253.43968
731.274	31911.32676
731.468	31230.96831
731.661	31498.59441
731.854	31190.11174
732.048	31241.18255
732.241	31329.0266
732.435	31161.5125
732.628	31108.40041
732.821	31369.8853
733.014	31819.37508
733.208	31551.71437
733.401	31545.58509
733.594	31809.15846
733.788	31602.79234
733.981	31776.46558
734.174	31999.19528
734.367	32060.50102
734.56	31907.23993
734.754	31551.71437
734.947	31798.94188
735.14	31322.89785
735.333	31085.93021
735.526	31253.43968
735.719	30769.32317
735.912	31753.98949
736.105	31490.42221
736.298	31233.01115
736.491	31163.55529
736.684	31233.01115
736.877	30797.91856
737.07	30730.51556
737.263	31055.28932
737.456	31390.31488
737.649	31167.64088
737.842	31394.40082
738.035	31196.24018
738.228	31063.46019
738.421	31022.60607
738.614	31098.18666
738.807	31141.08465
739	30944.98482
739.192	30848.98242
739.385	31120.65695
739.578	30826.51421
739.771	30573.24752
739.964	30532.39993
740.156	31312.6833
740.349	30855.11014
740.542	31249.35396
740.735	30679.45365
740.927	31200.32582
741.12	30957.24067
741.313	30624.30772
741.505	30983.79519
741.698	30855.11014
741.891	30164.79396
742.083	30503.80692
742.276	30485.42584
742.468	30289.36714
742.661	30119.86701
742.854	30481.34116
743.046	30379.22597
743.239	30268.94501
743.431	30763.19562
743.624	30575.28991
743.816	30550.78128
744.009	30273.02942
744.201	30109.65642
744.393	30230.14328
744.586	30634.51986
744.778	30524.23047
744.971	30697.83584
745.163	30701.92079
745.355	30802.00363
745.548	30646.77447
745.74	30497.67988
745.932	30695.79337
746.125	30934.77165
746.317	30665.15647
746.509	30413.94479
746.702	30863.28045
746.894	30516.06104
747.086	29797.22601
747.278	29936.08072
747.471	29656.33452
747.663	29789.05825
747.855	29648.16706
748.047	29362.31657
748.239	29411.31803
748.431	29523.61535
748.623	29456.23658
748.815	29537.90797
749.008	29595.07896
749.2	29462.36187
749.392	29629.79033
749.584	29715.54915
749.776	29795.18407
749.968	29319.44078
750.16	29474.61249
750.352	29433.77724
750.544	29497.07206
750.736	29817.6455
750.928	29842.14903
751.12	29480.73782
751.311	29478.69604
751.503	29866.65272
751.695	29452.15305
751.887	29597.1208
752.079	29770.68084
752.271	28956.03589
752.463	29201.02433
752.654	29382.73377
752.846	29405.19282
753.038	28909.08148
753.23	29168.35834
753.421	28904.99852
753.613	28592.66395
753.805	28823.34006
753.997	28619.20123
754.188	28821.29862
754.38	28700.85551
754.572	28286.47755
754.763	28127.27023
754.955	28012.97169
755.146	28441.60899
755.338	28782.51146
755.53	28749.84888
755.721	29107.11033
755.913	28958.0774
756.104	28847.83743
756.296	28896.8326
756.487	28441.60899
756.679	28439.56774
756.87	27904.79955
757.062	27582.34353
757.253	27827.24415
757.445	27961.9467
757.636	28196.66747
757.827	27998.68462
758.019	28572.25077
758.21	28208.91418
758.401	28300.76571
758.593	28319.13628
758.784	27641.52627
758.975	27463.98116
759.167	27686.4242
759.358	27866.02164
759.549	27876.22632
759.74	27896.63575
759.932	27610.91438
760.123	27492.55101
760.314	27598.6697
760.505	27837.44872
760.696	27612.95517
760.888	28010.93068
761.079	27433.37088
761.27	27139.52695
761.461	27417.04552
761.652	27292.56729
761.843	27178.29647
762.034	27447.65564
762.225	27217.06646
762.416	27284.40496
762.607	27217.06646
762.798	27251.75581
762.989	27537.44697
763.18	26825.30822
763.371	26564.16557
763.562	26972.21154
763.753	26723.29645
763.944	26866.11395
764.135	26676.37228
764.326	27194.62062
764.517	26590.68674
764.708	26643.72985
764.899	26076.63282
765.089	26313.24779
765.28	26354.04576
765.471	26217.37517
765.662	25495.39788
765.853	25976.69042
766.043	25705.44036
766.234	25821.68633
766.425	25591.23989
766.615	25925.70106
766.806	26072.55345
766.997	26305.08827
767.187	26190.85787
767.378	26611.08781
767.569	25795.17355
767.759	26247.97241
767.95	25921.62196
768.141	26260.21141
768.331	25997.08648
768.522	25576.96527
768.712	25209.93805
768.903	25548.41632
769.093	25132.46334
769.284	25536.18117
769.474	25497.43702
769.665	25399.56035
769.855	25485.20218
770.046	25619.78943
770.236	25097.80463
770.426	25075.37876
770.617	25366.93585
770.807	25538.22036
770.998	25142.6572
771.188	25660.57516
771.378	24936.75215
771.569	25077.41746
771.759	24908.2127
771.949	24938.7907
772.139	25313.92219
772.33	24702.33469
772.52	24948.98349
772.71	24977.52359
772.9	24510.74782
773.09	24372.16704
773.281	24834.82765
773.471	24427.19033
773.661	24514.82391
773.851	24702.33469
774.041	24508.70978
774.231	24388.47004
774.421	24215.25934
774.611	24029.84369
774.802	24139.86781
774.992	24364.01561
775.182	24429.22827
775.372	24694.18161
775.562	24099.11719
775.752	23685.56262
775.942	23606.12508
776.131	23822.04282
776.321	23820.00571
776.511	24066.5175
776.701	24021.69408
776.891	24227.48534
777.081	24133.75515
777.271	23718.1537
777.461	23724.26461
777.651	23734.44952
777.84	23691.67339
778.03	23569.46316
778.22	23868.89727
778.41	23707.96891
778.599	23917.7905
778.789	23817.96859
778.979	23551.13257
779.169	23125.52685
779.358	23479.84929
779.548	23288.42171
779.738	23292.49435
779.927	23335.25779
780.117	23463.5565
780.307	23151.99585
780.496	23388.20496
780.686	23650.93544
780.875	23270.09501
781.065	23640.75114
781.254	23479.84929
781.444	23420.78888
781.633	22824.22713
781.823	22600.33666
782.012	22704.13518
782.202	22932.11653
782.391	22504.68734
782.581	22596.26631
782.77	22459.91803
782.96	22553.52856
783.149	22211.68375
783.338	22921.93788
783.528	22767.23284
783.717	22429.3945
783.906	22343.93295
784.096	22295.10067
784.285	22262.54699
784.474	21737.75155
784.663	22081.48446
784.853	21916.72309
785.042	21719.44933
785.231	21534.41138
785.42	21489.68184
785.61	21528.31179
785.799	21548.64391
785.988	21861.80819
786.177	21548.64391
786.366	21528.31179
786.555	21575.07627
786.744	21205.08458
786.933	21296.55368
787.122	21855.70671
787.312	21751.98682
787.501	21831.30113
787.69	21451.05332
787.879	21646.24362
788.068	21054.6866
788.257	21140.04488
788.445	21320.94682
788.634	21532.37818
788.823	21219.31257
789.012	21473.41702
789.201	21560.84338
789.39	21562.87664
789.579	21400.22852
789.768	21880.11285
789.957	21237.60599
790.145	21296.55368
790.334	21381.9322
790.523	21280.29191
790.712	21388.03094
790.9	21890.28224
791.089	21292.48821
791.278	21601.50929
791.467	21201.01948
791.655	21176.6292
791.844	21164.43428
792.033	20725.51538
792.221	20800.68691
792.41	20827.09988
792.599	20406.60772
792.787	20851.48169
792.976	20768.1796
793.164	20999.81723
793.353	20912.43885
793.541	20843.35436
793.73	20816.94096
793.918	20755.98964
794.107	20672.69554
794.295	20544.72069
794.484	20500.03496
794.672	20737.70497
794.861	20676.75851
795.049	20743.79982
795.238	20199.47462
795.426	20412.70053
795.614	20491.9105
795.803	20571.12684
795.991	20337.5585
796.179	20800.68691
796.368	20552.84559
796.556	20390.36041
796.744	19911.18569
796.932	20152.77418
797.121	19744.7476
797.309	20173.07845
797.497	20091.8639
797.685	20065.47063
797.874	19706.1867
798.062	19998.4755
798.25	19365.29276
798.438	19716.33416
798.626	19263.85886
798.814	19537.75416
799.002	19462.67904
799.19	19616.89357
799.378	19580.3669
799.566	19722.42268
799.755	19255.74459
799.943	19385.58078
800.131	19393.69611
800.318	19391.66727
800.506	19637.18676
800.694	19523.55032
800.882	19237.48773
801.07	19537.75416
801.258	19454.56315
801.446	19267.91601
801.634	19063.05001
801.822	19478.91102
802.01	19357.17767
802.197	19592.54231
802.385	19148.23675
802.573	19308.4885
802.761	19142.15174
802.949	19450.50523
803.136	19399.78264
803.324	19101.58598
803.512	19468.766
803.699	19196.91812
803.887	19113.75554
804.075	19574.27926
804.262	18963.67454
804.45	19407.89808
804.638	19436.30265
804.825	19476.882
805.013	19253.71603
805.201	19598.63007
805.388	19024.51551
805.576	19332.83279
805.763	19109.699
805.951	19091.44479
806.138	18979.89844
806.326	19265.88743
806.513	19107.67074
806.701	19061.02184
806.888	19075.21911
807.075	19227.34517
807.263	18777.11809
807.45	19314.57452
807.638	18862.28097
807.825	19227.34517
808.012	19065.07818
808.2	19052.90921
808.387	19251.68748
808.574	18941.36709
808.761	19389.63844
808.949	18983.95446
809.136	19061.02184
809.323	19142.15174
809.51	19320.66057
809.698	18854.16992
809.885	18781.17331
810.072	18979.89844
810.259	19136.06678
810.446	19081.30371
810.633	19336.89023
810.82	19661.53912
811.008	19446.44733
811.195	19474.853
811.382	19117.81209
811.569	19192.86125
811.756	18738.59433
811.943	19369.35033
812.13	19063.05001
812.317	19020.45933
812.504	18702.09945
812.691	19456.59212
812.878	19422.10026
813.064	19860.43938
813.251	19787.3693
813.438	19840.14159
813.625	19428.18697
813.812	19385.58078
813.999	19207.06037
814.186	18696.01709
814.372	18460.85955
814.559	18963.67454
814.746	18456.80556
814.933	18935.28333
815.12	19194.88968
815.306	19345.00516
815.493	18827.80943
815.68	18886.61451
815.866	18943.39502
816.053	19129.98184
816.24	18726.42923
816.426	18556.13262
816.613	18375.72906
816.799	18990.03851
816.986	19134.03846
817.173	19401.8115
817.359	19105.64248
817.546	19160.40687
817.732	18773.06289
817.919	19101.58598
818.105	18655.46895
818.292	19050.88106
818.478	18931.2275
818.665	19052.90921
818.851	18736.5668
819.037	19129.98184
819.224	18698.04454
819.41	18762.92496
819.597	18345.32694
819.783	18813.61561
819.969	18929.1996
820.156	19129.98184
820.342	19211.1173
820.528	18943.39502
820.714	18975.84244
820.901	19134.03846
821.087	19105.64248
821.273	19298.34523
821.459	18862.28097
821.646	18842.00346
821.832	18700.07199
822.018	18286.55189
822.204	17856.9794
822.39	18073.77171
822.576	17911.6802
822.762	18162.93182
822.948	17968.40965
823.134	18262.2321
823.32	17996.77541
823.507	18209.54105
823.693	17942.07064
823.879	18002.85388
824.065	18055.53528
824.25	18183.19647
824.436	17929.91437
824.622	17871.16084
824.808	18057.56154
824.994	18057.56154
825.18	18213.59412
825.366	18071.74543
825.552	17565.28354
825.738	17919.78424
825.923	18023.11567
826.109	17944.09669
826.295	17840.77223
826.481	18132.53554
826.667	18150.77321
826.852	17836.72048
827.038	17632.12443
827.224	17536.92787
827.409	17437.68792
827.595	17431.61225
827.781	17364.78171
827.966	17573.38528
828.152	17443.76362
828.338	17593.63985
828.523	16852.51934
828.709	17320.22987
828.894	17214.93126
829.08	16927.42425
829.266	17168.3594
829.451	17597.6908
829.637	17227.0807
829.822	16846.44612
830.008	16888.95913
830.193	17002.33274
830.378	16844.42172
830.564	17427.56182
830.749	17314.15473
830.935	17263.52963
831.12	16860.617
831.305	17010.43117
831.491	16729.03494
831.676	16878.83688
831.861	16607.58353
832.047	16878.83688
832.232	16779.6422
832.417	16767.49632
832.602	16708.79246
832.788	16267.56058
832.973	16206.84788
833.158	16496.26014
833.343	16407.20601
833.528	16816.08037
833.714	16473.99624
833.899	16599.48706
834.084	16502.33216
834.269	16718.91367
834.454	16433.51705
834.639	16249.3466
834.824	16138.04201
835.009	16279.70331
835.194	16131.97099
835.379	16674.38078
835.564	16366.72815
835.749	16569.12561
835.934	16702.71976
836.119	16451.73258
836.304	16097.56884
836.489	16239.22779
836.674	15968.05876
836.859	16144.11304
837.044	16411.25384
837.228	16285.7747
837.413	15974.12941
837.598	16140.06568
837.783	16018.64793
837.968	16411.25384
838.152	15996.38859
838.337	16121.85267
838.522	15609.90884
838.707	15796.06163
838.891	15164.78278
839.076	15549.20841
839.261	15516.83511
839.445	15530.99841
839.63	15613.95556
839.815	15308.43521
839.999	15391.38996
840.184	15215.36455
840.368	15013.03723
840.553	15290.2257
840.737	15520.88176
840.922	15411.62292
841.106	15431.85592
841.291	15403.52973
841.475	15027.20019
841.66	15276.06276
841.844	15031.24675
842.029	14944.24548
842.213	15027.20019
842.397	15207.27147
842.582	15154.66643
842.766	15172.87586
842.951	14727.74989
843.135	14837.01025
843.319	14820.82366
843.504	14683.23572
843.688	15013.03723
843.872	14915.91933
844.056	14952.33865
844.241	14897.70962
844.425	14624.55726
844.609	14715.6097
844.793	15061.5959
844.977	14843.08021
845.161	14399.95114
845.346	14709.5396
845.53	14642.76791
845.714	14814.75368
845.898	14533.50264
846.082	14873.42993
846.266	14750.00681
846.45	14723.70316
846.634	14474.82167
846.818	14499.10359
847.002	14333.17293
847.186	14549.69031
847.37	14227.94283
847.554	14076.15926
847.738	13914.24256
847.922	13877.80903
848.106	13902.09815
848.29	13774.57576
848.473	14288.6531
848.657	14090.32624
848.841	14001.27475
849.025	14068.0638
849.209	13481.02439
849.392	13800.89084
849.576	13817.08449
849.76	13630.84567
849.944	13754.33305
850.127	13873.76081
850.311	13833.27795
850.495	13900.07407
850.678	14043.77717
850.862	14602.29968
851.046	13869.71257
851.229	14057.94441
851.413	13847.44708
851.596	13849.47123
851.78	13632.87016
851.964	13638.94358
852.147	13375.73242
852.331	13254.22812
852.514	13104.35117
852.698	13209.67269
852.881	12936.21491
853.065	13347.38275
853.248	13310.932
853.431	13132.70819
853.615	13128.65724
853.798	13314.98215
853.982	12930.13705
854.165	12849.09428
854.348	12948.3705
854.532	13130.68272
854.715	13035.48021
854.898	13351.43275
855.081	13063.83951
855.265	13138.78458
855.448	12528.88659
855.631	12990.91362
855.814	12731.56668
855.997	12984.83617
856.181	12595.77776
856.364	12899.74701
856.547	12682.92895
856.73	12901.77305
856.913	12455.90648
857.096	12626.18061
857.279	12401.16582
857.462	12693.06209
857.645	12366.69697
857.828	12672.79566
858.011	12721.4341
858.194	12587.67011
858.377	12522.80523
858.56	12461.98848
858.743	12313.97607
858.926	12512.66951
859.109	12273.41832
859.292	12214.60451
859.475	11896.08841
859.658	12269.36239
859.841	11713.40927
860.023	11948.84972
860.206	11798.66815
860.389	12038.12568
860.572	11571.27628
860.755	11674.83468
860.937	11530.6586
861.12	11977.25739
861.303	12090.8725
861.486	11875.79412
861.668	11782.42954
861.851	11790.54892
862.034	11546.90612
862.216	11408.78279
862.399	11343.76803
862.581	11380.34008
862.764	11479.8812
862.947	11569.24548
863.129	11516.44152
863.312	11837.23266
863.494	11339.70427
863.677	11595.6451
863.859	11425.0349
864.042	11540.81337
864.224	11414.8774
864.406	11319.38486
864.589	10796.81198
864.771	10953.45697
864.954	10782.56811
865.136	10981.93061
865.318	10664.52501
865.501	10961.59252
865.683	10839.54013
865.865	11114.1013
866.048	10941.2533
866.23	11000.23394
866.412	10741.86815
866.594	10979.89685
866.777	10648.24001
866.959	10790.70754
867.141	10760.18372
867.323	10676.73825
867.505	10477.19952
867.687	10405.90619
867.869	10432.38842
868.052	10375.34703
868.234	10214.35277
868.416	10576.98388
868.598	10896.50304
868.78	10908.7082
868.962	10672.66722
869.144	10638.06149
869.326	10678.77375
869.508	10627.88266
869.69	10839.54013
869.872	10929.04923
870.054	10690.98647
870.236	10721.51638
870.417	10456.83161
870.599	10426.27733
870.781	10261.23318
870.963	10505.71244
871.145	10605.48815
871.327	10493.49293
871.508	10306.06861
871.69	10452.75788
871.872	9939.03665
872.054	10428.31438
872.235	10301.99293
872.417	10369.23485
872.599	10342.74733
872.78	10454.79475
872.962	10159.31001
873.144	10440.53636
873.325	9981.88064
873.507	10346.82248
873.689	10326.44621
873.87	10279.57573
874.052	10038.99605
874.233	10169.50387
874.415	9861.49306
874.596	10171.5426
874.778	9906.38931
874.959	10163.3876
875.141	10122.60923
875.322	10438.4994
875.503	10185.81333
875.685	10318.29533
875.866	9979.84059
876.048	10249.0042
876.229	9839.04225
876.41	9916.592
876.592	9661.41254
876.773	10057.3522
876.954	9943.11731
877.136	10173.58132
877.317	10061.43119
877.498	10249.0042
877.679	9871.69738
877.86	10295.87931
878.042	10000.24039
878.223	10075.7072
878.404	10163.3876
878.585	9912.51097
878.766	10289.76557
878.947	10354.97262
879.128	10259.19505
879.309	10138.92125
879.49	9900.26751
879.672	10171.5426
879.853	10059.3917
880.034	10077.74658
880.215	9724.71909
880.396	10041.03568
880.576	9977.80053
880.757	10038.99605
880.938	9971.68027
881.119	10008.39991
881.3	9849.24739
881.481	9910.47043
881.662	9865.57483
881.843	10204.16042
882.023	10173.58132
882.204	10140.96019
882.385	10079.78594
882.566	9857.41123
882.747	9773.72053
882.927	10079.78594
883.108	10057.3522
883.289	10448.68409
883.469	10142.99911
883.65	10497.56615
883.831	9857.41123
884.011	10308.10643
884.192	10196.0063
884.373	10140.96019
884.553	9849.24739
884.734	9926.79434
884.914	9845.16538
885.095	10271.42362
885.275	10232.69813
885.456	10501.63932
885.636	10530.15011
885.817	10564.76701
885.997	10226.58314
886.178	10367.19742
886.358	10171.5426
886.538	10458.86846
886.719	10108.33549
886.899	10393.68288
887.08	10092.0218
887.26	10165.42637
887.44	9896.18624
887.621	10287.72763
887.801	10161.34881
887.981	10332.55923
888.161	10228.62148
888.342	10102.21796
888.522	10106.29633
888.702	10479.23624
888.882	10297.9172
889.062	10244.92777
889.242	9953.31869
889.423	10240.85128
889.603	10098.13954
889.783	10285.68968
889.963	9820.67207
890.143	10275.49971
890.323	10285.68968
890.503	10509.78551
890.683	10377.3844
890.863	10265.3094
891.043	10434.42543
891.223	10228.62148
891.403	10116.492
891.583	10210.27587
891.763	9877.8198
891.943	10318.29533
892.122	10246.96599
892.302	10255.11875
892.482	10045.1149
892.662	9857.41123
892.842	9922.71345
893.022	9853.32934
893.201	9918.6325
893.381	9832.91899
893.561	9618.51902
893.741	10212.31433
893.92	9685.92006
894.1	10106.29633
894.28	9841.08331
894.459	9614.43357
894.639	9457.09553
894.819	9953.31869
894.998	9904.34872
895.178	9681.83563
895.357	9622.60442
895.537	9659.37015
895.716	9788.01097
895.896	9820.67207
896.075	9538.84132
896.255	9391.68034
896.434	9330.33841
896.614	9604.21966
896.793	9303.7523
896.973	9796.17661
897.152	9268.98161
897.331	9692.04659
897.511	9305.79749
897.69	9594.00536
897.87	9405.99133
898.049	9683.87785
898.228	9393.72481
898.407	9657.32774
898.587	9271.02708
898.766	9530.66789
898.945	8908.71303
899.124	9271.02708
899.304	9414.16869
899.483	9710.42536
899.662	9577.66165
899.841	9248.52601
900.02	9054.11318
900.199	9209.65573
900.378	9350.78736
900.557	9309.88781
900.737	9297.61665
900.916	9577.66165
901.095	9043.87663
901.274	9129.85022
901.453	9043.87663
901.632	8814.46229
901.811	8615.58985
901.989	8757.07355
902.168	8584.82082
902.347	8906.66451
902.526	8773.47179
902.705	8683.26695
902.884	8660.71016
903.063	9146.2227
903.242	8734.52406
903.42	9021.35468
903.599	8718.12303
903.778	8736.5741
903.957	8363.15784
904.135	8675.06474
904.314	8533.5297
904.493	8359.05086
904.672	8322.08452
904.85	8385.74486
905.029	8289.22024
905.207	8705.8215
905.386	8469.91227
905.565	8482.22675
905.743	8254.29645
905.922	8404.2234
906.1	8264.56874
906.279	8535.58157
906.457	8256.35095
906.636	8305.65301
906.814	8309.761
906.993	8268.67752
907.171	8430.91187
907.35	8478.122
907.528	8167.98967
907.707	8063.14127
907.885	8001.44123
908.063	7968.52706
908.242	7857.40297
908.42	7935.60766
908.598	7651.45748
908.777	7984.9848
908.955	7830.64188
909.133	8013.7827
909.311	7595.81603
909.49	7832.70055
909.668	7670.00119
909.846	7641.15468
910.024	7589.63269
910.202	7960.2977
910.38	7616.42578
910.559	7616.42578
910.737	7360.71298
910.915	7795.64131
911.093	7234.79608
911.271	7368.96697
911.449	7201.75513
911.627	7201.75513
911.805	7236.86095
911.983	7397.85321
912.161	7234.79608
912.339	7331.82123
912.517	7234.79608
912.695	7148.05149
912.872	6763.42159
913.05	7065.40112
913.228	6850.34193
913.406	7032.33095
913.584	7114.99563
913.762	7013.72646
913.939	6986.85009
914.117	7185.23253
914.295	6730.29847
914.473	7166.64291
914.65	6730.29847
914.828	7106.73077
915.006	6757.21145
915.184	7038.53205
915.361	6574.95552
915.539	6672.31891
915.716	6765.49159
915.894	6856.54899
916.072	6717.8758
916.249	6751.00111
916.427	6661.96352
916.604	6612.24964
916.782	6438.14622
916.959	6624.67935
917.137	6541.7989
917.314	6519.00028
917.492	6448.5141
917.669	6608.10622
917.847	6230.6662
918.024	6259.72747
918.201	5775.46493
918.379	6191.21855
918.556	5854.53068
918.733	5946.03792
918.911	5600.56709
919.088	6010.48152
919.265	5821.24399
919.442	5810.84066
919.62	5606.81631
919.797	5781.7082
919.974	5742.16389
920.151	5946.03792
920.328	5544.31458
920.506	5733.83769
920.683	5669.29681
920.86	5577.65148
921.037	5613.06531
921.214	5606.81631
921.391	5542.23083
921.568	5585.98476
921.745	5204.3521
921.922	5358.76814
922.099	5275.31592
922.276	5588.06802
922.453	5346.2527
922.63	5385.88204
922.807	5227.31394
922.984	5241.92454
923.161	5018.46648
923.338	5277.40268
923.514	5041.45105
923.691	5241.92454
923.868	5076.96716
924.045	5068.61103
924.222	4968.30862
924.399	5170.94803
924.575	4597.9882
924.752	4773.82212
924.929	4641.96155
925.105	4811.48007
925.282	4675.45842
925.459	4771.72979
925.635	4556.09968
925.812	4913.95598
925.989	4497.44083
926.165	4798.92824
926.342	4480.67798
926.518	4472.29602
926.695	4275.21954
926.871	4489.05958
927.048	4294.09684
927.224	4518.39241
927.401	4180.80706
927.577	4591.70549
927.754	4197.59465
927.93	4279.41464
928.107	4136.73323
928.283	3989.75404
928.459	4010.75726
928.636	4296.19421
928.812	4111.54403
928.988	4008.65703
929.165	3832.16531
929.341	4340.23403
929.517	3878.40305
929.693	4119.94076
929.87	3649.22321
930.046	3993.95485
930.222	3827.96141
930.398	4019.15798
930.574	3588.2103
930.751	3945.64063
930.927	3476.6636
931.103	3684.982
931.279	3396.65536
931.455	3598.7309
931.631	3188.09489
931.807	3796.42959
931.983	3400.86696
932.159	3735.45558
932.335	3099.56539
932.511	3409.28995
932.687	3213.38376
932.863	3506.13377
933.039	3306.08904
933.215	3489.29411
933.391	3093.24077
933.566	3312.40866
933.742	3063.72402
933.918	3190.20239
934.094	2764.1739
934.27	2943.51752
934.445	2460.12855
934.621	2728.29321
934.797	2453.79168
934.973	2785.27839
935.148	2377.74165
935.324	2620.6286
935.5	2358.72704
935.675	2398.86802
935.851	2244.62285
936.027	2426.33075
936.202	2196.0148
936.378	2377.74165
936.553	2031.13827
936.729	2031.13827
936.904	1817.5845
937.08	1849.30387
937.255	1489.77424
937.431	1707.61677
937.606	1519.38485
937.782	1504.57956
937.957	1422.0926
938.133	1563.80043
938.308	1250.77739
938.483	1352.29635
938.659	1126.00261
938.834	1381.90676
939.009	1051.99068
939.185	1221.16873
939.36	975.87127
939.535	1098.51175
939.71	950.5
939.886	1051.99068
940.061	861.70902
940.236	997.01474
940.411	737.00477
940.586	895.53252
940.761	734.89144
940.937	726.4382
941.112	692.62699
941.287	906.10279
941.462	665.1575
941.637	722.21165
941.812	715.8719
941.987	667.27047
942.162	667.27047
942.337	709.53225
942.512	567.97422
942.687	734.89144
942.862	523.61715
943.037	608.11191
943.212	500.38496
943.386	641.91564
943.561	540.51437
943.736	601.77407
943.911	489.82546
944.086	551.07558
944.26	570.08662
944.435	439.14506
944.61	447.59118
944.785	542.62658
944.959	365.25246
945.134	565.86185
945.309	477.15454
945.483	527.84137
945.658	513.05685
945.833	540.51437
946.007	489.82546
946.182	542.62658
946.357	460.26082
946.531	515.16888
946.706	506.72084
946.88	546.85105
947.055	477.15454
947.229	500.38496
947.404	540.51437
947.578	468.70756
947.752	401.14065
947.927	481.37812
948.101	449.70275
948.276	489.82546
948.45	513.05685
948.624	595.43635
948.799	567.97422
948.973	508.83283
949.147	548.96331
949.321	582.76124
949.496	584.87373
949.67	553.18786
949.844	593.3238
950.018	641.91564
950.193	494.04922
950.367	506.72084
950.541	510.94483
950.715	584.87373
950.889	500.38496
951.063	567.97422
951.237	586.98623
951.411	620.78794
951.585	542.62658
951.759	756.02526
951.933	650.36706
952.107	525.72925
952.281	489.82546
952.455	567.97422
952.629	491.93733
952.803	644.02847
952.977	551.07558
953.151	625.01338
953.325	540.51437
953.499	646.14132
953.672	502.49691
953.846	635.5772
954.02	591.21126
954.194	557.41247
954.368	633.46441
954.541	684.17464
954.715	591.21126
954.889	701.07953
955.062	625.01338
955.236	648.25418
955.41	599.66148
955.583	734.89144
955.757	627.12612
955.93	711.64545
956.104	652.47994
956.278	737.00477
956.451	576.42387
956.625	654.59284
956.798	532.06565
956.972	713.75867
957.145	608.11191
957.319	705.30587
957.492	574.31144
957.665	713.75867
957.839	658.81867
958.012	772.93306
958.185	572.19902
958.359	709.53225
958.532	527.84137
958.705	595.43635
958.879	589.09874
959.052	620.78794
959.225	519.39299
959.398	616.56254
959.572	532.06565
959.745	603.88667
959.918	620.78794
960.091	701.07953
960.264	608.11191
960.438	637.69
960.611	523.61715
960.784	544.73881
960.957	523.61715
961.13	633.46441
961.303	434.92209
961.476	546.85105
961.649	483.48993
961.822	510.94483
961.995	506.72084
962.168	481.37812
962.341	464.48416
962.514	439.14506
962.686	515.16888
962.859	504.60887
963.032	346.25481
963.205	519.39299
963.378	504.60887
963.551	538.40216
963.723	456.03755
963.896	510.94483
964.069	434.92209
964.242	576.42387
964.414	396.91826
964.587	517.28093
964.76	464.48416
964.932	491.93733
965.105	356.80889
965.278	506.72084
965.45	413.80821
965.623	426.47635
965.795	377.91833
965.968	422.25357
966.14	420.14221
966.313	542.62658
966.485	365.25246
966.658	496.16112
966.83	339.92257
967.003	532.06565
967.175	413.80821
967.348	424.36495
967.52	301.93248
967.692	529.9535
967.865	396.91826
968.037	508.83283
968.209	384.25149
968.382	485.60176
968.554	472.93102
968.726	456.03755
968.898	506.72084
969.071	525.72925
969.243	367.3634
969.415	422.25357
969.587	304.04289
969.759	407.47436
969.932	430.69919
970.104	481.37812
970.276	363.14154
970.448	441.25656
970.62	352.58721
970.792	392.69594
970.964	323.03738
971.136	293.49103
971.308	251.28824
971.48	449.70275
971.652	316.70572
971.824	458.14918
971.996	285.04988
972.168	259.7282
972.339	179.56125
972.511	291.38072
972.683	365.25246
972.855	365.25246
973.027	331.47983
973.199	306.15332
973.37	295.60137
973.542	346.25481
973.714	289.27042
973.886	342.0333
974.057	333.59049
974.229	280.82941
974.401	217.53151
974.572	312.48471
974.744	316.70572
974.915	337.81186
975.087	200.65503
975.259	272.3887
975.43	287.16014
975.602	253.3982
975.773	173.23352
975.945	268.16846
976.116	270.27857
976.288	316.70572
976.459	223.86052
976.63	263.94829
976.802	323.03738
976.973	337.81186
977.145	312.48471
977.316	272.3887
977.487	240.73873
977.659	301.93248
977.83	316.70572
978.001	198.54556
978.172	223.86052
978.344	221.75083
978.515	213.31227
978.686	230.1897
978.857	160.57861
979.028	160.57861
979.2	143.70656
979.371	187.99852
979.542	143.70656
979.713	312.48471
979.884	230.1897
980.055	169.01513
980.226	160.57861
980.397	187.99852
980.568	179.56125
980.739	204.87403
980.91	158.46953
981.081	219.64116
981.252	160.57861
981.423	160.57861
981.594	242.84859
981.765	228.07995
981.936	213.31227
982.106	198.54556
982.277	177.45199
982.448	143.70656
982.619	152.14241
982.79	145.81549
982.96	179.56125
983.131	154.25143
983.302	247.06838
983.472	217.53151
983.643	194.32669
983.814	137.37989
983.984	202.76452
984.155	156.36047
984.326	152.14241
984.496	53.04315
984.667	200.65503
984.837	156.36047
985.008	160.57861
985.178	137.37989
985.349	118.40105
985.519	128.94464
985.69	103.64094
985.86	190.10789
986.031	133.16222
986.201	103.64094
986.371	44.61145
986.542	228.07995
986.712	112.07516
986.882	164.79683
987.053	124.72714
987.223	135.27105
987.393	59.36716
987.563	156.36047
987.734	42.50359
987.904	84.66525
988.074	69.90763
988.244	112.07516
988.414	109.96657
988.585	128.94464
988.755	135.27105
988.925	128.94464
989.095	17.21104
989.265	118.40105
989.435	55.15113
989.605	78.34042
989.775	93.09867
989.945	171.12431
990.115	107.85801
990.285	143.70656
990.455	122.61842
990.625	109.96657
990.795	93.09867
990.965	156.36047
991.134	118.40105
991.304	29.85689
991.474	105.74946
991.644	128.94464
991.814	141.59765
991.984	128.94464
992.153	112.07516
992.323	76.23219
992.493	61.47521
992.662	99.42397
992.832	50.93519
993.002	80.44868
993.171	164.79683
993.341	50.93519
993.511	80.44868
993.68	61.47521
993.85	61.47521
994.019	103.64094
994.189	67.79949
994.358	109.96657
994.528	84.66525
994.697	25.64151
994.867	53.04315
995.036	97.31551
995.206	114.18377
995.375	95.20708
995.544	25.64151
995.714	63.58328
995.883	8.78094
996.052	38.28793
996.222	69.90763
996.391	-29.1497
996.56	50.93519
996.73	179.56125
996.899	17.21104
997.068	25.64151
997.237	101.53244
997.406	-8.0781
997.576	67.79949
997.745	10.88843
997.914	46.71934
998.083	109.96657
998.252	61.47521
998.421	67.79949
998.59	158.46953
998.759	154.25143
998.928	17.21104
999.097	27.74919
999.266	48.82725
999.435	8.78094
999.604	61.47521
999.773	53.04315
999.942	8.78094
1000.111	78.34042
1000.28	44.61145
1000.448	118.40105
1000.617	42.50359
1000.786	55.15113
1000.955	36.18013
1001.124	80.44868
1001.292	23.53386
1001.461	86.77357
1001.63	63.58328
1001.798	-1.75614
1001.967	-20.72135
1002.136	34.07236
1002.304	-14.39983
1002.473	2.45862
1002.642	8.78094
1002.81	74.12398
1002.979	36.18013
1003.147	-33.36373
1003.316	109.96657
1003.484	74.12398
1003.653	-5.9708
1003.821	42.50359
1003.99	19.31862
1004.158	44.61145
1004.327	65.69137
1004.495	38.28793
1004.663	105.74946
1004.832	21.42623
1005	-48.11204
1005.168	135.27105
1005.337	69.90763
1005.505	27.74919
1005.673	48.82725
1005.842	93.09867
1006.01	95.20708
1006.178	59.36716
1006.346	55.15113
1006.514	12.99594
1006.683	40.39575
1006.851	-16.50703
1007.019	53.04315
1007.187	50.93519
1007.355	42.50359
1007.523	29.85689
1007.691	-3.86348
1007.859	44.61145
1008.027	34.07236
1008.195	34.07236
1008.363	2.45862
1008.531	59.36716
1008.699	34.07236
1008.867	126.83588
1009.035	67.79949
1009.203	61.47521
1009.37	8.78094
1009.538	27.74919
1009.706	-8.0781
1009.874	29.85689
1010.042	-20.72135
1010.209	-3.86348
1010.377	97.31551
1010.545	86.77357
1010.713	8.78094
1010.88	17.21104
1011.048	29.85689
1011.216	61.47521
1011.383	2.45862
1011.551	17.21104
1011.718	61.47521
1011.886	93.09867
1012.054	53.04315
1012.221	8.78094
1012.389	27.74919
1012.556	4.56604
1012.724	15.10348
1012.891	19.31862
1013.058	50.93519
1013.226	2.45862
1013.393	8.78094
1013.561	2.45862
1013.728	17.21104
1013.895	67.79949
1014.063	-16.50703
1014.23	36.18013
1014.397	44.61145
1014.565	50.93519
1014.732	0.35123
1014.899	42.50359
1015.066	-18.61421
1015.233	63.58328
1015.401	21.42623
1015.568	-8.0781
1015.735	0.35123
1015.902	0.35123
1016.069	25.64151
1016.236	8.78094
1016.403	-41.79148
1016.57	19.31862
1016.737	76.23219
1016.904	34.07236
1017.071	69.90763
1017.238	-14.39983
1017.405	-12.29261
1017.572	25.64151
1017.739	67.79949
1017.906	69.90763
1018.073	61.47521
1018.24	34.07236
1018.407	12.99594
1018.573	-52.32561
1018.74	67.79949
1018.907	-1.75614
1019.074	-14.39983
1019.241	97.31551
1019.407	-24.93558
1019.574	-29.1497
1019.741	23.53386
1019.907	-29.1497
1020.074	-5.9708
1020.241	63.58328
1020.407	-16.50703
1020.574	34.07236
1020.74	76.23219
1020.907	2.45862
1021.073	29.85689
1021.24	31.96461
1021.406	8.78094
1021.573	53.04315
1021.739	10.88843
1021.906	-73.39198
1022.072	8.78094
1022.239	46.71934
1022.405	42.50359
1022.571	-27.04265
1022.738	-29.1497
1022.904	17.21104
1023.07	19.31862
1023.237	-75.49848
1023.403	-3.86348
1023.569	-16.50703
1023.735	-41.79148
1023.902	15.10348
1024.068	78.34042
1024.234	-3.86348
1024.4	4.56604
1024.566	29.85689
1024.732	-14.39983
1024.898	-31.25673
1025.065	12.99594
1025.231	17.21104
1025.397	-39.68458
1025.563	38.28793
1025.729	-1.75614
1025.895	19.31862
1026.061	-56.53909
1026.227	-24.93558
1026.392	-3.86348
1026.558	-24.93558
1026.724	84.66525
1026.89	-41.79148
1027.056	-8.0781
1027.222	-16.50703
1027.388	50.93519
1027.553	8.78094
1027.719	19.31862
1027.885	-24.93558
1028.051	0.35123
1028.216	-20.72135
1028.382	42.50359
1028.548	46.71934
1028.713	-22.82848
1028.879	-8.0781
1029.045	-24.93558
1029.21	10.88843
1029.376	-8.0781
1029.541	-50.21884
1029.707	19.31862
1029.873	-41.79148
1030.038	-5.9708
1030.204	6.67348
1030.369	42.50359
1030.534	8.78094
1030.7	8.78094
1030.865	-56.53909
1031.031	42.50359
1031.196	12.99594
1031.361	-102.88057
1031.527	61.47521
1031.692	-24.93558
1031.857	0.35123
1032.023	61.47521
1032.188	-29.1497
1032.353	25.64151
1032.518	34.07236
1032.684	50.93519
1032.849	-8.0781
1033.014	-33.36373
1033.179	17.21104
1033.344	29.85689
1033.509	-29.1497
1033.674	-12.29261
1033.839	-5.9708
1034.004	4.56604
1034.17	27.74919
1034.335	27.74919
1034.5	-33.36373
1034.664	50.93519
1034.829	67.79949
1034.994	99.42397
1035.159	-41.79148
1035.324	19.31862
1035.489	12.99594
1035.654	-83.9242
1035.819	27.74919
1035.984	67.79949
1036.148	101.53244
1036.313	4.56604
1036.478	12.99594
1036.643	-5.9708
1036.807	-3.86348
1036.972	-41.79148
1037.137	31.96461
1037.301	-12.29261
1037.466	17.21104
1037.631	19.31862
1037.795	10.88843
1037.96	12.99594
1038.124	2.45862
1038.289	23.53386
1038.454	36.18013
1038.618	-12.29261
1038.783	42.50359
1038.947	44.61145
1039.111	-54.43236
1039.276	-10.18537
1039.44	93.09867
1039.605	21.42623
1039.769	-50.21884
1039.933	4.56604
1040.098	-8.0781
1040.262	76.23219
1040.426	12.99594
1040.591	38.28793
1040.755	-16.50703
1040.919	42.50359
1041.083	23.53386
1041.248	0.35123
1041.412	44.61145
1041.576	8.78094
1041.74	61.47521
1041.904	38.28793
1042.068	10.88843
1042.232	-14.39983
1042.397	67.79949
1042.561	76.23219
1042.725	19.31862
1042.889	50.93519
1043.053	67.79949
1043.217	-22.82848
1043.381	36.18013
1043.544	23.53386
1043.708	34.07236
1043.872	19.31862
1044.036	0.35123
1044.2	25.64151
1044.364	12.99594
1044.528	93.09867
1044.691	-33.36373
1044.855	-16.50703
1045.019	15.10348
1045.183	-62.85911
1045.346	116.2924
1045.51	-33.36373
1045.674	53.04315
1045.837	-12.29261
1046.001	67.79949
1046.165	8.78094
1046.328	-8.0781
1046.492	-33.36373
1046.655	36.18013
1046.819	23.53386
1046.983	-16.50703
1047.146	69.90763
1047.31	27.74919
1047.473	-12.29261
1047.636	-98.66823
1047.8	-24.93558
1047.963	8.78094
1048.127	57.25913
1048.29	-35.47071
