Data from mixed_try1_USB4F045381__32__00257.txt Node

Date: Thu Apr 03 20:26:46 EDT 2025
User: mmckonesweet
Spectrometer: USB4F04538
Trigger mode: 4
Integration Time (sec): 2.700000E-3
Scans to average: 1
Electric dark correction enabled: true
Nonlinearity correction enabled: true
Boxcar width: 0
XAxis mode: Wavelengths
Number of Pixels in Spectrum: 3648
>>>>>Begin Spectral Data<<<<<
345.52	5.97099
345.736	5.97099
345.952	5.97099
346.168	48.12461
346.384	-48.81431
346.6	58.66448
346.816	-17.20943
347.032	-53.02787
347.248	-19.31659
347.464	-23.53085
347.68	22.83131
347.896	22.83131
348.112	20.72369
348.328	-25.63794
348.544	16.50851
348.76	-27.74501
348.975	24.93896
349.191	-21.42373
349.407	-19.31659
349.623	-8.78052
349.839	-67.77453
350.055	81.85419
350.27	39.69314
350.486	5.97099
350.702	58.66448
350.918	33.36978
351.133	27.04663
351.349	62.88058
351.565	20.72369
351.781	-19.31659
351.996	132.45929
352.212	-19.31659
352.428	14.40096
352.644	-2.45859
352.859	14.40096
353.075	-17.20943
353.291	3.86356
353.506	-44.60065
353.722	12.29343
353.938	-74.09415
354.153	90.28749
354.369	-0.35123
354.584	39.69314
354.8	29.15432
355.016	5.97099
355.231	5.97099
355.447	5.97099
355.662	-74.09415
355.878	18.61609
356.093	81.85419
356.309	-0.35123
356.524	-61.45468
356.74	8.07845
356.955	-19.31659
357.171	-19.31659
357.386	-53.02787
357.602	18.61609
357.817	33.36978
358.033	16.50851
358.248	-78.3071
358.464	14.40096
358.679	-10.88778
358.895	-15.10224
359.11	-57.24133
359.325	39.69314
359.541	-34.06606
359.756	-44.60065
359.972	-0.35123
360.187	31.26204
360.402	-55.13461
360.618	50.23254
360.833	-103.58262
361.048	-40.38689
361.264	-103.58262
361.479	56.55646
361.694	35.47754
361.909	-23.53085
362.125	-53.02787
362.34	-2.45859
362.555	-17.20943
362.77	-42.49378
362.986	27.04663
363.201	-8.78052
363.416	-17.20943
363.631	-21.42373
363.847	-44.60065
364.062	-8.78052
364.277	-42.49378
364.492	-2.45859
364.707	-34.06606
364.922	27.04663
365.138	10.18593
365.353	8.07845
365.568	1.75615
365.783	33.36978
365.998	5.97099
366.213	-8.78052
366.428	1.75615
366.643	14.40096
366.858	35.47754
367.073	83.96248
367.288	-23.53085
367.503	1.75615
367.718	14.40096
367.933	29.15432
368.148	60.77252
368.363	14.40096
368.578	-55.13461
368.793	-46.70749
369.008	48.12461
369.223	-59.34802
369.438	92.39587
369.653	52.34049
369.868	-25.63794
370.083	-48.81431
370.298	48.12461
370.513	31.26204
370.728	5.97099
370.943	-23.53085
371.157	10.18593
371.372	-59.34802
371.587	33.36978
371.802	-2.45859
372.017	5.97099
372.232	10.18593
372.446	-40.38689
372.661	-6.67324
372.876	12.29343
373.091	35.47754
373.306	-6.67324
373.52	50.23254
373.735	16.50851
373.95	-25.63794
374.165	-10.88778
374.379	-23.53085
374.594	-0.35123
374.809	35.47754
375.023	-67.77453
375.238	14.40096
375.453	43.90883
375.667	5.97099
375.882	14.40096
376.097	48.12461
376.311	-46.70749
376.526	-8.78052
376.741	-19.31659
376.955	33.36978
377.17	67.09678
377.384	-48.81431
377.599	-65.66794
377.813	-53.02787
378.028	-29.85205
378.242	31.26204
378.457	-8.78052
378.672	10.18593
378.886	27.04663
379.101	14.40096
379.315	-2.45859
379.53	14.40096
379.744	-50.9211
379.958	-19.31659
380.173	16.50851
380.387	14.40096
380.602	39.69314
380.816	-4.56592
381.031	-2.45859
381.245	41.80097
381.459	20.72369
381.674	-69.8811
381.888	-15.10224
382.103	81.85419
382.317	39.69314
382.531	33.36978
382.746	-6.67324
382.96	-74.09415
383.174	16.50851
383.388	24.93896
383.603	94.50427
383.817	-10.88778
384.031	-2.45859
384.246	22.83131
384.46	5.97099
384.674	-48.81431
384.888	-23.53085
385.103	14.40096
385.317	-57.24133
385.531	-25.63794
385.745	-19.31659
385.959	48.12461
386.174	-44.60065
386.388	-19.31659
386.602	39.69314
386.816	-2.45859
387.03	-19.31659
387.244	-15.10224
387.458	-23.53085
387.672	75.52945
387.887	5.97099
388.101	41.80097
388.315	73.42125
388.529	27.04663
388.743	50.23254
388.957	22.83131
389.171	-80.41353
389.385	-17.20943
389.599	5.97099
389.813	105.04662
390.027	-6.67324
390.241	31.26204
390.455	-38.27997
390.669	-19.31659
390.883	8.07845
391.097	5.97099
391.311	-74.09415
391.525	60.77252
391.738	-23.53085
391.952	27.04663
392.166	-8.78052
392.38	100.82962
392.594	-10.88778
392.808	18.61609
393.022	-25.63794
393.236	62.88058
393.449	-4.56592
393.663	-19.31659
393.877	-27.74501
394.091	-48.81431
394.305	62.88058
394.518	-31.95906
394.732	43.90883
394.946	56.55646
395.16	39.69314
395.373	31.26204
395.587	-59.34802
395.801	-2.45859
396.015	8.07845
396.228	-44.60065
396.442	33.36978
396.656	31.26204
396.869	33.36978
397.083	77.63768
397.297	10.18593
397.51	-0.35123
397.724	52.34049
397.938	50.23254
398.151	-38.27997
398.365	31.26204
398.578	14.40096
398.792	14.40096
399.005	-6.67324
399.219	56.55646
399.433	18.61609
399.646	35.47754
399.86	48.12461
400.073	29.15432
400.287	-6.67324
400.5	31.26204
400.714	-19.31659
400.927	-34.06606
401.141	31.26204
401.354	10.18593
401.567	22.83131
401.781	-2.45859
401.994	54.44846
402.208	-36.17303
402.421	8.07845
402.635	48.12461
402.848	27.04663
403.061	31.26204
403.275	43.90883
403.488	16.50851
403.701	58.66448
403.915	39.69314
404.128	33.36978
404.341	-57.24133
404.555	14.40096
404.768	10.18593
404.981	39.69314
405.195	-36.17303
405.408	69.20492
405.621	46.01671
405.834	-10.88778
406.048	35.47754
406.261	37.58533
406.474	31.26204
406.687	-2.45859
406.9	-21.42373
407.114	56.55646
407.327	-36.17303
407.54	-19.31659
407.753	31.26204
407.966	-2.45859
408.179	24.93896
408.392	56.55646
408.605	43.90883
408.819	5.97099
409.032	-34.06606
409.245	41.80097
409.458	-34.06606
409.671	62.88058
409.884	39.69314
410.097	-59.34802
410.31	-27.74501
410.523	-0.35123
410.736	-53.02787
410.949	-4.56592
411.162	52.34049
411.375	10.18593
411.588	14.40096
411.801	-21.42373
412.014	-17.20943
412.227	5.97099
412.44	-10.88778
412.653	-29.85205
412.865	16.50851
413.078	94.50427
413.291	3.86356
413.504	-19.31659
413.717	-0.35123
413.93	-25.63794
414.143	-8.78052
414.356	22.83131
414.568	75.52945
414.781	-10.88778
414.994	5.97099
415.207	-17.20943
415.42	-63.56133
415.632	-8.78052
415.845	-2.45859
416.058	35.47754
416.271	-8.78052
416.483	16.50851
416.696	58.66448
416.909	22.83131
417.121	41.80097
417.334	35.47754
417.547	39.69314
417.759	-15.10224
417.972	-8.78052
418.185	48.12461
418.397	-34.06606
418.61	-44.60065
418.823	22.83131
419.035	-6.67324
419.248	-17.20943
419.46	-12.99502
419.673	-15.10224
419.885	10.18593
420.098	-27.74501
420.311	-2.45859
420.523	14.40096
420.736	24.93896
420.948	81.85419
421.161	22.83131
421.373	-17.20943
421.586	-0.35123
421.798	-8.78052
422.01	60.77252
422.223	31.26204
422.435	1.75615
422.648	27.04663
422.86	33.36978
423.073	-2.45859
423.285	56.55646
423.497	33.36978
423.71	-53.02787
423.922	24.93896
424.134	18.61609
424.347	33.36978
424.559	3.86356
424.771	41.80097
424.984	5.97099
425.196	14.40096
425.408	35.47754
425.621	-17.20943
425.833	-74.09415
426.045	1.75615
426.257	5.97099
426.47	22.83131
426.682	27.04663
426.894	41.80097
427.106	-6.67324
427.318	10.18593
427.531	14.40096
427.743	8.07845
427.955	67.09678
428.167	10.18593
428.379	22.83131
428.591	-15.10224
428.804	16.50851
429.016	16.50851
429.228	90.28749
429.44	-2.45859
429.652	43.90883
429.864	-57.24133
430.076	33.36978
430.288	41.80097
430.5	43.90883
430.712	5.97099
430.924	107.15516
431.136	37.58533
431.348	-10.88778
431.56	33.36978
431.772	-10.88778
431.984	56.55646
432.196	-86.73269
432.408	29.15432
432.62	-2.45859
432.832	-4.56592
433.044	-31.95906
433.256	52.34049
433.468	24.93896
433.679	-10.88778
433.891	-0.35123
434.103	56.55646
434.315	56.55646
434.527	22.83131
434.739	48.12461
434.95	22.83131
435.162	-6.67324
435.374	8.07845
435.586	-10.88778
435.798	-8.78052
436.009	18.61609
436.221	20.72369
436.433	14.40096
436.645	33.36978
436.856	14.40096
437.068	-0.35123
437.28	-0.35123
437.491	48.12461
437.703	10.18593
437.915	-31.95906
438.126	-0.35123
438.338	109.26371
438.55	69.20492
438.761	39.69314
438.973	16.50851
439.184	22.83131
439.396	-2.45859
439.608	-8.78052
439.819	29.15432
440.031	69.20492
440.242	22.83131
440.454	107.15516
440.665	-19.31659
440.877	24.93896
441.088	50.23254
441.3	33.36978
441.511	5.97099
441.723	-38.27997
441.934	43.90883
442.146	-34.06606
442.357	-38.27997
442.569	35.47754
442.78	20.72369
442.991	-2.45859
443.203	-21.42373
443.414	-61.45468
443.626	77.63768
443.837	94.50427
444.048	-44.60065
444.26	64.98867
444.471	50.23254
444.682	27.04663
444.894	56.55646
445.105	35.47754
445.316	64.98867
445.528	-4.56592
445.739	-6.67324
445.95	83.96248
446.161	20.72369
446.373	-8.78052
446.584	31.26204
446.795	39.69314
447.006	-42.49378
447.217	16.50851
447.429	10.18593
447.64	35.47754
447.851	50.23254
448.062	52.34049
448.273	29.15432
448.484	52.34049
448.695	-25.63794
448.907	48.12461
449.118	113.4809
449.329	18.61609
449.54	41.80097
449.751	31.26204
449.962	1.75615
450.173	24.93896
450.384	41.80097
450.595	41.80097
450.806	94.50427
451.017	67.09678
451.228	3.86356
451.439	-2.45859
451.65	35.47754
451.861	24.93896
452.072	60.77252
452.283	24.93896
452.494	10.18593
452.705	10.18593
452.915	64.98867
453.126	29.15432
453.337	-2.45859
453.548	-17.20943
453.759	31.26204
453.97	79.74592
454.181	-19.31659
454.391	71.31307
454.602	90.28749
454.813	-15.10224
455.024	67.09678
455.235	24.93896
455.445	50.23254
455.656	64.98867
455.867	27.04663
456.078	107.15516
456.288	67.09678
456.499	83.96248
456.71	147.22146
456.921	3.86356
457.131	31.26204
457.342	64.98867
457.553	64.98867
457.763	77.63768
457.974	60.77252
458.184	64.98867
458.395	69.20492
458.606	16.50851
458.816	22.83131
459.027	-31.95906
459.237	81.85419
459.448	14.40096
459.659	-10.88778
459.869	39.69314
460.08	18.61609
460.29	54.44846
460.501	56.55646
460.711	31.26204
460.922	69.20492
461.132	69.20492
461.343	102.93811
461.553	50.23254
461.764	35.47754
461.974	18.61609
462.184	-2.45859
462.395	29.15432
462.605	41.80097
462.816	8.07845
463.026	86.0708
463.236	54.44846
463.447	92.39587
463.657	41.80097
463.867	69.20492
464.078	22.83131
464.288	-17.20943
464.498	64.98867
464.709	18.61609
464.919	16.50851
465.129	-34.06606
465.339	22.83131
465.55	58.66448
465.76	29.15432
465.97	132.45929
466.18	43.90883
466.391	73.42125
466.601	35.47754
466.811	178.85816
467.021	77.63768
467.231	71.31307
467.441	60.77252
467.651	60.77252
467.862	100.82962
468.072	157.7665
468.282	124.02423
468.492	81.85419
468.702	73.42125
468.912	111.37229
469.122	56.55646
469.332	90.28749
469.542	134.5681
469.752	58.66448
469.962	149.33043
470.172	187.2954
470.382	117.69816
470.592	111.37229
470.802	195.73297
471.012	195.73297
471.222	67.09678
471.432	235.81579
471.642	100.82962
471.852	115.58952
472.062	151.43941
472.272	269.5752
472.482	145.11251
472.691	149.33043
472.901	176.7489
473.111	199.95188
473.321	225.26699
473.531	147.22146
473.741	233.70599
473.95	252.69488
474.16	244.25518
474.37	193.62355
474.58	191.51415
474.79	237.92561
474.999	227.37671
475.209	183.07674
475.419	233.70599
475.628	225.26699
475.838	318.11274
476.048	284.34646
476.258	263.24494
476.467	366.65975
476.677	368.7707
476.886	402.54813
477.096	311.78121
477.306	370.88166
477.515	278.01581
477.725	398.32572
477.935	275.90563
478.144	444.77578
478.354	398.32572
478.563	514.46487
478.773	410.99314
478.982	518.68897
479.192	487.00965
479.401	482.78599
479.611	512.35284
479.82	432.10681
480.03	482.78599
480.239	582.05709
480.449	503.90488
480.658	645.43704
480.868	630.64738
481.077	535.58592
481.287	643.32419
481.496	672.90511
481.705	592.61962
481.915	698.262
482.124	641.21136
482.333	782.79623
482.543	725.73377
482.752	791.25055
482.961	835.63822
483.171	827.18311
483.38	907.51217
483.589	907.51217
483.799	841.97964
484.008	793.36416
484.217	746.86714
484.426	901.16997
484.636	962.48076
484.845	1114.72421
485.054	1063.97313
485.263	1008.99632
485.472	1059.74401
485.682	1097.80687
485.891	1002.65311
486.1	1180.28161
486.309	1237.38293
486.518	1176.05198
486.727	1214.11914
486.936	1154.90408
487.146	1264.87694
487.355	1239.49783
487.564	1290.25642
487.773	1368.51155
487.982	1298.71631
488.191	1582.1305
488.4	1493.29932
488.609	1590.5905
488.818	1400.23711
489.027	1448.88325
489.236	1484.83912
489.445	1639.23485
489.654	1493.29932
489.863	1753.43791
490.072	1679.4184
490.281	1689.99285
490.49	1723.83059
490.698	1706.91182
490.907	1789.38866
491.116	1835.91138
491.325	1829.5675
491.534	1901.46222
491.743	1840.14061
491.952	1956.43638
492.16	1916.26333
492.369	2028.31948
492.578	1971.23644
492.787	2199.53728
492.996	2013.52063
493.204	2089.62539
493.413	2081.16976
493.622	2119.21914
493.831	2002.94982
494.039	2144.58402
494.248	2174.17493
494.457	2309.42617
494.665	2377.03742
494.874	2575.5828
495.083	2309.42617
495.291	2368.58657
495.5	2341.1202
495.709	2518.56394
495.917	2339.00733
496.126	2520.6759
496.335	2415.0642
496.543	2710.70323
496.752	2556.57746
496.96	2617.8134
497.169	2442.52587
497.377	2740.25387
497.586	2575.5828
497.794	2847.88028
498.003	2600.92174
498.211	2968.12518
498.42	2738.14319
498.628	2856.32004
498.837	2795.12668
499.045	2831.00007
499.254	2923.82993
499.462	2955.47006
499.671	2890.07683
499.879	2932.26763
500.087	2930.15822
500.296	3067.23808
500.504	3149.45456
500.713	2900.62507
500.921	3067.23808
501.129	3141.02322
501.338	3124.15976
501.546	3204.25194
501.754	3001.86953
501.962	3261.1451
502.171	3225.3249
502.379	3233.75361
502.587	3303.28027
502.795	3364.36409
503.004	3259.03816
503.212	3332.77082
503.42	3347.51483
503.628	3473.85673
503.837	3463.33069
504.045	3475.96188
504.253	3360.15188
504.461	3600.13361
504.669	3541.21264
504.877	3766.29506
505.085	3562.25752
505.294	3553.83979
505.502	3688.48747
505.71	3957.54514
505.918	3448.59347
506.126	3797.8311
506.334	3675.86754
506.542	3884.00696
506.75	3684.2809
506.958	3808.34213
507.166	3736.85747
507.374	3928.13283
507.582	3995.3551
507.79	4112.94351
507.998	3862.99154
508.206	4159.1211
508.414	3764.1925
508.622	4066.7558
508.83	3909.22283
509.037	4081.45298
509.245	3902.91914
509.453	4100.34786
509.661	4024.75827
509.869	4196.89519
510.077	4041.55827
510.285	4247.24997
510.492	4178.009
510.7	4247.24997
510.908	4171.71323
511.116	4173.81184
511.324	4238.85836
511.531	4274.52034
511.739	4136.03357
511.947	4463.21517
512.155	4259.83674
512.362	4410.81761
512.57	4484.17035
512.778	4402.43274
512.985	4402.43274
513.193	4444.35363
513.401	4448.54524
513.608	4737.55195
513.816	4488.36112
514.024	4549.11739
514.231	4660.1064
514.439	4658.01285
514.646	4664.29343
514.854	4521.88413
515.061	4614.04311
515.269	4812.87467
515.477	4632.88849
515.684	4706.15883
515.892	4754.29287
516.099	4865.16477
516.307	4867.25608
516.514	4904.8957
516.722	4754.29287
516.929	4967.61189
517.136	4823.33383
517.344	4888.1679
517.551	4710.34487
517.759	5207.83135
517.966	4955.07031
518.173	5255.83834
518.381	4998.96222
518.588	5040.75459
518.796	4892.34999
519.003	5253.75134
519.21	4909.07742
519.418	5103.42579
519.625	5001.05206
519.832	5247.49019
520.039	5237.05447
520.247	5341.38536
520.454	5099.24836
520.661	5506.10864
520.868	5176.51579
521.076	5399.78507
521.283	5318.43758
521.49	5564.45634
521.697	5189.04264
521.904	5389.3579
522.112	5153.54772
522.319	5489.43448
522.526	5479.01236
522.733	5622.78557
522.94	5468.58966
523.147	5903.75616
523.354	5441.48788
523.561	5722.7355
523.768	5626.95123
523.975	5820.55045
524.183	5556.12209
524.39	5833.03372
524.597	5795.58138
524.804	5814.3085
525.011	5647.77815
525.218	5951.58235
525.425	5891.27771
525.632	5885.03817
525.838	5718.572
526.045	5997.31747
526.252	5739.38853
526.459	5841.35542
526.666	5835.11418
526.873	5939.10715
527.08	6134.45444
527.287	6269.41354
527.494	5949.50321
527.701	6113.6827
527.907	6167.68434
528.114	6157.30064
528.321	6018.10239
528.528	6107.45072
528.735	6192.60282
528.941	6202.98452
529.148	5966.13567
529.355	6173.91428
529.562	6286.01705
529.768	6265.26243
529.975	6184.29704
530.182	6398.05161
530.388	6267.338
530.595	6495.50787
530.802	6310.91951
531.008	6636.41777
531.215	6485.14262
531.422	6646.77458
531.628	6522.4548
531.835	6723.39709
532.042	6433.30768
532.248	6831.02977
532.455	6613.63076
532.661	6915.85057
532.868	6646.77458
533.074	6725.46753
533.281	6611.55908
533.487	6700.62071
533.694	6555.61487
533.9	6868.27287
534.107	6814.47492
534.313	6884.823
534.52	6826.8912
534.726	6775.15128
534.933	6845.51408
535.139	6936.53279
535.345	6773.08139
535.552	7165.95437
535.758	6971.68738
535.965	7108.10827
536.171	7095.71041
536.377	7058.51198
536.584	7025.44061
536.79	7349.7071
536.996	7291.91606
537.203	7236.17266
537.409	6965.4841
537.615	7298.10878
537.821	7223.78306
538.028	7467.30031
538.234	7201.06672
538.44	7415.73303
538.646	7225.84805
538.853	7327.00553
539.059	7124.63751
539.265	7331.13328
539.471	7314.62173
539.677	7572.45574
539.883	7380.65954
540.09	7613.67794
540.296	7374.46944
540.502	7621.92136
540.708	7227.91302
540.914	7438.4243
541.12	7599.25114
541.326	7671.37473
541.532	7562.14885
541.738	7862.89199
541.944	7652.83115
542.15	8101.52321
542.356	7951.38219
542.562	7926.69108
542.768	7588.94564
542.974	7916.40225
543.18	7832.01433
543.386	8076.84991
543.592	8052.1737
543.798	7957.55451
544.004	7914.34442
544.21	8241.28417
544.415	7949.32471
544.621	8284.42712
544.827	7899.93904
545.033	8348.09853
545.239	8072.73741
545.445	8374.79387
545.651	8031.60797
545.856	8189.91216
546.062	8321.3999
546.268	8417.9102
546.474	8214.57227
546.679	8261.82951
546.885	8237.17486
547.091	8113.85878
547.297	8171.41521
547.502	8426.12188
547.708	8452.80768
547.914	8493.85646
548.119	8142.63895
548.325	8467.17562
548.531	8171.41521
548.736	8832.22259
548.942	8387.11369
549.147	8569.77664
549.353	8405.59212
549.559	8647.72191
549.764	8366.58027
549.97	8852.71355
550.175	8569.77664
550.381	8774.83825
550.586	8442.54429
550.792	8688.73492
550.997	8596.44517
551.203	8787.13609
551.408	8598.49646
551.614	8994.05251
551.819	8635.41655
552.025	8737.94079
552.23	9008.38654
552.435	9049.33618
552.641	8944.90072
552.846	8811.72981
553.052	8770.73883
553.257	9180.32851
553.462	8992.00472
553.668	9118.93462
553.873	8979.71762
554.078	9108.70081
554.283	9155.7728
554.489	9270.34526
554.694	9270.34526
554.899	9237.61567
555.105	9247.84413
555.31	9231.47839
555.515	9002.24349
555.72	9135.30783
555.925	9343.97123
556.131	9421.66436
556.336	8903.93311
556.541	9495.24675
556.746	9204.88177
556.951	9536.11687
557.156	9284.66311
557.361	9560.63589
557.567	9489.11568
557.772	9466.63386
557.977	9493.20308
558.182	9456.41421
558.387	9581.06667
558.592	9583.10967
558.797	9393.04332
559.002	9681.15488
559.207	9493.20308
559.412	9581.06667
559.617	9348.06093
559.822	9695.45016
560.027	9480.9407
560.232	9750.58205
560.437	9521.81306
560.642	9599.45303
560.847	9630.09414
561.051	9779.1646
561.256	9478.89691
561.461	9717.91265
561.666	9601.49588
561.871	9826.11521
562.076	9517.72611
562.281	9828.15637
562.485	9478.89691
562.69	9717.91265
562.895	9487.07196
563.1	9748.54033
563.305	9585.15264
563.509	10062.79084
563.714	9985.28068
563.919	10211.63484
564.123	9879.18031
564.328	10107.65577
564.533	10038.31618
564.737	9958.75928
564.942	9891.42468
565.147	10162.708
565.351	9915.91183
565.556	10062.79084
565.761	10181.0565
565.965	10193.28821
566.17	9983.24066
566.374	10146.39729
566.579	10119.89048
566.784	10307.42716
566.988	10207.55791
567.193	10507.07014
567.397	10115.8123
567.602	10405.22713
567.806	10048.5142
568.011	10380.77999
568.215	10083.18484
568.42	10262.59192
568.624	10234.05701
568.828	10535.58045
569.033	10172.90175
569.237	10545.7621
569.442	10500.96046
569.646	10482.63075
569.85	10335.9553
570.055	10527.4349
570.259	10327.80467
570.463	10521.32561
570.668	10431.70942
570.872	10466.3368
571.076	10608.88136
571.281	10517.25268
571.485	10759.50539
571.689	10712.69691
571.893	10657.73969
572.098	10682.16621
572.302	10378.74264
572.506	10531.5077
572.71	10653.66843
572.914	10875.48206
573.119	10586.48557
573.323	10553.9072
573.527	10722.8732
573.731	10844.96556
573.935	10901.9276
574.139	10812.41175
574.343	10562.05209
574.547	10812.41175
574.751	10698.44959
574.955	10847.00008
575.159	10657.73969
575.364	10865.31019
575.568	10586.48557
575.772	11141.8852
575.976	11133.75354
576.18	10891.75647
576.383	10932.43929
576.587	11056.49412
576.791	11025.99266
576.995	10946.6772
577.199	11017.85852
577.403	10987.35392
577.607	11089.0263
577.811	11111.39057
578.015	11032.09315
578.219	10973.11758
578.422	11241.48443
578.626	11399.9793
578.83	11129.68764
579.034	11296.35499
579.238	10995.48872
579.442	11450.76614
579.645	11204.89988
579.849	11570.59935
580.053	11440.60926
580.257	11328.86738
580.46	11298.38709
580.664	11481.23534
580.868	11334.96316
581.071	11448.73478
581.275	11536.0745
581.479	11739.12388
581.682	11440.60926
581.886	11568.56855
582.09	11605.12151
582.293	11326.83543
582.497	11731.00363
582.7	11548.26005
582.904	11580.7532
583.107	11789.87231
583.311	11353.24998
583.515	11775.66329
583.718	11446.70342
583.922	11771.6035
584.125	11680.24885
584.329	11773.6334
584.532	11804.0809
584.735	11816.25936
584.939	11538.10545
585.142	11611.21337
585.346	11990.78429
585.549	11901.50008
585.753	11769.57359
585.956	12067.88094
586.159	11712.73255
586.363	12100.33933
586.566	11958.31912
586.769	11917.73475
586.973	11862.94063
587.176	12120.62483
587.379	11826.40784
587.582	12246.37824
587.786	11948.17333
587.989	12293.02158
588.192	12138.88113
588.395	12120.62483
588.599	11903.52944
588.802	12477.53109
589.005	12114.53926
589.208	12617.39771
589.411	12290.99369
589.615	12311.27231
589.818	12236.23788
590.021	12408.60002
590.224	12049.62223
590.427	12461.3127
590.63	12542.40051
590.833	12546.45463
591.036	12217.98478
591.239	12836.26172
591.442	12345.74435
591.645	12643.74608
591.848	12394.40738
592.051	12836.26172
592.254	12345.74435
592.457	12546.45463
592.66	12420.76489
592.863	12595.10213
593.066	12436.98433
593.269	12830.18306
593.472	12820.05185
593.675	13125.9566
593.878	12716.70551
594.081	12830.18306
594.284	12769.39372
594.486	13034.80497
594.689	12736.97067
594.892	12643.74608
595.095	12680.22675
595.298	12761.2881
595.5	12477.53109
595.703	12886.9153
595.906	12828.15683
596.109	12974.0317
596.311	12959.85061
596.514	12895.01956
596.717	13150.26208
596.92	13192.79507
597.122	12984.16089
597.325	12907.17579
597.528	12664.01336
597.73	13125.9566
597.933	13004.4189
598.136	13227.22508
598.338	12972.00585
598.541	13170.51614
598.743	13032.77927
598.946	13164.43997
599.148	13115.82912
599.351	12963.90238
599.554	13034.80497
599.756	13046.95909
599.959	13192.79507
600.161	13089.49712
600.363	13016.57346
600.566	13196.84573
600.768	13022.65068
600.971	13294.05619
601.173	13162.41457
601.376	13113.80361
601.578	13296.08131
601.78	13585.63138
601.983	12943.64335
602.185	13518.819
602.388	13174.56689
602.59	13591.70504
602.792	13524.89302
602.995	13328.48253
603.197	13178.61763
603.399	13439.85378
603.601	13506.67087
603.804	13470.22569
604.006	13417.58049
604.208	13458.07703
604.41	13336.58267
604.613	13763.77968
604.815	13255.57825
605.017	13628.14636
605.219	13356.83273
605.421	13607.90132
605.623	13652.43997
605.826	13713.17191
606.028	13867.01374
606.23	14047.15033
606.432	13692.92825
606.634	13954.04857
606.836	13597.77867
607.038	13960.12058
607.24	13577.53311
607.442	13763.77968
607.644	13514.76964
607.846	13658.51329
608.048	13611.95036
608.25	13581.58225
608.452	13670.65986
608.654	13806.28874
608.856	13441.8786
609.058	13781.99801
609.26	13715.19626
609.462	13696.97701
609.664	13842.72405
609.866	13895.35121
610.067	13947.97653
610.269	13792.1192
610.471	13727.34228
610.673	13850.82066
610.875	13725.31795
611.077	14012.74376
611.278	13842.72405
611.48	14138.22332
611.682	13838.67573
611.884	14111.91381
612.085	13824.50651
612.287	13960.12058
612.489	13784.02226
612.69	13970.24056
612.892	13915.59193
613.094	14229.29197
613.295	13808.31295
613.497	13907.49567
613.699	14020.83949
613.9	14105.84233
614.102	13915.59193
614.304	14235.36307
614.505	13943.92849
614.707	14200.95994
614.908	13943.92849
615.11	13947.97653
615.311	14026.91126
615.513	14063.34142
615.714	13640.29322
615.916	14207.03112
616.117	13862.96549
616.319	13879.15844
616.52	13899.39937
616.722	13937.85642
616.923	13850.82066
617.124	14209.05484
617.326	13690.90387
617.527	14053.22201
617.729	13858.91722
617.93	14162.5087
618.131	14008.69589
618.333	14134.17573
618.534	14154.41361
618.735	14464.02965
618.937	14059.29366
619.138	14368.9231
619.339	14085.60393
619.54	14134.17573
619.742	13840.69989
619.943	14233.33937
620.144	14032.98301
620.345	14243.45784
620.546	14122.0329
620.748	14265.71831
620.949	14099.77084
621.15	13980.36047
621.351	13846.77236
621.552	14057.26978
621.753	13765.80395
621.954	14176.67503
622.155	13980.36047
622.356	14263.69464
622.558	13996.5522
622.759	14340.59282
622.96	14124.05671
623.161	14330.47478
623.362	14166.55623
623.563	14615.78914
623.764	14028.93518
623.965	14407.37083
624.166	14648.16364
624.366	14318.33308
624.567	14156.43738
624.768	14372.97025
624.969	14202.98367
625.17	14332.49839
625.371	14113.93763
625.572	14498.42909
625.773	14205.0074
625.973	14330.47478
626.174	14417.48856
626.375	14366.89952
626.576	14253.57626
626.777	14393.20594
626.977	14136.19953
627.178	14344.64002
627.379	14136.19953
627.58	14464.02965
627.78	14073.46078
627.981	14174.65128
628.182	14018.81556
628.382	14154.41361
628.583	14251.55258
628.784	14144.29469
628.984	13950.00055
629.185	14470.10017
629.386	14122.0329
629.586	14745.28565
629.787	14267.74198
629.987	14486.28816
630.188	14283.93125
630.388	14846.45241
630.589	14401.30017
630.79	14551.03927
630.99	14391.18238
631.191	14650.18704
631.391	14609.71889
631.591	14292.02584
631.792	14132.15193
631.992	14518.66388
632.193	14753.37906
632.393	14496.40561
632.594	14271.78931
632.794	14259.64729
632.994	14091.67547
633.195	14478.19417
633.395	14399.27662
633.595	14445.81801
633.796	14399.27662
633.996	14577.34405
634.196	14668.39757
634.397	14716.95861
634.597	14627.92961
634.797	14526.75776
634.997	14265.71831
635.198	14696.72491
635.398	14599.60178
635.598	14698.74828
635.798	14619.83596
635.998	14727.07543
636.199	14573.29717
636.399	14737.19223
636.599	14324.40394
636.799	14656.25722
636.999	14464.02965
637.199	14961.78067
637.399	14781.70589
637.599	14971.89712
637.799	14710.88851
637.999	14753.37906
638.199	14581.39092
638.399	14769.56584
638.599	14611.7423
638.799	14763.4958
638.999	14921.3148
639.199	14994.15326
639.399	14662.3274
639.599	14915.2449
639.799	14648.16364
639.999	14886.91866
640.199	14658.28062
640.399	15034.61888
640.599	14348.68722
640.799	14777.65921
640.998	14890.96527
641.198	15099.36368
641.398	14777.65921
641.598	15113.52658
641.798	14731.12215
641.997	14957.73409
642.197	14797.89259
642.397	14874.77881
642.597	14820.14922
642.796	14769.56584
642.996	14455.9356
643.196	14955.7108
643.395	14785.75257
643.595	15085.20077
643.795	15060.92148
643.994	15101.38695
644.194	14801.93926
644.394	14965.82725
644.593	15113.52658
644.793	15127.68948
644.992	15105.4335
645.192	15249.08576
645.392	14787.77591
645.591	15030.57232
645.791	14986.06012
645.99	15069.01458
646.19	14955.7108
646.389	15255.15559
646.589	15004.26968
646.788	15109.48004
646.987	14998.19983
647.187	15170.17817
647.386	15135.78257
647.586	15125.66621
647.785	15069.01458
647.984	15346.20316
648.184	15348.22644
648.383	15400.832
648.582	15336.08673
648.782	15232.89958
648.981	15255.15559
649.18	15060.92148
649.38	15206.59704
649.579	15429.15818
649.778	15477.71758
649.977	15364.41274
650.177	15170.17817
650.376	15194.45742
650.575	15222.78322
650.774	15518.184
650.973	15184.34106
651.173	15222.78322
651.372	15417.01838
651.571	15580.90744
651.77	15238.9694
651.969	15390.71552
652.168	15216.7134
652.367	15319.90047
652.566	15599.11761
652.765	15552.58064
652.964	15307.76079
653.163	15319.90047
653.362	15121.61967
653.561	15330.01688
653.76	15336.08673
653.959	15257.17886
654.158	15437.2514
654.357	15295.62111
654.556	15174.22471
654.755	15661.84199
654.954	15214.69013
655.153	15449.39123
655.352	15297.64439
655.551	15635.53812
655.749	15799.43404
655.948	15775.15275
656.147	15823.71549
656.346	15789.31682
656.545	15548.53397
656.743	15562.69734
656.942	15558.65066
657.141	15631.49138
657.34	15176.24798
657.538	15443.32131
657.737	15556.62732
657.936	15550.55731
658.135	15538.41729
658.333	15716.47359
658.532	15649.70172
658.731	15688.14601
658.929	15350.24973
659.128	15799.43404
659.326	15504.02072
659.525	15920.84296
659.724	15449.39123
659.922	15589.00084
660.121	15400.832
660.319	15619.35119
660.518	15716.47359
660.716	15562.69734
660.915	15623.39792
661.113	16040.23291
661.312	15423.08828
661.51	15773.12932
661.709	15872.27888
661.907	15811.57474
662.105	15546.51063
662.304	15744.80135
662.502	15578.8841
662.701	15680.05245
662.899	15676.00567
663.097	16076.65795
663.296	15568.76737
663.494	16072.6107
663.692	15649.70172
663.891	15552.58064
664.089	15676.00567
664.287	15935.00763
664.485	15453.43785
664.684	15716.47359
664.882	15700.28638
665.08	15629.46802
665.278	15686.12262
665.476	15548.53397
665.675	15516.16067
665.873	15560.674
666.071	15568.76737
666.269	15659.81861
666.467	15340.1333
666.665	15843.95015
666.863	15487.83416
667.061	15633.51475
667.259	15878.34935
667.457	15926.91353
667.655	15562.69734
667.853	15457.48446
668.051	15400.832
668.249	15724.56721
668.447	15311.80735
668.645	15483.78753
668.843	15528.30064
669.041	15457.48446
669.239	15291.57455
669.437	15627.44465
669.635	15635.53812
669.833	15467.60102
670.031	15394.76211
670.229	15623.39792
670.426	15465.57771
670.624	15807.52784
670.822	15323.94703
671.02	15748.84819
671.218	15692.19279
671.415	16011.90266
671.613	15704.33317
671.811	15989.64336
672.009	15639.58486
672.206	15694.21619
672.404	15336.08673
672.602	15514.13734
672.799	15348.22644
672.997	15850.02057
673.195	15667.91213
673.392	15556.62732
673.59	15265.27196
673.788	15153.992
673.985	15425.11158
674.183	15599.11761
674.38	15131.73603
674.578	15726.59062
674.775	15558.65066
674.973	15607.21103
675.17	15495.92744
675.368	15586.97749
675.565	15481.76421
675.763	15710.40338
675.96	15576.86075
676.158	15489.85748
676.355	15267.29524
676.553	15888.46683
676.75	15265.27196
676.947	15493.90412
677.145	15439.2747
677.342	15609.23439
677.539	15319.90047
677.737	15406.90189
677.934	15493.90412
678.131	15358.34287
678.329	15332.04016
678.526	15259.20214
678.723	15676.00567
678.92	15797.41059
679.118	15465.57771
679.315	15684.09923
679.512	15238.9694
679.709	15554.60398
679.906	15113.52658
680.104	15297.64439
680.301	15158.03855
680.498	15145.89892
680.695	14943.57105
680.892	15321.92375
681.089	15230.87631
681.286	15487.83416
681.483	14979.99026
681.68	15243.01594
681.877	15340.1333
682.075	15307.76079
682.272	14820.14922
682.469	15198.50396
682.665	15020.45593
682.862	14969.87383
683.059	15147.92219
683.256	15273.36506
683.453	15064.96803
683.65	14903.10509
683.847	14969.87383
684.044	15044.73527
684.241	14973.9204
684.438	15303.71423
684.635	15018.43265
684.831	15455.46115
685.028	14787.77591
685.225	14890.96527
685.422	14799.91592
685.619	15218.73667
685.815	14996.17654
686.012	15330.01688
686.209	14575.32061
686.405	14943.57105
686.602	14759.44911
686.799	14666.37418
686.996	14785.75257
687.192	14593.5315
687.389	14366.89952
687.586	14901.08179
687.782	14882.87204
687.979	14984.03684
688.175	14799.91592
688.372	14783.72923
688.568	14822.17255
688.765	14704.8184
688.962	14874.77881
689.158	14801.93926
689.355	14755.40241
689.551	14856.56899
689.748	14623.88279
689.944	14866.68556
690.14	14838.35913
690.337	14826.2192
690.533	14810.03258
690.73	14704.8184
690.926	14803.96259
691.123	14733.14551
691.319	14597.57836
691.515	14969.87383
691.712	14559.13307
691.908	14783.72923
692.104	14741.23894
692.301	14522.71082
692.497	14389.15882
692.693	14828.24252
692.889	14591.50808
693.086	14660.30401
693.282	14575.32061
693.478	14884.89535
693.674	14771.58918
693.87	14753.37906
694.067	14753.37906
694.263	14858.59231
694.459	14862.63894
694.655	15069.01458
694.851	14882.87204
695.047	14818.1259
695.243	14607.69547
695.439	14656.25722
695.635	14314.28583
695.831	14332.49839
696.027	14342.61642
696.224	14381.06455
696.42	13994.52824
696.615	14749.33236
696.811	14283.93125
697.007	14320.3567
697.203	14083.58008
697.399	14174.65128
697.595	14237.38676
697.791	14389.15882
697.987	14120.00908
698.183	14668.39757
698.379	14601.6252
698.575	14575.32061
698.77	14077.5085
698.966	14449.86505
699.162	14229.29197
699.358	14148.34227
699.554	14237.38676
699.749	14372.97025
699.945	13980.36047
700.141	14107.86616
700.337	14085.60393
700.532	14502.47606
700.728	14300.12041
700.924	13982.38444
701.119	13943.92849
701.315	14115.96145
701.511	14024.88734
701.706	14524.73429
701.902	14101.79467
702.097	14366.89952
702.293	14352.73441
702.489	14445.81801
702.684	14296.07313
702.88	14352.73441
703.075	14051.19812
703.271	13873.0861
703.466	14243.45784
703.662	14275.83663
703.857	14247.50521
704.053	14235.36307
704.248	14360.82876
704.443	14115.96145
704.639	14213.10229
704.834	14379.04098
705.03	14486.28816
705.225	14037.03083
705.42	13891.30303
705.616	14213.10229
705.811	13775.92526
706.006	13812.36136
706.202	13781.99801
706.397	13935.83238
706.592	14113.93763
706.787	14294.04949
706.983	13903.44753
707.178	14362.85235
707.373	14126.08052
707.568	14379.04098
707.763	14028.93518
707.959	14377.01741
708.154	14202.98367
708.349	14022.86342
708.544	13994.52824
708.739	13891.30303
708.934	13769.85249
709.129	14207.03112
709.324	13696.97701
709.519	14057.26978
709.714	13889.27894
709.909	13820.45814
710.104	13654.46441
710.299	14109.88999
710.494	13678.7575
710.689	13869.03786
710.884	13771.87675
711.079	13810.33716
711.274	13620.04839
711.469	13984.40842
711.664	13715.19626
711.859	13701.02575
712.054	13545.13949
712.249	13535.0163
712.443	13788.07074
712.638	13745.56111
712.833	13441.8786
713.028	13790.09497
713.223	13409.48099
713.417	13356.83273
713.612	13441.8786
713.807	13707.09885
714.002	13743.53681
714.196	13820.45814
714.391	13516.79432
714.586	13711.14756
714.78	13486.4237
714.975	13713.17191
715.17	13356.83273
715.364	13721.26928
715.559	13492.49789
715.754	13312.28205
715.948	13105.70152
716.143	13781.99801
716.337	13500.59676
716.532	13498.57205
716.726	13595.75413
716.921	13419.60535
717.115	13417.58049
717.31	13670.65986
717.504	13324.43244
717.699	13419.60535
717.893	13036.83067
718.088	13395.30673
718.282	13516.79432
718.476	13247.47743
718.671	13249.50264
718.865	13862.96549
719.059	13589.68049
719.254	13844.74821
719.448	13391.2569
719.642	13227.22508
719.837	13006.44467
720.031	13269.75452
720.225	12951.74702
720.419	13257.60344
720.614	12992.26416
720.808	13470.22569
721.002	13044.93341
721.196	13097.59936
721.39	12856.52356
721.585	13227.22508
721.779	12939.59148
721.973	13267.72935
722.167	12690.35993
722.361	13186.71905
722.555	13235.32608
722.749	13158.36376
722.943	13071.26679
723.137	13020.62494
723.331	13239.37655
723.525	13377.08238
723.719	13306.2068
723.913	13397.33163
724.107	12895.01956
724.301	13267.72935
724.495	12923.38381
724.689	12953.77293
724.883	12631.58542
725.077	12801.81533
725.271	12836.26172
725.465	12850.44506
725.659	12475.50382
725.853	12530.23799
726.046	12542.40051
726.24	12720.75859
726.434	12611.31717
726.628	12777.49926
726.822	12558.61684
727.015	13036.83067
727.209	12485.64013
727.403	12787.63105
727.596	12777.49926
727.79	12795.73639
727.984	12659.95995
728.177	12892.9935
728.371	12672.1201
728.565	12815.99933
728.758	12615.37087
728.952	12793.71006
729.146	12903.12374
729.339	12741.02363
729.533	12899.07166
729.726	12684.28004
729.92	12469.42195
730.113	12826.13059
730.307	12599.15593
730.5	12619.42454
730.694	12674.14677
730.887	12534.29219
731.081	12700.49296
731.274	12848.41888
731.468	12649.82632
731.661	12850.44506
731.854	12518.07525
732.048	12805.86793
732.241	12574.83277
732.435	12803.84163
732.628	12542.40051
732.821	12509.96662
733.014	12793.71006
733.208	12603.2097
733.401	12611.31717
733.594	12507.93945
733.788	12680.22675
733.981	12895.01956
734.174	13255.57825
734.367	12828.15683
734.56	12785.6047
734.754	12692.38655
734.947	12838.28792
735.14	12805.86793
735.333	12586.99446
735.526	12779.52563
735.719	12443.06651
735.912	12720.75859
736.105	12664.01336
736.298	12700.49296
736.491	12769.39372
736.684	12682.2534
736.877	12714.67896
737.07	12408.60002
737.263	12623.47819
737.456	12530.23799
737.649	12406.57252
737.842	12380.2144
738.035	12363.99345
738.228	12613.34402
738.421	12449.14864
738.614	12560.64386
738.807	12619.42454
739	12651.85306
739.192	12471.44924
739.385	12503.88508
739.578	12357.91048
739.771	12189.58989
739.964	12386.29715
740.156	12430.90209
740.349	12132.79576
740.542	12226.09734
740.735	12252.46237
740.927	12303.16094
741.12	12422.79234
741.313	12337.63346
741.505	12631.58542
741.698	12307.21664
741.891	12114.53926
742.083	12256.51842
742.276	12242.32211
742.468	12418.73743
742.661	12355.88281
742.854	12550.50872
743.046	12122.65333
743.239	12211.90028
743.431	12333.57798
743.624	12418.73743
743.816	12242.32211
744.009	12374.13159
744.201	12242.32211
744.393	12217.98478
744.586	12443.06651
744.778	12013.10291
744.971	11795.96176
745.163	12215.95662
745.355	12128.73881
745.548	12078.0244
745.74	11905.5588
745.932	12240.29404
746.125	12317.35575
746.317	12449.14864
746.509	12331.55022
746.702	12534.29219
746.894	12167.2786
747.086	11907.58814
747.278	11960.34825
747.471	12053.67978
747.663	12092.22492
747.855	12195.67463
748.047	11925.85188
748.239	11978.61009
748.431	12136.85268
748.623	12242.32211
748.815	11970.4938
749.008	12165.25026
749.2	12017.16074
749.392	12226.09734
749.584	11852.79291
749.776	11950.2025
749.968	11828.43751
750.16	11919.76404
750.352	11536.0745
750.544	11611.21337
750.736	11588.87611
750.928	11712.73255
751.12	11998.90026
751.311	11769.57359
751.503	11856.85202
751.695	11990.78429
751.887	11743.18396
752.079	11917.73475
752.271	11881.20601
752.463	12153.08005
752.654	11761.45386
752.846	11651.82374
753.038	11881.20601
753.23	11617.30516
753.421	11791.90213
753.613	11424.35774
753.805	11605.12151
753.997	11601.06021
754.188	11487.32893
754.38	11487.32893
754.572	11554.3527
754.763	11897.44133
754.955	11576.69169
755.146	11739.12388
755.338	11635.58003
755.53	11572.63013
755.721	11682.27915
755.913	11653.85417
756.104	11505.60916
756.296	11397.94769
756.487	11509.67133
756.679	11603.09086
756.87	11406.07404
757.062	11629.48849
757.253	11588.87611
757.445	11653.85417
757.636	11529.9816
757.827	11446.70342
758.019	11426.38921
758.21	11442.64065
758.401	11487.32893
758.593	11668.06688
758.784	11456.86015
758.975	11001.58971
759.167	11113.42362
759.358	11332.93124
759.549	11072.76056
759.74	11125.6217
759.932	11182.54099
760.123	11328.86738
760.314	11194.73691
760.505	11198.80213
760.696	11091.05947
760.888	11247.58153
761.079	11042.26041
761.27	11332.93124
761.461	11046.32724
761.652	11367.4725
761.843	11170.3447
762.034	11064.62743
762.225	10997.52239
762.416	11099.19204
762.607	10728.97884
762.798	10708.62631
762.989	11109.35751
763.18	10832.75823
763.371	10564.08828
763.562	10710.66161
763.753	10655.70407
763.944	10940.57531
764.135	11007.6906
764.326	11156.11521
764.517	10745.26
764.708	10975.15137
764.899	10847.00008
765.089	11034.12663
765.28	10590.55765
765.471	10551.87094
765.662	10480.59405
765.853	10674.02424
766.043	10566.12446
766.234	10702.52031
766.425	10470.41036
766.615	10439.85737
766.806	10525.39848
766.997	10741.18978
767.187	10502.99704
767.378	10142.31947
767.569	9936.31618
767.759	10221.82694
767.95	10152.51391
768.141	10136.20264
768.331	10368.55571
768.522	10372.63052
768.712	10309.46497
768.903	10635.34717
769.093	10494.85067
769.284	10303.3515
769.474	10242.21011
769.665	10327.80467
769.855	10468.37359
770.046	10472.44713
770.236	10119.89048
770.426	10462.26318
770.617	10197.36533
770.807	10448.00512
770.998	10140.28054
771.188	10123.9686
771.378	9901.62792
771.569	10152.51391
771.759	10070.94861
771.949	9993.44062
772.139	10099.49902
772.33	10089.30276
772.52	9907.74969
772.71	10225.90368
772.9	9952.63861
773.09	10075.02741
773.281	9942.4372
773.471	9840.40296
773.661	9928.15462
773.851	9903.66852
774.041	9824.07405
774.231	9897.54667
774.421	9846.52606
774.611	9638.26451
774.802	9372.59777
774.992	9711.7867
775.182	9448.23819
775.372	9662.77413
775.562	9662.77413
775.752	9787.33049
775.942	9497.29041
776.131	9766.9153
776.321	9362.37437
776.511	9811.82674
776.701	9666.85885
776.891	9638.26451
777.081	9323.52173
777.271	9485.02822
777.461	9485.02822
777.651	9605.58154
777.84	9294.88964
778.03	9474.80929
778.22	9370.55312
778.41	9468.67774
778.599	9595.36728
778.789	9419.62011
778.979	9329.65675
779.169	9413.48725
779.358	9286.70845
779.548	9401.22109
779.738	9151.67994
779.927	9482.98447
780.117	9346.01609
780.307	9225.34096
780.496	8893.69009
780.686	9478.89691
780.875	9180.32851
781.065	9368.50846
781.254	9110.74761
781.444	9284.66311
781.633	9196.69762
781.823	9286.70845
782.012	9000.19577
782.202	9028.86223
782.391	8854.76255
782.581	8865.00727
782.77	9249.88977
782.96	9221.24926
783.149	8885.49536
783.338	9147.58702
783.528	8862.95836
783.717	8983.81339
783.906	9016.57703
784.096	8739.9908
784.285	8824.02569
784.474	8682.58344
784.663	8862.95836
784.853	8803.5322
785.042	8805.58163
785.231	8875.25154
785.42	8922.36942
785.61	8735.89076
785.799	8756.39026
785.988	8846.56645
786.177	8288.53552
786.366	8631.31462
786.555	8582.08559
786.744	8524.63803
786.933	8469.22811
787.122	8916.22414
787.312	8592.34253
787.501	8584.13701
787.69	8450.75504
787.879	8608.75265
788.068	8130.30507
788.257	8360.41986
788.445	8323.45375
788.634	8647.72191
788.823	8469.22811
789.012	8647.72191
789.201	8419.96315
789.39	8682.58344
789.579	8286.48133
789.768	8387.11369
789.957	8278.26437
790.145	8261.82951
790.334	8105.63515
790.523	8171.41521
790.712	8177.58104
790.9	8202.24257
791.089	8146.75008
791.278	8343.99126
791.467	8311.13032
791.655	8356.31283
791.844	8267.99273
792.033	8280.31864
792.221	8025.43786
792.41	8354.25928
792.599	7932.86414
792.787	8294.69797
792.976	8033.66464
793.164	8101.52321
793.353	7867.00866
793.541	8115.91463
793.73	8117.97047
793.918	8146.75008
794.107	7867.00866
794.295	8043.94766
794.484	7879.35817
794.672	7817.60316
794.861	7932.86414
795.049	8002.81254
795.238	7714.63642
795.426	7873.18351
795.614	7726.9952
795.803	7850.54149
795.991	7854.65841
796.179	7924.63336
796.368	7922.57561
796.556	7936.97941
796.744	7591.00678
796.932	7986.35622
797.121	7512.66833
797.309	7867.00866
797.497	7726.9952
797.685	7825.83824
797.874	7735.23396
798.062	7628.1037
798.25	7370.3426
798.438	7807.30883
798.626	7661.07295
798.814	7817.60316
799.002	7811.42663
799.19	7677.55554
799.378	7980.18476
799.566	7858.77524
799.755	7644.589
799.943	7780.54116
800.131	7669.31441
800.318	7731.11462
800.506	7421.92182
800.694	7399.22864
800.882	7489.98563
801.07	7908.17081
801.258	7623.98216
801.446	7714.63642
801.634	7578.63961
801.822	7659.01253
802.01	7442.54971
802.197	7881.41635
802.385	7430.17324
802.573	7630.16444
802.761	7529.16321
802.949	7621.92136
803.136	7512.66833
803.324	7360.02513
803.512	7242.36717
803.699	7390.97592
803.887	7370.3426
804.075	7729.05492
804.262	7250.6262
804.45	7504.42038
804.638	7459.05045
804.825	7687.85647
805.013	7621.92136
805.201	7628.1037
805.388	7568.33305
805.576	7920.51784
805.763	7611.61703
805.951	7619.86054
806.138	7510.60638
806.326	7636.34652
806.513	7471.42511
806.701	7611.61703
806.888	7409.54405
807.075	7751.71048
807.263	7430.17324
807.45	7601.31218
807.638	7483.79898
807.825	7650.77064
808.012	7471.42511
808.2	7459.05045
808.387	7601.31218
808.574	7640.4678
808.761	7537.41014
808.949	7652.83115
809.136	7477.61214
809.323	7735.23396
809.51	7636.34652
809.698	7817.60316
809.885	7628.1037
810.072	7663.13335
810.259	7562.14885
810.446	7823.7795
810.633	7574.51705
810.82	7650.77064
811.008	7667.25408
811.195	7646.64957
811.382	7291.91606
811.569	7506.4824
811.756	7537.41014
811.943	7661.07295
812.13	7504.42038
812.317	7582.76209
812.504	7555.96446
812.691	7652.83115
812.878	7706.39682
813.064	7838.19024
813.251	7574.51705
813.438	7755.8294
813.625	7562.14885
813.812	7652.83115
813.999	7368.27915
814.186	7380.65954
814.372	7364.15218
814.559	7522.97779
814.746	7302.23715
814.933	7426.04757
815.12	7327.00553
815.306	7409.54405
815.493	7351.77075
815.68	7599.25114
815.866	7267.1432
816.053	7407.48101
816.24	7199.00146
816.426	7595.129
816.613	7426.04757
816.799	7623.98216
816.986	7593.0679
817.173	7469.36272
817.359	7372.40603
817.546	7527.10143
817.732	7275.40117
817.919	7463.17543
818.105	7178.3477
818.292	7258.88487
818.478	7134.96756
818.665	7341.45229
818.851	7232.04289
819.037	7423.98471
819.224	7180.41317
819.41	7535.34844
819.597	7068.8456
819.783	7298.10878
819.969	7099.84312
820.156	7320.81373
820.342	7327.00553
820.528	7407.48101
820.714	7201.06672
820.901	7615.73883
821.087	7355.89798
821.273	7642.52841
821.459	7549.77988
821.646	7560.08741
821.832	7207.26235
822.018	7124.63751
822.204	6812.40546
822.39	7269.20772
822.576	6988.22846
822.762	7035.77603
822.948	6917.9189
823.134	7238.23752
823.32	6862.0662
823.507	7132.9016
823.693	6835.16826
823.879	7122.57143
824.065	6934.46467
824.25	7275.40117
824.436	7077.1121
824.622	7180.41317
824.808	7079.17867
824.994	7165.95437
825.18	6810.33598
825.366	7017.17187
825.552	6847.58317
825.738	7041.97701
825.923	7058.51198
826.109	6963.4163
826.295	6737.88971
826.481	7176.2822
826.667	6802.05782
826.852	7017.17187
827.038	6909.64547
827.224	6963.4163
827.409	6764.80159
827.595	6893.09752
827.781	6986.1609
827.966	7141.16532
828.152	6768.94153
828.338	6725.46753
828.523	6464.41039
828.709	6922.05548
828.894	6646.77458
829.08	6541.10807
829.266	6425.01274
829.451	6650.91714
829.637	6480.99636
829.822	6594.98477
830.008	6225.82221
830.193	6524.52748
830.378	6379.38391
830.564	6636.41777
830.749	6420.86513
830.935	6717.18562
831.12	6528.67276
831.305	6652.98838
831.491	6387.6809
831.676	6663.34427
831.861	6410.4957
832.047	6483.0695
832.232	6198.83191
832.417	6721.32662
832.602	6273.56456
832.788	6404.27376
832.973	6117.83723
833.158	6619.84568
833.343	6263.18684
833.528	6279.79091
833.714	6219.59403
833.899	6383.53245
834.084	6121.99168
834.269	6694.40848
834.454	5976.53019
834.639	6325.44439
834.824	6259.03559
835.009	6356.56527
835.194	6178.06745
835.379	6254.88425
835.564	6103.29595
835.749	6375.23528
835.934	6140.6855
836.119	6281.86632
836.304	6117.83723
836.489	6173.91428
836.674	6238.27793
836.859	6292.24298
837.044	6113.6827
837.228	6250.73281
837.413	5768.52771
837.598	6022.25909
837.783	5949.50321
837.968	5980.68784
838.152	5876.71845
838.337	5955.74056
838.522	5814.3085
838.707	5989.00284
838.891	5793.50047
839.076	5885.03817
839.261	5701.91708
839.445	5949.50321
839.63	5681.0963
839.815	5955.74056
839.999	5672.76733
840.184	5916.23376
840.368	5783.09557
840.553	5855.91749
840.737	5610.288
840.922	5918.31328
841.106	5687.34278
841.291	5797.66227
841.475	5699.83511
841.66	5914.15422
841.844	5570.70679
842.029	5822.63106
842.213	5764.36526
842.397	5720.65376
842.582	5501.94024
842.766	5747.71449
842.951	5554.03847
843.135	5689.42489
843.319	5551.95482
843.504	5572.79022
843.688	5564.45634
843.872	5529.03316
844.056	5549.87115
844.241	5622.78557
844.425	5355.98701
844.609	5718.572
844.793	5368.50179
844.977	5476.92787
845.161	5199.48105
845.346	5606.12196
845.53	5374.75887
845.714	5722.7355
845.898	5239.14166
846.082	5376.84452
846.266	5268.35988
846.45	5318.43758
846.634	5015.68028
846.818	5366.41606
847.002	5109.69176
847.186	5458.16637
847.37	5065.82557
847.554	5105.51447
847.738	5055.37973
847.922	5013.5906
848.106	4994.78248
848.29	5182.77932
848.473	4873.52987
848.657	5209.91887
848.841	4909.07742
849.025	5017.76993
849.209	5095.07084
849.392	5249.57726
849.576	4875.62108
849.76	5168.16409
849.944	4875.62108
850.127	5138.9302
850.311	4607.76091
850.495	4890.25895
850.678	4888.1679
850.862	5126.4
851.046	4896.53198
851.229	4886.07682
851.413	4850.52498
851.596	5042.84397
851.78	4739.64465
851.964	4913.25905
852.147	4745.92259
852.331	4632.88849
852.514	4779.40154
852.698	4722.90246
852.881	4586.8188
853.065	4714.53082
853.248	4603.57267
853.431	4837.9757
853.615	4649.63842
853.798	4716.62377
853.982	4791.95465
854.165	4616.13713
854.348	4727.08814
854.532	4825.4256
854.715	4672.66723
854.898	4748.0152
855.081	4494.64712
855.265	4773.12468
855.448	4425.49031
855.631	4419.20214
855.814	4335.34118
855.997	4469.50196
856.181	4366.79312
856.364	4722.90246
856.547	4389.85477
856.73	4553.30679
856.913	4316.46769
857.096	4494.64712
857.279	4295.49509
857.462	4655.91928
857.645	4456.92819
857.828	4549.11739
858.011	4425.49031
858.194	4526.0741
858.377	4343.72884
858.56	4595.19591
858.743	4402.43274
858.926	4331.14723
859.109	4264.03216
859.292	4175.91043
859.475	4100.34786
859.658	4211.58327
859.841	4117.14189
860.023	4194.79681
860.206	3999.5558
860.389	4205.28851
860.572	4020.55807
860.755	3976.45094
860.937	3898.71657
861.12	4188.50154
861.303	3932.33483
861.486	4186.40308
861.668	3993.25472
861.851	4007.95695
862.034	3892.41258
862.216	4142.33042
862.399	3741.06307
862.581	3894.51393
862.764	3646.41837
862.947	3970.14919
863.129	3837.7704
863.312	3940.73859
863.494	3646.41837
863.677	3747.37133
863.859	3490.69746
864.042	3856.68652
864.224	3602.23766
864.406	3789.42192
864.589	3286.42702
864.771	3505.43214
864.954	3320.13243
865.136	3659.0399
865.318	3414.90512
865.501	3680.07426
865.683	3549.63081
865.865	3545.42177
866.048	3387.52999
866.23	3600.13361
866.412	3326.4517
866.594	3572.77926
866.777	3299.06706
866.959	3699.00355
867.141	3393.84759
867.323	3537.00345
867.505	3408.58805
867.687	3661.14342
867.869	3410.69376
868.052	3604.34169
868.234	3408.58805
868.416	3547.5263
868.598	3461.22543
868.78	3722.13724
868.962	3414.90512
869.144	3610.65367
869.326	3408.58805
869.508	3650.62562
869.69	3349.62105
869.872	3638.00364
870.054	3263.25202
870.236	3393.84759
870.417	3208.46666
870.599	3368.57623
870.781	3187.39239
870.963	3307.49341
871.145	3309.59996
871.327	3480.17214
871.508	3124.15976
871.69	3391.74174
871.872	3214.78863
872.054	3429.64434
872.235	3183.17733
872.417	3126.26775
872.599	2913.28249
872.78	3159.99338
872.962	2930.15822
873.144	3296.96043
873.325	3022.95777
873.507	3435.96088
873.689	3052.47874
873.87	3282.21353
874.052	2932.26763
874.233	3212.68132
874.415	3149.45456
874.596	3284.32028
874.778	3124.15976
874.959	3166.31647
875.141	3090.42979
875.322	3465.43593
875.503	3237.96787
875.685	3233.75361
875.866	3090.42979
876.048	3149.45456
876.229	2999.76062
876.41	3271.67953
876.592	2987.10685
876.773	3339.08979
876.954	3065.12965
877.136	3216.89591
877.317	2932.26763
877.498	3402.27081
877.679	3008.19616
877.86	3254.82424
878.042	3200.03715
878.223	3303.28027
878.404	2906.95385
878.585	3269.57267
878.766	2847.88028
878.947	3185.28487
879.128	2866.86943
879.309	3178.96222
879.49	3039.82727
879.672	3347.51483
879.853	3079.88834
880.034	3157.88565
880.215	3115.72765
880.396	3246.39619
880.576	2966.01603
880.757	3366.47017
880.938	3014.52266
881.119	3372.7883
881.3	3193.71484
881.481	3294.85378
881.662	3008.19616
881.843	3200.03715
882.023	2911.17296
882.204	3119.94374
882.385	2906.95385
882.566	3275.89318
882.747	3181.06978
882.927	3351.72725
883.108	2845.7703
883.289	3265.35892
883.469	2980.77976
883.65	3322.23887
883.831	3200.03715
884.011	3286.42702
884.192	3141.02322
884.373	3345.4086
884.553	3141.02322
884.734	3353.83343
884.914	2984.99784
885.095	3292.74711
885.275	3031.39264
885.456	3221.11044
885.636	3094.64626
885.817	3307.49341
885.997	3153.67014
886.178	3457.01485
886.358	3261.1451
886.538	3334.87716
886.719	3219.00318
886.899	3261.1451
887.08	3081.99666
887.26	3174.74703
887.44	3172.63942
887.621	3478.06702
887.801	3069.3465
887.981	3328.55809
888.161	3431.74987
888.342	3311.70649
888.522	3256.93121
888.702	3324.34529
888.882	3178.96222
889.062	3353.83343
889.242	3326.4517
889.423	3318.02597
889.603	3225.3249
889.783	3444.38268
889.963	3153.67014
890.143	3307.49341
890.323	3136.80745
890.503	3358.04575
890.683	3058.80427
890.863	3145.23892
891.043	2993.4338
891.223	3157.88565
891.403	2997.6517
891.583	3351.72725
891.763	3168.42413
891.943	3206.35931
892.122	2976.56163
892.302	3284.32028
892.482	2909.06341
892.662	3271.67953
892.842	2963.90687
893.022	3124.15976
893.201	2887.96714
893.381	3090.42979
893.561	2847.88028
893.741	2942.81441
893.92	2871.08909
894.1	3107.29529
894.28	2776.13328
894.459	2942.81441
894.639	2805.67809
894.819	3037.71863
894.998	2636.81558
895.178	2972.34344
895.357	2786.6853
895.537	2904.84427
895.716	2820.44949
895.896	3136.80745
896.075	2843.66031
896.255	3025.06651
896.434	2814.11897
896.614	2930.15822
896.793	2786.6853
896.973	3046.15307
897.152	2746.58581
897.331	2898.51545
897.511	2801.45757
897.69	2968.12518
897.87	2643.14941
898.049	2854.21012
898.228	2651.59435
898.407	2845.7703
898.587	2410.83917
898.766	2877.41846
898.945	2577.69444
899.124	2845.7703
899.304	2491.10742
899.483	2807.78833
899.662	2603.03324
899.841	2761.35987
900.02	2446.75059
900.199	2537.57117
900.378	2461.53674
900.557	2706.48151
900.737	2510.11598
900.916	2596.69871
901.095	2434.07632
901.274	2567.1361
901.453	2307.31315
901.632	2408.72664
901.811	2224.8984
901.989	2210.10456
902.168	2153.03873
902.347	2381.26278
902.526	2146.69771
902.705	2457.31218
902.884	2195.3103
903.063	2358.02278
903.242	2222.78502
903.42	2355.90999
903.599	2093.85316
903.778	2195.3103
903.957	2114.99156
904.135	2011.40648
904.314	1893.00432
904.493	2332.66867
904.672	2123.4467
904.85	2172.06135
905.029	1937.4073
905.207	2199.53728
905.386	1882.43183
905.565	2026.20538
905.743	1793.61808
905.922	1859.1719
906.1	1628.66009
906.279	1960.665
906.457	1725.94542
906.636	2009.29232
906.814	1761.89701
906.993	1747.09354
907.171	1797.84749
907.35	1738.63433
907.528	1696.33749
907.707	1831.68213
907.885	1446.7682
908.063	1715.37123
908.242	1298.71631
908.42	1630.77505
908.598	1429.84778
908.777	1658.26928
908.955	1601.16545
909.133	1713.25638
909.311	1518.67984
909.49	1592.70549
909.668	1442.53809
909.846	1821.10893
910.024	1554.63536
910.202	1692.10773
910.38	1467.91872
910.559	1607.51039
910.737	1372.74161
910.915	1518.67984
911.093	1355.82139
911.271	1675.1886
911.449	1624.43017
911.627	1772.4708
911.805	1573.67049
911.983	1681.53329
912.161	1556.75038
912.339	1628.66009
912.517	1518.67984
912.695	1778.81503
912.872	1577.9005
913.05	1588.4755
913.228	1689.99285
913.406	1670.95878
913.584	1453.11335
913.762	1713.25638
913.939	1565.21044
914.117	1709.02668
914.295	1586.3605
914.473	1683.64819
914.65	1514.44976
914.828	1639.23485
915.006	1493.29932
915.184	1510.21968
915.361	1459.45851
915.539	1594.82048
915.716	1419.27253
915.894	1580.0155
916.072	1408.6973
916.249	1493.29932
916.427	1539.83018
916.604	1599.05046
916.782	1412.92739
916.959	1558.8654
917.137	1381.20175
917.314	1548.29029
917.492	1247.95749
917.669	1463.68862
917.847	1412.92739
918.024	1491.18427
918.201	1298.71631
918.379	1438.30799
918.556	1222.57865
918.733	1366.39652
918.911	1254.30227
919.088	1364.28149
919.265	1169.70757
919.442	1391.77694
919.62	1163.36319
919.797	1351.59134
919.974	1078.77523
920.151	1330.44121
920.328	1089.34831
920.506	1548.29029
920.683	1309.29123
920.86	1402.35216
921.037	1214.11914
921.214	1383.31679
921.391	1239.49783
921.568	1157.01885
921.745	1157.01885
921.922	1226.80843
922.099	1099.92152
922.276	1307.17624
922.453	1159.13363
922.63	1218.34889
922.807	979.39514
922.984	1279.6816
923.161	1023.79738
923.338	1218.34889
923.514	1063.97313
923.691	1055.51491
923.868	1053.40037
924.045	1030.14078
924.222	956.13798
924.399	1180.28161
924.575	994.19557
924.752	1226.80843
924.929	979.39514
925.105	1051.28583
925.282	960.36649
925.459	1154.90408
925.635	960.36649
925.812	1036.48424
925.989	867.34612
926.165	937.11002
926.342	877.91585
926.518	1074.54603
926.695	846.2073
926.871	994.19557
927.048	820.84188
927.224	856.7766
927.401	846.2073
927.577	841.97964
927.754	715.16749
927.93	892.71381
928.107	651.77565
928.283	1004.76751
928.459	685.58335
928.636	996.30995
928.812	700.37515
928.988	691.92262
929.165	636.98573
929.341	816.61443
929.517	700.37515
929.693	861.00439
929.87	746.86714
930.046	846.2073
930.222	717.28072
930.398	698.262
930.574	641.21136
930.751	687.69643
930.927	740.52702
931.103	748.98054
931.279	563.04536
931.455	664.45318
931.631	632.76015
931.807	715.16749
931.983	592.61962
932.159	632.76015
932.335	446.88733
932.511	609.52034
932.687	527.13733
932.863	522.91312
933.039	465.89196
933.215	556.70836
933.391	347.662
933.566	529.24946
933.742	482.78599
933.918	482.78599
934.094	487.00965
934.27	482.78599
934.445	326.55503
934.621	432.10681
934.797	368.7707
934.973	402.54813
935.148	353.99443
935.324	351.8836
935.5	334.99761
935.675	322.33385
935.851	263.24494
936.027	353.99443
936.202	301.22902
936.378	334.99761
936.553	242.1453
936.729	318.11274
936.904	176.7489
937.08	216.8283
937.255	191.51415
937.431	225.26699
937.606	233.70599
937.782	218.93794
937.957	140.89469
938.133	252.69488
938.308	170.42125
938.483	166.20292
938.659	187.2954
938.834	164.09378
939.009	100.82962
939.185	161.98467
939.36	111.37229
939.535	132.45929
939.71	212.60907
939.886	172.53045
940.061	143.00359
940.236	151.43941
940.411	90.28749
940.586	170.42125
940.761	130.35049
940.937	102.93811
941.112	136.67694
941.287	90.28749
941.462	92.39587
941.637	31.26204
941.812	124.02423
941.987	170.42125
942.162	149.33043
942.337	115.58952
942.512	39.69314
942.687	77.63768
942.862	48.12461
943.037	71.31307
943.212	126.13296
943.386	-27.74501
943.561	100.82962
943.736	81.85419
943.911	48.12461
944.086	5.97099
944.26	39.69314
944.435	58.66448
944.61	48.12461
944.785	176.7489
944.959	64.98867
945.134	52.34049
945.309	67.09678
945.483	111.37229
945.658	27.04663
945.833	98.72115
946.007	75.52945
946.182	126.13296
946.357	31.26204
946.531	31.26204
946.706	64.98867
946.88	75.52945
947.055	14.40096
947.229	83.96248
947.404	161.98467
947.578	52.34049
947.752	134.5681
947.927	117.69816
948.101	124.02423
948.276	50.23254
948.45	98.72115
948.624	115.58952
948.799	126.13296
948.973	157.7665
949.147	50.23254
949.321	136.67694
949.496	111.37229
949.67	136.67694
949.844	81.85419
950.018	124.02423
950.193	33.36978
950.367	-0.35123
950.541	81.85419
950.715	124.02423
950.889	83.96248
951.063	155.65745
951.237	73.42125
951.411	90.28749
951.585	73.42125
951.759	75.52945
951.933	58.66448
952.107	117.69816
952.281	81.85419
952.455	94.50427
952.629	83.96248
952.803	117.69816
952.977	107.15516
953.151	115.58952
953.325	151.43941
953.499	117.69816
953.672	60.77252
953.846	56.55646
954.02	50.23254
954.194	193.62355
954.368	86.0708
954.541	56.55646
954.715	75.52945
954.889	105.04662
955.062	117.69816
955.236	81.85419
955.41	75.52945
955.583	132.45929
955.757	88.17913
955.93	31.26204
956.104	86.0708
956.278	48.12461
956.451	107.15516
956.625	56.55646
956.798	136.67694
956.972	124.02423
957.145	134.5681
957.319	81.85419
957.492	22.83131
957.665	212.60907
957.839	107.15516
958.012	159.87558
958.185	75.52945
958.359	149.33043
958.532	90.28749
958.705	140.89469
958.879	31.26204
959.052	159.87558
959.225	90.28749
959.398	60.77252
959.572	60.77252
959.745	128.24171
959.918	151.43941
960.091	115.58952
960.264	94.50427
960.438	46.01671
960.611	115.58952
960.784	100.82962
960.957	151.43941
961.13	64.98867
961.303	48.12461
961.476	58.66448
961.649	102.93811
961.822	92.39587
961.995	73.42125
962.168	22.83131
962.341	161.98467
962.514	134.5681
962.686	60.77252
962.859	73.42125
963.032	69.20492
963.205	60.77252
963.378	117.69816
963.551	90.28749
963.723	90.28749
963.896	58.66448
964.069	50.23254
964.242	69.20492
964.414	56.55646
964.587	109.26371
964.76	39.69314
964.932	94.50427
965.105	98.72115
965.278	107.15516
965.45	107.15516
965.623	117.69816
965.795	67.09678
965.968	8.07845
966.14	83.96248
966.313	20.72369
966.485	81.85419
966.658	83.96248
966.83	73.42125
967.003	67.09678
967.175	60.77252
967.348	56.55646
967.52	83.96248
967.692	90.28749
967.865	-17.20943
968.037	119.80683
968.209	96.6127
968.382	140.89469
968.554	56.55646
968.726	83.96248
968.898	73.42125
969.071	56.55646
969.243	-19.31659
969.415	31.26204
969.587	109.26371
969.759	48.12461
969.932	52.34049
970.104	43.90883
970.276	46.01671
970.448	52.34049
970.62	16.50851
970.792	117.69816
970.964	39.69314
971.136	75.52945
971.308	50.23254
971.48	81.85419
971.652	39.69314
971.824	22.83131
971.996	48.12461
972.168	140.89469
972.339	86.0708
972.511	67.09678
972.683	86.0708
972.855	67.09678
973.027	56.55646
973.199	22.83131
973.37	-6.67324
973.542	92.39587
973.714	134.5681
973.886	-12.99502
974.057	67.09678
974.229	60.77252
974.401	24.93896
974.572	-0.35123
974.744	31.26204
974.915	-12.99502
975.087	64.98867
975.259	48.12461
975.43	54.44846
975.602	14.40096
975.773	58.66448
975.945	18.61609
976.116	134.5681
976.288	46.01671
976.459	41.80097
976.63	73.42125
976.802	83.96248
976.973	-34.06606
977.145	56.55646
977.316	83.96248
977.487	134.5681
977.659	5.97099
977.83	-0.35123
978.001	67.09678
978.172	94.50427
978.344	56.55646
978.515	35.47754
978.686	8.07845
978.857	41.80097
979.028	56.55646
979.2	18.61609
979.371	41.80097
979.542	-0.35123
979.713	1.75615
979.884	69.20492
980.055	-10.88778
980.226	96.6127
980.397	35.47754
980.568	54.44846
980.739	46.01671
980.91	-25.63794
981.081	73.42125
981.252	43.90883
981.423	62.88058
981.594	35.47754
981.765	46.01671
981.936	77.63768
982.106	56.55646
982.277	73.42125
982.448	24.93896
982.619	115.58952
982.79	77.63768
982.96	105.04662
983.131	52.34049
983.302	60.77252
983.472	52.34049
983.643	75.52945
983.814	-25.63794
983.984	-2.45859
984.155	43.90883
984.326	-34.06606
984.496	27.04663
984.667	64.98867
984.837	-27.74501
985.008	31.26204
985.178	22.83131
985.349	60.77252
985.519	48.12461
985.69	-69.8811
985.86	-44.60065
986.031	-2.45859
986.201	-8.78052
986.371	113.4809
986.542	90.28749
986.712	-42.49378
986.882	41.80097
987.053	58.66448
987.223	52.34049
987.393	-6.67324
987.563	5.97099
987.734	-23.53085
987.904	33.36978
988.074	-8.78052
988.244	33.36978
988.414	39.69314
988.585	39.69314
988.755	14.40096
988.925	10.18593
989.095	24.93896
989.265	-0.35123
989.435	35.47754
989.605	77.63768
989.775	69.20492
989.945	41.80097
990.115	111.37229
990.285	33.36978
990.455	37.58533
990.625	94.50427
990.795	-27.74501
990.965	48.12461
991.134	14.40096
991.304	18.61609
991.474	67.09678
991.644	56.55646
991.814	69.20492
991.984	33.36978
992.153	94.50427
992.323	5.97099
992.493	-40.38689
992.662	-31.95906
992.832	39.69314
993.002	-6.67324
993.171	24.93896
993.341	90.28749
993.511	35.47754
993.68	77.63768
993.85	18.61609
994.019	-19.31659
994.189	56.55646
994.358	3.86356
994.528	16.50851
994.697	-6.67324
994.867	41.80097
995.036	-10.88778
995.206	41.80097
995.375	31.26204
995.544	67.09678
995.714	22.83131
995.883	102.93811
996.052	29.15432
996.222	54.44846
996.391	-8.78052
996.56	79.74592
996.73	35.47754
996.899	-27.74501
997.068	-27.74501
997.237	35.47754
997.406	14.40096
997.576	77.63768
997.745	-17.20943
997.914	98.72115
998.083	-23.53085
998.252	1.75615
998.421	5.97099
998.59	111.37229
998.759	60.77252
998.928	22.83131
999.097	27.04663
999.266	-8.78052
999.435	8.07845
999.604	33.36978
999.773	5.97099
999.942	81.85419
1000.111	52.34049
1000.28	12.29343
1000.448	-10.88778
1000.617	41.80097
1000.786	27.04663
1000.955	58.66448
1001.124	50.23254
1001.292	8.07845
1001.461	81.85419
1001.63	14.40096
1001.798	-10.88778
1001.967	10.18593
1002.136	-19.31659
1002.304	46.01671
1002.473	60.77252
1002.642	1.75615
1002.81	5.97099
1002.979	48.12461
1003.147	69.20492
1003.316	18.61609
1003.484	-4.56592
1003.653	16.50851
1003.821	14.40096
1003.99	-2.45859
1004.158	27.04663
1004.327	43.90883
1004.495	56.55646
1004.663	14.40096
1004.832	43.90883
1005	-34.06606
1005.168	94.50427
1005.337	35.47754
1005.505	-15.10224
1005.673	41.80097
1005.842	-36.17303
1006.01	-44.60065
1006.178	16.50851
1006.346	31.26204
1006.514	-44.60065
1006.683	48.12461
1006.851	27.04663
1007.019	-0.35123
1007.187	-65.66794
1007.355	22.83131
1007.523	-2.45859
1007.691	67.09678
1007.859	107.15516
1008.027	-10.88778
1008.195	48.12461
1008.363	22.83131
1008.531	-2.45859
1008.699	8.07845
1008.867	-2.45859
1009.035	121.91552
1009.203	58.66448
1009.37	-65.66794
1009.538	12.29343
1009.706	18.61609
1009.874	8.07845
1010.042	16.50851
1010.209	48.12461
1010.377	18.61609
1010.545	3.86356
1010.713	52.34049
1010.88	-27.74501
1011.048	33.36978
1011.216	-2.45859
1011.383	14.40096
1011.551	35.47754
1011.718	-23.53085
1011.886	14.40096
1012.054	48.12461
1012.221	-17.20943
1012.389	67.09678
1012.556	-8.78052
1012.724	43.90883
1012.891	-38.27997
1013.058	-36.17303
1013.226	-42.49378
1013.393	-17.20943
1013.561	-50.9211
1013.728	14.40096
1013.895	31.26204
1014.063	-42.49378
1014.23	62.88058
1014.397	8.07845
1014.565	39.69314
1014.732	43.90883
1014.899	5.97099
1015.066	5.97099
1015.233	-15.10224
1015.401	33.36978
1015.568	12.29343
1015.735	10.18593
1015.902	-10.88778
1016.069	39.69314
1016.236	22.83131
1016.403	48.12461
1016.57	50.23254
1016.737	-0.35123
1016.904	56.55646
1017.071	18.61609
1017.238	12.29343
1017.405	10.18593
1017.572	-15.10224
1017.739	10.18593
1017.906	-76.20064
1018.073	-95.15786
1018.24	-46.70749
1018.407	-12.99502
1018.573	37.58533
1018.74	24.93896
1018.907	77.63768
1019.074	-10.88778
1019.241	8.07845
1019.407	24.93896
1019.574	115.58952
1019.741	-10.88778
1019.907	35.47754
1020.074	41.80097
1020.241	1.75615
1020.407	-107.79484
1020.574	10.18593
1020.74	14.40096
1020.907	-2.45859
1021.073	-36.17303
1021.24	-53.02787
1021.406	-55.13461
1021.573	56.55646
1021.739	-6.67324
1021.906	-23.53085
1022.072	-15.10224
1022.239	5.97099
1022.405	-15.10224
1022.571	-36.17303
1022.738	-15.10224
1022.904	48.12461
1023.07	-10.88778
1023.237	-31.95906
1023.403	37.58533
1023.569	117.69816
1023.735	22.83131
1023.902	43.90883
1024.068	14.40096
1024.234	-19.31659
1024.4	14.40096
1024.566	43.90883
1024.732	18.61609
1024.898	43.90883
1025.065	52.34049
1025.231	14.40096
1025.397	10.18593
1025.563	56.55646
1025.729	31.26204
1025.895	8.07845
1026.061	-31.95906
1026.227	31.26204
1026.392	18.61609
1026.558	37.58533
1026.724	-40.38689
1026.89	-50.9211
1027.056	94.50427
1027.222	29.15432
1027.388	-44.60065
1027.553	31.26204
1027.719	77.63768
1027.885	-10.88778
1028.051	-55.13461
1028.216	20.72369
1028.382	5.97099
1028.548	-27.74501
1028.713	-34.06606
1028.879	8.07845
1029.045	5.97099
1029.21	-15.10224
1029.376	-42.49378
1029.541	-10.88778
1029.707	24.93896
1029.873	-2.45859
1030.038	-23.53085
1030.204	-34.06606
1030.369	18.61609
1030.534	50.23254
1030.7	-61.45468
1030.865	39.69314
1031.031	-27.74501
1031.196	35.47754
1031.361	35.47754
1031.527	5.97099
1031.692	8.07845
1031.857	-10.88778
1032.023	18.61609
1032.188	24.93896
1032.353	-8.78052
1032.518	-19.31659
1032.684	-19.31659
1032.849	-29.85205
1033.014	20.72369
1033.179	-19.31659
1033.344	-40.38689
1033.509	14.40096
1033.674	-36.17303
1033.839	-59.34802
1034.004	43.90883
1034.17	3.86356
1034.335	-15.10224
1034.5	77.63768
1034.664	24.93896
1034.829	18.61609
1034.994	5.97099
1035.159	-0.35123
1035.324	-46.70749
1035.489	22.83131
1035.654	-46.70749
1035.819	10.18593
1035.984	-53.02787
1036.148	31.26204
1036.313	56.55646
1036.478	14.40096
1036.643	58.66448
1036.807	-0.35123
1036.972	50.23254
1037.137	8.07845
1037.301	-21.42373
1037.466	-23.53085
1037.631	-10.88778
1037.795	31.26204
1037.96	-0.35123
1038.124	-0.35123
1038.289	-15.10224
1038.454	43.90883
1038.618	18.61609
1038.783	-2.45859
1038.947	-46.70749
1039.111	41.80097
1039.276	43.90883
1039.44	14.40096
1039.605	-44.60065
1039.769	33.36978
1039.933	-0.35123
1040.098	14.40096
1040.262	1.75615
1040.426	5.97099
1040.591	22.83131
1040.755	-2.45859
1040.919	22.83131
1041.083	69.20492
1041.248	-6.67324
1041.412	-59.34802
1041.576	-19.31659
1041.74	-36.17303
1041.904	37.58533
1042.068	-29.85205
1042.232	10.18593
1042.397	48.12461
1042.561	-44.60065
1042.725	31.26204
1042.889	-4.56592
1043.053	-40.38689
1043.217	73.42125
1043.381	20.72369
1043.544	50.23254
1043.708	27.04663
1043.872	-25.63794
1044.036	-44.60065
1044.2	31.26204
1044.364	-19.31659
1044.528	37.58533
1044.691	-53.02787
1044.855	-27.74501
1045.019	16.50851
1045.183	75.52945
1045.346	-34.06606
1045.51	27.04663
1045.674	-31.95906
1045.837	35.47754
1046.001	-0.35123
1046.165	-23.53085
1046.328	-4.56592
1046.492	18.61609
1046.655	-84.62633
1046.819	64.98867
1046.983	-23.53085
1047.146	33.36978
1047.31	10.18593
1047.473	-65.66794
1047.636	-25.63794
1047.8	-2.45859
1047.963	-17.20943
1048.127	-36.17303
1048.29	58.66448
