Data from mixed_try1_USB4F045381__17__00242.txt Node

Date: Thu Apr 03 20:24:32 EDT 2025
User: mmckonesweet
Spectrometer: USB4F04538
Trigger mode: 4
Integration Time (sec): 2.700000E-3
Scans to average: 1
Electric dark correction enabled: true
Nonlinearity correction enabled: true
Boxcar width: 0
XAxis mode: Wavelengths
Number of Pixels in Spectrum: 3648
>>>>>Begin Spectral Data<<<<<
345.52	-71.461
345.736	-71.461
345.952	-71.461
346.168	-14.57544
346.384	-20.89695
346.6	33.89672
346.816	19.14299
347.032	0.17561
347.248	-20.89695
347.464	40.22009
347.68	-8.2537
347.896	-65.14129
348.112	-6.14641
348.328	12.82031
348.544	36.00449
348.76	-14.57544
348.975	-27.21824
349.191	63.4076
349.407	10.7128
349.623	10.7128
349.839	-27.21824
350.055	78.16474
350.27	27.57355
350.486	-14.57544
350.702	2.283
350.918	19.14299
351.133	-10.36097
351.349	-56.71465
351.565	-31.43231
351.781	-48.28761
351.996	36.00449
352.212	-39.86016
352.428	25.46587
352.644	40.22009
352.859	27.57355
353.075	-56.71465
353.291	-29.32529
353.506	40.22009
353.722	23.35822
353.938	21.25059
354.153	17.0354
354.369	-12.46822
354.584	118.22533
354.8	-20.89695
355.016	25.46587
355.231	-6.14641
355.447	12.82031
355.662	-35.64629
355.878	-1.93175
356.093	44.4358
356.309	-29.32529
356.524	-29.32529
356.74	46.54368
356.955	63.4076
357.171	38.11228
357.386	-14.57544
357.602	52.86748
357.817	2.283
358.033	42.32793
358.248	36.00449
358.464	73.9483
358.679	-6.14641
358.895	78.16474
359.11	-18.7898
359.325	-6.14641
359.541	2.283
359.756	10.7128
359.972	10.7128
360.187	-46.18078
360.402	2.283
360.618	69.73195
360.833	-27.21824
361.048	-23.00407
361.264	67.62381
361.479	17.0354
361.694	-1.93175
361.909	-33.53931
362.125	-39.86016
362.34	61.29953
362.555	-20.89695
362.77	2.283
362.986	52.86748
363.201	36.00449
363.416	73.9483
363.631	40.22009
363.847	46.54368
364.062	44.4358
364.277	-37.75323
364.492	-1.93175
364.707	71.84011
364.922	84.48956
365.138	19.14299
365.353	17.0354
365.568	-12.46822
365.783	12.82031
365.998	36.00449
366.213	61.29953
366.428	2.283
366.643	69.73195
366.858	19.14299
367.073	-20.89695
367.288	29.68125
367.503	-4.03909
367.718	6.49786
367.933	61.29953
368.148	78.16474
368.363	69.73195
368.578	38.11228
368.793	-18.7898
369.008	12.82031
369.223	-48.28761
369.438	31.78897
369.653	57.08346
369.868	44.4358
370.083	-31.43231
370.298	-20.89695
370.513	-23.00407
370.728	-77.78048
370.943	-52.50118
371.157	-54.60793
371.372	27.57355
371.587	38.11228
371.802	14.92785
372.017	-71.461
372.232	40.22009
372.446	0.17561
372.661	-31.43231
372.876	61.29953
373.091	90.81458
373.306	52.86748
373.52	-14.57544
373.735	19.14299
373.95	69.73195
374.165	4.39042
374.379	128.76891
374.594	-44.07393
374.809	4.39042
375.023	2.283
375.238	31.78897
375.453	38.11228
375.667	12.82031
375.882	36.00449
376.097	97.13981
376.311	63.4076
376.526	19.14299
376.741	54.97546
376.955	40.22009
377.17	10.7128
377.384	38.11228
377.599	88.70622
377.813	57.08346
378.028	61.29953
378.242	38.11228
378.457	19.14299
378.672	122.44269
378.886	63.4076
379.101	12.82031
379.315	8.60532
379.53	44.4358
379.744	27.57355
379.958	21.25059
380.173	40.22009
380.387	-4.03909
380.602	25.46587
380.816	-20.89695
381.031	-39.86016
381.245	29.68125
381.459	-6.14641
381.674	19.14299
381.888	-31.43231
382.103	48.65159
382.317	-1.93175
382.531	4.39042
382.746	33.89672
382.96	40.22009
383.174	46.54368
383.388	65.5157
383.603	46.54368
383.817	52.86748
384.031	14.92785
384.246	21.25059
384.46	-58.82135
384.674	69.73195
384.888	14.92785
385.103	-31.43231
385.317	-14.57544
385.531	-8.2537
385.745	82.38126
385.959	-12.46822
386.174	2.283
386.388	-16.68263
386.602	-10.36097
386.816	82.38126
387.03	23.35822
387.244	-56.71465
387.458	-37.75323
387.672	27.57355
387.887	-10.36097
388.101	86.59788
388.315	-10.36097
388.529	-14.57544
388.743	-6.14641
388.957	21.25059
389.171	-4.03909
389.385	-8.2537
389.599	-18.7898
389.813	17.0354
390.027	-14.57544
390.241	-4.03909
390.455	48.65159
390.669	40.22009
390.883	38.11228
391.097	19.14299
391.311	-20.89695
391.525	27.57355
391.738	-10.36097
391.952	54.97546
392.166	36.00449
392.38	36.00449
392.594	57.08346
392.808	19.14299
393.022	38.11228
393.236	25.46587
393.449	14.92785
393.663	4.39042
393.877	21.25059
394.091	-6.14641
394.305	4.39042
394.518	86.59788
394.732	-12.46822
394.946	50.75953
395.16	-1.93175
395.373	27.57355
395.587	38.11228
395.801	19.14299
396.015	-46.18078
396.228	50.75953
396.442	0.17561
396.656	14.92785
396.869	-6.14641
397.083	63.4076
397.297	10.7128
397.51	27.57355
397.724	10.7128
397.938	-18.7898
398.151	-18.7898
398.365	-6.14641
398.578	78.16474
398.792	-8.2537
399.005	-18.7898
399.219	4.39042
399.433	-10.36097
399.646	-37.75323
399.86	78.16474
400.073	21.25059
400.287	-29.32529
400.5	-31.43231
400.714	8.60532
400.927	8.60532
401.141	-23.00407
401.354	59.19149
401.567	27.57355
401.781	-69.35446
401.994	54.97546
402.208	0.17561
402.421	6.49786
402.635	107.68229
402.848	-31.43231
403.061	-39.86016
403.275	99.24826
403.488	36.00449
403.701	44.4358
403.915	57.08346
404.128	17.0354
404.341	10.7128
404.555	10.7128
404.768	36.00449
404.981	-37.75323
405.195	86.59788
405.408	27.57355
405.621	2.283
405.834	23.35822
406.048	-23.00407
406.261	69.73195
406.474	19.14299
406.687	27.57355
406.9	95.03138
407.114	-20.89695
407.327	10.7128
407.54	71.84011
407.753	8.60532
407.966	-6.14641
408.179	25.46587
408.392	-8.2537
408.605	-6.14641
408.819	40.22009
409.032	-35.64629
409.245	-8.2537
409.458	-27.21824
409.671	31.78897
409.884	-48.28761
410.097	-1.93175
410.31	19.14299
410.523	46.54368
410.736	-14.57544
410.949	38.11228
411.162	-33.53931
411.375	130.87769
411.588	61.29953
411.801	12.82031
412.014	52.86748
412.227	38.11228
412.44	-27.21824
412.653	-6.14641
412.865	46.54368
413.078	88.70622
413.291	50.75953
413.504	21.25059
413.717	78.16474
413.93	19.14299
414.143	-23.00407
414.356	50.75953
414.568	-27.21824
414.781	19.14299
414.994	-18.7898
415.207	71.84011
415.42	44.4358
415.632	44.4358
415.845	-23.00407
416.058	44.4358
416.271	-12.46822
416.483	19.14299
416.696	92.92297
416.909	27.57355
417.121	54.97546
417.334	61.29953
417.547	21.25059
417.759	-6.14641
417.972	33.89672
418.185	-12.46822
418.397	29.68125
418.61	-16.68263
418.823	21.25059
419.035	6.49786
419.248	-12.46822
419.46	52.86748
419.673	-23.00407
419.885	-27.21824
420.098	40.22009
420.311	2.283
420.523	-27.21824
420.736	-71.461
420.948	17.0354
421.161	-20.89695
421.373	8.60532
421.586	10.7128
421.798	76.05651
422.01	-10.36097
422.223	14.92785
422.435	-20.89695
422.648	10.7128
422.86	-1.93175
423.073	27.57355
423.285	48.65159
423.497	82.38126
423.71	78.16474
423.922	-33.53931
424.134	6.49786
424.347	29.68125
424.559	-6.14641
424.771	52.86748
424.984	27.57355
425.196	54.97546
425.408	-37.75323
425.621	-54.60793
425.833	-20.89695
426.045	33.89672
426.257	29.68125
426.47	-58.82135
426.682	-18.7898
426.894	19.14299
427.106	-23.00407
427.318	63.4076
427.531	-39.86016
427.743	-4.03909
427.955	-10.36097
428.167	21.25059
428.379	-33.53931
428.591	23.35822
428.804	27.57355
429.016	-27.21824
429.228	2.283
429.44	4.39042
429.652	6.49786
429.864	14.92785
430.076	10.7128
430.288	61.29953
430.5	61.29953
430.712	40.22009
430.924	-37.75323
431.136	4.39042
431.348	46.54368
431.56	69.73195
431.772	48.65159
431.984	61.29953
432.196	61.29953
432.408	57.08346
432.62	-10.36097
432.832	92.92297
433.044	92.92297
433.256	46.54368
433.468	12.82031
433.679	36.00449
433.891	-10.36097
434.103	-41.96706
434.315	-6.14641
434.527	25.46587
434.739	-27.21824
434.95	0.17561
435.162	2.283
435.374	52.86748
435.586	50.75953
435.798	21.25059
436.009	52.86748
436.221	57.08346
436.433	29.68125
436.645	6.49786
436.856	6.49786
437.068	48.65159
437.28	25.46587
437.491	19.14299
437.703	44.4358
437.915	61.29953
438.126	38.11228
438.338	-4.03909
438.55	27.57355
438.761	78.16474
438.973	6.49786
439.184	-4.03909
439.396	14.92785
439.608	-18.7898
439.819	4.39042
440.031	2.283
440.242	-25.11117
440.454	54.97546
440.665	-25.11117
440.877	21.25059
441.088	-27.21824
441.3	31.78897
441.511	48.65159
441.723	10.7128
441.934	21.25059
442.146	-10.36097
442.357	54.97546
442.569	23.35822
442.78	-6.14641
442.991	31.78897
443.203	-39.86016
443.414	-1.93175
443.626	19.14299
443.837	19.14299
444.048	82.38126
444.26	-12.46822
444.471	40.22009
444.682	50.75953
444.894	23.35822
445.105	-1.93175
445.316	-58.82135
445.528	-27.21824
445.739	-14.57544
445.95	-18.7898
446.161	44.4358
446.373	12.82031
446.584	6.49786
446.795	19.14299
447.006	-46.18078
447.217	31.78897
447.429	38.11228
447.64	63.4076
447.851	8.60532
448.062	63.4076
448.273	59.19149
448.484	-14.57544
448.695	40.22009
448.907	6.49786
449.118	42.32793
449.329	23.35822
449.54	36.00449
449.751	-23.00407
449.962	40.22009
450.173	19.14299
450.384	36.00449
450.595	46.54368
450.806	-27.21824
451.017	71.84011
451.228	19.14299
451.439	61.29953
451.65	73.9483
451.861	-23.00407
452.072	10.7128
452.283	31.78897
452.494	-41.96706
452.705	-31.43231
452.915	57.08346
453.126	19.14299
453.337	61.29953
453.548	19.14299
453.759	42.32793
453.97	71.84011
454.181	95.03138
454.391	71.84011
454.602	40.22009
454.813	4.39042
455.024	-23.00407
455.235	69.73195
455.445	25.46587
455.656	44.4358
455.867	-27.21824
456.078	-1.93175
456.288	21.25059
456.499	-1.93175
456.71	36.00449
456.921	44.4358
457.131	61.29953
457.342	-14.57544
457.553	52.86748
457.763	23.35822
457.974	-14.57544
458.184	95.03138
458.395	-65.14129
458.606	-6.14641
458.816	44.4358
459.027	-14.57544
459.237	71.84011
459.448	25.46587
459.659	-1.93175
459.869	52.86748
460.08	86.59788
460.29	27.57355
460.501	6.49786
460.711	46.54368
460.922	61.29953
461.132	36.00449
461.343	86.59788
461.553	14.92785
461.764	71.84011
461.974	36.00449
462.184	-6.14641
462.395	25.46587
462.605	27.57355
462.816	59.19149
463.026	21.25059
463.236	2.283
463.447	21.25059
463.657	33.89672
463.867	54.97546
464.078	23.35822
464.288	36.00449
464.498	-8.2537
464.709	33.89672
464.919	27.57355
465.129	10.7128
465.339	-6.14641
465.55	59.19149
465.76	27.57355
465.97	50.75953
466.18	44.4358
466.391	-14.57544
466.601	46.54368
466.811	-6.14641
467.021	33.89672
467.231	-48.28761
467.441	19.14299
467.651	27.57355
467.862	6.49786
468.072	57.08346
468.282	27.57355
468.492	44.4358
468.702	109.79086
468.912	44.4358
469.122	44.4358
469.332	2.283
469.542	61.29953
469.752	90.81458
469.962	10.7128
470.172	-35.64629
470.382	52.86748
470.592	90.81458
470.802	27.57355
471.012	10.7128
471.222	-41.96706
471.432	42.32793
471.642	10.7128
471.852	48.65159
472.062	19.14299
472.272	27.57355
472.482	132.98649
472.691	69.73195
472.901	44.4358
473.111	29.68125
473.321	38.11228
473.531	-4.03909
473.741	38.11228
473.95	52.86748
474.16	61.29953
474.37	36.00449
474.58	23.35822
474.79	69.73195
474.999	67.62381
475.209	52.86748
475.419	2.283
475.628	52.86748
475.838	111.89944
476.048	120.334
476.258	19.14299
476.467	105.57375
476.677	107.68229
476.886	107.68229
477.096	50.75953
477.306	50.75953
477.515	-23.00407
477.725	97.13981
477.935	4.39042
478.144	-18.7898
478.354	132.98649
478.563	105.57375
478.773	54.97546
478.982	19.14299
479.192	27.57355
479.401	48.65159
479.611	10.7128
479.82	31.78897
480.03	78.16474
480.239	63.4076
480.449	29.68125
480.658	10.7128
480.868	118.22533
481.077	88.70622
481.287	105.57375
481.496	137.20416
481.705	80.27299
481.915	42.32793
482.124	95.03138
482.333	10.7128
482.543	69.73195
482.752	111.89944
482.961	95.03138
483.171	52.86748
483.38	103.46523
483.589	78.16474
483.799	36.00449
484.008	8.60532
484.217	27.57355
484.426	219.46535
484.636	116.11668
484.845	154.07568
485.054	86.59788
485.263	86.59788
485.472	103.46523
485.682	122.44269
485.891	88.70622
486.1	132.98649
486.309	177.27622
486.518	128.76891
486.727	31.78897
486.936	65.5157
487.146	44.4358
487.355	175.16697
487.564	156.18471
487.773	101.35674
487.982	128.76891
488.191	145.63975
488.4	111.89944
488.609	78.16474
488.818	156.18471
489.027	192.04149
489.236	187.82274
489.445	156.18471
489.654	114.00805
489.863	156.18471
490.072	145.63975
490.281	145.63975
490.49	263.77245
490.698	80.27299
490.907	103.46523
491.116	208.91732
491.325	208.91732
491.534	105.57375
491.743	240.56291
491.952	179.38548
492.16	213.13647
492.369	173.05775
492.578	215.24608
492.787	255.33235
492.996	234.23344
493.204	227.90414
493.413	263.77245
493.622	230.01389
493.831	213.13647
494.039	238.45306
494.248	238.45306
494.457	238.45306
494.665	289.09456
494.874	263.77245
495.083	238.45306
495.291	230.01389
495.5	223.68471
495.709	259.55236
495.917	234.23344
496.126	297.53586
496.335	291.20486
496.543	333.4146
496.752	223.68471
496.96	255.33235
497.169	251.11241
497.377	343.96815
497.586	276.43317
497.794	297.53586
498.003	282.76378
498.211	341.85741
498.42	255.33235
498.628	238.45306
498.837	280.65356
499.045	322.8615
499.254	341.85741
499.462	305.97745
499.671	282.76378
499.879	324.97208
500.087	308.08789
500.296	333.4146
500.504	381.9645
500.713	377.74241
500.921	384.07557
501.129	365.07655
501.338	348.18969
501.546	457.97321
501.754	308.08789
501.962	457.97321
502.171	348.18969
502.379	405.18717
502.587	460.08485
502.795	430.52323
503.004	417.85491
503.212	369.29844
503.42	462.19651
503.628	474.86679
503.837	390.40887
504.045	447.41521
504.253	534.00179
504.461	453.74996
504.669	474.86679
504.877	474.86679
505.085	521.32906
505.294	350.30049
505.502	449.52678
505.71	510.76883
505.918	531.88963
506.126	512.88085
506.334	572.02299
506.542	546.67503
506.75	500.20897
506.958	474.86679
507.166	601.59802
507.374	377.74241
507.582	576.24783
507.79	504.43287
507.998	546.67503
508.206	534.00179
508.414	601.59802
508.622	588.92269
508.83	508.65683
509.037	603.71062
509.245	652.30387
509.453	715.6958
509.661	536.11396
509.869	694.56402
510.077	620.61188
510.285	688.2247
510.492	578.36028
510.7	690.3378
510.908	650.19098
511.116	664.98142
511.324	595.2603
511.531	707.24295
511.739	681.88549
511.947	715.6958
512.155	719.92228
512.362	728.37539
512.57	724.14881
512.778	770.64342
512.985	643.8524
513.193	867.8746
513.401	755.84914
513.608	719.92228
513.816	774.87045
514.024	770.64342
514.231	662.86847
514.439	829.82532
514.646	738.94201
514.854	796.00618
515.061	783.32462
515.269	916.49708
515.477	789.66536
515.684	823.48405
515.892	760.07603
516.099	834.05287
516.307	840.39428
516.514	872.10247
516.722	857.30507
516.929	918.61119
517.136	859.41896
517.344	977.8094
517.551	903.81255
517.759	812.91545
517.966	950.32382
518.173	984.15239
518.381	960.89506
518.588	1043.35637
518.796	872.10247
519.003	1070.8455
519.21	952.43805
519.418	1060.27265
519.625	922.83945
519.832	1037.01286
520.039	1026.44046
520.247	1163.89189
520.454	1017.98265
520.661	1170.23627
520.868	1041.24186
521.076	1199.84382
521.283	1077.18928
521.49	1185.03996
521.697	1104.6795
521.904	1246.3713
522.112	1091.9916
522.319	1102.56484
522.526	1028.55493
522.733	1330.96996
522.94	1111.02352
523.147	1235.79675
523.354	1229.45205
523.561	1288.67019
523.768	1117.36758
523.975	1280.21034
524.183	1043.35637
524.39	1451.52707
524.597	1271.75052
524.804	1286.55522
525.011	1305.59001
525.218	1303.47502
525.425	1341.54501
525.632	1292.90013
525.838	1303.47502
526.045	1436.7217
526.252	1297.13008
526.459	1485.36789
526.666	1324.62495
526.873	1599.57921
527.08	1375.3854
527.287	1512.86348
527.494	1404.99596
527.701	1722.24446
527.907	1557.27913
528.114	1667.25769
528.321	1555.16411
528.528	1629.18883
528.735	1633.41874
528.941	1654.56816
529.148	1548.81904
529.355	1709.55539
529.562	1404.99596
529.768	1652.45323
529.975	1489.59798
530.182	1728.58895
530.388	1595.34923
530.595	1745.50744
530.802	1599.57921
531.008	1696.86621
531.215	1813.17895
531.422	1756.08138
531.628	1720.12963
531.835	1764.54046
532.042	1663.02786
532.248	1836.44003
532.455	1798.37617
532.661	1730.70378
532.868	1650.33829
533.074	1836.44003
533.281	1762.4257
533.487	1988.67897
533.694	1726.47413
533.9	2052.10265
534.107	1804.72024
534.313	2140.88505
534.52	1986.56475
534.726	2096.4955
534.933	1929.47838
535.139	2166.24895
535.345	1838.55465
535.552	2069.01458
535.758	2049.98862
535.965	2187.38464
536.171	2030.96209
536.377	2172.58974
536.584	2166.24895
536.79	2360.66375
536.996	2071.12854
537.203	2263.46601
537.409	2159.90808
537.615	2318.40636
537.821	2117.6338
538.028	2229.65347
538.234	2157.79445
538.44	2305.72839
538.646	2119.74759
538.853	2183.15757
539.059	2225.42674
539.265	2369.11475
539.471	2191.61167
539.677	2400.80455
539.883	2140.88505
540.09	2470.51378
540.296	2413.47982
540.502	2436.71683
540.708	2301.50232
540.914	2443.05397
541.12	2521.20389
541.326	2525.42777
541.532	2428.26715
541.738	2538.09914
541.944	2343.76127
542.15	2571.88739
542.356	2500.0838
542.562	2573.99906
542.768	2398.69197
542.974	2709.12009
543.18	2601.44962
543.386	2677.45572
543.592	2633.12079
543.798	2812.53633
544.004	2493.74755
544.21	2806.20565
544.415	2457.84025
544.621	2928.57616
544.827	2698.56562
545.033	2816.7567
545.239	2719.67423
545.445	2867.39689
545.651	2597.22659
545.856	2839.96779
546.062	2671.1225
546.268	2818.86687
546.474	2624.67541
546.679	2658.45572
546.885	2666.90029
547.091	2894.82358
547.297	2763.99803
547.502	2776.66089
547.708	2742.89219
547.914	2888.49456
548.119	2835.74772
548.325	3004.50564
548.531	2677.45572
548.736	3120.47075
548.942	2791.4336
549.147	2953.88814
549.353	3025.5937
549.559	3213.20815
549.764	2996.06999
549.97	3120.47075
550.175	3046.68022
550.381	3217.42273
550.586	3069.8736
550.792	3390.16234
550.997	3179.48911
551.203	3206.88615
551.408	3373.3148
551.614	3196.34916
551.819	3211.10083
552.025	3362.78452
552.23	3181.59667
552.435	3375.4208
552.641	3137.33443
552.846	3354.35998
553.052	3297.48709
553.257	3373.3148
553.462	3324.8719
553.668	3333.29741
553.873	3356.46614
554.078	3415.43154
554.283	3468.06746
554.489	3672.1866
554.694	3411.22018
554.899	3686.91002
555.105	3533.32034
555.31	3457.54117
555.515	3482.80351
555.72	3625.90693
555.925	3487.01365
556.131	3604.86769
556.336	3495.4337
556.541	3628.01075
556.746	3487.01365
556.951	3632.21833
557.156	3474.38302
557.361	3920.25386
557.567	3577.51389
557.772	3802.56113
557.977	3644.84063
558.182	3741.58876
558.387	3678.49675
558.592	3993.77982
558.797	3609.07569
559.002	3815.17404
559.207	3905.5457
559.412	3916.05163
559.617	3756.30773
559.822	3878.22792
560.027	3651.15152
560.232	3939.16291
560.437	3541.73879
560.642	3834.09208
560.847	3844.60141
561.051	3962.27174
561.256	3583.82659
561.461	3853.00851
561.666	3987.47857
561.871	3863.51695
562.076	3739.48598
562.281	4004.28149
562.485	3928.65809
562.69	4025.28329
562.895	3880.32941
563.1	4147.05294
563.305	3802.56113
563.509	4121.86497
563.714	3855.11024
563.919	4230.99091
564.123	4029.48341
564.328	4216.30421
564.533	4012.68246
564.737	4304.40871
564.942	3899.2419
565.147	4371.51049
565.351	4149.1518
565.556	4216.30421
565.761	4304.40871
565.965	4134.45933
566.17	4023.1832
566.374	4172.23788
566.579	4203.71478
566.784	4335.86542
566.988	4182.73071
567.193	4574.77608
567.397	4235.18692
567.602	4449.06918
567.806	4390.37886
568.011	4411.34166
568.215	4306.50597
568.42	4604.0962
568.624	4413.43782
568.828	4597.81369
569.033	4407.14927
569.237	4704.58904
569.442	4545.45159
569.646	4532.88263
569.85	4524.50287
570.055	4602.00205
570.259	4459.54779
570.463	4451.16495
570.668	4549.64107
570.872	4754.81601
571.076	4459.54779
571.281	4576.87052
571.485	4375.70361
571.689	4830.13198
571.893	4566.3981
572.098	4616.66063
572.302	4645.9745
572.506	4911.69095
572.71	4534.97751
572.914	4645.9745
573.119	4685.75057
573.323	4696.21661
573.527	4574.77608
573.731	4660.62978
573.935	4838.4986
574.139	4746.44575
574.343	4505.64713
574.547	4727.61135
574.751	4629.22425
574.955	4930.50731
575.159	4746.44575
575.364	4884.50849
575.568	4869.87018
575.772	4938.86954
575.976	4838.4986
576.18	4800.84593
576.383	4685.75057
576.587	4943.05051
576.791	4909.60013
576.995	4995.30495
577.199	4796.66185
577.403	5055.90204
577.607	4846.86486
577.811	5120.65671
578.015	4978.5851
578.219	5060.08043
578.422	4869.87018
578.626	5268.88159
578.83	4865.6876
579.034	5070.52601
579.238	4955.59289
579.442	5093.50424
579.645	4978.5851
579.849	5327.3041
580.053	5162.42208
580.257	5210.44074
580.46	5227.13999
580.664	5354.4226
580.868	5164.5101
581.071	5185.38906
581.275	5177.03776
581.479	5419.07378
581.682	5189.56458
581.886	5343.99288
582.09	5072.61506
582.293	5293.92206
582.497	5145.71705
582.7	5304.35459
582.904	5369.02323
583.107	5546.22467
583.311	5310.61383
583.515	5502.4613
583.718	5233.40183
583.922	5387.79377
584.125	5264.70785
584.329	5527.47021
584.532	5571.22765
584.735	5571.22765
584.939	5671.2056
585.142	5458.68755
585.346	5485.78681
585.549	5579.56122
585.753	5564.97722
585.956	5689.94542
586.159	5477.449
586.363	5945.86466
586.566	5748.23485
586.769	5796.1016
586.973	5598.31038
587.176	5760.72303
587.379	5673.2879
587.582	5877.23844
587.786	5598.31038
587.989	5756.5604
588.192	5789.85882
588.395	5717.01067
588.599	5789.85882
588.802	5960.41843
589.005	5731.58261
589.208	5939.62697
589.411	5731.58261
589.615	6033.16998
589.818	5592.06087
590.021	6076.80707
590.224	5700.3556
590.427	5968.73436
590.63	5927.15096
590.833	5879.3184
591.036	5787.77785
591.239	6064.34039
591.442	5943.78545
591.645	5943.78545
591.848	5918.83315
592.051	6251.25174
592.254	5937.5477
592.457	6251.25174
592.66	6093.42799
592.863	6330.11285
593.066	6110.0474
593.269	6188.96909
593.472	6276.1589
593.675	6545.77109
593.878	6170.28017
594.081	6469.07534
594.284	5995.7585
594.486	6527.11829
594.689	6282.38516
594.892	6379.90249
595.095	5985.36507
595.298	6344.63622
595.5	6257.47885
595.703	6460.78201
595.906	6296.91229
596.109	6373.67952
596.311	6417.2359
596.514	6479.44149
596.717	6386.12524
596.92	6630.72128
597.122	6309.3632
597.325	6464.92872
597.528	6342.56152
597.73	6732.19631
597.933	6296.91229
598.136	6566.49423
598.338	6404.79226
598.541	6628.64978
598.743	6585.14308
598.946	6477.36831
599.148	6469.07534
599.351	6717.70325
599.554	6583.07108
599.756	6543.69865
599.959	6516.75481
600.161	6906.02573
600.363	6599.64644
600.566	6790.15733
600.768	6711.4916
600.971	6686.64292
601.173	6723.9147
601.376	6825.33921
601.578	6738.40728
601.78	6796.36637
601.983	6612.077
602.185	6773.59887
602.388	6872.92774
602.59	6953.59392
602.792	6692.8554
602.995	6757.03894
603.197	6808.78385
603.399	7034.22575
603.601	7038.3598
603.804	7073.49555
604.006	7056.96189
604.208	6908.09416
604.41	6794.29671
604.613	7040.42679
604.815	6897.75178
605.017	7172.66752
605.219	6870.85893
605.421	7069.36227
605.623	6798.43601
605.826	7228.42926
606.028	6810.85335
606.23	6858.44555
606.432	6850.16951
606.634	7290.36785
606.836	6833.61634
607.038	7104.49231
607.24	6792.22703
607.442	7174.73306
607.644	7021.82308
607.846	7154.07669
608.048	6980.47501
608.25	7230.4942
608.452	7139.6159
608.654	7275.91728
608.856	7244.94815
609.058	7238.75373
609.26	6970.13658
609.462	7213.97406
609.664	7201.58303
609.866	7583.27739
610.067	7273.85283
610.269	7459.56608
610.471	7073.49555
610.673	7500.81179
610.875	7242.88337
611.077	7383.23868
611.278	7253.20707
611.48	7197.45251
611.682	7092.09421
611.884	7432.75173
612.085	7211.90894
612.287	7552.35681
612.489	7118.95575
612.69	7292.43213
612.892	7269.72385
613.094	7385.30198
613.295	7164.40515
613.497	7389.4285
613.699	7205.71346
613.9	7610.07134
614.102	7265.59479
614.304	7426.56329
614.505	7451.3159
614.707	7226.36429
614.908	7021.82308
615.11	7405.93372
615.311	7244.94815
615.513	7296.56062
615.714	7300.68902
615.916	7418.31172
616.117	7306.88146
616.319	7459.56608
616.52	7323.39367
616.722	7389.4285
616.923	7321.32972
617.124	7554.41833
617.326	7416.24877
617.527	7647.16471
617.729	7280.04612
617.93	7626.55813
618.131	7517.30766
618.333	7591.52207
618.534	7348.15935
618.735	7570.90974
618.937	7603.88844
619.138	7684.2512
619.339	7618.3149
619.54	7997.15583
619.742	7832.529
619.943	7498.74971
620.144	7455.44103
620.345	7608.01039
620.546	7201.58303
620.748	7789.29252
620.949	7496.68761
621.15	7890.16339
621.351	7430.68894
621.552	7655.40675
621.753	7319.26575
621.954	7566.78701
622.155	7358.47746
622.356	7848.99762
622.558	7735.74887
622.759	7713.09152
622.96	7492.56334
623.161	7754.28482
623.362	7616.25405
623.563	7890.16339
623.764	7711.03164
623.965	7776.93755
624.166	7632.74033
624.366	7939.55141
624.567	7632.74033
624.768	7879.87272
624.969	7634.80102
625.17	7834.58765
625.371	7737.80851
625.572	7731.62954
625.773	7879.87272
625.973	7997.15583
626.174	7766.64117
626.375	7916.9167
626.576	7816.05904
626.777	7789.29252
626.977	7575.03237
627.178	7746.04683
627.379	7659.52764
627.58	7923.09005
627.78	7805.76464
627.981	7904.56945
628.182	7752.22535
628.382	8005.38373
628.583	7723.39063
628.784	7783.11513
628.984	7778.99676
629.185	8065.02626
629.386	7640.98296
629.586	7962.18363
629.787	7863.40658
629.987	8062.9699
630.188	7916.9167
630.388	8009.49755
630.589	7733.68922
630.79	8038.29206
630.99	7820.17665
631.191	7916.9167
631.391	7904.56945
631.591	8001.26982
631.792	7599.7664
631.992	8219.19572
632.193	8015.66814
632.393	8093.81312
632.594	7848.99762
632.794	8247.96162
632.994	7892.22146
633.195	8256.17974
633.395	8044.46179
633.595	8215.08599
633.796	8110.26098
633.996	8176.0396
634.196	8075.30773
634.397	8260.28868
634.597	8256.17974
634.797	8336.28992
634.997	8015.66814
635.198	8071.1952
635.398	7999.21283
635.598	8500.52616
635.798	8003.32678
635.998	8114.37274
636.199	8258.23422
636.399	8093.81312
636.599	8013.6113
636.799	8375.30721
636.999	8028.00876
637.199	8430.74081
637.399	8274.66935
637.599	8260.28868
637.799	8054.74428
637.999	8521.04707
638.199	8280.8322
638.399	8307.53585
638.599	8383.52048
638.799	8498.47397
638.999	8447.16288
639.199	8492.31726
639.399	8500.52616
639.599	8545.66966
639.799	8217.14087
639.999	8504.63049
640.199	8315.75169
640.399	8627.72537
640.599	7953.95402
640.799	8377.36056
640.998	8424.58221
641.198	8502.57834
641.398	8334.23619
641.598	8510.78685
641.798	8471.79369
641.997	8420.47638
642.197	8352.71911
642.397	8990.46887
642.597	8510.78685
642.796	8734.35322
642.996	8241.79783
643.196	8783.54929
643.395	8309.58984
643.595	8582.59845
643.795	8543.61788
643.994	8607.21425
644.194	8758.95257
644.394	8728.20297
644.593	8605.16304
644.793	8812.24216
644.992	8685.14658
645.192	8777.40036
645.392	8824.53801
645.591	8720.00238
645.791	8445.11019
645.99	8623.62329
646.19	8258.23422
646.389	8601.06056
646.589	8660.53927
646.788	8851.17679
646.987	8652.33624
647.187	8816.34085
647.386	8709.75123
647.586	8998.65997
647.785	8711.80149
647.984	8707.70094
648.184	8726.15285
648.383	8908.54232
648.582	8855.2748
648.782	9107.1657
648.981	8976.13377
649.18	9029.3741
649.38	8752.80298
649.579	9055.98984
649.778	8849.12776
649.977	9281.08372
650.177	8902.39669
650.376	9025.27911
650.575	8701.54997
650.774	8863.47059
650.973	8791.74762
651.173	8926.97827
651.372	8861.42167
651.571	9162.42355
651.77	9135.81948
651.969	9223.80658
652.168	8728.20297
652.367	9129.67967
652.566	9090.7906
652.765	9037.56387
652.964	8935.17156
653.163	9078.50855
653.362	8795.84667
653.561	9037.56387
653.76	8865.51949
653.959	9092.83755
654.158	9008.89845
654.357	8986.37321
654.556	8982.27749
654.755	9180.84006
654.954	9101.02517
655.153	9373.10893
655.352	9211.53119
655.551	9354.70656
655.749	9240.17282
655.948	9160.37718
656.147	9326.078
656.346	9162.42355
656.545	9113.30608
656.743	9328.12301
656.942	9135.81948
657.141	9309.71738
657.34	9260.62911
657.538	9225.85242
657.737	9160.37718
657.936	9516.19348
658.135	8840.93147
658.333	9213.57713
658.532	9090.7906
658.731	9295.40096
658.929	8957.70165
659.128	9326.078
659.326	9152.19155
659.525	9561.14668
659.724	9334.25792
659.922	9434.44059
660.121	9350.61696
660.319	9420.13117
660.518	9332.21297
660.716	9371.06428
660.915	9217.66896
661.113	9675.53867
661.312	9096.93139
661.51	9201.30124
661.709	9246.30988
661.907	9317.89782
662.105	9328.12301
662.304	9350.61696
662.502	9283.12909
662.701	9424.21966
662.899	9211.53119
663.097	9358.79609
663.296	9291.3104
663.494	9749.05076
663.692	9630.6048
663.891	9665.32709
664.089	9262.67464
664.287	9458.96916
664.485	9311.76251
664.684	9602.00659
664.882	9285.17444
665.08	9113.30608
665.278	9178.79385
665.476	9409.90968
665.675	9180.84006
665.873	9403.77659
666.071	9264.72016
666.269	9364.93026
666.467	9111.2593
666.665	9377.19816
666.863	9319.94289
667.061	9336.30286
667.259	9524.36737
667.457	9673.49639
667.655	9418.08691
667.853	9236.08136
668.051	9203.34727
668.249	9438.52884
668.447	9356.75133
668.645	9350.61696
668.843	9383.33189
669.041	9287.21978
669.239	9301.53666
669.437	9348.57214
669.635	9409.90968
669.833	9530.49761
670.031	9246.30988
670.229	9626.51953
670.426	9215.62306
670.624	9479.40786
670.822	9430.35226
671.02	9604.04942
671.218	9671.45409
671.415	9781.71646
671.613	9326.078
671.811	9546.84423
672.009	9555.01715
672.206	9691.87641
672.404	9381.28733
672.602	9393.55444
672.799	9489.62661
672.997	9505.97578
673.195	9393.55444
673.392	9530.49761
673.59	9405.82097
673.788	9618.3488
673.985	9256.53799
674.183	9512.10645
674.38	9248.35554
674.578	9497.80132
674.775	9287.21978
674.973	9442.61703
675.17	9053.94258
675.368	9479.40786
675.565	9262.67464
675.763	9262.67464
675.96	9307.67222
676.158	9389.46547
676.355	9268.81115
676.553	9695.96069
676.75	9268.81115
676.947	9663.28472
677.145	9518.23698
677.342	9552.97395
677.539	9434.44059
677.737	9857.24115
677.934	9473.27642
678.131	9624.47687
678.329	9103.07203
678.526	9227.89824
678.723	9217.66896
678.92	9585.66338
679.118	9561.14668
679.315	9522.32392
679.512	9285.17444
679.709	9555.01715
679.906	9123.5397
680.104	9346.5273
680.301	9309.71738
680.498	9387.42096
680.695	8967.94189
680.892	9373.10893
681.089	9160.37718
681.286	9344.48245
681.483	9086.69665
681.68	9364.93026
681.877	9168.56254
682.075	9475.32025
682.272	9088.74364
682.469	9364.93026
682.665	9029.3741
682.862	9072.36729
683.059	9078.50855
683.256	9356.75133
683.453	9315.85274
683.65	9203.34727
683.847	9397.64335
684.044	9373.10893
684.241	9201.30124
684.438	9344.48245
684.635	9094.88448
684.831	9375.15355
685.028	9098.97829
685.225	9229.94405
685.422	9086.69665
685.619	9236.08136
685.815	9209.48524
686.012	9622.43419
686.209	9152.19155
686.405	9307.67222
686.602	9084.64965
686.799	9105.11887
686.996	9207.43926
687.192	9405.82097
687.389	9191.07086
687.586	9176.74762
687.782	9144.00565
687.979	9548.88748
688.175	9129.67967
688.372	9332.21297
688.568	9346.5273
688.765	9115.35284
688.962	9121.49301
689.158	9137.86605
689.355	9231.98984
689.551	9315.85274
689.748	9250.40117
689.944	9334.25792
690.14	9070.32017
690.337	9403.77659
690.533	9186.97859
690.73	9258.58356
690.926	9291.3104
691.123	9385.37643
691.319	9391.50996
691.515	9225.85242
691.712	9160.37718
691.908	9193.11697
692.104	9144.00565
692.301	9105.11887
692.497	8851.17679
692.693	9297.44621
692.889	8883.95881
693.086	9207.43926
693.282	9217.66896
693.478	9544.80095
693.674	8974.08582
693.87	9389.46547
694.067	9170.60884
694.263	9381.28733
694.459	9371.06428
694.655	9205.39327
694.851	8990.46887
695.047	9389.46547
695.243	9084.64965
695.439	9068.27303
695.635	9160.37718
695.831	9242.21853
696.027	9115.35284
696.224	8933.12326
696.42	8929.02662
696.615	9070.32017
696.811	9252.44679
697.007	9199.2552
697.203	8861.42167
697.399	9207.43926
697.595	9037.56387
697.791	8810.19278
697.987	9076.46148
698.183	9328.12301
698.379	8967.94189
698.575	9223.80658
698.77	8873.71493
698.966	9045.75336
699.162	8873.71493
699.358	8836.83321
699.554	8750.75308
699.749	9039.61127
699.945	8625.67434
700.141	8931.07495
700.337	8746.65323
700.532	9150.14511
700.728	8840.93147
700.924	8865.51949
701.119	8787.64849
701.315	8914.6878
701.511	8664.64067
701.706	9139.9126
701.902	8963.84585
702.097	9037.56387
702.293	9053.94258
702.489	9072.36729
702.684	8972.03786
702.88	9004.80311
703.075	8808.14339
703.271	8988.42105
703.466	8937.21984
703.662	9017.08892
703.857	8949.50914
704.053	8955.65355
704.248	8836.83321
704.443	8869.61725
704.639	8849.12776
704.834	8974.08582
705.03	8801.99511
705.225	8902.39669
705.42	8826.58725
705.616	8969.98989
705.811	8785.5989
706.006	8867.56838
706.202	8742.5533
706.397	8926.97827
706.592	8783.54929
706.787	8998.65997
706.983	8826.58725
707.178	9172.65511
707.373	9029.3741
707.568	8926.97827
707.763	8701.54997
707.959	9092.83755
708.154	8988.42105
708.349	8931.07495
708.544	9031.42157
708.739	9113.30608
708.934	8992.51667
709.129	9217.66896
709.324	9004.80311
709.519	9166.51623
709.714	8990.46887
709.909	9416.04263
710.104	9047.80069
710.299	9062.13151
710.494	8838.88235
710.689	8830.68569
710.884	9023.23159
711.079	9031.42157
711.274	8590.80402
711.469	8935.17156
711.664	8742.5533
711.859	9141.95913
712.054	8830.68569
712.249	8898.29951
712.443	8734.35322
712.638	8779.45002
712.833	8689.24754
713.028	8814.29151
713.223	8775.35068
713.417	8972.03786
713.612	8949.50914
713.807	9066.22588
714.002	8804.04456
714.196	8914.6878
714.391	8484.10806
714.586	8611.31663
714.78	8496.42175
714.975	8941.31634
715.17	8646.18377
715.364	8931.07495
715.559	8929.02662
715.754	8822.48874
715.948	8570.28953
716.143	8629.77638
716.337	8779.45002
716.532	8926.97827
716.726	8965.89388
716.921	8701.54997
717.115	8851.17679
717.31	8783.54929
717.504	8537.46243
717.699	8506.68263
717.893	8385.57375
718.088	8594.90669
718.282	8477.95096
718.476	8635.92929
718.671	8434.84644
718.865	8640.03114
719.059	8490.26499
719.254	8734.35322
719.448	8514.891
719.642	8681.04555
719.837	8356.82621
720.031	8635.92929
720.225	8586.70127
720.419	8599.00928
720.614	8514.891
720.808	8828.63648
721.002	8506.68263
721.196	8644.13292
721.39	8512.83893
721.585	8484.10806
721.779	8504.63049
721.973	8648.23462
722.167	8367.09363
722.361	8633.87834
722.555	8590.80402
722.749	8656.43779
722.943	8471.79369
723.137	8553.87658
723.331	8494.36952
723.525	8562.08321
723.719	8590.80402
723.913	8750.75308
724.107	8237.68853
724.301	8652.33624
724.495	8217.14087
724.689	8512.83893
724.883	8529.2549
725.077	8736.40327
725.271	8488.2127
725.465	8691.29799
725.659	8406.10539
725.853	8514.891
726.046	8408.15844
726.24	8332.18243
726.434	8149.3195
726.628	8625.67434
726.822	8492.31726
727.015	8629.77638
727.209	8280.8322
727.403	8389.68023
727.596	8202.75633
727.79	8521.04707
727.984	8578.49555
728.177	8855.2748
728.371	8389.68023
728.565	8705.65064
728.758	8494.36952
728.952	8506.68263
729.146	8375.30721
729.339	8619.52115
729.533	8652.33624
729.726	8531.30681
729.92	8416.37048
730.113	8379.41388
730.307	8514.891
730.5	8512.83893
730.694	8465.63625
730.887	8588.75265
731.081	8225.36017
731.274	8206.86629
731.468	7968.35562
731.661	8399.9461
731.854	8268.50632
732.048	8317.8056
732.241	8114.37274
732.435	8309.58984
732.628	8395.83981
732.821	8582.59845
733.014	8480.00335
733.208	8406.10539
733.401	8221.25056
733.594	8590.80402
733.788	8434.84644
733.981	8496.42175
734.174	8463.58373
734.367	8525.15102
734.56	8410.21148
734.754	8510.78685
734.947	8412.2645
735.14	8186.31566
735.333	8438.952
735.526	8276.72365
735.719	8227.41495
735.912	8360.93323
736.105	8217.14087
736.298	8356.82621
736.491	8254.12524
736.684	8473.84613
736.877	8459.47863
737.07	8097.9252
737.263	7972.47018
737.456	8161.65227
737.649	8163.70766
737.842	8052.68782
738.035	8001.26982
738.228	8143.15285
738.421	8225.36017
738.614	8239.74319
738.807	8375.30721
739	8340.39734
739.192	8252.07072
739.385	8284.94067
739.578	8180.15008
739.771	8188.37081
739.964	8377.36056
740.156	8422.52931
740.349	8276.72365
740.542	8270.56069
740.735	8085.5887
740.927	8021.83854
741.12	7830.47033
741.313	7846.93912
741.505	8028.00876
741.698	7949.83909
741.891	8120.54024
742.083	8021.83854
742.276	8104.09318
742.468	8213.0311
742.661	8139.04164
742.854	8369.14705
743.046	8178.09485
743.239	8377.36056
743.431	7912.80103
743.624	8227.41495
743.816	8184.26049
744.009	8116.42859
744.201	7956.01145
744.393	8060.91353
744.586	7974.52743
744.778	8013.6113
744.971	8102.03721
745.163	8282.88645
745.355	7935.43619
745.548	8143.15285
745.74	8085.5887
745.932	8305.48184
746.125	8169.87372
746.317	8227.41495
746.509	8262.34312
746.702	8266.45194
746.894	8243.85244
747.086	8081.47638
747.278	7951.89656
747.471	8167.81839
747.663	7970.41291
747.855	7962.18363
748.047	7890.16339
748.239	7877.81453
748.431	7881.9309
748.623	7941.60898
748.815	7863.40658
749.008	8019.78176
749.2	7871.63982
749.392	7937.49381
749.584	7875.75631
749.776	7908.68528
749.968	7832.529
750.16	8114.37274
750.352	7900.45353
750.544	7774.87831
750.736	7840.76348
750.928	7953.95402
751.12	7896.33754
751.311	8060.91353
751.503	7772.81906
751.695	7877.81453
751.887	8030.06546
752.079	8118.48443
752.271	7943.66654
752.463	7840.76348
752.654	7566.78701
752.846	7822.23543
753.038	7861.34822
753.23	7910.74317
753.421	7706.9118
753.613	7789.29252
753.805	7993.04176
753.997	7859.28984
754.188	7840.76348
754.38	7758.40368
754.572	7830.47033
754.763	8003.32678
754.955	7855.17302
755.146	7995.0988
755.338	7805.76464
755.53	7776.93755
755.721	7748.10636
755.913	7838.70489
756.104	7766.64117
756.296	7886.04718
756.487	7509.0599
756.679	8081.47638
756.87	7717.21123
757.062	7504.93589
757.253	7628.61888
757.445	7746.04683
757.636	7575.03237
757.827	7725.45039
758.019	7529.67866
758.21	7337.8407
758.401	7527.61688
758.593	7614.19316
758.784	7486.37677
758.975	7368.79502
759.167	7544.11051
759.358	7511.12187
759.549	7478.12772
759.74	7556.47983
759.932	7298.62483
760.123	7412.12282
760.314	7067.29559
760.505	7708.97173
760.696	7240.81856
760.888	7471.9407
761.079	7288.30355
761.27	7533.80215
761.461	7145.81352
761.652	7539.98723
761.843	7300.68902
762.034	7348.15935
762.225	7154.07669
762.416	7323.39367
762.607	7112.75727
762.798	7403.87064
762.989	7405.93372
763.18	7263.53023
763.371	7178.86407
763.562	7213.97406
763.753	7185.06042
763.944	7236.68888
764.135	7098.29336
764.326	7451.3159
764.517	7118.95575
764.708	7290.36785
764.899	7100.3597
765.089	7294.49638
765.28	7059.02867
765.471	7302.75319
765.662	6997.01532
765.853	7236.68888
766.043	6930.84541
766.234	7180.92954
766.425	6899.8203
766.615	7149.94515
766.806	6984.61022
766.997	6897.75178
767.187	6872.92774
767.378	6961.86543
767.569	6852.23855
767.759	7106.55858
767.95	6839.82395
768.141	6937.04982
768.331	6831.54709
768.522	6699.06767
768.712	6717.70325
768.903	6966.00105
769.093	6829.47782
769.284	6765.31909
769.474	6728.05555
769.665	6839.82395
769.855	6765.31909
770.046	7059.02867
770.236	6686.64292
770.426	6970.13658
770.617	6837.75477
770.807	6670.07529
770.998	6752.89873
771.188	6725.98514
771.378	6562.34979
771.569	6742.54781
771.759	6672.14632
771.949	6746.68825
772.139	6734.26666
772.33	6759.10901
772.52	6668.00423
772.71	6777.73862
772.9	6744.61804
773.09	6686.64292
773.281	6678.35929
773.471	6829.47782
773.661	6566.49423
773.851	6692.8554
774.041	6471.14862
774.231	6908.09416
774.421	6485.6609
774.611	6325.96311
774.802	6201.42731
774.992	6292.7618
775.182	6097.58298
775.372	6696.99694
775.562	6433.8261
775.752	6498.09909
775.942	6325.96311
776.131	6485.6609
776.321	6145.35866
776.511	6545.77109
776.701	6367.45634
776.891	6491.8801
777.081	6483.58779
777.271	6566.49423
777.461	6500.17204
777.651	6543.69865
777.84	6475.2951
778.03	6272.00794
778.22	6435.89977
778.41	6408.94023
778.599	6112.12472
778.789	6413.08811
778.979	6352.93477
779.169	6334.2625
779.358	6355.00935
779.548	6143.28172
779.738	6029.01353
779.927	6267.85689
780.117	6375.75386
780.307	6267.85689
780.496	6176.51002
780.686	6392.34779
780.875	5985.36507
781.065	6242.94861
781.254	5827.31233
781.444	5974.97105
781.633	6276.1589
781.823	6323.8882
782.012	6222.18913
782.202	6276.1589
782.391	5979.12873
782.581	5937.5477
782.77	5914.67411
782.96	6220.11305
783.149	6060.18464
783.338	6124.58816
783.528	6087.19532
783.717	6001.99428
783.906	5952.10213
784.096	6047.71683
784.285	6056.0288
784.474	5879.3184
784.663	5956.26033
784.853	6022.77867
785.042	5989.52252
785.231	5918.83315
785.42	5825.23178
785.61	5802.34417
785.799	5702.43757
785.988	5744.07193
786.177	5610.80875
786.366	5629.55473
786.555	5858.51774
786.744	5589.97765
786.933	5371.10894
787.122	5652.46388
787.312	5631.63749
787.501	5868.91836
787.69	5685.78118
787.879	5646.21621
788.068	5527.47021
788.257	5837.71472
788.445	5589.97765
788.634	5852.27708
788.823	5835.63429
789.012	5823.1512
789.201	5719.09245
789.39	5750.31627
789.579	5656.62887
789.768	5677.45242
789.957	5571.22765
790.145	5868.91836
790.334	5467.0262
790.523	5635.80296
790.712	5471.19539
790.9	5744.07193
791.089	5425.32915
791.278	5604.55967
791.467	5612.89173
791.655	5554.55937
791.844	5506.62969
792.033	5554.55937
792.221	5364.85174
792.41	5654.54638
792.599	5508.71385
792.787	5764.88557
792.976	5321.04543
793.164	5310.61383
793.353	5202.09056
793.541	5494.12424
793.73	5124.83367
793.918	5571.22765
794.107	5346.07887
794.295	5327.3041
794.484	5145.71705
794.672	5385.70825
794.861	5352.3367
795.049	5298.09514
795.238	5126.92211
795.426	5581.64455
795.614	5129.01053
795.803	5406.56241
795.991	5298.09514
796.179	5381.53713
796.368	5435.7543
796.556	5437.83926
796.744	5327.3041
796.932	5275.14202
797.121	5131.09893
797.309	5310.61383
797.497	5093.50424
797.685	5149.89345
797.874	5129.01053
798.062	5181.21346
798.25	4915.87253
798.438	4986.94521
798.626	4928.4167
798.814	5151.98161
799.002	5068.43694
799.19	5191.6523
799.378	5009.93361
799.566	5072.61506
799.755	5024.56114
799.943	5093.50424
800.131	5321.04543
800.318	5277.22878
800.506	4955.59289
800.694	5206.2657
800.882	5151.98161
801.07	5227.13999
801.258	5210.44074
801.446	5312.70019
801.634	4928.4167
801.822	4991.12513
802.01	5072.61506
802.197	4917.96328
802.385	4817.58137
802.573	4888.69066
802.761	4800.84593
802.949	4878.23507
803.136	4830.13198
803.324	4961.86377
803.512	4978.5851
803.699	5009.93361
803.887	4928.4167
804.075	5143.62882
804.262	4805.02993
804.45	5020.38196
804.638	4863.59628
804.825	5160.33403
805.013	4936.77902
805.201	5191.6523
805.388	4947.2314
805.576	5185.38906
805.763	5068.43694
805.951	5214.6157
806.138	5018.29234
806.326	5318.95915
806.513	4792.47767
806.701	4995.30495
806.888	4888.69066
807.075	5076.79308
807.263	5018.29234
807.45	5202.09056
807.638	5064.25873
807.825	5479.53348
808.012	4947.2314
808.2	5193.74
808.387	4938.86954
808.574	5204.17814
808.761	4884.50849
808.949	5074.70408
809.136	4970.22462
809.323	5220.87795
809.51	5068.43694
809.698	5118.5682
809.885	5129.01053
810.072	5174.94988
810.259	5083.05994
810.446	5181.21346
810.633	4953.50255
810.82	5093.50424
811.008	5151.98161
811.195	5208.35323
811.382	5005.75411
811.569	5164.5101
811.756	4890.78171
811.943	5243.83775
812.13	5072.61506
812.317	5003.66432
812.504	5129.01053
812.691	5435.7543
812.878	5089.32659
813.064	5546.22467
813.251	5373.19462
813.438	5506.62969
813.625	5126.92211
813.812	5300.18165
813.999	4861.50493
814.186	5310.61383
814.372	5114.39111
814.559	5220.87795
814.746	4949.32181
814.933	5089.32659
815.12	5118.5682
815.306	5037.09813
815.493	4953.50255
815.68	5143.62882
815.866	4986.94521
816.053	5172.86197
816.24	4851.04785
816.426	5047.54498
816.613	5097.6818
816.799	5106.03664
816.986	5009.93361
817.173	5170.77404
817.359	4976.49501
817.546	5051.72355
817.732	4733.88968
817.919	5083.05994
818.105	4597.81369
818.292	5012.02333
818.478	4945.14097
818.665	5103.94796
818.851	4884.50849
819.037	4905.41842
819.224	5055.90204
819.41	5181.21346
819.597	5093.50424
819.783	5231.31457
819.969	4782.01684
820.156	5243.83775
820.342	4796.66185
820.528	4963.95402
820.714	4796.66185
820.901	5041.27694
821.087	4805.02993
821.273	4779.9246
821.459	4811.30575
821.646	5066.34785
821.832	4828.04027
822.018	5060.08043
822.204	4612.47258
822.39	5103.94796
822.576	4874.05267
822.762	4901.23662
822.948	4677.37734
823.134	4899.14568
823.32	4545.45159
823.507	4784.10905
823.693	4574.77608
823.879	4811.30575
824.065	4585.24805
824.25	4796.66185
824.436	4742.26048
824.622	4957.68321
824.808	4635.50576
824.994	4599.90788
825.18	4566.3981
825.366	4859.41356
825.552	4773.64776
825.738	4943.05051
825.923	4769.46308
826.109	4968.13444
826.295	4578.96494
826.481	4888.69066
826.667	4782.01684
826.852	4867.7789
827.038	4562.20898
827.224	4754.81601
827.409	4765.27832
827.595	4905.41842
827.781	4729.70415
827.966	4805.02993
828.152	4629.22425
828.338	4756.90851
828.523	4520.31286
828.709	4685.75057
828.894	4566.3981
829.08	4652.25547
829.266	4449.06918
829.451	4679.47068
829.637	4365.22064
829.822	4784.10905
830.008	4394.5716
830.193	4436.49413
830.378	4308.60322
830.564	4645.9745
830.749	4327.47744
830.935	4373.60706
831.12	4247.77443
831.305	4482.59879
831.491	4121.86497
831.676	4373.60706
831.861	4386.18604
832.047	4371.51049
832.232	4176.43508
832.417	4398.76424
832.602	4184.82921
832.788	4182.73071
832.973	4291.82466
833.158	4346.34992
833.343	4239.38284
833.528	4625.03647
833.714	4283.43487
833.899	4490.98031
834.084	4293.92206
834.269	4419.72616
834.454	4035.78342
834.639	4530.78772
834.824	4067.28072
835.009	4381.99314
835.194	4105.07132
835.379	4514.02768
835.564	4249.87228
835.749	4432.30227
835.934	4105.07132
836.119	4088.27633
836.304	3724.76592
836.489	4123.96408
836.674	4180.63219
836.859	4243.57868
837.044	4004.28149
837.228	4264.55659
837.413	3897.14059
837.598	4031.58343
837.783	3953.86882
837.968	4090.37577
838.152	3979.07662
838.337	4142.85515
838.522	3796.2544
838.707	4235.18692
838.891	3802.56113
839.076	4092.4752
839.261	3712.14798
839.445	3937.06199
839.63	3735.28034
839.815	3991.67942
839.999	3857.21195
840.184	4113.46831
840.368	3777.33318
840.553	4214.20603
840.737	3958.07032
840.922	4065.18104
841.106	3882.43088
841.291	3785.74281
841.475	3743.69153
841.66	4134.45933
841.844	3848.805
842.029	4088.27633
842.213	3869.82177
842.397	3863.51695
842.582	3562.78361
842.766	3886.63375
842.951	3661.6693
843.135	3882.43088
843.319	3623.80309
843.504	3953.86882
843.688	3366.99668
843.872	3632.21833
844.056	3577.51389
844.241	3907.64693
844.425	3535.42498
844.609	3699.52934
844.793	3474.38302
844.977	3609.07569
845.161	3413.32587
845.346	3499.64362
845.53	3508.06324
845.714	3766.8207
845.898	3590.13911
846.082	3434.38176
846.266	3356.46614
846.45	3493.32872
846.634	3409.11448
846.818	3659.56578
847.002	3514.37776
847.186	3474.38302
847.37	3474.38302
847.554	3455.43586
847.738	3324.8719
847.922	3440.69818
848.106	3411.22018
848.29	3369.10274
848.473	3078.30709
848.657	3221.63725
848.841	3103.60604
849.025	3217.42273
849.209	3038.24579
849.392	3390.16234
849.576	3046.68022
849.76	3137.33443
849.944	3137.33443
850.127	3116.25467
850.311	3086.74033
850.495	3402.79726
850.678	3124.68676
850.862	3272.20624
851.046	3036.13715
851.229	3211.10083
851.413	3061.43986
851.596	3305.91349
851.78	2877.94591
851.964	3183.70422
852.147	3057.2229
852.331	3109.93043
852.514	2981.30703
852.698	2970.7616
852.881	2896.93323
853.065	3135.22652
853.248	3044.57163
853.431	3322.76548
853.615	3027.70242
853.798	3238.49465
853.982	3097.28152
854.165	3082.52374
854.348	2974.97982
854.532	3225.8517
854.715	2947.56034
854.898	3002.39675
855.081	2861.06731
855.265	3103.60604
855.448	2894.82358
855.631	2911.70034
855.814	2924.3573
855.997	2934.90436
856.181	2869.50672
856.364	3122.57876
856.547	2707.00922
856.73	3088.8486
856.913	2907.48124
857.096	2972.87072
857.279	2770.32952
857.462	2977.0889
857.645	2728.11731
857.828	2723.8958
858.011	2812.53633
858.194	2833.63766
858.377	2554.99364
858.56	2930.68558
858.743	2554.99364
858.926	2785.10252
859.109	2694.34375
859.292	2677.45572
859.475	2495.85964
859.658	2785.10252
859.841	2495.85964
860.023	2799.87486
860.206	2472.626
860.389	2732.33877
860.572	2415.59233
860.755	2495.85964
860.937	2506.41995
861.12	2481.07475
861.303	2440.9416
861.486	2576.11071
861.668	2411.3673
861.851	2656.34454
862.034	2322.63228
862.216	2723.8958
862.399	2286.71078
862.581	2664.78916
862.764	2483.18691
862.947	2675.34466
863.129	2419.81731
863.312	2396.57938
863.494	2265.57922
863.677	2666.90029
863.859	2392.35417
864.042	2500.0838
864.224	2269.8056
864.406	2449.39101
864.589	2210.63292
864.771	2533.87539
864.954	2111.29239
865.136	2312.06742
865.318	2250.78658
865.501	2255.01309
865.683	2219.08659
865.865	2386.01627
866.048	2271.91878
866.23	2358.55098
866.412	2200.06565
866.594	2204.29258
866.777	1946.39331
866.959	2242.33344
867.141	2075.35644
867.323	2183.15757
867.505	2064.78664
867.687	2176.8169
867.869	1980.22204
868.052	2187.38464
868.234	2130.31642
868.416	2347.98695
868.598	2140.88505
868.78	2250.78658
868.962	2164.13534
869.144	2172.58974
869.326	2007.7067
869.508	2183.15757
869.69	2073.2425
869.872	2140.88505
870.054	2168.36256
870.236	2113.4062
870.417	2052.10265
870.599	2115.52001
870.781	1990.79319
870.963	2282.48454
871.145	2149.33981
871.327	2221.19998
871.508	1997.13581
871.69	2030.96209
871.872	1904.1053
872.054	2174.70332
872.235	1923.13518
872.417	2168.36256
872.599	1756.08138
872.78	2149.33981
872.962	1870.27331
873.144	2092.26775
873.325	1870.27331
873.507	2140.88505
873.689	1912.56308
873.87	1990.79319
874.052	1804.72024
874.233	1912.56308
874.415	1908.3342
874.596	2147.22613
874.778	1762.4257
874.959	1912.56308
875.141	1751.85182
875.322	2018.27744
875.503	1844.89847
875.685	2007.7067
875.866	1847.01306
876.048	2126.08891
876.229	1747.62224
876.41	1882.96046
876.592	1779.34371
876.773	1849.12766
876.954	1794.14676
877.136	1997.13581
877.317	1760.31093
877.498	1980.22204
877.679	1853.35683
877.86	2221.19998
878.042	1838.55465
878.223	2128.20267
878.404	2001.36418
878.585	2140.88505
878.766	1747.62224
878.947	1933.70715
879.128	1832.21079
879.309	2090.15386
879.49	1988.67897
879.672	2128.20267
879.853	1916.79194
880.034	1999.25
880.215	1940.05026
880.396	2263.46601
880.576	1819.52294
880.757	1872.38785
880.938	1789.91734
881.119	2170.47615
881.3	1885.07497
881.481	2142.99875
881.662	1861.81511
881.843	1954.85064
882.023	1806.83493
882.204	2007.7067
882.385	1971.765
882.566	2168.36256
882.747	2083.81215
882.927	2159.90808
883.108	1973.87927
883.289	2075.35644
883.469	1988.67897
883.65	2094.38162
883.831	1878.73143
884.011	2014.04916
884.192	1847.01306
884.373	2030.96209
884.553	1988.67897
884.734	2094.38162
884.914	1895.64743
885.095	2077.47038
885.275	1921.02077
885.456	2206.40604
885.636	2030.96209
885.817	2191.61167
885.997	1997.13581
886.178	2132.43016
886.358	1942.16461
886.538	2267.69242
886.719	1889.30397
886.899	2132.43016
887.08	1933.70715
887.26	2185.27111
887.44	1975.99353
887.621	2255.01309
887.801	1899.87637
887.981	2181.04402
888.161	2009.82086
888.342	2119.74759
888.522	2094.38162
888.702	2109.17857
888.882	1779.34371
889.062	2090.15386
889.242	1980.22204
889.423	2026.7339
889.603	2005.59254
889.783	1990.79319
889.963	1895.64743
890.143	2149.33981
890.323	1870.27331
890.503	2102.83707
890.683	1794.14676
890.863	1946.39331
891.043	1855.4714
891.223	1863.92967
891.403	1734.93341
891.583	1923.13518
891.763	1895.64743
891.943	2069.01458
892.122	1878.73143
892.302	2202.17912
892.482	1705.32568
892.662	1988.67897
892.842	1897.7619
893.022	1844.89847
893.201	1751.85182
893.381	1980.22204
893.561	1874.50238
893.741	1992.9074
893.92	1827.98152
894.1	1950.62199
894.28	1800.49086
894.459	1872.38785
894.639	1658.79801
894.819	1992.9074
894.998	1832.21079
895.178	2001.36418
895.357	1760.31093
895.537	1730.70378
895.716	1737.04823
895.896	1882.96046
896.075	1629.18883
896.255	1734.93341
896.434	1616.49904
896.614	1830.09616
896.793	1669.3726
896.973	1906.21975
897.152	1726.47413
897.331	1889.30397
897.511	1722.24446
897.69	1931.59277
897.87	1610.15412
898.049	1510.74844
898.228	1658.79801
898.407	1574.19924
898.587	1599.57921
898.766	1709.55539
898.945	1542.47397
899.124	1608.03914
899.304	1616.49904
899.483	1840.66926
899.662	1421.91635
899.841	1548.81904
900.02	1498.05817
900.199	1531.89881
900.378	1417.68625
900.557	1364.81025
900.737	1358.46517
900.916	1536.12888
901.095	1178.6955
901.274	1548.81904
901.453	1489.59798
901.632	1534.01385
901.811	1282.3253
901.989	1519.2086
902.168	1451.52707
902.347	1489.59798
902.526	1373.27037
902.705	1514.97852
902.884	1328.85495
903.063	1483.25284
903.242	1284.44026
903.42	1483.25284
903.599	1187.15478
903.778	1373.27037
903.957	1155.43277
904.135	1339.42999
904.314	1087.76234
904.493	1341.54501
904.672	1301.36004
904.85	1193.49929
905.029	1030.6694
905.207	1155.43277
905.386	1041.24186
905.565	1045.47089
905.743	1007.41052
905.922	1020.09709
906.1	1015.86821
906.279	1104.6795
906.457	855.19119
906.636	998.95292
906.814	935.52439
906.993	971.46647
907.171	960.89506
907.35	990.49543
907.528	715.6958
907.707	880.55831
907.885	728.37539
908.063	992.6098
908.242	869.98853
908.42	859.41896
908.598	808.68807
908.777	882.67229
908.955	829.82532
909.133	992.6098
909.311	899.58443
909.49	990.49543
909.668	872.10247
909.846	1072.96009
910.024	990.49543
910.202	960.89506
910.38	738.94201
910.559	840.39428
910.737	796.00618
910.915	977.8094
911.093	891.1283
911.271	950.32382
911.449	840.39428
911.627	910.15478
911.805	768.52992
911.983	956.66654
912.161	840.39428
912.339	893.24232
912.517	863.64677
912.695	817.14286
912.872	844.62192
913.05	905.92662
913.228	886.90028
913.406	1108.90884
913.584	914.38297
913.762	982.03805
913.939	755.84914
914.117	941.86696
914.295	762.18949
914.473	965.1236
914.65	848.84961
914.828	829.82532
915.006	662.86847
915.184	861.53286
915.361	719.92228
915.539	793.89256
915.716	817.14286
915.894	1003.18171
916.072	829.82532
916.249	956.66654
916.427	722.03554
916.604	749.50889
916.782	753.73571
916.959	738.94201
917.137	662.86847
917.314	924.95358
917.492	785.43819
917.669	745.2821
917.847	601.59802
918.024	694.56402
918.201	629.0628
918.379	796.00618
918.556	546.67503
918.733	705.12977
918.911	652.30387
919.088	812.91545
919.265	749.50889
919.442	848.84961
919.62	595.2603
919.797	815.02915
919.974	553.01184
920.151	694.56402
920.328	610.0485
920.506	703.0166
920.683	531.88963
920.86	650.19098
921.037	618.49918
921.214	635.40113
921.391	601.59802
921.568	781.21107
921.745	544.56279
921.922	694.56402
922.099	696.67715
922.276	681.88549
922.453	671.32036
922.63	576.24783
922.807	479.09034
922.984	519.21698
923.161	536.11396
923.338	637.51393
923.514	430.52323
923.691	550.89955
923.868	550.89955
924.045	681.88549
924.222	523.44114
924.399	686.11162
924.575	569.91058
924.752	601.59802
924.929	593.14775
925.105	591.03522
925.282	466.41988
925.459	559.34876
925.635	544.56279
925.812	616.38649
925.989	417.85491
926.165	430.52323
926.342	415.74358
926.518	508.65683
926.695	424.189
926.871	466.41988
927.048	365.07655
927.224	519.21698
927.401	424.189
927.577	438.9691
927.754	434.74613
927.93	483.31395
928.107	341.85741
928.283	428.41181
928.459	428.41181
928.636	398.85351
928.812	365.07655
928.988	346.07892
929.165	348.18969
929.341	379.85345
929.517	384.07557
929.693	381.9645
929.87	280.65356
930.046	390.40887
930.222	299.64623
930.398	314.41933
930.574	377.74241
930.751	375.63139
930.927	282.76378
931.103	352.41131
931.279	251.11241
931.455	238.45306
931.631	217.35571
931.807	244.78265
931.983	318.64038
932.159	301.75662
932.335	331.30395
932.511	348.18969
932.687	257.44235
932.863	289.09456
933.039	215.24608
933.215	280.65356
933.391	175.16697
933.566	280.65356
933.742	314.41933
933.918	200.47924
934.094	196.26033
934.27	297.53586
934.445	246.89255
934.621	310.19835
934.797	215.24608
934.973	179.38548
935.148	206.80777
935.324	208.91732
935.5	221.57502
935.675	206.80777
935.851	122.44269
936.027	253.22237
936.202	200.47924
936.378	135.09531
936.553	120.334
936.729	95.03138
936.904	204.69824
937.08	86.59788
937.255	107.68229
937.431	164.62107
937.606	145.63975
937.782	164.62107
937.957	103.46523
938.133	92.92297
938.308	105.57375
938.483	183.60407
938.659	69.73195
938.834	27.57355
939.009	183.60407
939.185	130.87769
939.36	130.87769
939.535	141.42191
939.71	29.68125
939.886	52.86748
940.061	71.84011
940.236	57.08346
940.411	97.13981
940.586	69.73195
940.761	92.92297
940.937	111.89944
941.112	118.22533
941.287	122.44269
941.462	42.32793
941.637	33.89672
941.812	109.79086
941.987	67.62381
942.162	61.29953
942.337	95.03138
942.512	80.27299
942.687	46.54368
942.862	130.87769
943.037	-52.50118
943.212	52.86748
943.386	42.32793
943.561	-14.57544
943.736	44.4358
943.911	33.89672
944.086	78.16474
944.26	48.65159
944.435	103.46523
944.61	23.35822
944.785	19.14299
944.959	46.54368
945.134	63.4076
945.309	19.14299
945.483	88.70622
945.658	86.59788
945.833	-1.93175
946.007	-18.7898
946.182	78.16474
946.357	-6.14641
946.531	86.59788
946.706	82.38126
946.88	40.22009
947.055	61.29953
947.229	78.16474
947.404	40.22009
947.578	82.38126
947.752	111.89944
947.927	59.19149
948.101	145.63975
948.276	88.70622
948.45	139.31302
948.624	124.55141
948.799	44.4358
948.973	23.35822
949.147	44.4358
949.321	88.70622
949.496	84.48956
949.67	-20.89695
949.844	27.57355
950.018	78.16474
950.193	57.08346
950.367	128.76891
950.541	44.4358
950.715	29.68125
950.889	95.03138
951.063	52.86748
951.237	90.81458
951.411	2.283
951.585	-10.36097
951.759	88.70622
951.933	61.29953
952.107	103.46523
952.281	-1.93175
952.455	111.89944
952.629	78.16474
952.803	80.27299
952.977	36.00449
953.151	46.54368
953.325	122.44269
953.499	27.57355
953.672	111.89944
953.846	95.03138
954.02	44.4358
954.194	46.54368
954.368	78.16474
954.541	48.65159
954.715	82.38126
954.889	71.84011
955.062	63.4076
955.236	86.59788
955.41	86.59788
955.583	29.68125
955.757	120.334
955.93	71.84011
956.104	95.03138
956.278	99.24826
956.451	14.92785
956.625	42.32793
956.798	122.44269
956.972	65.5157
957.145	38.11228
957.319	31.78897
957.492	36.00449
957.665	103.46523
957.839	149.85767
958.012	36.00449
958.185	170.94855
958.359	52.86748
958.532	95.03138
958.705	128.76891
958.879	52.86748
959.052	95.03138
959.225	73.9483
959.398	78.16474
959.572	90.81458
959.745	73.9483
959.918	69.73195
960.091	82.38126
960.264	67.62381
960.438	-14.57544
960.611	36.00449
960.784	-6.14641
960.957	73.9483
961.13	36.00449
961.303	46.54368
961.476	95.03138
961.649	52.86748
961.822	90.81458
961.995	78.16474
962.168	54.97546
962.341	40.22009
962.514	44.4358
962.686	48.65159
962.859	57.08346
963.032	36.00449
963.205	97.13981
963.378	-14.57544
963.551	63.4076
963.723	111.89944
963.896	86.59788
964.069	65.5157
964.242	86.59788
964.414	120.334
964.587	8.60532
964.76	80.27299
964.932	38.11228
965.105	71.84011
965.278	57.08346
965.45	76.05651
965.623	67.62381
965.795	86.59788
965.968	2.283
966.14	86.59788
966.313	97.13981
966.485	25.46587
966.658	69.73195
966.83	31.78897
967.003	63.4076
967.175	42.32793
967.348	76.05651
967.52	4.39042
967.692	4.39042
967.865	54.97546
968.037	71.84011
968.209	36.00449
968.382	-58.82135
968.554	73.9483
968.726	44.4358
968.898	-1.93175
969.071	63.4076
969.243	-27.21824
969.415	-1.93175
969.587	69.73195
969.759	57.08346
969.932	80.27299
970.104	84.48956
970.276	73.9483
970.448	61.29953
970.62	69.73195
970.792	103.46523
970.964	103.46523
971.136	103.46523
971.308	97.13981
971.48	137.20416
971.652	52.86748
971.824	69.73195
971.996	61.29953
972.168	36.00449
972.339	36.00449
972.511	38.11228
972.683	137.20416
972.855	88.70622
973.027	82.38126
973.199	38.11228
973.37	88.70622
973.542	23.35822
973.714	61.29953
973.886	50.75953
974.057	82.38126
974.229	48.65159
974.401	44.4358
974.572	-10.36097
974.744	27.57355
974.915	48.65159
975.087	19.14299
975.259	80.27299
975.43	111.89944
975.602	61.29953
975.773	17.0354
975.945	44.4358
976.116	61.29953
976.288	65.5157
976.459	38.11228
976.63	52.86748
976.802	88.70622
976.973	10.7128
977.145	46.54368
977.316	109.79086
977.487	46.54368
977.659	63.4076
977.83	27.57355
978.001	95.03138
978.172	44.4358
978.344	69.73195
978.515	19.14299
978.686	14.92785
978.857	6.49786
979.028	4.39042
979.2	59.19149
979.371	38.11228
979.542	103.46523
979.713	78.16474
979.884	65.5157
980.055	25.46587
980.226	-27.21824
980.397	95.03138
980.568	95.03138
980.739	69.73195
980.91	29.68125
981.081	71.84011
981.252	80.27299
981.423	71.84011
981.594	57.08346
981.765	6.49786
981.936	54.97546
982.106	23.35822
982.277	69.73195
982.448	27.57355
982.619	-6.14641
982.79	-10.36097
982.96	29.68125
983.131	78.16474
983.302	103.46523
983.472	57.08346
983.643	71.84011
983.814	82.38126
983.984	31.78897
984.155	120.334
984.326	-65.14129
984.496	88.70622
984.667	-31.43231
984.837	38.11228
985.008	52.86748
985.178	73.9483
985.349	-18.7898
985.519	52.86748
985.69	23.35822
985.86	48.65159
986.031	38.11228
986.201	44.4358
986.371	114.00805
986.542	23.35822
986.712	59.19149
986.882	36.00449
987.053	65.5157
987.223	19.14299
987.393	90.81458
987.563	25.46587
987.734	111.89944
987.904	111.89944
988.074	69.73195
988.244	14.92785
988.414	23.35822
988.585	10.7128
988.755	42.32793
988.925	19.14299
989.095	59.19149
989.265	73.9483
989.435	19.14299
989.605	6.49786
989.775	82.38126
989.945	38.11228
990.115	19.14299
990.285	-10.36097
990.455	17.0354
990.625	17.0354
990.795	8.60532
990.965	2.283
991.134	17.0354
991.304	52.86748
991.474	36.00449
991.644	14.92785
991.814	29.68125
991.984	48.65159
992.153	21.25059
992.323	48.65159
992.493	-14.57544
992.662	52.86748
992.832	14.92785
993.002	36.00449
993.171	111.89944
993.341	10.7128
993.511	-6.14641
993.68	31.78897
993.85	61.29953
994.019	19.14299
994.189	48.65159
994.358	52.86748
994.528	50.75953
994.697	-29.32529
994.867	-20.89695
995.036	107.68229
995.206	65.5157
995.375	38.11228
995.544	23.35822
995.714	61.29953
995.883	107.68229
996.052	40.22009
996.222	69.73195
996.391	-14.57544
996.56	38.11228
996.73	-10.36097
996.899	-4.03909
997.068	27.57355
997.237	-23.00407
997.406	50.75953
997.576	27.57355
997.745	10.7128
997.914	27.57355
998.083	54.97546
998.252	-8.2537
998.421	69.73195
998.59	92.92297
998.759	46.54368
998.928	12.82031
999.097	8.60532
999.266	-10.36097
999.435	44.4358
999.604	29.68125
999.773	19.14299
999.942	-14.57544
1000.111	97.13981
1000.28	31.78897
1000.448	2.283
1000.617	23.35822
1000.786	-14.57544
1000.955	46.54368
1001.124	-10.36097
1001.292	2.283
1001.461	48.65159
1001.63	78.16474
1001.798	71.84011
1001.967	175.16697
1002.136	-44.07393
1002.304	19.14299
1002.473	-14.57544
1002.642	2.283
1002.81	19.14299
1002.979	44.4358
1003.147	-14.57544
1003.316	-6.14641
1003.484	82.38126
1003.653	61.29953
1003.821	52.86748
1003.99	12.82031
1004.158	36.00449
1004.327	-31.43231
1004.495	6.49786
1004.663	-25.11117
1004.832	17.0354
1005	65.5157
1005.168	10.7128
1005.337	-6.14641
1005.505	52.86748
1005.673	27.57355
1005.842	-29.32529
1006.01	17.0354
1006.178	78.16474
1006.346	86.59788
1006.514	-10.36097
1006.683	19.14299
1006.851	-54.60793
1007.019	48.65159
1007.187	59.19149
1007.355	46.54368
1007.523	2.283
1007.691	-56.71465
1007.859	-1.93175
1008.027	-23.00407
1008.195	6.49786
1008.363	-12.46822
1008.531	21.25059
1008.699	-79.88693
1008.867	6.49786
1009.035	-1.93175
1009.203	6.49786
1009.37	46.54368
1009.538	52.86748
1009.706	-14.57544
1009.874	46.54368
1010.042	31.78897
1010.209	-6.14641
1010.377	48.65159
1010.545	69.73195
1010.713	63.4076
1010.88	-14.57544
1011.048	36.00449
1011.216	10.7128
1011.383	-12.46822
1011.551	78.16474
1011.718	44.4358
1011.886	14.92785
1012.054	-18.7898
1012.221	-37.75323
1012.389	23.35822
1012.556	19.14299
1012.724	10.7128
1012.891	-6.14641
1013.058	54.97546
1013.226	-14.57544
1013.393	6.49786
1013.561	4.39042
1013.728	19.14299
1013.895	44.4358
1014.063	65.5157
1014.23	-14.57544
1014.397	-27.21824
1014.565	65.5157
1014.732	29.68125
1014.899	50.75953
1015.066	27.57355
1015.233	-39.86016
1015.401	19.14299
1015.568	54.97546
1015.735	10.7128
1015.902	-1.93175
1016.069	52.86748
1016.236	95.03138
1016.403	-46.18078
1016.57	27.57355
1016.737	8.60532
1016.904	27.57355
1017.071	-12.46822
1017.238	21.25059
1017.405	80.27299
1017.572	19.14299
1017.739	78.16474
1017.906	27.57355
1018.073	36.00449
1018.24	-20.89695
1018.407	10.7128
1018.573	86.59788
1018.74	2.283
1018.907	-67.24789
1019.074	46.54368
1019.241	61.29953
1019.407	88.70622
1019.574	-23.00407
1019.741	10.7128
1019.907	67.62381
1020.074	88.70622
1020.241	-16.68263
1020.407	52.86748
1020.574	46.54368
1020.74	82.38126
1020.907	8.60532
1021.073	2.283
1021.24	33.89672
1021.406	36.00449
1021.573	33.89672
1021.739	61.29953
1021.906	42.32793
1022.072	-39.86016
1022.239	29.68125
1022.405	4.39042
1022.571	-10.36097
1022.738	-33.53931
1022.904	4.39042
1023.07	2.283
1023.237	65.5157
1023.403	-29.32529
1023.569	-14.57544
1023.735	52.86748
1023.902	103.46523
1024.068	-37.75323
1024.234	-18.7898
1024.4	44.4358
1024.566	-27.21824
1024.732	-20.89695
1024.898	73.9483
1025.065	52.86748
1025.231	4.39042
1025.397	44.4358
1025.563	29.68125
1025.729	36.00449
1025.895	61.29953
1026.061	40.22009
1026.227	4.39042
1026.392	-6.14641
1026.558	10.7128
1026.724	-20.89695
1026.89	44.4358
1027.056	86.59788
1027.222	10.7128
1027.388	19.14299
1027.553	-60.92802
1027.719	19.14299
1027.885	95.03138
1028.051	-6.14641
1028.216	31.78897
1028.382	-39.86016
1028.548	4.39042
1028.713	-54.60793
1028.879	19.14299
1029.045	52.86748
1029.21	46.54368
1029.376	27.57355
1029.541	33.89672
1029.707	40.22009
1029.873	33.89672
1030.038	48.65159
1030.204	-37.75323
1030.369	44.4358
1030.534	52.86748
1030.7	27.57355
1030.865	-60.92802
1031.031	2.283
1031.196	10.7128
1031.361	-14.57544
1031.527	-23.00407
1031.692	-18.7898
1031.857	29.68125
1032.023	86.59788
1032.188	42.32793
1032.353	-35.64629
1032.518	4.39042
1032.684	10.7128
1032.849	44.4358
1033.014	-44.07393
1033.179	-41.96706
1033.344	10.7128
1033.509	19.14299
1033.674	-6.14641
1033.839	17.0354
1034.004	2.283
1034.17	-20.89695
1034.335	14.92785
1034.5	52.86748
1034.664	12.82031
1034.829	21.25059
1034.994	38.11228
1035.159	40.22009
1035.324	10.7128
1035.489	14.92785
1035.654	69.73195
1035.819	21.25059
1035.984	-31.43231
1036.148	73.9483
1036.313	69.73195
1036.478	4.39042
1036.643	69.73195
1036.807	48.65159
1036.972	19.14299
1037.137	21.25059
1037.301	54.97546
1037.466	10.7128
1037.631	-41.96706
1037.795	44.4358
1037.96	44.4358
1038.124	38.11228
1038.289	4.39042
1038.454	6.49786
1038.618	10.7128
1038.783	29.68125
1038.947	-41.96706
1039.111	-14.57544
1039.276	52.86748
1039.44	-27.21824
1039.605	-6.14641
1039.769	-18.7898
1039.933	61.29953
1040.098	19.14299
1040.262	36.00449
1040.426	61.29953
1040.591	42.32793
1040.755	44.4358
1040.919	19.14299
1041.083	46.54368
1041.248	82.38126
1041.412	19.14299
1041.576	10.7128
1041.74	8.60532
1041.904	10.7128
1042.068	6.49786
1042.232	-6.14641
1042.397	36.00449
1042.561	63.4076
1042.725	-6.14641
1042.889	21.25059
1043.053	21.25059
1043.217	21.25059
1043.381	69.73195
1043.544	48.65159
1043.708	-6.14641
1043.872	4.39042
1044.036	-35.64629
1044.2	36.00449
1044.364	12.82031
1044.528	-41.96706
1044.691	-20.89695
1044.855	63.4076
1045.019	25.46587
1045.183	-63.03467
1045.346	2.283
1045.51	8.60532
1045.674	-60.92802
1045.837	-4.03909
1046.001	-29.32529
1046.165	2.283
1046.328	33.89672
1046.492	-20.89695
1046.655	21.25059
1046.819	-39.86016
1046.983	-25.11117
1047.146	14.92785
1047.31	57.08346
1047.473	-31.43231
1047.636	38.11228
1047.8	6.49786
1047.963	23.35822
1048.127	-16.68263
1048.29	-6.14641
