Data from mixed_try1_USB4F045381__14__00239.txt Node

Date: Thu Apr 03 20:24:14 EDT 2025
User: mmckonesweet
Spectrometer: USB4F04538
Trigger mode: 4
Integration Time (sec): 2.700000E-3
Scans to average: 1
Electric dark correction enabled: true
Nonlinearity correction enabled: true
Boxcar width: 0
XAxis mode: Wavelengths
Number of Pixels in Spectrum: 3648
>>>>>Begin Spectral Data<<<<<
345.52	3.16109
345.736	3.16109
345.952	3.16109
346.168	-13.69743
346.384	26.34407
346.6	-20.01897
346.816	34.77495
347.032	5.26851
347.248	-24.23321
347.464	-24.23321
347.68	24.2364
347.896	-17.91182
348.112	-15.80464
348.328	1.05369
348.544	22.12877
348.76	-3.16104
348.975	17.91356
349.191	-24.23321
349.407	34.77495
349.623	17.91356
349.839	-7.37567
350.055	20.02115
350.27	-5.26836
350.486	17.91356
350.702	13.69845
350.918	11.59093
351.133	20.02115
351.349	-15.80464
351.565	34.77495
351.781	-64.26353
351.996	36.88273
352.212	-24.23321
352.428	-22.12611
352.644	43.20621
352.859	76.93493
353.075	51.63784
353.291	17.91356
353.506	-1.05368
353.722	68.5022
353.938	-32.6614
354.153	1.05369
354.369	-70.58328
354.584	93.80147
354.8	68.5022
355.016	38.99053
355.231	11.59093
355.447	60.06984
355.662	-5.26836
355.878	57.9618
356.093	-5.26836
356.309	11.59093
356.524	-5.26836
356.74	95.90989
356.955	1.05369
357.171	-11.5902
357.386	-41.08919
357.602	43.20621
357.817	57.9618
358.033	3.16109
358.248	-30.55439
358.464	-26.3403
358.679	-7.37567
358.895	30.55946
359.11	11.59093
359.325	-7.37567
359.541	-41.08919
359.756	20.02115
359.972	34.77495
360.187	-13.69743
360.402	45.31408
360.618	-15.80464
360.833	47.42198
361.048	5.26851
361.264	60.06984
361.479	-22.12611
361.694	20.02115
361.909	5.26851
362.125	-7.37567
362.34	24.2364
362.555	13.69845
362.77	26.34407
362.986	55.85379
363.201	9.48343
363.416	57.9618
363.631	7.37596
363.847	9.48343
364.062	36.88273
364.277	-7.37567
364.492	-51.62336
364.707	-15.80464
364.922	1.05369
365.138	-28.44736
365.353	85.36802
365.568	-11.5902
365.783	-20.01897
365.998	30.55946
366.213	3.16109
366.428	-20.01897
366.643	22.12877
366.858	64.28597
367.073	5.26851
367.288	-3.16104
367.503	45.31408
367.718	38.99053
367.933	24.2364
368.148	-57.94356
368.363	-32.6614
368.578	1.05369
368.793	34.77495
369.008	53.7458
369.223	-7.37567
369.438	-5.26836
369.653	47.42198
369.868	55.85379
370.083	22.12877
370.298	-47.40976
370.513	13.69845
370.728	17.91356
370.943	-7.37567
371.157	-22.12611
371.372	-43.19607
371.587	64.28597
371.802	49.5299
372.017	-7.37567
372.232	-22.12611
372.446	22.12877
372.661	62.17789
372.876	5.26851
373.091	-32.6614
373.306	11.59093
373.52	47.42198
373.735	45.31408
373.95	45.31408
374.165	26.34407
374.379	11.59093
374.594	17.91356
374.809	43.20621
375.023	-13.69743
375.238	9.48343
375.453	79.04317
375.667	36.88273
375.882	-87.4348
376.097	-11.5902
376.311	32.66719
376.526	13.69845
376.741	-7.37567
376.955	-11.5902
377.17	-7.37567
377.384	38.99053
377.599	-7.37567
377.813	26.34407
378.028	7.37596
378.242	-22.12611
378.457	26.34407
378.672	17.91356
378.886	68.5022
379.101	-13.69743
379.315	-41.08919
379.53	43.20621
379.744	-15.80464
379.958	45.31408
380.173	53.7458
380.387	41.09836
380.602	9.48343
380.816	62.17789
381.031	-15.80464
381.245	43.20621
381.459	5.26851
381.674	81.15143
381.888	-5.26836
382.103	20.02115
382.317	-72.68981
382.531	-83.22208
382.746	51.63784
382.96	36.88273
383.174	13.69845
383.388	30.55946
383.603	-7.37567
383.817	5.26851
384.031	11.59093
384.246	5.26851
384.46	-22.12611
384.674	-45.30293
384.888	-24.23321
385.103	-45.30293
385.317	34.77495
385.531	13.69845
385.745	11.59093
385.959	-11.5902
386.174	5.26851
386.388	22.12877
386.602	30.55946
386.816	-30.55439
387.03	87.47635
387.244	-7.37567
387.458	-5.26836
387.672	15.80599
387.887	9.48343
388.101	30.55946
388.315	43.20621
388.529	34.77495
388.743	5.26851
388.957	11.59093
389.171	-7.37567
389.385	3.16109
389.599	1.05369
389.813	60.06984
390.027	43.20621
390.241	1.05369
390.455	76.93493
390.669	13.69845
390.883	5.26851
391.097	102.23527
391.311	1.05369
391.525	7.37596
391.738	-41.08919
391.952	1.05369
392.166	1.05369
392.38	49.5299
392.594	-17.91182
392.808	51.63784
393.022	-28.44736
393.236	-13.69743
393.449	-24.23321
393.663	-49.51657
393.877	43.20621
394.091	26.34407
394.305	9.48343
394.518	20.02115
394.732	-13.69743
394.946	-41.08919
395.16	30.55946
395.373	72.71852
395.587	119.10394
395.801	-66.37014
396.015	-22.12611
396.228	53.7458
396.442	9.48343
396.656	34.77495
396.869	26.34407
397.083	51.63784
397.297	-32.6614
397.51	47.42198
397.724	3.16109
397.938	11.59093
398.151	66.39408
398.365	22.12877
398.578	-49.51657
398.792	-41.08919
399.005	28.45175
399.219	5.26851
399.433	-15.80464
399.646	34.77495
399.86	-3.16104
400.073	38.99053
400.287	53.7458
400.5	95.90989
400.714	5.26851
400.927	-89.54113
401.141	26.34407
401.354	34.77495
401.567	36.88273
401.781	49.5299
401.994	-53.73012
402.208	-47.40976
402.421	20.02115
402.635	5.26851
402.848	70.61035
403.061	-36.87534
403.275	-53.73012
403.488	1.05369
403.701	-5.26836
403.915	5.26851
404.128	89.5847
404.341	-1.05368
404.555	-32.6614
404.768	-15.80464
404.981	81.15143
405.195	-20.01897
405.408	28.45175
405.621	3.16109
405.834	57.9618
406.048	45.31408
406.261	85.36802
406.474	45.31408
406.687	17.91356
406.9	9.48343
407.114	-11.5902
407.327	119.10394
407.54	47.42198
407.753	51.63784
407.966	20.02115
408.179	17.91356
408.392	17.91356
408.605	-41.08919
408.819	47.42198
409.032	17.91356
409.245	-1.05368
409.458	17.91356
409.671	-28.44736
409.884	-30.55439
410.097	-57.94356
410.31	26.34407
410.523	5.26851
410.736	34.77495
410.949	53.7458
411.162	36.88273
411.375	5.26851
411.588	76.93493
411.801	-30.55439
412.014	34.77495
412.227	66.39408
412.44	38.99053
412.653	-41.08919
412.865	-24.23321
413.078	1.05369
413.291	9.48343
413.504	-11.5902
413.717	45.31408
413.93	26.34407
414.143	-38.98228
414.356	-57.94356
414.568	-36.87534
414.781	-55.83685
414.994	11.59093
415.207	9.48343
415.42	43.20621
415.632	9.48343
415.845	47.42198
416.058	-20.01897
416.271	13.69845
416.483	43.20621
416.696	26.34407
416.909	-3.16104
417.121	47.42198
417.334	-24.23321
417.547	45.31408
417.759	-15.80464
417.972	22.12877
418.185	-13.69743
418.397	17.91356
418.61	5.26851
418.823	3.16109
419.035	51.63784
419.248	-22.12611
419.46	38.99053
419.673	-26.3403
419.885	64.28597
420.098	47.42198
420.311	-7.37567
420.523	72.71852
420.736	22.12877
420.948	34.77495
421.161	-13.69743
421.373	-3.16104
421.586	51.63784
421.798	20.02115
422.01	13.69845
422.223	11.59093
422.435	1.05369
422.648	3.16109
422.86	-15.80464
423.073	60.06984
423.285	-11.5902
423.497	-34.76838
423.71	11.59093
423.922	26.34407
424.134	28.45175
424.347	81.15143
424.559	30.55946
424.771	-13.69743
424.984	-41.08919
425.196	5.26851
425.408	-7.37567
425.621	60.06984
425.833	9.48343
426.045	-49.51657
426.257	11.59093
426.47	-15.80464
426.682	-15.80464
426.894	64.28597
427.106	74.82672
427.318	7.37596
427.531	7.37596
427.743	-15.80464
427.955	5.26851
428.167	87.47635
428.379	60.06984
428.591	51.63784
428.804	-57.94356
429.016	36.88273
429.228	-30.55439
429.44	68.5022
429.652	45.31408
429.864	30.55946
430.076	-79.00925
430.288	43.20621
430.5	72.71852
430.712	11.59093
430.924	-45.30293
431.136	-30.55439
431.348	45.31408
431.56	17.91356
431.772	-104.28467
431.984	34.77495
432.196	1.05369
432.408	-24.23321
432.62	-72.68981
432.832	43.20621
433.044	32.66719
433.256	43.20621
433.468	26.34407
433.679	15.80599
433.891	66.39408
434.103	64.28597
434.315	11.59093
434.527	-41.08919
434.739	26.34407
434.95	1.05369
435.162	-3.16104
435.374	45.31408
435.586	68.5022
435.798	74.82672
436.009	-7.37567
436.221	26.34407
436.433	-15.80464
436.645	-53.73012
436.856	9.48343
437.068	68.5022
437.28	-5.26836
437.491	26.34407
437.703	53.7458
437.915	-15.80464
438.126	-1.05368
438.338	-26.3403
438.55	-43.19607
438.761	-7.37567
438.973	-22.12611
439.184	-15.80464
439.396	22.12877
439.608	28.45175
439.819	-26.3403
440.031	13.69845
440.242	43.20621
440.454	76.93493
440.665	68.5022
440.877	-3.16104
441.088	55.85379
441.3	34.77495
441.511	9.48343
441.723	79.04317
441.934	72.71852
442.146	72.71852
442.357	26.34407
442.569	45.31408
442.78	-64.26353
442.991	47.42198
443.203	-13.69743
443.414	60.06984
443.626	60.06984
443.837	-20.01897
444.048	9.48343
444.26	-17.91182
444.471	87.47635
444.682	7.37596
444.894	17.91356
445.105	76.93493
445.316	-17.91182
445.528	79.04317
445.739	3.16109
445.95	1.05369
446.161	38.99053
446.373	85.36802
446.584	-9.48295
446.795	-7.37567
447.006	51.63784
447.217	32.66719
447.429	-3.16104
447.64	-28.44736
447.851	26.34407
448.062	-38.98228
448.273	51.63784
448.484	-20.01897
448.695	11.59093
448.907	1.05369
449.118	34.77495
449.329	9.48343
449.54	34.77495
449.751	-5.26836
449.962	-22.12611
450.173	1.05369
450.384	7.37596
450.595	9.48343
450.806	36.88273
451.017	34.77495
451.228	34.77495
451.439	85.36802
451.65	22.12877
451.861	-66.37014
452.072	1.05369
452.283	62.17789
452.494	9.48343
452.705	1.05369
452.915	9.48343
453.126	43.20621
453.337	34.77495
453.548	45.31408
453.759	17.91356
453.97	28.45175
454.181	89.5847
454.391	-47.40976
454.602	98.01833
454.813	7.37596
455.024	26.34407
455.235	22.12877
455.445	47.42198
455.656	26.34407
455.867	-13.69743
456.078	106.45231
456.288	22.12877
456.499	38.99053
456.71	-15.80464
456.921	68.5022
457.131	17.91356
457.342	-7.37567
457.553	-15.80464
457.763	-41.08919
457.974	-7.37567
458.184	68.5022
458.395	36.88273
458.606	85.36802
458.816	-15.80464
459.027	51.63784
459.237	43.20621
459.448	34.77495
459.659	17.91356
459.869	45.31408
460.08	30.55946
460.29	28.45175
460.501	34.77495
460.711	110.66943
460.922	51.63784
461.132	55.85379
461.343	17.91356
461.553	45.31408
461.764	1.05369
461.974	5.26851
462.184	51.63784
462.395	-24.23321
462.605	30.55946
462.816	3.16109
463.026	-57.94356
463.236	-11.5902
463.447	51.63784
463.657	20.02115
463.867	68.5022
464.078	60.06984
464.288	9.48343
464.498	3.16109
464.709	45.31408
464.919	5.26851
465.129	64.28597
465.339	47.42198
465.55	13.69845
465.76	144.40954
465.97	9.48343
466.18	76.93493
466.391	5.26851
466.601	1.05369
466.811	1.05369
467.021	5.26851
467.231	68.5022
467.441	70.61035
467.651	-15.80464
467.862	43.20621
468.072	5.26851
468.282	-45.30293
468.492	28.45175
468.702	104.34378
468.912	-20.01897
469.122	9.48343
469.332	43.20621
469.542	-5.26836
469.752	-13.69743
469.962	-30.55439
470.172	17.91356
470.382	110.66943
470.592	34.77495
470.802	76.93493
471.012	-57.94356
471.222	43.20621
471.432	41.09836
471.642	9.48343
471.852	60.06984
472.062	13.69845
472.272	-49.51657
472.482	93.80147
472.691	79.04317
472.901	1.05369
473.111	24.2364
473.321	87.47635
473.531	41.09836
473.741	-24.23321
473.95	38.99053
474.16	20.02115
474.37	1.05369
474.58	68.5022
474.79	45.31408
474.999	64.28597
475.209	53.7458
475.419	26.34407
475.628	34.77495
475.838	30.55946
476.048	32.66719
476.258	70.61035
476.467	57.9618
476.677	22.12877
476.886	110.66943
477.096	43.20621
477.306	43.20621
477.515	85.36802
477.725	28.45175
477.935	121.21262
478.144	72.71852
478.354	102.23527
478.563	110.66943
478.773	93.80147
478.982	-28.44736
479.192	114.88664
479.401	119.10394
479.611	140.19172
479.82	104.34378
480.03	216.12509
480.239	98.01833
480.449	85.36802
480.658	93.80147
480.868	119.10394
481.077	85.36802
481.287	70.61035
481.496	45.31408
481.705	100.12679
481.915	76.93493
482.124	110.66943
482.333	81.15143
482.543	110.66943
482.752	161.28164
482.961	135.97399
483.171	135.97399
483.38	171.82738
483.589	167.60902
483.799	138.08285
484.008	169.71819
484.217	133.86516
484.426	110.66943
484.636	89.5847
484.845	131.75635
485.054	119.10394
485.263	148.62743
485.472	148.62743
485.682	199.24872
485.891	110.66943
486.1	148.62743
486.309	150.73642
486.518	114.88664
486.727	135.97399
486.936	127.53879
487.146	98.01833
487.355	165.49987
487.564	182.37364
487.773	251.99156
487.982	79.04317
488.191	188.70164
488.4	251.99156
488.609	203.46769
488.818	144.40954
489.027	199.24872
489.236	195.02983
489.445	184.48295
489.654	184.48295
489.863	264.65165
490.072	216.12509
490.281	207.68674
490.49	254.10153
490.698	287.86356
490.907	258.32152
491.116	357.51251
491.325	190.81102
491.534	270.98194
491.743	355.40166
491.952	270.98194
492.16	264.65165
492.369	264.65165
492.578	270.98194
492.787	277.31241
492.996	353.29082
493.204	306.8568
493.413	256.21151
493.622	266.76173
493.831	340.62615
494.039	355.40166
494.248	245.66178
494.457	378.62201
494.665	273.09208
494.874	340.62615
495.083	372.28898
495.291	338.51543
495.5	427.18015
495.709	374.39997
495.917	458.85306
496.126	435.62591
496.335	406.06685
496.543	477.85847
496.752	306.8568
496.96	433.51445
497.169	389.17739
497.377	477.85847
497.586	389.17739
497.794	422.95736
498.003	439.84889
498.211	517.98495
498.42	391.28851
498.628	490.52941
498.837	465.18806
499.045	471.52319
499.254	515.8729
499.462	496.86509
499.671	433.51445
499.879	625.71762
500.087	524.32118
500.296	619.37947
500.504	621.49217
500.713	534.88186
500.921	583.4654
501.129	686.99207
501.338	587.69039
501.546	722.91607
501.754	600.36568
501.962	642.61991
502.171	625.71762
502.379	767.29705
502.587	663.74887
502.795	754.61631
503.004	642.61991
503.212	661.63592
503.42	752.50288
503.628	760.95663
503.837	689.10516
504.045	769.41055
504.253	788.43243
504.461	727.14263
504.669	701.78392
504.877	735.59588
505.085	777.86462
505.294	796.88685
505.502	847.61653
505.71	777.86462
505.918	727.14263
506.126	889.89512
506.334	790.54602
506.542	720.80281
506.75	697.55762
506.958	991.37642
507.166	898.35124
507.374	870.86934
507.582	803.22777
507.79	1006.17711
507.998	830.70605
508.206	957.54748
508.414	921.6062
508.622	940.63367
508.83	815.90986
509.037	1006.17711
509.245	887.78111
509.453	1006.17711
509.661	1001.94831
509.869	1025.20702
510.077	818.02358
510.285	1075.95576
510.492	1027.32149
510.7	1200.72501
510.908	968.11884
511.116	1054.81006
511.324	991.37642
511.531	1092.8727
511.739	1065.38284
511.947	1149.96963
512.155	1075.95576
512.362	1044.23742
512.57	1116.13401
512.778	1141.51062
512.985	1014.63479
513.193	1192.26563
513.401	1158.4287
513.608	1238.79286
513.816	1226.10347
514.024	1183.80631
514.231	1158.4287
514.439	1287.43646
514.646	1179.57667
514.854	1397.41706
515.061	1274.7467
515.269	1414.33742
515.477	1321.2762
515.684	1410.10733
515.892	1183.80631
516.099	1065.38284
516.307	1338.19624
516.514	1336.08123
516.722	1424.91267
516.929	1458.75349
517.136	1346.6563
517.344	1304.35626
517.551	1357.2314
517.759	1479.90401
517.966	1359.34643
518.173	1528.55001
518.381	1575.08049
518.588	1454.52339
518.796	1471.44381
519.003	1589.8855
519.21	1484.13411
519.418	1549.7003
519.625	1568.73546
519.832	1534.89511
520.039	1564.50544
520.247	1655.44938
520.454	1670.25381
520.661	1780.22485
520.868	1608.92038
521.076	1775.99537
521.283	1659.67923
521.49	1737.9294
521.697	1602.57544
521.904	1801.37199
522.112	1668.1389
522.319	1803.48668
522.526	1661.79415
522.733	1830.97725
522.94	1818.28939
523.147	1902.87186
523.354	1742.15901
523.561	1995.90253
523.768	1968.4174
523.975	2004.35927
524.183	1809.83072
524.39	1938.81688
524.597	1989.5599
524.804	2165.01601
525.011	1932.47376
525.218	2122.74211
525.425	2017.04419
525.632	2082.57904
525.838	1919.78737
526.045	2078.35119
526.252	2116.40076
526.459	2014.93006
526.666	2014.93006
526.873	2139.65205
527.08	2124.85588
527.287	2300.26971
527.494	2074.12331
527.701	2285.47813
527.907	2266.45972
528.114	2312.94783
528.321	2124.85588
528.528	2203.05973
528.735	2131.19714
528.941	2207.28664
529.148	2194.6058
529.355	2369.99506
529.562	2215.74036
529.768	2435.48459
529.975	2118.51455
530.182	2291.81743
530.388	2319.28677
530.595	2389.00918
530.802	2291.81743
531.008	2486.17912
531.215	2393.23442
531.422	2498.85176
531.628	2405.90992
531.835	2629.77785
532.042	2547.4264
532.248	2781.76107
532.455	2488.29126
532.661	2724.77529
532.868	2340.41591
533.074	2589.6602
533.281	2684.66842
533.487	2790.20257
533.694	2494.62759
533.9	2937.89262
534.107	2659.33537
534.313	2792.31291
534.52	2728.99679
534.726	2853.50681
534.933	2754.32468
535.139	2908.36022
535.345	2845.06697
535.552	2811.30537
535.758	2716.33212
535.965	3110.8088
536.171	2823.96639
536.377	2950.54848
536.584	2743.77163
536.79	3117.13302
536.996	2828.18662
537.203	3096.05173
537.409	2878.82497
537.615	3169.82924
537.821	2899.92187
538.028	3296.25821
538.234	3214.08619
538.44	3024.3636
538.646	3053.88442
538.853	3091.83529
539.059	2994.83978
539.265	3241.4797
539.471	2980.07675
539.677	3169.82924
539.883	3182.47482
540.09	3332.06871
540.296	3336.28138
540.502	3340.49398
540.708	3300.47147
540.914	3485.7857
541.12	3287.8315
541.326	3557.34721
541.532	3332.06871
541.738	3447.89168
541.944	3372.08629
542.15	3628.88734
542.356	3264.65662
542.562	3534.19728
542.768	3351.02519
542.974	3473.15501
543.18	3443.68087
543.386	3624.67969
543.592	3717.23029
543.798	3626.78352
544.004	3308.89778
544.21	3799.2326
544.415	3548.92931
544.621	3649.92442
544.827	3664.64925
545.033	4019.85802
545.239	3580.49491
545.445	4078.6536
545.651	3694.09611
545.856	3748.77314
546.062	3853.88424
546.268	3725.64214
546.474	3830.76402
546.679	3879.10354
546.885	3778.20919
547.091	3788.72114
547.297	3685.6831
547.502	4003.05632
547.708	3874.90053
547.914	4030.35842
548.119	3961.04634
548.325	4103.84673
548.531	3725.64214
548.736	4103.84673
548.942	3847.57896
549.147	3977.85131
549.353	4013.55754
549.559	4187.80206
549.764	4042.95822
549.97	4045.05811
550.175	4112.24377
550.381	4313.67147
550.586	4068.15558
550.792	4506.52012
550.997	4187.80206
551.203	4191.99894
551.408	4061.85652
551.614	4290.60117
551.819	4267.52828
552.025	4607.06287
552.23	4231.86509
552.435	4533.7555
552.641	4250.74637
552.846	4313.67147
553.052	4389.15597
553.257	4481.37646
553.462	4393.34872
553.668	4594.49783
553.873	4475.09004
554.078	4569.36534
554.283	4558.89252
554.489	4640.56572
554.694	4516.99571
554.899	4638.47196
555.105	4489.75803
555.31	4690.80923
555.515	4665.68909
555.72	4755.68789
555.925	4485.56729
556.131	4803.80961
556.336	4546.32441
556.541	4893.744
556.746	4525.37578
556.951	4644.75317
557.156	4835.18686
557.361	4697.08876
557.567	4816.36112
557.772	4826.82009
557.977	4831.00352
558.182	4966.91516
558.387	4883.28868
558.592	5113.17277
558.797	4893.744
559.002	4933.46897
559.207	4862.37633
559.412	5115.26134
559.617	5092.28577
559.822	4998.2656
560.027	4893.744
560.232	5048.41552
560.437	4920.92514
560.642	5134.05745
560.847	4841.46169
561.051	5136.14579
561.256	5000.35545
561.461	5163.29209
561.666	5173.73193
561.871	5228.00971
562.076	5067.21831
562.281	5152.85167
562.485	4912.56212
562.69	5273.92473
562.895	5259.31663
563.1	5319.82844
563.305	5209.22303
563.509	5324.00094
563.714	5301.05102
563.919	5553.34392
564.123	5230.097
564.328	5592.92887
564.533	5426.19794
564.737	5432.45307
564.942	5328.17335
565.147	5694.97708
565.351	5597.09521
565.556	5346.94802
565.761	5413.68705
565.965	5711.63264
566.17	5244.70739
566.374	5449.13237
566.579	5374.06365
566.784	5511.66636
566.988	5530.42243
567.193	5545.00916
567.397	5542.92541
567.602	5547.09289
567.806	5465.81017
568.011	5726.20501
568.215	5638.75344
568.42	5692.89503
568.624	5709.55077
568.828	5817.77628
569.033	5638.75344
569.237	5738.69469
569.442	5813.61494
569.646	5699.14111
569.85	5778.23974
570.055	5792.80683
570.259	5742.85773
570.463	5894.74403
570.668	5494.9927
570.872	5921.77909
571.076	5944.65179
571.281	5838.58156
571.485	5911.38146
571.689	6079.75046
571.893	5898.90353
572.098	6071.43957
572.302	6036.11408
572.506	5984.15247
572.71	5759.50894
572.914	6137.91617
573.119	5975.83724
573.323	6125.45364
573.527	5959.20566
573.731	6036.11408
573.935	6104.68088
574.139	6227.20622
574.343	5873.94512
574.547	6083.90577
574.751	5975.83724
574.955	6268.7217
575.159	6058.97253
575.364	6274.94821
575.568	6216.82588
575.772	6324.75275
575.976	6115.06755
576.18	6152.45472
576.383	6225.1302
576.587	6272.87273
576.791	6283.24991
576.995	6434.69013
577.199	6312.30288
577.403	6426.39525
577.607	6264.57057
577.811	6451.27877
578.015	6378.69248
578.219	6523.83659
578.422	6490.67083
578.626	6559.06871
578.83	6189.83427
579.034	6627.4414
579.238	6590.15032
579.442	6598.43787
579.645	6554.9241
579.849	6774.46132
580.053	6799.29835
580.257	6536.27222
580.46	6544.56217
580.664	6689.57661
580.868	6482.37846
581.071	6753.76128
581.275	6536.27222
581.479	6805.50709
581.682	6739.2699
581.886	6774.46132
582.09	6652.29797
582.293	6766.18158
582.497	6501.03576
582.7	6793.0894
582.904	6855.16966
583.107	6908.956
583.311	6722.70694
583.515	6993.74183
583.718	6768.25155
583.922	6906.88758
584.125	6937.91153
584.329	6921.36605
584.532	6950.31968
584.735	7233.41949
584.939	7109.48576
585.142	7169.39704
585.346	6950.31968
585.549	7264.39046
585.753	7064.02331
585.956	7202.44354
586.159	7154.93741
586.363	7214.83452
586.566	7057.82305
586.769	7338.70061
586.973	7109.48576
587.176	7394.4146
587.379	7392.3514
587.582	7509.91905
587.786	7353.14651
587.989	7235.48437
588.192	7033.01998
588.395	7214.83452
588.599	7346.95554
588.802	7371.71823
589.005	7097.08799
589.208	7464.5504
589.411	7386.16168
589.615	7311.86967
589.818	7441.86215
590.021	7608.86912
590.224	7338.70061
590.427	7740.72628
590.63	7437.73673
590.833	7511.98102
591.036	7400.60406
591.239	7693.35008
591.442	7450.11272
591.645	7443.92482
591.848	7540.84625
592.051	7763.38054
592.254	7625.35602
592.457	7790.15047
592.66	7516.10488
592.863	7895.13702
593.066	7734.54741
593.269	7870.43916
593.472	7505.79506
593.675	7726.30862
593.878	7645.96272
594.081	7969.21283
594.284	7629.47753
594.486	7963.04086
594.689	7903.36898
594.892	7841.62122
595.095	7755.14292
595.298	8090.55766
595.5	7870.43916
595.703	8129.61983
595.906	8020.63876
596.109	8275.52531
596.311	8141.95375
596.514	8211.8324
596.717	7967.15553
596.92	8201.55757
597.122	7901.31102
597.325	8207.72253
597.528	8028.86572
597.73	8047.37522
597.933	8238.54464
598.136	8353.57476
598.338	8014.46832
598.541	8347.41399
598.743	8339.19935
598.946	8191.28224
599.148	8135.78688
599.351	8215.94219
599.554	8289.90497
599.756	8458.28129
599.959	8417.22588
600.161	8552.67976
600.363	8248.81769
600.566	8523.95405
600.768	8454.1761
600.971	8476.75373
601.173	8265.25354
601.376	8577.29886
601.578	8445.96548
601.78	8622.42684
601.983	8283.74238
602.185	8626.52894
602.388	8603.96649
602.59	8819.24404
602.792	8599.86398
602.995	8815.1454
603.197	8536.26552
603.399	8564.98965
603.601	8519.85007
603.804	8671.64707
604.006	8581.40178
604.208	8638.83477
604.41	8712.65577
604.613	8765.95607
604.815	8724.95694
605.017	8737.25745
605.219	8540.36919
605.421	8612.17128
605.623	8931.92842
605.826	9028.17974
606.028	8567.04123
606.23	8681.89993
606.432	8546.52456
606.634	8948.31437
606.836	8782.35368
607.038	8761.85649
607.24	8757.75683
607.442	8890.95855
607.644	8843.83436
607.846	8921.68662
608.048	8575.24737
608.25	8880.71497
608.452	8864.3243
608.654	9208.29176
608.856	8872.51978
609.058	9067.07886
609.26	8931.92842
609.462	9071.17314
609.664	9208.29176
609.866	9087.54956
610.067	9028.17974
610.269	9093.69044
610.471	8890.95855
610.673	9120.2991
610.875	8901.20168
611.077	9007.70399
611.278	9038.41696
611.48	8878.6662
611.682	8954.45881
611.884	9234.88801
612.085	9032.27468
612.287	9150.99779
612.489	9146.90486
612.69	9380.09466
612.892	9157.13707
613.094	9408.71715
613.295	8888.90987
613.497	9302.38883
613.699	9108.01854
613.9	9472.08418
614.102	9269.66343
614.304	9279.89058
614.505	8962.65115
614.707	9459.8208
614.908	9085.50257
615.11	9007.70399
615.311	8870.47094
615.513	9126.43915
615.714	9386.22832
615.916	9310.56952
616.117	9120.2991
616.319	9328.97509
616.52	9351.46897
616.722	9208.29176
616.923	9431.204
617.124	9494.56553
617.326	9011.79928
617.527	9392.36183
617.729	9425.07142
617.93	9439.38055
618.131	9347.37932
618.333	9418.93869
618.534	9218.52142
618.735	9682.51637
618.937	9183.73883
619.138	9561.998
619.339	9449.60088
619.54	9584.47165
619.742	9510.91438
619.943	9459.8208
620.144	9451.6449
620.345	9478.21565
620.546	9298.29839
620.748	9758.06824
620.949	9512.95792
621.15	9580.38567
621.351	9443.46873
621.552	9504.78368
621.753	9515.00144
621.954	9733.56722
622.155	9500.69647
622.356	9582.42867
622.558	9592.64342
622.759	9780.52559
622.96	9300.34362
623.161	9406.67279
623.362	9412.80581
623.563	9737.65088
623.764	9566.08426
623.965	9772.3595
624.166	9641.66876
624.366	9570.17045
624.567	9461.86474
624.768	9760.1099
624.969	9488.43444
625.17	9862.17336
625.371	9821.35247
625.572	9660.05095
625.773	9758.06824
625.973	9972.3603
626.174	9684.55859
626.375	9686.60079
626.576	9431.204
626.777	9854.00966
626.977	9662.09334
627.178	9723.35782
627.379	9582.42867
627.58	9766.23477
627.78	9841.76366
627.981	9715.19002
628.182	10070.2688
628.382	9858.09154
628.583	9782.56708
628.784	9945.83771
628.984	9702.93786
629.185	10039.67593
629.386	9792.77429
629.586	10009.07986
629.787	9880.54083
629.987	9911.15061
630.188	9841.76366
630.388	9986.64068
630.589	9582.42867
630.79	9976.44048
630.99	9670.26274
631.191	9829.51713
631.391	9805.02244
631.591	9690.68515
631.792	9713.14803
631.992	10002.96025
632.193	9915.23166
632.393	9872.37766
632.594	9621.24263
632.794	10143.67875
632.994	10119.21079
633.195	9960.11941
633.395	9990.72066
633.595	10247.64539
633.796	9817.27005
633.996	10237.45416
634.196	10127.367
634.397	10400.47367
634.597	10133.48401
634.797	10121.24986
634.997	10139.60089
635.198	10082.50506
635.398	10157.9508
635.598	10325.08775
635.798	10113.09348
635.998	10424.9193
636.199	9982.56065
636.399	10380.10087
636.599	10090.66228
636.799	10280.25507
636.999	9825.43483
637.199	10253.75997
637.399	10104.93688
637.599	10327.12544
637.799	9972.3603
637.999	10433.06743
638.199	10457.51057
638.399	10143.67875
638.599	10390.28743
638.799	10608.20272
638.999	10575.62647
639.199	10636.70433
639.399	10357.68928
639.599	10600.05895
639.799	10243.56894
639.999	10707.94787
640.199	10420.84516
640.399	10439.17839
640.599	10125.32796
640.799	10541.0107
640.998	10349.53922
641.198	10386.21285
641.398	10380.10087
641.598	10500.2816
641.798	10361.76423
641.997	10703.87721
642.197	10709.98318
642.397	10620.41799
642.597	10595.987
642.796	10636.70433
642.996	10575.62647
643.196	10811.73351
643.395	10624.48965
643.595	10703.87721
643.795	10628.56126
643.994	10811.73351
644.194	10777.14173
644.394	11076.14931
644.593	10532.86529
644.793	10866.66645
644.992	10630.59705
645.192	10948.03316
645.392	10783.24641
645.591	11047.68284
645.791	10675.38125
645.99	10732.37081
646.19	10433.06743
646.389	10671.3102
646.589	10697.77113
646.788	10887.00985
646.987	10976.50723
647.187	11013.11352
647.386	10642.81151
647.586	11074.11607
647.785	10750.68688
647.984	10854.45986
648.184	10815.80291
648.383	10870.73522
648.582	10771.03694
648.782	11007.01272
648.981	10978.54101
649.18	11234.70977
649.38	10974.47344
649.579	10958.20273
649.778	10811.73351
649.977	11086.31539
650.177	10681.48772
650.376	11149.33908
650.575	10876.83829
650.774	11112.74594
650.973	11145.27335
651.173	11137.14175
651.372	11078.18255
651.571	11350.54087
651.77	11189.9941
651.969	11413.52305
652.168	10758.82705
652.367	11391.17562
652.566	11372.89047
652.765	11478.52706
652.964	11076.14931
653.163	11196.09199
653.362	10945.99922
653.561	11334.28586
653.76	11261.1303
653.959	11137.14175
654.158	10876.83829
654.357	11086.31539
654.556	10819.87226
654.755	11506.96322
654.954	11129.00999
655.153	11315.9982
655.352	11454.15172
655.551	11470.4021
655.749	11196.09199
655.948	11376.95391
656.147	11458.21437
656.346	11165.6016
656.545	11360.69993
656.743	11320.06219
656.942	11433.83787
657.141	11151.37193
657.34	11161.53603
657.538	11271.29159
657.737	11397.27049
657.936	11649.1165
658.135	11313.96619
658.333	11336.31777
658.532	11124.94404
658.731	11413.52305
658.929	11297.70972
659.128	11498.83879
659.326	11291.61338
659.525	11738.4472
659.724	11433.83787
659.922	11590.22992
660.121	11342.41345
660.319	11705.9653
660.518	11340.38156
660.716	11409.45997
660.915	11244.87172
661.113	11496.80766
661.312	11439.93212
661.51	11450.08902
661.709	11372.89047
661.907	11551.64486
662.105	11596.32199
662.304	11643.02514
662.502	11183.89611
662.701	11600.38333
662.899	11553.67574
663.097	11417.58609
663.296	11567.89161
663.494	11807.46384
663.692	11584.13777
663.891	11896.76487
664.089	11612.56711
664.287	11710.02566
664.485	11647.08605
664.684	11988.07894
664.882	11535.39752
665.08	11622.72002
665.278	11880.52953
665.476	11693.784
665.675	11707.99548
665.873	11647.08605
666.071	11760.77721
666.269	11620.68945
666.467	11277.38823
666.665	11628.81165
666.863	11409.45997
667.061	11488.68304
667.259	11689.7235
667.457	11772.95677
667.655	11486.65187
667.853	11533.36656
668.051	11167.63436
668.249	11287.54911
668.447	11297.70972
668.645	11354.60453
668.843	11608.50589
669.041	11551.64486
669.239	11395.23888
669.437	11553.67574
669.635	11791.22553
669.833	11835.87957
670.031	11594.29131
670.229	11953.58444
670.426	11736.41715
670.624	11736.41715
670.822	11604.44463
671.02	12053.00352
671.218	11791.22553
671.415	12069.23341
671.613	11738.4472
671.811	11811.52333
672.009	11590.22992
672.206	11919.08761
672.404	11653.17736
672.602	11547.58308
672.799	11435.8693
672.997	11935.32171
673.195	11576.01476
673.392	11923.14618
673.59	11551.64486
673.788	11293.64551
673.985	11385.08066
674.183	11653.17736
674.38	11726.26675
674.578	11858.20505
674.775	11498.83879
674.973	11600.38333
675.17	11626.78111
675.368	11746.56732
675.565	11582.10703
675.763	11811.52333
675.96	11683.63268
676.158	11744.53731
676.355	11578.04553
676.553	11963.73012
676.75	11488.68304
676.947	11679.57208
677.145	11407.42841
677.342	12006.33979
677.539	11653.17736
677.737	12136.17653
677.934	11923.14618
678.131	11636.9337
678.329	11647.08605
678.526	11567.89161
678.723	11693.784
678.92	12124.00567
679.118	11742.50728
679.315	11835.87957
679.512	11689.7235
679.709	11645.0556
679.906	11218.45011
680.104	11468.37083
680.301	11255.03341
680.498	11214.38509
680.695	11378.98561
680.892	11523.21162
681.089	11403.36527
681.286	11608.50589
681.483	11114.77898
681.68	11588.19921
681.877	11454.15172
682.075	11671.45079
682.272	11411.49151
682.469	11431.80643
682.665	11405.39685
682.862	11557.73746
683.059	11551.64486
683.256	11340.38156
683.453	11590.22992
683.65	11482.58948
683.847	11580.07628
684.044	11722.20653
684.241	11533.36656
684.438	11758.74725
684.635	11435.8693
684.831	11756.71728
685.028	11523.21162
685.225	11803.40431
685.422	11677.54177
685.619	11703.9351
685.815	11685.66296
686.012	11431.80643
686.209	11374.9222
686.405	11724.23665
686.602	11427.74352
686.799	11504.93213
686.996	11153.40478
687.192	11488.68304
687.389	11622.72002
687.586	11417.58609
687.782	11744.53731
687.979	11876.47061
688.175	11287.54911
688.372	11348.50903
688.568	11320.06219
688.765	11185.92879
688.962	11523.21162
689.158	11478.52706
689.355	11576.01476
689.551	11645.0556
689.748	11614.59771
689.944	11622.72002
690.14	11403.36527
690.337	11360.69993
690.533	11378.98561
690.73	11413.52305
690.926	11409.45997
691.123	11559.76831
691.319	11250.96876
691.515	11523.21162
691.712	11364.76349
691.908	11472.43335
692.104	11307.87009
692.301	11350.54087
692.497	11051.74961
692.693	11116.81202
692.889	11328.19006
693.086	11214.38509
693.282	11204.22236
693.478	11673.48113
693.674	11496.80766
693.87	11318.0302
694.067	11411.49151
694.263	11460.24568
694.459	11387.11232
694.655	11705.9653
694.851	11429.77498
695.047	11417.58609
695.243	11443.99491
695.439	11244.87172
695.635	11275.35603
695.831	11513.05644
696.027	11143.24047
696.224	11295.67762
696.42	11198.12459
696.615	11421.64909
696.811	11320.06219
697.007	11208.28748
697.203	10978.54101
697.399	11271.29159
697.595	11281.45261
697.791	11326.15811
697.987	11187.96145
698.183	11576.01476
698.379	11230.64491
698.575	11295.67762
698.77	11043.61603
698.966	11248.93643
699.162	11328.19006
699.358	11285.51695
699.554	10927.6932
699.749	11360.69993
699.945	11393.20725
700.141	11409.45997
700.337	11206.25492
700.532	11240.80697
700.728	11112.74594
700.924	11429.77498
701.119	10996.8445
701.315	11074.11607
701.511	11185.92879
701.706	11387.11232
701.902	11126.97702
702.097	11242.83935
702.293	11322.09418
702.489	11413.52305
702.684	11409.45997
702.88	11171.69986
703.075	11143.24047
703.271	11092.41491
703.466	11163.56882
703.662	11433.83787
703.857	10945.99922
704.053	11214.38509
704.248	11043.61603
704.443	11196.09199
704.639	11061.91635
704.834	11194.05937
705.03	11348.50903
705.225	11161.53603
705.42	11175.76532
705.616	10964.30433
705.811	10982.60853
706.006	11141.20757
706.202	10872.76959
706.397	11293.64551
706.592	10858.52877
706.787	10870.73522
706.983	11029.38183
707.178	11206.25492
707.373	11151.37193
707.568	11173.7326
707.763	11002.94547
707.959	11153.40478
708.154	11100.54745
708.349	10905.31792
708.544	11045.64944
708.739	11330.222
708.934	11019.21422
709.129	11273.32381
709.324	11049.71623
709.519	11366.79525
709.714	11080.21578
709.909	11705.9653
710.104	11220.4826
710.299	11362.73171
710.494	11194.05937
710.689	11214.38509
710.884	11080.21578
711.079	11129.00999
711.274	10927.6932
711.469	11425.71206
711.664	10889.04412
711.859	11320.06219
712.054	11161.53603
712.249	11242.83935
712.443	10602.09491
712.638	11287.54911
712.833	10895.14688
713.028	11131.04294
713.223	11094.44806
713.417	11059.88302
713.612	11094.44806
713.807	11273.32381
714.002	11002.94547
714.196	11078.18255
714.391	10840.21832
714.586	10866.66645
714.78	10632.63282
714.975	10791.38582
715.17	10856.49433
715.364	11092.41491
715.559	11218.45011
715.754	11124.94404
715.948	10850.39091
716.143	11027.34833
716.337	11045.64944
716.532	10988.70973
716.726	11068.01625
716.921	10876.83829
717.115	10669.27466
717.31	10709.98318
717.504	10638.74007
717.699	10966.33817
717.893	10467.69466
718.088	10705.91255
718.282	10569.51807
718.476	10921.59098
718.671	10437.14141
718.865	10815.80291
719.059	10683.52319
719.254	10844.28739
719.448	10516.57385
719.642	10610.23863
719.837	10500.2816
720.031	10414.73385
720.225	10398.43645
720.419	10754.75699
720.614	10836.1492
720.808	11096.4812
721.002	10502.31818
721.196	10913.45454
721.39	10587.84294
721.585	10785.28128
721.779	10732.37081
721.973	10693.70035
722.167	10404.54807
722.361	10913.45454
722.555	10671.3102
722.749	10646.8829
722.943	10628.56126
723.137	10486.02522
723.331	10371.95139
723.525	10722.19479
723.719	10437.14141
723.913	10819.87226
724.107	10219.10908
724.301	10239.49243
724.495	10400.47367
724.689	10424.9193
724.883	10498.24502
725.077	10595.987
725.271	10614.31041
725.465	10616.34628
725.659	10265.98876
725.853	10420.84516
726.046	10410.65958
726.24	10371.95139
726.434	9933.59569
726.628	10382.13821
726.822	10298.59649
727.015	10598.02298
727.209	10249.6836
727.403	10306.74789
727.596	10306.74789
727.79	10836.1492
727.984	10522.68324
728.177	10602.09491
728.371	10498.24502
728.565	10380.10087
728.758	10622.45383
728.952	10516.57385
729.146	10557.30093
729.339	10705.91255
729.533	10467.69466
729.726	10475.8417
729.92	10380.10087
730.113	10502.31818
730.307	10398.43645
730.5	10701.84186
730.694	10573.59035
730.887	10579.69868
731.081	10712.01848
731.274	10742.54652
731.468	10164.06719
731.661	10278.21706
731.854	10278.21706
732.048	10435.10443
732.241	10579.69868
732.435	10616.34628
732.628	10498.24502
732.821	10644.84721
733.014	10573.59035
733.208	10758.82705
733.401	10850.39091
733.594	10443.25229
733.788	10494.1718
733.981	10628.56126
734.174	10630.59705
734.367	10565.44574
734.56	10638.74007
734.754	10661.13237
734.947	10506.39129
735.14	10263.95066
735.333	10463.62106
735.526	10437.14141
735.719	10147.75655
735.912	10569.51807
736.105	10294.52071
736.298	10371.95139
736.491	10212.99381
736.684	10571.55422
736.877	10172.22218
737.07	10347.50167
737.263	10261.91255
737.456	10486.02522
737.649	10196.68582
737.842	10386.21285
738.035	10257.83629
738.228	10231.33926
738.421	10241.53069
738.614	10659.09677
738.807	10290.44488
739	10270.06492
739.192	10321.01232
739.385	10133.48401
739.578	10296.55861
739.771	10115.1326
739.964	10288.40695
740.156	10471.76821
740.349	10178.33827
740.542	10520.64679
740.735	10174.26089
740.927	10312.86129
741.12	10206.87842
741.313	10106.97605
741.505	10304.71006
741.698	10408.62242
741.891	10145.71766
742.083	10316.93683
742.276	10076.387
742.468	10541.0107
742.661	10369.91398
742.854	10579.69868
743.046	10475.8417
743.239	10410.65958
743.431	10316.93683
743.624	10074.34761
743.816	10255.79814
744.009	10504.35474
744.201	10437.14141
744.393	10353.61428
744.586	10404.54807
744.778	10318.97458
744.971	10162.02841
745.163	10300.63436
745.355	9858.09154
745.548	10106.97605
745.74	9927.47448
745.932	10009.07986
746.125	10196.68582
746.317	10363.80169
746.509	9982.56065
746.702	10296.55861
746.894	10229.30093
747.086	10172.22218
747.278	9986.64068
747.471	10100.85849
747.663	9966.23992
747.855	10182.4156
748.047	10009.07986
748.239	10212.99381
748.431	9878.50006
748.623	10274.14102
748.815	9886.66305
749.008	10296.55861
749.2	10298.59649
749.392	10483.98854
749.584	10072.30821
749.776	10151.83429
749.968	10027.43789
750.16	10196.68582
750.352	10043.75517
750.544	10151.83429
750.736	9911.15061
750.928	9915.23166
751.12	10164.06719
751.311	9854.00966
751.503	9909.11006
751.695	9833.59936
751.887	9878.50006
752.079	9821.35247
752.271	9749.90148
752.463	9841.76366
752.654	9866.25512
752.846	9707.02198
753.038	9762.15154
753.23	9798.89843
753.421	9502.74008
753.613	9935.63606
753.805	10031.51729
753.997	9813.18758
754.188	9741.73447
754.38	9866.25512
754.572	10051.91346
754.763	9962.1596
754.955	9992.76063
755.146	10092.70155
755.338	10000.92036
755.53	9931.5553
755.721	9772.3595
755.913	9851.9687
756.104	9768.27636
756.296	9829.51713
756.487	9829.51713
756.679	10133.48401
756.87	9817.27005
757.062	9845.84572
757.253	9782.56708
757.445	9668.22041
757.636	9807.06375
757.827	9649.83878
758.019	9809.10504
758.21	9449.60088
758.401	9625.32798
758.593	9682.51637
758.784	9698.85369
758.975	9294.20788
759.167	9547.69558
759.358	9586.51462
759.549	9482.30321
759.74	9662.09334
759.932	9535.43576
760.123	9437.33644
760.314	9653.92369
760.505	9643.71129
760.696	9541.56574
760.888	9637.58366
761.079	9470.04032
761.27	9637.58366
761.461	9208.29176
761.652	9437.33644
761.843	9283.98132
762.034	9277.84518
762.225	9122.3458
762.416	9294.20788
762.607	9091.6435
762.798	9363.73752
762.989	9494.56553
763.18	9373.96085
763.371	9062.98451
763.562	9161.22984
763.753	9126.43915
763.944	9357.60332
764.135	9418.93869
764.326	9357.60332
764.517	9265.57246
764.708	9316.70486
764.899	9288.072
765.089	9429.15982
765.28	9054.79561
765.471	9308.52437
765.662	9062.98451
765.853	9261.48142
766.043	8888.90987
766.234	9069.12601
766.425	8831.53952
766.615	8839.73615
766.806	8981.08289
766.997	8995.41769
767.187	8724.95694
767.378	8948.31437
767.569	8667.54579
767.759	8839.73615
767.95	8950.36254
768.141	8925.78339
768.331	8661.39374
768.522	8704.45462
768.712	8788.50248
768.903	8811.04669
769.093	8571.14434
769.284	8827.4411
769.474	8745.45742
769.665	8704.45462
769.855	8644.98744
770.046	8905.29881
770.236	8626.52894
770.426	8593.71008
770.617	8741.35747
770.807	8798.75012
770.998	8702.40428
771.188	8700.35393
771.378	8575.24737
771.569	8519.85007
771.759	8421.33177
771.949	8560.88643
772.139	8511.64189
772.33	8429.54331
772.52	8515.74602
772.71	8466.49146
772.9	8343.30671
773.09	8692.15234
773.281	8634.7329
773.471	8513.69396
773.661	8593.71008
773.851	8491.12011
774.041	8528.05795
774.231	8647.03829
774.421	8448.01816
774.611	8326.87681
774.802	8176.89595
774.992	8144.00934
775.182	8168.67478
775.372	8294.01326
775.562	8207.72253
775.752	8275.52531
775.942	8224.16154
776.131	8170.7301
776.321	7950.69637
776.511	8201.55757
776.701	8242.65392
776.891	8100.83788
777.081	7874.55567
777.271	8322.76914
777.461	8536.26552
777.651	8203.61258
777.84	8020.63876
778.03	8415.17291
778.22	7942.4663
778.41	8174.84069
778.599	8166.61943
778.789	8335.09191
778.979	8273.471
779.169	8283.74238
779.358	8168.67478
779.548	8160.45328
779.738	7792.20955
779.927	8141.95375
780.117	8051.48821
780.307	8037.09237
780.496	8078.22073
780.686	8102.89387
780.875	7765.43989
781.065	7872.49743
781.254	7697.4702
781.444	7954.81128
781.633	7713.9498
781.823	7866.32256
782.012	7903.36898
782.202	7915.71631
782.391	7697.4702
782.581	7993.89886
782.77	7738.66668
782.96	7666.5673
783.149	7689.22989
783.338	7960.9835
783.528	7882.78846
783.717	7821.03448
783.906	7788.09137
784.096	7816.91688
784.285	7643.90214
784.474	8051.48821
784.663	7926.00518
784.853	7771.61782
785.042	7610.93006
785.231	7775.73633
785.42	7495.4847
785.61	7676.86879
785.799	7322.1897
785.988	7377.90841
786.177	7400.60406
786.366	7415.04538
786.555	7456.30043
786.744	7569.70728
786.933	7320.12574
787.122	7445.98748
787.312	7163.20019
787.501	7254.06736
787.69	7183.85559
787.879	7536.72291
788.068	7144.60844
788.257	7386.16168
788.445	7305.67739
788.634	7845.73831
788.823	7676.86879
789.012	7598.56412
789.201	7674.80853
789.39	7629.47753
789.579	7280.90629
789.768	7423.29708
789.957	7483.11156
790.145	7516.10488
790.334	7223.09473
790.523	7346.95554
790.712	7524.35235
790.9	7301.54909
791.089	7297.42071
791.278	7346.95554
791.467	7041.28803
791.655	7289.16367
791.844	7024.75157
792.033	7037.15405
792.221	7134.27891
792.41	7177.6592
792.599	6898.61366
792.787	7227.2247
792.976	6985.47171
793.164	6999.94418
793.353	7043.35498
793.541	7214.83452
793.73	6898.61366
793.918	7090.8888
794.107	6950.31968
794.295	6968.93039
794.484	6931.70714
794.672	6944.11571
794.861	6921.36605
795.049	7061.95658
795.238	6906.88758
795.426	6859.30762
795.614	6799.29835
795.803	7115.68435
795.991	6751.69115
796.179	6958.59133
796.368	6873.78975
796.556	7078.48981
796.744	6898.61366
796.932	7221.02971
797.121	6784.81048
797.309	6590.15032
797.497	6784.81048
797.685	6646.08414
797.874	6670.93822
798.062	6730.9886
798.25	6496.88986
798.438	6652.29797
798.626	6550.7794
798.814	6482.37846
799.002	6615.01187
799.19	6842.75525
799.378	6896.54513
799.566	6768.25155
799.755	6610.86851
799.943	6768.25155
800.131	6776.5312
800.318	6842.75525
800.506	6675.08025
800.694	6904.81913
800.882	6650.22672
801.07	6824.13209
801.258	6507.25445
801.446	6797.22872
801.634	6523.83659
801.822	6590.15032
802.01	6478.23214
802.197	6780.67089
802.385	6343.42598
802.573	6538.34474
802.761	6283.24991
802.949	6482.37846
803.136	6600.5097
803.324	6673.00925
803.512	6586.00641
803.699	6440.91105
803.887	6465.79261
804.075	6681.29311
804.262	6617.08352
804.45	6757.90147
804.638	6590.15032
804.825	6888.27076
805.013	6357.9483
805.201	6639.8701
805.388	6480.30531
805.576	6664.72501
805.763	6733.05896
805.951	6879.99603
806.138	6648.15544
806.326	6768.25155
806.513	6623.29832
806.701	6873.78975
806.888	6501.03576
807.075	6913.09277
807.263	6697.85974
807.45	6743.41041
807.638	6851.03161
807.825	6757.90147
808.012	6648.15544
808.2	6745.48063
808.387	6619.15514
808.574	6519.69119
808.761	6420.17385
808.949	6828.27073
809.136	6714.42491
809.323	6648.15544
809.51	6492.74386
809.698	6639.8701
809.885	6561.14098
810.072	6639.8701
810.259	6631.58439
810.446	6904.81913
810.633	6702.00117
810.82	6929.63897
811.008	6523.83659
811.195	6946.18372
811.382	6505.18158
811.569	6648.15544
811.756	6523.83659
811.943	6865.51438
812.13	6627.4414
812.317	6813.7851
812.504	6714.42491
812.691	7185.921
812.878	6819.99336
813.064	6975.13356
813.251	7006.14633
813.438	7095.02161
813.625	6865.51438
813.812	6884.13344
813.999	6702.00117
814.186	6946.18372
814.372	6896.54513
814.559	7123.94882
814.746	6851.03161
814.933	6716.49545
815.12	6691.64743
815.306	6617.08352
815.493	6525.90925
815.68	6745.48063
815.866	6573.57411
816.053	6780.67089
816.24	6436.76379
816.426	6743.41041
816.613	6637.79871
816.799	6803.43754
816.986	6639.8701
817.173	6664.72501
817.359	6577.7183
817.546	6631.58439
817.732	6554.9241
817.919	6815.85454
818.105	6469.93921
818.292	6498.96282
818.478	6710.28375
818.665	6726.84781
818.851	6716.49545
819.037	6782.7407
819.224	6675.08025
819.41	6668.86718
819.597	6523.83659
819.783	6540.41724
819.969	6579.79036
820.156	6668.86718
820.342	6436.76379
820.528	6797.22872
820.714	6287.40061
820.901	6507.25445
821.087	6233.43414
821.273	6604.6533
821.459	6378.69248
821.646	6498.96282
821.832	6386.9895
822.018	6442.98464
822.204	6324.75275
822.39	6401.50839
822.576	6166.99211
822.762	6598.43787
822.948	6216.82588
823.134	6484.45159
823.32	6169.06879
823.507	6498.96282
823.693	6169.06879
823.879	6548.70701
824.065	6011.17434
824.25	6351.72459
824.436	6283.24991
824.622	6503.10868
824.808	6424.32148
824.994	6484.45159
825.18	6366.24625
825.366	6673.00925
825.552	6274.94821
825.738	6556.99641
825.923	6229.28221
826.109	6478.23214
826.295	6465.79261
826.481	6577.7183
826.667	6069.36179
826.852	6401.50839
827.038	6220.97809
827.224	6478.23214
827.409	6360.02282
827.595	6424.32148
827.781	6262.49497
827.966	6523.83659
828.152	6036.11408
828.338	6220.97809
828.523	6283.24991
828.709	6150.37785
828.894	6162.83869
829.08	6233.43414
829.266	5950.8893
829.451	6318.52792
829.637	5969.60058
829.822	6150.37785
830.008	5888.50461
830.193	6042.34848
830.378	5884.34487
830.564	5984.15247
830.749	5900.98324
830.935	6152.45472
831.12	5903.06293
831.305	5948.81016
831.491	5645.00136
831.676	5888.50461
831.861	5642.91874
832.047	5763.6715
832.232	5842.74233
832.417	6011.17434
832.602	5834.42069
832.788	5934.25546
832.973	5884.34487
833.158	6029.87946
833.343	5909.30186
833.528	6083.90577
833.714	5744.93921
833.899	5832.34022
834.084	5557.51116
834.269	5909.30186
834.454	5586.67918
834.639	5894.74403
834.824	5722.04159
835.009	5513.75046
835.194	5547.09289
835.379	5950.8893
835.564	5601.26146
835.749	5667.90859
835.934	5613.75963
836.119	5744.93921
836.304	5567.92884
836.489	5542.92541
836.674	5630.42255
836.859	5851.0636
837.044	5424.11285
837.228	5742.85773
837.413	5367.80655
837.598	5663.74385
837.783	5480.40201
837.968	5509.58224
838.152	5467.89479
838.337	5551.26027
838.522	5486.65531
838.707	5617.9255
838.891	5374.06365
839.076	5376.1493
839.261	5115.26134
839.445	5209.22303
839.63	5134.05745
839.815	5430.36805
839.999	5200.87279
840.184	5424.11285
840.368	5217.5729
840.553	5578.34593
840.737	5376.1493
840.922	5451.21718
841.106	5476.23303
841.291	5351.11992
841.475	5253.05567
841.66	5451.21718
841.844	5459.55617
842.029	5492.90839
842.213	5075.5745
842.397	5215.48547
842.582	4981.54601
842.766	5188.34673
842.951	4789.16514
843.135	4904.19874
843.319	5129.8807
843.504	5065.1292
843.688	4954.37353
843.872	5129.8807
844.056	4973.18566
844.241	4952.28318
844.425	4745.22506
844.609	4902.10784
844.793	4870.74154
844.977	5221.74769
845.161	4985.72605
845.346	5090.19694
845.53	4795.44147
845.714	4964.82494
845.898	4851.9193
846.082	4854.01075
846.266	4787.07298
846.45	4941.83107
846.634	4803.80961
846.818	4908.38048
847.002	4908.38048
847.186	4841.46169
847.37	4732.66891
847.554	5035.87929
847.738	4684.5295
847.922	4803.80961
848.106	4584.02635
848.29	4611.25104
848.473	4523.28079
848.657	4577.74319
848.841	4623.81501
849.025	4908.38048
849.209	4542.13486
849.392	4481.37646
849.576	4481.37646
849.76	4472.99453
849.944	4330.44822
850.127	4636.37818
850.311	4330.44822
850.495	4699.18189
850.678	4531.6606
850.862	4577.74319
851.046	4439.46331
851.229	4567.27082
851.413	4420.59953
851.596	4294.79597
851.78	4280.11382
851.964	4516.99571
852.147	4334.6422
852.331	4472.99453
852.514	4112.24377
852.698	4481.37646
852.881	4099.64808
853.065	4460.42098
853.248	4078.6536
853.431	4540.04005
853.615	4338.83608
853.798	4449.94242
853.982	4259.1375
854.165	4546.32441
854.348	4208.78562
854.532	4422.69559
854.715	4456.22962
854.898	4483.47188
855.081	4057.65704
855.265	4303.18529
855.448	4061.85652
855.631	4322.06002
855.814	4378.67369
855.997	4231.86509
856.181	4059.75679
856.364	4351.41723
856.547	4003.05632
856.73	4309.47706
856.913	3906.42121
857.096	4313.67147
857.279	3952.64336
857.462	4154.22396
857.645	3969.44899
857.828	4154.22396
858.011	3809.74357
858.194	4233.96309
858.377	3826.56009
858.56	4053.45748
858.743	3952.64336
858.926	3944.24006
859.109	3624.67969
859.292	3628.88734
859.475	3862.29099
859.658	3738.25934
859.841	3734.05369
860.023	3839.17165
860.206	3704.61193
860.389	3776.10675
860.572	3666.75272
860.755	3889.61074
860.937	3675.16641
861.12	3658.33872
861.303	3666.75272
861.486	3605.74437
861.668	3462.62894
861.851	3612.05631
862.034	3687.78638
862.216	3727.74506
862.399	3517.35956
862.581	3776.10675
862.764	3548.92931
862.947	3782.41403
863.129	3565.76481
863.312	3616.26418
863.494	3452.10241
863.677	3637.3024
863.859	3540.51112
864.042	3452.10241
864.224	3424.73136
864.406	3582.59913
864.589	3361.55596
864.771	3485.7857
864.954	3304.68466
865.136	3456.31308
865.318	3171.93687
865.501	3152.96754
865.683	3363.66206
865.865	3565.76481
866.048	3319.43028
866.23	3355.23755
866.412	3072.86049
866.594	3346.81276
866.777	3077.07722
866.959	3163.50622
867.141	3018.03732
867.323	3184.58236
867.505	2963.20381
867.687	3081.29389
867.869	2868.27599
868.052	3222.51527
868.234	3127.67307
868.416	3380.51024
868.598	3026.47233
868.78	3357.3437
868.962	3218.30076
869.144	3262.54971
869.326	3068.64369
869.508	3266.76351
869.69	2967.42214
869.872	3426.83693
870.054	3245.69384
870.236	3211.97888
870.417	3039.12439
870.599	3216.19349
870.781	2880.93473
870.963	3216.19349
871.145	3091.83529
871.327	3395.25148
871.508	2868.27599
871.69	3051.77589
871.872	2999.05765
872.054	3152.96754
872.235	2857.72665
872.417	3003.27546
872.599	2800.75414
872.78	3091.83529
872.962	2868.27599
873.144	3068.64369
873.325	2963.20381
873.507	3087.61877
873.689	2988.51285
873.87	3148.75196
874.052	2722.66451
874.233	2948.43921
874.415	2889.3736
874.596	3098.15993
874.778	2705.77788
874.959	2908.36022
875.141	2840.84697
875.322	3182.47482
875.503	2921.01732
875.685	3155.07531
875.866	2971.6404
876.048	3169.82924
876.229	2819.74611
876.41	2984.29483
876.592	2752.2141
876.773	2923.12678
876.954	2821.85625
877.136	3110.8088
877.317	2840.84697
877.498	3127.67307
877.679	2975.8586
877.86	3106.59258
878.042	2868.27599
878.223	2973.74951
878.404	2781.76107
878.585	3051.77589
878.766	2752.2141
878.947	3121.34909
879.128	2750.1035
879.309	3085.51049
879.49	2870.38581
879.672	3020.1461
879.853	2828.18662
880.034	3026.47233
880.215	3037.01575
880.396	3066.53527
880.576	2788.09221
880.757	3018.03732
880.938	2935.78326
881.119	3051.77589
881.3	2929.45509
881.481	3079.18556
881.662	2933.67388
881.843	2980.07675
882.023	2984.29483
882.204	3239.37261
882.385	2992.73082
882.566	3321.53672
882.747	3093.94352
882.927	3254.12191
883.108	2977.96768
883.289	3228.8369
883.469	2967.42214
883.65	3011.7109
883.831	2910.46977
884.011	3178.25969
884.192	2935.78326
884.373	3131.88898
884.553	2975.8586
884.734	3093.94352
884.914	2874.60542
885.095	3034.9071
885.275	3001.16656
885.456	3241.4797
885.636	3144.53631
885.817	3171.93687
885.997	3165.61391
886.178	3028.58105
886.358	2946.32992
886.538	3195.11981
886.719	2935.78326
886.899	3239.37261
887.08	3062.31839
887.26	3296.25821
887.44	3047.55879
887.621	3363.66206
887.801	3049.66735
887.981	3203.54948
888.161	3104.48444
888.342	3060.20992
888.522	2908.36022
888.702	3047.55879
888.882	2952.65774
889.062	3146.64414
889.242	2783.87146
889.423	3127.67307
889.603	2916.79834
889.783	3115.02497
889.963	2975.8586
890.143	3110.8088
890.323	2828.18662
890.503	3087.61877
890.683	2937.89262
890.863	2859.83655
891.043	2669.89103
891.223	3070.7521
891.403	2735.32894
891.583	3060.20992
891.763	2739.55031
891.943	3053.88442
892.122	2895.7026
892.302	3201.44209
892.482	2832.40679
892.662	2937.89262
892.842	2912.57931
893.022	2975.8586
893.201	2716.33212
893.381	2891.48328
893.561	2703.66699
893.741	3047.55879
893.92	2733.21824
894.1	3037.01575
894.28	2874.60542
894.459	3077.07722
894.639	2718.44293
894.819	2969.53128
894.998	2612.88675
895.178	2946.32992
895.357	2589.6602
895.537	2783.87146
895.716	2634.0005
895.896	3026.47233
896.075	2507.29996
896.255	2718.44293
896.434	2486.17912
896.614	2798.64386
896.793	2576.99056
896.973	2895.7026
897.152	2693.11236
897.331	2758.54581
897.511	2648.77939
897.69	2769.0984
897.87	2557.9853
898.049	2760.65636
898.228	2477.73047
898.407	2688.89041
898.587	2587.54863
898.766	2604.4409
898.945	2427.0349
899.124	2610.7753
899.304	2435.48459
899.483	2686.77942
899.662	2446.04647
899.841	2496.73968
900.02	2283.36501
900.199	2610.7753
900.378	2219.96717
900.557	2367.88233
900.737	2448.15881
900.916	2456.60808
901.095	2133.31088
901.274	2469.28165
901.453	2080.46512
901.632	2234.76072
901.811	2342.52877
901.989	2139.65205
902.168	2291.81743
902.347	2591.77177
902.526	2228.42068
902.705	2452.38347
902.884	2260.12008
903.063	2401.68479
903.242	1981.10297
903.42	2181.92466
903.599	2048.75544
903.778	2040.29926
903.957	1898.64293
904.135	2107.94551
904.314	1962.07453
904.493	2103.71784
904.672	1852.12332
904.85	2181.92466
905.029	1930.35937
905.207	1875.38344
905.386	1795.02789
905.565	1841.55035
905.743	1721.01081
905.922	1797.14259
906.1	1543.35523
906.279	1701.97714
906.457	1492.5943
906.636	1716.78113
906.814	1598.34546
906.993	1725.24048
907.171	1494.70935
907.35	1746.38861
907.528	1465.09865
907.707	1528.55001
907.885	1380.49674
908.063	1592.00049
908.242	1511.6297
908.42	1515.85979
908.598	1414.33742
908.777	1539.12517
908.955	1435.48792
909.133	1634.29997
909.311	1399.5321
909.49	1594.11548
909.668	1410.10733
909.846	1712.55143
910.024	1395.30201
910.202	1611.03536
910.38	1388.95689
910.559	1575.08049
910.737	1488.36421
910.915	1676.59853
911.093	1486.24916
911.271	1501.05449
911.449	1369.92157
911.627	1488.36421
911.805	1289.55143
911.983	1382.61177
912.161	1399.5321
912.339	1551.81533
912.517	1534.89511
912.695	1651.21952
912.872	1416.45247
913.05	1666.02399
913.228	1441.83308
913.406	1600.46045
913.584	1611.03536
913.762	1490.47925
913.939	1348.77131
914.117	1505.28458
914.295	1314.93121
914.473	1462.9836
914.65	1395.30201
914.828	1465.09865
915.006	1405.87723
915.184	1602.57544
915.361	1355.11638
915.539	1767.53638
915.716	1380.49674
915.894	1598.34546
916.072	1295.89635
916.249	1437.60297
916.427	1298.01132
916.604	1264.17196
916.782	1274.7467
916.959	1505.28458
917.137	1353.00136
917.314	1403.76219
917.492	1336.08123
917.669	1251.48236
917.847	1302.24128
918.024	1414.33742
918.201	1128.82223
918.379	1310.70122
918.556	1253.59729
918.733	1287.43646
918.911	1185.92113
919.088	1321.2762
919.265	1073.84117
919.442	1249.36744
919.62	1137.28114
919.797	1141.51062
919.974	982.91902
920.151	1192.26563
920.328	1217.64393
920.506	1289.55143
920.683	1226.10347
920.86	1135.1664
921.037	1042.12291
921.214	1175.34704
921.391	1262.05702
921.568	1166.88784
921.745	1145.74011
921.922	1228.21836
922.099	1018.86366
922.276	1116.13401
922.453	1001.94831
922.63	1156.31393
922.807	1122.4781
922.984	1004.06271
923.161	915.26385
923.338	1105.56061
923.514	896.2372
923.691	938.51948
923.868	938.51948
924.045	1141.51062
924.222	845.50269
924.399	1107.67528
924.575	957.54748
924.752	1061.15372
924.929	1025.20702
925.105	1044.23742
925.282	849.73038
925.459	1107.67528
925.635	968.11884
925.812	995.60516
925.989	915.26385
926.165	917.37796
926.342	779.97816
926.518	864.52756
926.695	720.80281
926.871	820.1373
927.048	737.70922
927.224	870.86934
927.401	752.50288
927.577	813.79616
927.754	710.23665
927.93	693.33136
928.107	598.2531
928.283	739.82257
928.459	585.57789
928.636	731.36923
928.812	642.61991
928.988	788.43243
929.165	583.4654
929.341	809.56877
929.517	670.08778
929.693	731.36923
929.87	602.47827
930.046	619.37947
930.222	568.67835
930.398	680.65288
930.574	644.73275
930.751	684.87899
930.927	526.43329
931.103	638.39427
931.279	524.32118
931.455	655.29714
931.631	465.18806
931.807	583.4654
931.983	431.403
932.159	640.50708
932.335	517.98495
932.511	568.67835
932.687	558.11657
932.863	545.44289
933.039	541.21844
933.215	568.67835
933.391	422.95736
933.566	511.64884
933.742	467.29976
933.918	465.18806
934.094	389.17739
934.27	439.84889
934.445	399.73318
934.621	399.73318
934.797	363.84518
934.973	346.9584
935.148	365.95611
935.324	406.06685
935.5	323.7409
935.675	399.73318
935.851	233.00273
936.027	368.06705
936.202	340.62615
936.378	203.46769
936.553	300.52556
936.729	258.32152
936.904	165.49987
937.08	142.30062
937.255	171.82738
937.431	216.12509
937.606	182.37364
937.782	180.26435
937.957	125.43005
938.133	195.02983
938.308	138.08285
938.483	159.17255
938.659	98.01833
938.834	121.21262
939.009	186.59229
939.185	135.97399
939.36	34.77495
939.535	161.28164
939.71	121.21262
939.886	150.73642
940.061	129.64756
940.236	83.25972
940.411	138.08285
940.586	64.28597
940.761	45.31408
940.937	163.39074
941.112	152.84542
941.287	114.88664
941.462	144.40954
941.637	138.08285
941.812	72.71852
941.987	89.5847
942.162	106.45231
942.337	62.17789
942.512	144.40954
942.687	95.90989
942.862	106.45231
943.037	169.71819
943.212	129.64756
943.386	68.5022
943.561	127.53879
943.736	100.12679
943.911	70.61035
944.086	3.16109
944.26	95.90989
944.435	79.04317
944.61	68.5022
944.785	106.45231
944.959	22.12877
945.134	70.61035
945.309	70.61035
945.483	76.93493
945.658	81.15143
945.833	55.85379
946.007	30.55946
946.182	64.28597
946.357	76.93493
946.531	87.47635
946.706	26.34407
946.88	119.10394
947.055	127.53879
947.229	72.71852
947.404	114.88664
947.578	70.61035
947.752	3.16109
947.927	93.80147
948.101	108.56086
948.276	72.71852
948.45	20.02115
948.624	148.62743
948.799	119.10394
948.973	51.63784
949.147	119.10394
949.321	74.82672
949.496	104.34378
949.67	55.85379
949.844	110.66943
950.018	72.71852
950.193	95.90989
950.367	106.45231
950.541	72.71852
950.715	95.90989
950.889	47.42198
951.063	76.93493
951.237	104.34378
951.411	83.25972
951.585	89.5847
951.759	91.69308
951.933	108.56086
952.107	89.5847
952.281	144.40954
952.455	45.31408
952.629	95.90989
952.803	45.31408
952.977	152.84542
953.151	72.71852
953.325	-3.16104
953.499	121.21262
953.672	119.10394
953.846	98.01833
954.02	51.63784
954.194	68.5022
954.368	138.08285
954.541	43.20621
954.715	104.34378
954.889	127.53879
955.062	68.5022
955.236	106.45231
955.41	51.63784
955.583	119.10394
955.757	38.99053
955.93	106.45231
956.104	102.23527
956.278	55.85379
956.451	119.10394
956.625	110.66943
956.798	93.80147
956.972	106.45231
957.145	163.39074
957.319	85.36802
957.492	108.56086
957.665	95.90989
957.839	110.66943
958.012	114.88664
958.185	173.93659
958.359	114.88664
958.532	62.17789
958.705	108.56086
958.879	129.64756
959.052	60.06984
959.225	70.61035
959.398	85.36802
959.572	100.12679
959.745	104.34378
959.918	110.66943
960.091	79.04317
960.264	74.82672
960.438	108.56086
960.611	98.01833
960.784	20.02115
960.957	135.97399
961.13	129.64756
961.303	119.10394
961.476	116.99528
961.649	157.06349
961.822	138.08285
961.995	167.60902
962.168	161.28164
962.341	51.63784
962.514	85.36802
962.686	36.88273
962.859	47.42198
963.032	72.71852
963.205	20.02115
963.378	119.10394
963.551	112.77803
963.723	43.20621
963.896	123.32132
964.069	89.5847
964.242	62.17789
964.414	81.15143
964.587	127.53879
964.76	62.17789
964.932	22.12877
965.105	53.7458
965.278	167.60902
965.45	100.12679
965.623	106.45231
965.795	104.34378
965.968	68.5022
966.14	106.45231
966.313	28.45175
966.485	47.42198
966.658	22.12877
966.83	135.97399
967.003	83.25972
967.175	34.77495
967.348	119.10394
967.52	41.09836
967.692	28.45175
967.865	110.66943
968.037	62.17789
968.209	68.5022
968.382	9.48343
968.554	51.63784
968.726	70.61035
968.898	70.61035
969.071	64.28597
969.243	85.36802
969.415	26.34407
969.587	112.77803
969.759	60.06984
969.932	116.99528
970.104	127.53879
970.276	81.15143
970.448	148.62743
970.62	148.62743
970.792	68.5022
970.964	110.66943
971.136	144.40954
971.308	79.04317
971.48	110.66943
971.652	85.36802
971.824	24.2364
971.996	81.15143
972.168	70.61035
972.339	87.47635
972.511	26.34407
972.683	102.23527
972.855	60.06984
973.027	62.17789
973.199	28.45175
973.37	28.45175
973.542	76.93493
973.714	123.32132
973.886	62.17789
974.057	47.42198
974.229	119.10394
974.401	110.66943
974.572	62.17789
974.744	34.77495
974.915	51.63784
975.087	26.34407
975.259	81.15143
975.43	34.77495
975.602	76.93493
975.773	72.71852
975.945	-24.23321
976.116	53.7458
976.288	108.56086
976.459	76.93493
976.63	57.9618
976.802	127.53879
976.973	45.31408
977.145	-47.40976
977.316	28.45175
977.487	108.56086
977.659	36.88273
977.83	15.80599
978.001	89.5847
978.172	-22.12611
978.344	43.20621
978.515	13.69845
978.686	34.77495
978.857	-15.80464
979.028	47.42198
979.2	45.31408
979.371	60.06984
979.542	49.5299
979.713	154.95444
979.884	51.63784
980.055	34.77495
980.226	104.34378
980.397	116.99528
980.568	140.19172
980.739	76.93493
980.91	11.59093
981.081	17.91356
981.252	85.36802
981.423	95.90989
981.594	79.04317
981.765	28.45175
981.936	28.45175
982.106	11.59093
982.277	-22.12611
982.448	38.99053
982.619	74.82672
982.79	51.63784
982.96	104.34378
983.131	87.47635
983.302	30.55946
983.472	85.36802
983.643	76.93493
983.814	119.10394
983.984	41.09836
984.155	60.06984
984.326	1.05369
984.496	62.17789
984.667	36.88273
984.837	-5.26836
985.008	43.20621
985.178	-22.12611
985.349	-26.3403
985.519	60.06984
985.69	15.80599
985.86	11.59093
986.031	85.36802
986.201	34.77495
986.371	36.88273
986.542	-22.12611
986.712	22.12877
986.882	9.48343
987.053	76.93493
987.223	-13.69743
987.393	76.93493
987.563	60.06984
987.734	-17.91182
987.904	-5.26836
988.074	119.10394
988.244	45.31408
988.414	57.9618
988.585	34.77495
988.755	34.77495
988.925	-7.37567
989.095	-7.37567
989.265	26.34407
989.435	43.20621
989.605	41.09836
989.775	85.36802
989.945	3.16109
990.115	17.91356
990.285	34.77495
990.455	11.59093
990.625	87.47635
990.795	43.20621
990.965	43.20621
991.134	-7.37567
991.304	53.7458
991.474	83.25972
991.644	1.05369
991.814	-36.87534
991.984	98.01833
992.153	17.91356
992.323	100.12679
992.493	51.63784
992.662	1.05369
992.832	68.5022
993.002	41.09836
993.171	-7.37567
993.341	49.5299
993.511	68.5022
993.68	68.5022
993.85	38.99053
994.019	53.7458
994.189	93.80147
994.358	26.34407
994.528	9.48343
994.697	38.99053
994.867	45.31408
995.036	17.91356
995.206	72.71852
995.375	55.85379
995.544	26.34407
995.714	-30.55439
995.883	9.48343
996.052	36.88273
996.222	53.7458
996.391	85.36802
996.56	-45.30293
996.73	-36.87534
996.899	7.37596
997.068	-49.51657
997.237	36.88273
997.406	1.05369
997.576	62.17789
997.745	70.61035
997.914	-5.26836
998.083	36.88273
998.252	-11.5902
998.421	60.06984
998.59	76.93493
998.759	102.23527
998.928	47.42198
999.097	93.80147
999.266	-24.23321
999.435	60.06984
999.604	51.63784
999.773	79.04317
999.942	15.80599
1000.111	17.91356
1000.28	79.04317
1000.448	17.91356
1000.617	-7.37567
1000.786	36.88273
1000.955	17.91356
1001.124	11.59093
1001.292	51.63784
1001.461	-20.01897
1001.63	57.9618
1001.798	-15.80464
1001.967	1.05369
1002.136	47.42198
1002.304	34.77495
1002.473	51.63784
1002.642	60.06984
1002.81	1.05369
1002.979	-13.69743
1003.147	38.99053
1003.316	-24.23321
1003.484	-20.01897
1003.653	7.37596
1003.821	-7.37567
1003.99	11.59093
1004.158	1.05369
1004.327	28.45175
1004.495	34.77495
1004.663	47.42198
1004.832	5.26851
1005	17.91356
1005.168	102.23527
1005.337	5.26851
1005.505	9.48343
1005.673	-9.48295
1005.842	135.97399
1006.01	-13.69743
1006.178	51.63784
1006.346	-22.12611
1006.514	34.77495
1006.683	24.2364
1006.851	-3.16104
1007.019	20.02115
1007.187	85.36802
1007.355	-24.23321
1007.523	-3.16104
1007.691	36.88273
1007.859	-70.58328
1008.027	-5.26836
1008.195	57.9618
1008.363	36.88273
1008.531	-38.98228
1008.699	60.06984
1008.867	-22.12611
1009.035	74.82672
1009.203	-13.69743
1009.37	81.15143
1009.538	51.63784
1009.706	53.7458
1009.874	-5.26836
1010.042	70.61035
1010.209	22.12877
1010.377	5.26851
1010.545	47.42198
1010.713	93.80147
1010.88	-22.12611
1011.048	106.45231
1011.216	34.77495
1011.383	76.93493
1011.551	26.34407
1011.718	34.77495
1011.886	17.91356
1012.054	1.05369
1012.221	62.17789
1012.389	26.34407
1012.556	-22.12611
1012.724	11.59093
1012.891	-28.44736
1013.058	60.06984
1013.226	-24.23321
1013.393	55.85379
1013.561	-1.05368
1013.728	-15.80464
1013.895	36.88273
1014.063	30.55946
1014.23	76.93493
1014.397	43.20621
1014.565	45.31408
1014.732	1.05369
1014.899	17.91356
1015.066	22.12877
1015.233	5.26851
1015.401	-3.16104
1015.568	20.02115
1015.735	-11.5902
1015.902	1.05369
1016.069	30.55946
1016.236	22.12877
1016.403	-32.6614
1016.57	-34.76838
1016.737	-15.80464
1016.904	102.23527
1017.071	-17.91182
1017.238	66.39408
1017.405	-3.16104
1017.572	-3.16104
1017.739	3.16109
1017.906	-60.05024
1018.073	43.20621
1018.24	-13.69743
1018.407	-3.16104
1018.573	9.48343
1018.74	41.09836
1018.907	-3.16104
1019.074	47.42198
1019.241	17.91356
1019.407	-24.23321
1019.574	34.77495
1019.741	110.66943
1019.907	-5.26836
1020.074	11.59093
1020.241	43.20621
1020.407	72.71852
1020.574	-32.6614
1020.74	5.26851
1020.907	-20.01897
1021.073	26.34407
1021.24	53.7458
1021.406	-24.23321
1021.573	1.05369
1021.739	34.77495
1021.906	-47.40976
1022.072	26.34407
1022.239	-45.30293
1022.405	-13.69743
1022.571	17.91356
1022.738	-13.69743
1022.904	98.01833
1023.07	-1.05368
1023.237	-17.91182
1023.403	17.91356
1023.569	-24.23321
1023.735	24.2364
1023.902	-5.26836
1024.068	51.63784
1024.234	87.47635
1024.4	66.39408
1024.566	89.5847
1024.732	32.66719
1024.898	11.59093
1025.065	38.99053
1025.231	22.12877
1025.397	68.5022
1025.563	-13.69743
1025.729	45.31408
1025.895	9.48343
1026.061	-5.26836
1026.227	-22.12611
1026.392	-28.44736
1026.558	-32.6614
1026.724	34.77495
1026.89	-22.12611
1027.056	38.99053
1027.222	-15.80464
1027.388	5.26851
1027.553	43.20621
1027.719	-20.01897
1027.885	-20.01897
1028.051	51.63784
1028.216	-32.6614
1028.382	43.20621
1028.548	30.55946
1028.713	76.93493
1028.879	13.69845
1029.045	9.48343
1029.21	9.48343
1029.376	-30.55439
1029.541	30.55946
1029.707	119.10394
1029.873	-32.6614
1030.038	-38.98228
1030.204	85.36802
1030.369	64.28597
1030.534	-7.37567
1030.7	62.17789
1030.865	-3.16104
1031.031	51.63784
1031.196	30.55946
1031.361	104.34378
1031.527	-28.44736
1031.692	-5.26836
1031.857	15.80599
1032.023	81.15143
1032.188	-11.5902
1032.353	51.63784
1032.518	72.71852
1032.684	51.63784
1032.849	43.20621
1033.014	-3.16104
1033.179	34.77495
1033.344	26.34407
1033.509	-49.51657
1033.674	34.77495
1033.839	36.88273
1034.004	-108.49687
1034.17	11.59093
1034.335	45.31408
1034.5	-28.44736
1034.664	57.9618
1034.829	22.12877
1034.994	-53.73012
1035.159	20.02115
1035.324	-53.73012
1035.489	45.31408
1035.654	17.91356
1035.819	34.77495
1035.984	89.5847
1036.148	22.12877
1036.313	-30.55439
1036.478	45.31408
1036.643	-17.91182
1036.807	34.77495
1036.972	20.02115
1037.137	5.26851
1037.301	-28.44736
1037.466	-36.87534
1037.631	51.63784
1037.795	53.7458
1037.96	68.5022
1038.124	51.63784
1038.289	-17.91182
1038.454	30.55946
1038.618	-66.37014
1038.783	38.99053
1038.947	22.12877
1039.111	-15.80464
1039.276	-11.5902
1039.44	1.05369
1039.605	-11.5902
1039.769	70.61035
1039.933	13.69845
1040.098	17.91356
1040.262	3.16109
1040.426	20.02115
1040.591	-70.58328
1040.755	34.77495
1040.919	9.48343
1041.083	1.05369
1041.248	22.12877
1041.412	-32.6614
1041.576	53.7458
1041.74	-5.26836
1041.904	1.05369
1042.068	62.17789
1042.232	34.77495
1042.397	-28.44736
1042.561	-49.51657
1042.725	-38.98228
1042.889	-41.08919
1043.053	-7.37567
1043.217	41.09836
1043.381	24.2364
1043.544	51.63784
1043.708	-30.55439
1043.872	11.59093
1044.036	13.69845
1044.2	5.26851
1044.364	76.93493
1044.528	91.69308
1044.691	-3.16104
1044.855	9.48343
1045.019	26.34407
1045.183	30.55946
1045.346	7.37596
1045.51	7.37596
1045.674	-3.16104
1045.837	-15.80464
1046.001	36.88273
1046.165	-20.01897
1046.328	-5.26836
1046.492	-13.69743
1046.655	-41.08919
1046.819	-49.51657
1046.983	-7.37567
1047.146	34.77495
1047.31	43.20621
1047.473	-13.69743
1047.636	24.2364
1047.8	-24.23321
1047.963	9.48343
1048.127	-32.6614
1048.29	-53.73012
