Data from mixed_try1_USB4F045381__10__00235.txt Node

Date: Thu Apr 03 20:23:53 EDT 2025
User: mmckonesweet
Spectrometer: USB4F04538
Trigger mode: 4
Integration Time (sec): 2.700000E-3
Scans to average: 1
Electric dark correction enabled: true
Nonlinearity correction enabled: true
Boxcar width: 0
XAxis mode: Wavelengths
Number of Pixels in Spectrum: 3648
>>>>>Begin Spectral Data<<<<<
345.52	8.95656
345.736	8.95656
345.952	8.95656
346.168	74.29967
346.384	36.35578
346.6	4.74166
346.816	-47.93647
347.032	23.70949
347.248	4.74166
347.464	-5.79519
347.68	-16.33143
347.896	70.08331
348.112	4.74166
348.328	-5.79519
348.544	-47.93647
348.76	-20.54576
348.975	36.35578
349.191	15.2791
349.407	-5.79519
349.623	15.2791
349.839	-56.36353
350.055	-5.79519
350.27	78.51611
350.486	93.27437
350.702	-39.50901
350.918	19.49425
351.133	44.78711
351.349	-28.97412
351.565	4.74166
351.781	-12.11701
351.996	13.17157
352.212	42.67924
352.428	-71.10991
352.644	-5.79519
352.859	122.79415
353.075	-20.54576
353.291	27.92483
353.506	-43.72279
353.722	38.46358
353.938	8.95656
354.153	13.17157
354.369	0.52684
354.584	-31.08114
354.8	36.35578
355.016	-47.93647
355.231	-26.86706
355.447	103.81665
355.662	11.06405
355.878	82.73264
356.093	-37.40208
356.309	-35.29512
356.524	-14.22423
356.74	-115.34148
356.955	53.21881
357.171	11.06405
357.386	6.8491
357.602	4.74166
357.817	-47.93647
358.033	6.8491
358.248	-39.50901
358.464	13.17157
358.679	23.70949
358.895	27.92483
359.11	6.8491
359.325	-92.17399
359.541	8.95656
359.756	-1.58052
359.972	55.32679
360.187	-56.36353
360.402	2.63424
360.618	55.32679
360.833	-45.82964
361.048	-35.29512
361.264	-5.79519
361.479	-31.08114
361.694	-3.68787
361.909	19.49425
362.125	13.17157
362.34	32.14026
362.555	49.00291
362.77	-98.49271
362.986	-16.33143
363.201	-14.22423
363.416	6.8491
363.631	4.74166
363.847	-37.40208
364.062	-10.00976
364.277	6.8491
364.492	-14.22423
364.707	2.63424
364.922	13.17157
365.138	27.92483
365.353	25.81715
365.568	23.70949
365.783	-102.70506
365.998	40.5714
366.213	15.2791
366.428	32.14026
366.643	11.06405
366.858	-35.29512
367.073	-5.79519
367.288	8.95656
367.503	-5.79519
367.718	0.52684
367.933	74.29967
368.148	65.86705
368.363	38.46358
368.578	-14.22423
368.793	61.65088
369.008	23.70949
369.223	2.63424
369.438	36.35578
369.653	32.14026
369.868	-12.11701
370.083	70.08331
370.298	30.03253
370.513	53.21881
370.728	-14.22423
370.943	-16.33143
371.157	-1.58052
371.372	-5.79519
371.587	42.67924
371.802	-1.58052
372.017	21.60186
372.232	11.06405
372.446	13.17157
372.661	-47.93647
372.876	95.38278
373.091	13.17157
373.306	-5.79519
373.52	27.92483
373.735	23.70949
373.95	-24.75999
374.165	-3.68787
374.379	4.74166
374.594	-14.22423
374.809	19.49425
375.023	30.03253
375.238	38.46358
375.453	36.35578
375.667	-5.79519
375.882	78.51611
376.097	-14.22423
376.311	40.5714
376.526	-10.00976
376.741	-58.47023
376.955	61.65088
377.17	74.29967
377.384	19.49425
377.599	-41.61591
377.813	44.78711
378.028	-60.57691
378.242	13.17157
378.457	-20.54576
378.672	36.35578
378.886	55.32679
379.101	42.67924
379.315	-37.40208
379.53	-33.18815
379.744	53.21881
379.958	-5.79519
380.173	-14.22423
380.387	101.70815
380.602	59.54283
380.816	15.2791
381.031	65.86705
381.245	-18.43861
381.459	32.14026
381.674	-14.22423
381.888	-22.65289
382.103	-10.00976
382.317	-10.00976
382.531	-7.90249
382.746	-31.08114
382.96	-20.54576
383.174	-43.72279
383.388	-14.22423
383.603	8.95656
383.817	74.29967
384.031	82.73264
384.246	4.74166
384.46	63.75895
384.674	21.60186
384.888	6.8491
385.103	36.35578
385.317	97.49122
385.531	27.92483
385.745	49.00291
385.959	-37.40208
386.174	-31.08114
386.388	70.08331
386.602	44.78711
386.816	6.8491
387.03	-1.58052
387.244	-45.82964
387.458	44.78711
387.672	-3.68787
387.887	-14.22423
388.101	55.32679
388.315	-37.40208
388.529	6.8491
388.743	-31.08114
388.957	46.895
389.171	34.24801
389.385	-47.93647
389.599	44.78711
389.813	32.14026
390.027	-26.86706
390.241	44.78711
390.455	-1.58052
390.669	53.21881
390.883	6.8491
391.097	53.21881
391.311	49.00291
391.525	-22.65289
391.738	-35.29512
391.952	57.4348
392.166	-14.22423
392.38	-18.43861
392.594	17.38667
392.808	78.51611
393.022	25.81715
393.236	-45.82964
393.449	-14.22423
393.663	11.06405
393.877	19.49425
394.091	38.46358
394.305	-37.40208
394.518	36.35578
394.732	15.2791
394.946	-1.58052
395.16	13.17157
395.373	36.35578
395.587	27.92483
395.801	-24.75999
396.015	63.75895
396.228	11.06405
396.442	57.4348
396.656	-39.50901
396.869	2.63424
397.083	11.06405
397.297	13.17157
397.51	-41.61591
397.724	21.60186
397.938	-43.72279
398.151	4.74166
398.365	-14.22423
398.578	74.29967
398.792	30.03253
399.005	80.62436
399.219	19.49425
399.433	-5.79519
399.646	19.49425
399.86	11.06405
400.073	-60.57691
400.287	11.06405
400.5	15.2791
400.714	-3.68787
400.927	2.63424
401.141	76.40788
401.354	-14.22423
401.567	-22.65289
401.781	-10.00976
401.994	34.24801
402.208	27.92483
402.421	-39.50901
402.635	27.92483
402.848	65.86705
403.061	21.60186
403.275	2.63424
403.488	53.21881
403.701	23.70949
403.915	15.2791
404.128	23.70949
404.341	27.92483
404.555	46.895
404.768	27.92483
404.981	-12.11701
405.195	23.70949
405.408	57.4348
405.621	-7.90249
405.834	53.21881
406.048	11.06405
406.261	-62.68356
406.474	19.49425
406.687	11.06405
406.9	-14.22423
407.114	49.00291
407.327	21.60186
407.54	-24.75999
407.753	-31.08114
407.966	-50.04327
408.179	11.06405
408.392	-14.22423
408.605	70.08331
408.819	91.16598
409.032	-47.93647
409.245	-5.79519
409.458	-26.86706
409.671	63.75895
409.884	-64.79019
410.097	4.74166
410.31	-22.65289
410.523	2.63424
410.736	-3.68787
410.949	11.06405
411.162	44.78711
411.375	19.49425
411.588	34.24801
411.801	6.8491
412.014	-12.11701
412.227	53.21881
412.44	38.46358
412.653	44.78711
412.865	133.33796
413.078	-56.36353
413.291	-31.08114
413.504	-24.75999
413.717	30.03253
413.93	82.73264
414.143	6.8491
414.356	11.06405
414.568	27.92483
414.781	32.14026
414.994	-45.82964
415.207	-5.79519
415.42	11.06405
415.632	-1.58052
415.845	95.38278
416.058	27.92483
416.271	65.86705
416.483	4.74166
416.696	21.60186
416.909	57.4348
417.121	-73.21644
417.334	-60.57691
417.547	36.35578
417.759	15.2791
417.972	6.8491
418.185	2.63424
418.397	-45.82964
418.61	27.92483
418.823	-56.36353
419.035	70.08331
419.248	-5.79519
419.46	-50.04327
419.673	4.74166
419.885	-39.50901
420.098	70.08331
420.311	21.60186
420.523	38.46358
420.736	6.8491
420.948	19.49425
421.161	-5.79519
421.373	-43.72279
421.586	-47.93647
421.798	78.51611
422.01	74.29967
422.223	133.33796
422.435	-20.54576
422.648	-43.72279
422.86	11.06405
423.073	30.03253
423.285	46.895
423.497	53.21881
423.71	38.46358
423.922	-64.79019
424.134	46.895
424.347	-33.18815
424.559	-31.08114
424.771	21.60186
424.984	6.8491
425.196	36.35578
425.408	6.8491
425.621	19.49425
425.833	72.19148
426.045	-28.97412
426.257	15.2791
426.47	-85.85504
426.682	-14.22423
426.894	59.54283
427.106	61.65088
427.318	51.11085
427.531	-1.58052
427.743	36.35578
427.955	27.92483
428.167	13.17157
428.379	36.35578
428.591	30.03253
428.804	13.17157
429.016	-28.97412
429.228	11.06405
429.44	46.895
429.652	27.92483
429.864	2.63424
430.076	19.49425
430.288	2.63424
430.5	49.00291
430.712	44.78711
430.924	6.8491
431.136	15.2791
431.348	-12.11701
431.56	-18.43861
431.772	-10.00976
431.984	55.32679
432.196	-22.65289
432.408	-47.93647
432.62	-3.68787
432.832	44.78711
433.044	44.78711
433.256	-5.79519
433.468	6.8491
433.679	-20.54576
433.891	51.11085
434.103	44.78711
434.315	55.32679
434.527	-12.11701
434.739	-22.65289
434.95	53.21881
435.162	19.49425
435.374	19.49425
435.586	15.2791
435.798	27.92483
436.009	-7.90249
436.221	-37.40208
436.433	78.51611
436.645	27.92483
436.856	11.06405
437.068	25.81715
437.28	78.51611
437.491	-39.50901
437.703	78.51611
437.915	-12.11701
438.126	30.03253
438.338	2.63424
438.55	6.8491
438.761	55.32679
438.973	-3.68787
439.184	23.70949
439.396	8.95656
439.608	13.17157
439.819	30.03253
440.031	2.63424
440.242	38.46358
440.454	38.46358
440.665	19.49425
440.877	-52.15005
441.088	30.03253
441.3	-20.54576
441.511	-1.58052
441.723	70.08331
441.934	2.63424
442.146	38.46358
442.357	44.78711
442.569	27.92483
442.78	-39.50901
442.991	-54.2568
443.203	-20.54576
443.414	-14.22423
443.626	2.63424
443.837	19.49425
444.048	6.8491
444.26	-3.68787
444.471	55.32679
444.682	44.78711
444.894	2.63424
445.105	44.78711
445.316	32.14026
445.528	30.03253
445.739	44.78711
445.95	44.78711
446.161	-26.86706
446.373	108.03372
446.584	23.70949
446.795	-52.15005
447.006	32.14026
447.217	30.03253
447.429	78.51611
447.64	27.92483
447.851	-5.79519
448.062	46.895
448.273	-24.75999
448.484	11.06405
448.695	44.78711
448.907	89.05761
449.118	-10.00976
449.329	49.00291
449.54	-41.61591
449.751	57.4348
449.962	-3.68787
450.173	11.06405
450.384	89.05761
450.595	-7.90249
450.806	103.81665
451.017	36.35578
451.228	-37.40208
451.439	42.67924
451.65	19.49425
451.861	82.73264
452.072	15.2791
452.283	-1.58052
452.494	63.75895
452.705	-18.43861
452.915	13.17157
453.126	70.08331
453.337	4.74166
453.548	40.5714
453.759	-69.00336
453.97	65.86705
454.181	2.63424
454.391	15.2791
454.602	23.70949
454.813	44.78711
455.024	95.38278
455.235	46.895
455.445	70.08331
455.656	42.67924
455.867	-1.58052
456.078	27.92483
456.288	-35.29512
456.499	38.46358
456.71	-56.36353
456.921	86.94927
457.131	27.92483
457.342	15.2791
457.553	2.63424
457.763	63.75895
457.974	63.75895
458.184	6.8491
458.395	21.60186
458.606	-10.00976
458.816	-3.68787
459.027	53.21881
459.237	2.63424
459.448	11.06405
459.659	-73.21644
459.869	-3.68787
460.08	17.38667
460.29	13.17157
460.501	-45.82964
460.711	-5.79519
460.922	27.92483
461.132	11.06405
461.343	15.2791
461.553	6.8491
461.764	36.35578
461.974	-47.93647
462.184	42.67924
462.395	34.24801
462.605	21.60186
462.816	36.35578
463.026	17.38667
463.236	-28.97412
463.447	-10.00976
463.657	32.14026
463.867	72.19148
464.078	-12.11701
464.288	-22.65289
464.498	38.46358
464.709	-16.33143
464.919	-31.08114
465.129	23.70949
465.339	23.70949
465.55	36.35578
465.76	36.35578
465.97	-14.22423
466.18	36.35578
466.391	46.895
466.601	15.2791
466.811	-5.79519
467.021	27.92483
467.231	42.67924
467.441	55.32679
467.651	-10.00976
467.862	2.63424
468.072	61.65088
468.282	-12.11701
468.492	-5.79519
468.702	-14.22423
468.912	78.51611
469.122	-5.79519
469.332	42.67924
469.542	19.49425
469.752	19.49425
469.962	-22.65289
470.172	38.46358
470.382	27.92483
470.592	-54.2568
470.802	15.2791
471.012	-37.40208
471.222	-31.08114
471.432	27.92483
471.642	4.74166
471.852	-16.33143
472.062	36.35578
472.272	86.94927
472.482	-14.22423
472.691	-18.43861
472.901	30.03253
473.111	11.06405
473.321	2.63424
473.531	6.8491
473.741	-39.50901
473.95	19.49425
474.16	78.51611
474.37	11.06405
474.58	44.78711
474.79	27.92483
474.999	27.92483
475.209	-1.58052
475.419	8.95656
475.628	-7.90249
475.838	61.65088
476.048	-26.86706
476.258	27.92483
476.467	74.29967
476.677	6.8491
476.886	38.46358
477.096	15.2791
477.306	-7.90249
477.515	32.14026
477.725	-1.58052
477.935	-52.15005
478.144	32.14026
478.354	55.32679
478.563	27.92483
478.773	36.35578
478.982	97.49122
479.192	32.14026
479.401	-14.22423
479.611	72.19148
479.82	46.895
480.03	36.35578
480.239	15.2791
480.449	11.06405
480.658	-28.97412
480.868	36.35578
481.077	-73.21644
481.287	51.11085
481.496	11.06405
481.705	11.06405
481.915	65.86705
482.124	86.94927
482.333	36.35578
482.543	11.06405
482.752	-26.86706
482.961	55.32679
483.171	2.63424
483.38	53.21881
483.589	78.51611
483.799	32.14026
484.008	55.32679
484.217	86.94927
484.426	65.86705
484.636	2.63424
484.845	30.03253
485.054	72.19148
485.263	17.38667
485.472	-3.68787
485.682	82.73264
485.891	72.19148
486.1	74.29967
486.309	61.65088
486.518	-39.50901
486.727	46.895
486.936	13.17157
487.146	-64.79019
487.355	19.49425
487.564	0.52684
487.773	27.92483
487.982	27.92483
488.191	21.60186
488.4	57.4348
488.609	55.32679
488.818	44.78711
489.027	-20.54576
489.236	36.35578
489.445	11.06405
489.654	61.65088
489.863	32.14026
490.072	42.67924
490.281	70.08331
490.49	72.19148
490.698	19.49425
490.907	36.35578
491.116	38.46358
491.325	80.62436
491.534	53.21881
491.743	78.51611
491.952	44.78711
492.16	49.00291
492.369	78.51611
492.578	70.08331
492.787	23.70949
492.996	53.21881
493.204	-12.11701
493.413	21.60186
493.622	38.46358
493.831	86.94927
494.039	17.38667
494.248	82.73264
494.457	74.29967
494.665	61.65088
494.874	44.78711
495.083	27.92483
495.291	95.38278
495.5	74.29967
495.709	38.46358
495.917	-10.00976
496.126	42.67924
496.335	-3.68787
496.543	51.11085
496.752	30.03253
496.96	61.65088
497.169	42.67924
497.377	114.35949
497.586	86.94927
497.794	-3.68787
498.003	46.895
498.211	61.65088
498.42	44.78711
498.628	-43.72279
498.837	116.46812
499.045	36.35578
499.254	-5.79519
499.462	49.00291
499.671	2.63424
499.879	46.895
500.087	61.65088
500.296	70.08331
500.504	13.17157
500.713	44.78711
500.921	120.68545
501.129	4.74166
501.338	129.12037
501.546	42.67924
501.754	101.70815
501.962	143.8823
502.171	97.49122
502.379	32.14026
502.587	137.55563
502.795	-12.11701
503.004	27.92483
503.212	72.19148
503.42	63.75895
503.628	51.11085
503.837	78.51611
504.045	44.78711
504.253	95.38278
504.461	103.81665
504.669	103.81665
504.877	30.03253
505.085	91.16598
505.294	32.14026
505.502	84.84094
505.71	95.38278
505.918	99.59967
506.126	112.25088
506.334	91.16598
506.542	78.51611
506.75	129.12037
506.958	139.6645
507.166	76.40788
507.374	63.75895
507.582	61.65088
507.79	103.81665
507.998	108.03372
508.206	67.97517
508.414	70.08331
508.622	154.42718
508.83	72.19148
509.037	145.99124
509.245	95.38278
509.453	30.03253
509.661	70.08331
509.869	89.05761
510.077	122.79415
510.285	63.75895
510.492	116.46812
510.7	103.81665
510.908	105.92518
511.116	97.49122
511.324	38.46358
511.531	145.99124
511.739	108.03372
511.947	86.94927
512.155	80.62436
512.362	70.08331
512.57	114.35949
512.778	57.4348
512.985	154.42718
513.193	93.27437
513.401	124.90287
513.608	164.97259
513.816	86.94927
514.024	110.14229
514.231	112.25088
514.439	55.32679
514.646	82.73264
514.854	46.895
515.061	120.68545
515.269	63.75895
515.477	158.64528
515.684	108.03372
515.892	122.79415
516.099	114.35949
516.307	116.46812
516.514	156.53622
516.722	114.35949
516.929	110.14229
517.136	139.6645
517.344	61.65088
517.551	143.8823
517.759	61.65088
517.966	116.46812
518.173	162.86346
518.381	169.1909
518.588	211.37848
518.796	53.21881
519.003	114.35949
519.21	124.90287
519.418	49.00291
519.625	72.19148
519.832	122.79415
520.039	137.55563
520.247	238.8047
520.454	112.25088
520.661	84.84094
520.868	120.68545
521.076	200.83082
521.283	141.77339
521.49	200.83082
521.697	173.40929
521.904	139.6645
522.112	108.03372
522.319	131.22915
522.526	114.35949
522.733	162.86346
522.94	196.6119
523.147	108.03372
523.354	129.12037
523.561	207.15936
523.768	211.37848
523.975	120.68545
524.183	97.49122
524.39	177.62776
524.597	209.26891
524.804	230.36551
525.011	145.99124
525.218	135.44678
525.425	145.99124
525.632	179.73703
525.838	171.30008
526.045	141.77339
526.252	268.3443
526.459	207.15936
526.666	162.86346
526.873	179.73703
527.08	200.83082
527.287	122.79415
527.494	112.25088
527.701	221.92663
527.907	188.1743
528.114	145.99124
528.321	240.91455
528.528	162.86346
528.735	171.30008
528.941	175.51851
529.148	209.26891
529.355	162.86346
529.562	247.24421
529.768	196.6119
529.975	224.03632
530.182	272.56455
530.388	173.40929
530.595	236.69488
530.802	148.10019
531.008	289.44628
531.215	230.36551
531.422	139.6645
531.628	281.00526
531.835	299.99796
532.042	158.64528
532.248	293.6669
532.455	196.6119
532.661	196.6119
532.868	202.94032
533.074	224.03632
533.281	268.3443
533.487	200.83082
533.694	291.55658
533.9	238.8047
534.107	120.68545
534.313	297.88759
534.52	257.79401
534.726	323.21326
534.933	188.1743
535.139	238.8047
535.345	283.11549
535.552	314.77108
535.758	331.65572
535.965	270.45441
536.171	382.31634
536.377	367.53931
536.584	333.76638
536.79	221.92663
536.996	281.00526
537.203	306.32919
537.409	213.48807
537.615	359.09566
537.821	289.44628
538.028	335.87706
538.234	392.87187
538.44	272.56455
538.646	321.10269
538.853	375.98323
539.059	314.77108
539.265	384.42741
539.471	333.76638
539.677	373.87222
539.883	255.68401
540.09	299.99796
540.296	333.76638
540.502	335.87706
540.708	299.99796
540.914	365.42837
541.12	350.65229
541.326	367.53931
541.532	348.54149
541.738	443.54405
541.944	346.43071
542.15	380.20529
542.356	356.9848
542.562	418.2068
542.768	344.31995
542.974	335.87706
543.18	397.09419
543.386	424.5409
543.592	502.6729
543.798	407.65029
544.004	348.54149
544.21	464.66014
544.415	418.2068
544.621	466.77183
544.827	333.76638
545.033	394.98302
545.239	390.76073
545.445	525.90526
545.651	492.11332
545.856	492.11332
546.062	454.1019
546.268	432.98659
546.474	384.42741
546.679	509.00883
546.885	494.22521
547.091	492.11332
547.297	500.56096
547.502	509.00883
547.708	458.32515
547.914	475.21875
548.119	458.32515
548.325	424.5409
548.531	460.4368
548.736	555.47618
548.942	513.23285
549.147	470.99526
549.353	553.36388
549.559	652.65602
549.764	504.78487
549.97	509.00883
550.175	523.79316
550.381	642.09171
550.586	456.21352
550.792	644.20454
550.997	572.37505
551.203	595.61239
551.408	568.15026
551.614	635.75326
551.819	566.03788
552.025	766.76868
552.23	500.56096
552.435	661.10768
552.641	610.4006
552.846	686.4638
553.052	623.07671
553.257	646.31739
553.462	551.2516
553.668	663.22063
553.873	612.51326
554.078	616.7386
554.283	703.36879
554.489	682.23766
554.694	557.58849
554.899	798.47207
555.105	656.88183
555.31	735.06755
555.515	661.10768
555.72	671.67253
555.925	563.92551
556.131	699.14248
556.336	597.72496
556.541	821.7226
556.746	631.5277
556.951	770.99567
557.156	741.40759
557.361	872.4548
557.567	739.29423
557.772	745.63433
557.977	724.50103
558.182	749.86112
558.387	737.18088
558.592	764.6552
558.797	627.30218
559.002	745.63433
559.207	697.02933
559.412	878.79667
559.617	732.95422
559.822	918.96355
560.027	711.82155
560.232	787.90403
560.437	804.81301
560.642	751.97453
560.847	796.35845
561.051	796.35845
561.256	775.2227
561.461	785.79045
561.666	790.01762
561.871	923.1918
562.076	773.10918
562.281	859.77128
562.485	817.49515
562.69	796.35845
562.895	707.59515
563.1	933.76257
563.305	893.59466
563.509	967.59026
563.714	863.99908
563.919	927.42009
564.123	925.30594
564.328	973.93315
564.533	815.38144
564.737	935.87675
564.942	999.30532
565.147	1088.11478
565.351	1016.22061
565.556	1069.08335
565.761	925.30594
565.965	978.16178
566.17	832.29139
566.374	1170.58874
566.579	1001.41971
566.784	963.3617
566.988	908.39304
567.193	1007.76292
567.397	857.65739
567.602	1162.12957
567.806	880.91064
568.011	1071.19793
568.215	1009.87733
568.42	1160.01479
568.624	1018.33505
568.828	1189.62209
569.033	1102.91728
569.237	1109.26129
569.442	973.93315
569.646	1028.90734
569.85	1024.67841
570.055	1267.87311
570.259	1071.19793
570.463	1140.98193
570.668	1066.96877
570.872	1153.67046
571.076	1016.22061
571.281	1086.00015
571.485	1111.37596
571.689	1212.88546
571.893	1081.77092
572.098	1185.39243
572.302	1077.54171
572.506	1187.50725
572.71	1090.22941
572.914	1210.77059
573.119	1149.44094
573.323	1195.9666
573.527	1134.63772
573.731	1282.67779
573.935	1244.60887
574.139	1293.25263
574.343	1200.1963
574.547	1157.90001
574.751	1289.02269
574.955	1358.81767
575.159	1176.93315
575.364	1227.68963
575.568	1280.56283
575.772	1274.21796
575.976	1238.26414
576.18	1179.04797
576.383	1295.3676
576.587	1305.9425
576.791	1248.83871
576.995	1363.04772
577.199	1310.17248
577.403	1195.9666
577.607	1189.62209
577.811	1365.16275
578.015	1320.74745
578.219	1447.64947
578.422	1329.20745
578.626	1458.22473
578.83	1354.58762
579.034	1430.72906
579.238	1295.3676
579.442	1396.8883
579.645	1468.79999
579.849	1591.47174
580.053	1616.85154
580.257	1602.04669
580.46	1426.49895
580.664	1676.06981
580.868	1373.62287
581.071	1532.25132
581.275	1363.04772
581.479	1701.44843
581.682	1508.9859
581.886	1549.17155
582.09	1443.41937
582.293	1629.54132
582.497	1396.8883
582.7	1625.3114
582.904	1494.18059
583.107	1692.98893
583.311	1443.41937
583.515	1542.82647
583.718	1439.18926
583.922	1676.06981
584.125	1542.82647
584.329	1701.44843
584.532	1633.77123
584.735	1777.58143
584.939	1671.84
585.142	1661.26542
585.346	1695.10381
585.549	1895.99984
585.753	1735.28588
585.956	1980.57441
586.159	1688.75917
586.363	1887.54189
586.566	1570.32172
586.769	1764.89292
586.973	1688.75917
587.176	1752.20428
587.379	1703.56329
587.582	1912.91549
587.786	1608.39164
587.989	1866.39664
588.192	1786.04035
588.395	1895.99984
588.599	1862.16753
588.802	1944.63136
589.005	1879.08385
589.208	2022.85804
589.411	1735.28588
589.615	1883.31288
589.818	1786.04035
590.021	2022.85804
590.224	1819.87538
590.427	1887.54189
590.63	1821.99003
590.833	2094.73394
591.036	1874.8548
591.239	1915.02992
591.442	1862.16753
591.645	1946.7457
591.848	1963.66025
592.051	2153.91942
592.254	1972.11738
592.457	1889.65638
592.66	1959.43165
592.863	2096.84781
593.066	2027.08625
593.269	2039.77074
593.472	1957.31734
593.675	2098.96167
593.878	2084.16447
594.081	2141.23733
594.284	2031.31444
594.486	2103.18938
594.689	2204.64483
594.892	2166.60122
595.095	2234.23239
595.298	2183.50982
595.5	1957.31734
595.703	2453.9677
595.906	2191.96393
596.109	2316.64555
596.311	2166.60122
596.514	2200.41789
596.717	2050.34096
596.92	2246.91224
597.122	2103.18938
597.325	2342.00056
597.528	2094.73394
597.73	2437.06889
597.933	2194.07743
598.136	2411.71939
598.338	2156.03307
598.541	2390.59365
598.743	2149.69209
598.946	2428.61923
599.148	2253.25205
599.351	2420.16939
599.554	2293.40225
599.756	2432.84408
599.959	2346.22626
600.161	2458.1923
600.363	2295.51532
600.566	2546.89845
600.768	2445.51838
600.971	2627.13867
601.173	2287.06296
601.376	2553.23383
601.578	2350.45191
601.78	2413.83191
601.983	2363.12865
602.185	2515.21998
602.388	2401.15665
602.59	2701.02836
602.792	2259.59177
602.995	2622.91594
603.197	2447.63073
603.399	2796.00598
603.601	2344.11341
603.804	2656.6964
604.006	2489.87535
604.208	2635.58398
604.41	2422.28187
604.613	2677.80756
604.815	2449.74306
605.017	2555.3456
605.219	2420.16939
605.421	2641.91784
605.623	2631.36135
605.826	2715.80442
606.028	2491.98746
606.23	2622.91594
606.432	2462.41685
606.634	2622.91594
606.836	2373.69231
607.038	2736.91196
607.24	2705.25016
607.442	2871.96817
607.644	2593.35543
607.846	2863.52883
608.048	2631.36135
608.25	2812.88803
608.452	2631.36135
608.654	2922.59942
608.856	2582.79754
609.058	2724.24759
609.26	2777.01263
609.462	2764.34978
609.664	2783.34387
609.866	2971.11312
610.067	2491.98746
610.269	2694.69557
610.471	2724.24759
610.673	2844.53948
610.875	2796.00598
611.077	2916.27097
611.278	2730.57984
611.48	2800.22657
611.682	2760.12872
611.884	3047.03165
612.085	2652.47402
612.287	2850.86939
612.489	2741.13331
612.69	3002.74824
612.892	2969.00399
613.094	3087.09171
613.295	2707.36104
613.497	2954.23968
613.699	2618.69315
613.9	3047.03165
614.102	2861.41896
614.304	2779.12305
614.505	2838.20944
614.707	3002.74824
614.908	2871.96817
615.11	2926.81831
615.311	2859.30907
615.513	2876.18776
615.714	2825.54898
615.916	2960.56733
616.117	2724.24759
616.319	3125.0381
616.52	2855.08926
616.722	3108.17367
616.923	2945.8026
617.124	3025.94515
617.326	2764.34978
617.527	3162.9793
617.729	3021.72767
617.93	3272.55738
618.131	3028.05387
618.333	3051.24876
618.534	3097.63288
618.735	3175.6252
618.937	2895.17519
619.138	3148.22501
619.339	3044.92307
619.54	3257.80911
619.742	2966.89485
619.943	3398.93665
620.144	3234.63159
620.345	3091.30822
620.546	2960.56733
620.748	3188.27051
620.949	3047.03165
621.15	3061.79127
621.351	3013.29252
621.552	3013.29252
621.753	3154.54837
621.954	3209.34472
622.155	3082.87512
622.356	3245.16708
622.558	3131.36199
622.759	3120.82208
622.96	2964.78569
623.161	3280.98459
623.362	3103.9574
623.563	3272.55738
623.764	3095.52468
623.965	3483.15436
624.166	3120.82208
624.366	3373.6658
624.567	3188.27051
624.768	3299.94482
624.969	3158.76387
625.17	3268.34367
625.371	3112.38987
625.572	3314.6907
625.773	3120.82208
625.973	3247.27412
626.174	3217.77395
626.375	3367.34769
626.576	3194.59295
626.777	3213.55937
626.977	3289.41153
627.178	3293.62489
627.379	3160.87159
627.58	3323.11655
627.78	3268.34367
627.981	3367.34769
628.182	3215.66666
628.382	3283.09135
628.583	3453.68142
628.784	3405.25397
628.984	3158.76387
629.185	3449.47071
629.386	3226.2029
629.586	3232.52444
629.787	3318.90366
629.987	3643.08757
630.188	3398.93665
630.388	3478.94416
630.589	3382.0897
630.79	3470.52353
630.99	3224.09569
631.191	3457.89206
631.391	3247.27412
631.591	3533.67112
631.792	3331.54212
631.992	3640.98389
632.193	3401.04244
632.393	3603.11434
632.594	3468.41833
632.794	3622.04988
632.994	3401.04244
633.195	3468.41833
633.395	3375.7718
633.595	3512.62374
633.796	3356.81716
633.996	3590.48981
634.196	3626.25757
634.397	3735.63082
634.597	3533.67112
634.797	3611.53032
634.997	3348.39243
635.198	3634.67272
635.398	3601.0103
635.598	3628.36138
635.798	3563.13434
635.998	3655.70928
636.199	3478.94416
636.399	3746.14474
636.599	3622.04988
636.799	3731.42511
636.999	3474.73388
637.199	3571.55174
637.399	3554.71665
637.599	3777.68358
637.799	3558.92553
637.999	3592.59394
638.199	3398.93665
638.399	3849.1553
638.599	3483.15436
638.799	3748.24746
638.999	3617.84211
639.199	3931.10926
639.399	3662.01988
639.599	3723.01347
639.799	3828.13657
639.999	3826.03459
640.199	3525.25239
640.399	4031.93343
640.599	3457.89206
640.799	3954.21894
640.998	3704.08615
641.198	3981.52722
641.398	3830.23853
641.598	3905.8959
641.798	3811.32017
641.997	3880.67966
642.197	3706.18927
642.397	4006.7318
642.597	3693.5703
642.796	3868.07045
642.996	3685.15728
643.196	3901.6934
643.395	3714.60152
643.595	3971.02445
643.795	3695.67351
643.994	4227.1445
644.194	3765.06857
644.394	3979.42671
644.593	3912.19951
644.793	4046.63302
644.992	3752.45286
645.192	3903.79466
645.392	4189.3759
645.591	4153.69926
645.791	3672.53717
645.99	3941.61396
646.19	3863.86722
646.389	4174.68625
646.589	3794.5025
646.788	4055.03232
646.987	3886.98399
647.187	4004.63154
647.386	3886.98399
647.586	4164.19302
647.785	3937.41214
647.984	4113.81818
648.184	4132.71016
648.383	3962.62186
648.582	4063.4313
648.782	4233.43859
648.981	3907.99713
649.18	4164.19302
649.38	4023.53322
649.579	4132.71016
649.778	4105.4212
649.977	4183.08046
650.177	4092.8251
650.376	4180.98194
650.575	4073.92955
650.774	4285.88193
650.973	4180.98194
651.173	4283.78445
651.372	3992.02949
651.571	4323.63283
651.77	4046.63302
651.969	4285.88193
652.168	4086.52677
652.367	4487.13883
652.566	4090.72568
652.765	4300.56367
652.964	4222.94832
653.163	4541.61116
653.362	4365.57008
653.561	4390.72826
653.76	4189.3759
653.959	4080.22826
654.158	4126.41302
654.357	4229.24255
654.556	4048.73287
654.755	4436.84344
654.954	4399.11363
655.153	4302.66097
655.352	4250.22191
655.551	4336.21492
655.749	4459.89706
655.948	4482.94803
656.147	4250.22191
656.346	4552.08489
656.545	4304.75825
656.743	4443.13106
656.942	4319.43863
657.141	4424.26763
657.34	4464.08835
657.538	4432.65159
657.737	4401.20991
657.936	4637.94852
658.135	4296.36899
658.333	4315.24435
658.532	4262.80851
658.731	4359.28004
658.929	4332.02097
659.128	4447.32269
659.326	4241.83042
659.525	4570.93622
659.724	4401.20991
659.922	4526.947
660.121	4401.20991
660.319	4529.04195
660.518	4348.79622
660.716	4520.66203
660.915	4386.53545
661.113	4501.80592
661.312	4264.9062
661.51	4585.59711
661.709	4524.85203
661.907	4623.29153
662.105	4487.13883
662.304	4686.09945
662.502	4178.8834
662.701	4742.60926
662.899	4617.00963
663.097	4656.7916
663.296	4386.53545
663.494	4709.12395
663.692	4650.51077
663.891	4748.88711
664.089	4577.21959
664.287	4508.09149
664.485	4340.40877
664.684	4815.83816
664.882	4491.32954
665.08	4625.38545
665.278	4686.09945
665.476	4897.40322
665.675	4600.25691
665.873	4558.36887
666.071	4543.70595
666.269	4773.99648
666.467	4503.90114
666.665	4817.93
666.863	4508.09149
667.061	4617.00963
667.259	4564.65264
667.457	4608.63345
667.655	4545.80072
667.853	4491.32954
668.051	4566.74719
668.249	4721.68162
668.447	4612.82158
668.645	4633.76092
668.843	4593.97427
669.041	4776.08878
669.239	4554.17957
669.437	4786.54994
669.635	4627.47935
669.833	4736.3312
670.031	4721.68162
670.229	4834.66395
670.426	4707.03093
670.624	4859.76212
670.822	4591.88001
671.02	4750.97968
671.218	4575.12515
671.415	4746.79452
671.613	4734.23847
671.811	4889.03917
672.009	4619.10362
672.206	4644.22975
672.404	4556.27423
672.602	4587.69143
672.799	4472.47065
672.997	4767.71944
673.195	4518.567
673.392	4857.67074
673.59	4445.22689
673.788	4570.93622
673.985	4432.65159
674.183	4826.29716
674.38	4600.25691
674.578	4740.5166
674.775	4476.66167
674.973	4696.56547
675.17	4717.49582
675.368	4692.37913
675.565	4684.00618
675.763	4836.75559
675.96	4485.04344
676.158	4753.07223
676.355	4642.13603
676.553	4964.30239
676.75	4581.40839
676.947	4813.74629
677.145	4684.00618
677.342	4667.25919
677.539	4675.63287
677.737	4717.49582
677.934	4493.42486
678.131	4843.03037
678.329	4692.37913
678.526	4709.12395
678.723	4880.67476
678.92	4552.08489
679.118	4583.50276
679.315	4625.38545
679.512	4673.53948
679.709	4776.08878
679.906	4675.63287
680.104	4849.30495
680.301	4491.32954
680.498	4750.97968
680.695	4700.75172
680.892	4859.76212
681.089	4558.36887
681.286	4730.05295
681.483	4409.59484
681.68	4909.9486
681.877	4769.81181
682.075	4830.4806
682.272	4723.77448
682.469	4928.76513
682.665	4684.00618
682.862	4692.37913
683.059	4560.46348
683.256	4801.1946
683.453	4432.65159
683.65	4771.90415
683.847	4533.23178
684.044	4700.75172
684.241	4629.57323
684.438	4776.08878
684.635	4514.37686
684.831	4817.93
685.028	4608.63345
685.225	4893.22124
685.422	4579.314
685.619	4878.5836
685.815	4629.57323
686.012	4663.07222
686.209	4466.18395
686.405	4769.81181
686.602	4482.94803
686.799	4510.18664
686.996	4617.00963
687.192	4637.94852
687.389	4629.57323
687.586	4742.60926
687.782	4786.54994
687.979	4652.60441
688.175	4617.00963
688.372	4801.1946
688.568	4732.14572
688.765	4753.07223
688.962	4700.75172
689.158	4738.42391
689.355	4725.86733
689.551	4836.75559
689.748	4617.00963
689.944	4868.12745
690.14	4679.81957
690.337	4945.48937
690.533	4646.32344
690.73	4633.76092
690.926	4608.63345
691.123	4677.72623
691.319	4570.93622
691.515	4886.9481
691.712	4591.88001
691.908	4715.40289
692.104	4570.93622
692.301	4692.37913
692.497	4686.09945
692.693	4568.84171
692.889	4461.99272
693.086	4859.76212
693.282	4679.81957
693.478	4734.23847
693.674	4667.25919
693.87	4832.57228
694.067	4767.71944
694.263	4951.76059
694.459	4474.56617
694.655	4688.1927
694.851	4759.34974
695.047	4776.08878
695.243	4692.37913
695.439	4767.71944
695.635	4654.69801
695.831	4817.93
696.027	4501.80592
696.224	4545.80072
696.42	4541.61116
696.615	4755.16476
696.811	4575.12515
697.007	4652.60441
697.203	4640.04228
697.399	4669.35265
697.595	4694.47231
697.791	4834.66395
697.987	4596.06851
698.183	4784.45775
698.379	4516.47194
698.575	4778.18105
698.77	4725.86733
698.966	4696.56547
699.162	4560.46348
699.358	4801.1946
699.554	4510.18664
699.749	4734.23847
699.945	4679.81957
700.141	4725.86733
700.337	4669.35265
700.532	4838.8472
700.728	4608.63345
700.924	4579.314
701.119	4591.88001
701.315	4617.00963
701.511	4461.99272
701.706	4717.49582
701.902	4485.04344
702.097	4675.63287
702.293	4575.12515
702.489	4851.39643
702.684	4625.38545
702.88	4602.35108
703.075	4476.66167
703.271	4625.38545
703.466	4596.06851
703.662	4711.21695
703.857	4497.61543
704.053	4811.6544
704.248	4573.0307
704.443	4838.8472
704.639	4631.66709
704.834	4663.07222
705.03	4625.38545
705.225	4537.42151
705.42	4441.03521
705.616	4826.29716
705.811	4508.09149
706.006	4794.91845
706.202	4539.51635
706.397	4614.91562
706.592	4373.95649
706.787	4707.03093
706.983	4499.71069
707.178	4742.60926
707.373	4545.80072
707.568	4928.76513
707.763	4552.08489
707.959	4884.85701
708.154	4637.94852
708.349	4746.79452
708.544	4520.66203
708.739	4700.75172
708.934	4596.06851
709.129	4763.53464
709.324	4533.23178
709.519	4648.41712
709.714	4445.22689
709.909	4755.16476
710.104	4675.63287
710.299	4797.01053
710.494	4560.46348
710.689	4757.25726
710.884	4535.32666
711.079	4702.84481
711.274	4577.21959
711.469	4688.1927
711.664	4537.42151
711.859	4761.4422
712.054	4367.66671
712.249	4436.84344
712.443	4566.74719
712.638	4652.60441
712.833	4612.82158
713.028	4658.88516
713.223	4593.97427
713.417	4522.75704
713.612	4516.47194
713.807	4673.53948
714.002	4384.43901
714.196	4635.85473
714.391	4367.66671
714.586	4623.29153
714.78	4535.32666
714.975	4545.80072
715.17	4579.314
715.364	4558.36887
715.559	4637.94852
715.754	4508.09149
715.948	4474.56617
716.143	4407.49864
716.337	4480.8526
716.532	4746.79452
716.726	4593.97427
716.921	4771.90415
717.115	4390.72826
717.31	4596.06851
717.504	4591.88001
717.699	4644.22975
717.893	4505.99632
718.088	4541.61116
718.282	4451.51424
718.476	4606.53935
718.671	4262.80851
718.865	4646.32344
719.059	4298.46634
719.254	4382.34255
719.448	4260.7108
719.642	4648.41712
719.837	4382.34255
720.031	4579.314
720.225	4420.07551
720.419	4585.59711
720.614	4457.80139
720.808	4625.38545
721.002	4300.56367
721.196	4424.26763
721.39	4499.71069
721.585	4560.46348
721.779	4591.88001
721.973	4432.65159
722.167	4281.68696
722.361	4549.99019
722.555	4348.79622
722.749	4457.80139
722.943	4508.09149
723.137	4474.56617
723.331	4451.51424
723.525	4577.21959
723.719	4503.90114
723.913	4727.96015
724.107	4390.72826
724.301	4631.66709
724.495	4260.7108
724.689	4535.32666
724.883	4256.51531
725.077	4585.59711
725.271	4441.03521
725.465	4679.81957
725.659	4296.36899
725.853	4449.41848
726.046	4269.10152
726.24	4445.22689
726.434	4139.00711
726.628	4432.65159
726.822	4248.12407
727.015	4562.55807
727.209	4329.92397
727.403	4449.41848
727.596	4256.51531
727.79	4357.18332
727.984	4499.71069
728.177	4547.89547
728.371	4248.12407
728.565	4365.57008
728.758	4229.24255
728.952	4579.314
729.146	4283.78445
729.339	4568.84171
729.533	4432.65159
729.726	4350.89303
729.92	4321.53574
730.113	4642.13603
730.307	4522.75704
730.5	4394.92099
730.694	4334.11796
730.887	4451.51424
731.081	4417.97942
731.274	4489.23419
731.468	4206.16279
731.661	4482.94803
731.854	4128.51209
732.048	4533.23178
732.241	4220.85021
732.435	4466.18395
732.628	4294.27162
732.821	4558.36887
733.014	4306.85552
733.208	4518.567
733.401	4445.22689
733.594	4424.26763
733.788	4566.74719
733.981	4413.78717
734.174	4593.97427
734.367	4652.60441
734.56	4646.32344
734.754	4489.23419
734.947	4426.36365
735.14	4319.43863
735.333	4587.69143
735.526	4378.14956
735.719	4386.53545
735.912	4514.37686
736.105	4445.22689
736.298	4485.04344
736.491	4390.72826
736.684	4373.95649
736.877	4365.57008
737.07	4269.10152
737.263	4264.9062
737.456	4256.51531
737.649	4281.68696
737.842	4197.76951
738.035	4549.99019
738.228	4411.69102
738.421	4262.80851
738.614	4373.95649
738.807	4558.36887
739	4516.47194
739.192	4369.76333
739.385	4420.07551
739.578	4231.34058
739.771	4302.66097
739.964	4159.99558
740.156	4336.21492
740.349	4239.7325
740.542	4436.84344
740.735	4216.65391
740.927	4558.36887
741.12	4201.96619
741.313	4384.43901
741.505	4386.53545
741.698	4298.46634
741.891	4267.00387
742.083	4271.19914
742.276	4147.40275
742.468	4306.85552
742.661	4359.28004
742.854	4390.72826
743.046	4225.04642
743.239	4275.39433
743.431	4424.26763
743.624	4235.53658
743.816	4168.39038
744.009	4399.11363
744.201	4273.29675
744.393	4315.24435
744.586	4441.03521
744.778	4445.22689
744.971	4214.55573
745.163	4344.60254
745.355	4367.66671
745.548	4283.78445
745.74	4134.80916
745.932	4384.43901
746.125	4443.13106
746.317	4495.52016
746.509	4302.66097
746.702	4485.04344
746.894	4225.04642
747.086	4420.07551
747.278	4403.30618
747.471	4122.21482
747.663	4208.26106
747.855	4050.83271
748.047	4357.18332
748.239	4189.3759
748.431	4180.98194
748.623	4231.34058
748.815	3973.12504
749.008	4120.11569
749.2	4243.92833
749.392	4159.99558
749.584	4197.76951
749.776	4260.7108
749.968	4237.63455
750.16	4401.20991
750.352	4128.51209
750.544	4153.69926
750.736	4166.29171
750.928	4432.65159
751.12	4306.85552
751.311	4206.16279
751.503	4317.3415
751.695	4434.74753
751.887	4319.43863
752.079	4378.14956
752.271	4036.13342
752.463	4256.51531
752.654	4189.3759
752.846	4233.43859
753.038	4113.81818
753.23	4281.68696
753.421	4176.78484
753.613	4139.00711
753.805	4290.07682
753.997	4210.3593
754.188	4130.61113
754.38	4080.22826
754.572	3899.59211
754.763	4273.29675
754.955	4050.83271
755.146	4139.00711
755.338	4157.89683
755.53	4130.61113
755.721	4258.61306
755.913	4281.68696
756.104	4386.53545
756.296	4344.60254
756.487	4103.3219
756.679	4115.91737
756.87	4063.4313
757.062	4115.91737
757.253	4073.92955
757.445	3971.02445
757.636	3865.96885
757.827	4189.3759
758.019	4157.89683
758.21	4084.42729
758.401	4073.92955
758.593	4071.82994
758.784	4042.43324
758.975	4017.23284
759.167	3828.13657
759.358	4141.10605
759.549	3811.32017
759.74	4088.62624
759.932	3781.88843
760.123	4029.83341
760.314	3796.60478
760.505	4021.43312
760.696	3777.68358
760.888	3992.02949
761.079	3950.01737
761.27	4017.23284
761.461	3859.66391
761.652	3985.72819
761.843	3924.80619
762.034	3979.42671
762.225	3756.65817
762.416	3981.52722
762.607	3886.98399
762.798	3979.42671
762.989	3836.5443
763.18	3849.1553
763.371	3668.33031
763.562	3920.60405
763.753	3756.65817
763.944	3830.23853
764.135	3701.98302
764.326	3905.8959
764.517	3689.36383
764.708	3872.2736
764.899	3746.14474
765.089	3666.22685
765.28	3723.01347
765.471	3706.18927
765.662	3695.67351
765.853	3933.21024
766.043	3401.04244
766.234	3619.946
766.425	3527.3571
766.615	3706.18927
766.806	3760.86341
766.997	3805.01369
767.187	3609.42635
767.378	3718.80754
767.569	3516.83337
767.759	3823.93259
767.95	3777.68358
768.141	3622.04988
768.331	3739.83644
768.522	3699.87987
768.712	3478.94416
768.903	3554.71665
769.093	3377.87779
769.284	3653.60571
769.474	3502.09937
769.665	3708.29236
769.855	3739.83644
770.046	3687.26056
770.236	3384.19563
770.426	3592.59394
770.617	3577.8646
770.807	3649.39851
770.998	3659.91637
771.188	3588.38565
771.378	3447.36533
771.569	3575.76033
771.759	3514.72856
771.949	3712.49849
772.139	3603.11434
772.33	3487.36449
772.52	3594.69806
772.71	3586.28148
772.9	3403.14822
773.09	3483.15436
773.281	3582.07308
773.471	3544.19411
773.661	3466.31311
773.851	3516.83337
774.041	3363.13553
774.231	3428.4161
774.421	3571.55174
774.611	3499.99444
774.802	3339.96741
774.992	3605.21836
775.182	3333.64847
775.372	3657.81284
775.562	3499.99444
775.752	3331.54212
775.942	3240.95293
776.131	3356.81716
776.321	3291.51822
776.511	3310.47768
776.701	3339.96741
776.891	3289.41153
777.081	3339.96741
777.271	3438.94363
777.461	3272.55738
777.651	3255.70214
777.84	3188.27051
778.03	3529.46179
778.22	3181.94793
778.41	3521.04291
778.599	3184.05548
778.789	3361.02943
778.979	3247.27412
779.169	3129.25404
779.358	3040.70586
779.548	3278.87781
779.738	3150.33281
779.927	3162.9793
780.117	3171.40997
780.307	3230.41728
780.496	2973.22223
780.686	3339.96741
780.875	3350.49864
781.065	3407.35971
781.254	3129.25404
781.444	3205.13001
781.633	3082.87512
781.823	3335.7548
782.012	3070.225
782.202	3268.34367
782.391	2935.25592
782.581	2987.9856
782.77	2960.56733
782.96	3072.33339
783.149	2977.44041
783.338	3137.68574
783.528	2973.22223
783.717	3091.30822
783.906	2909.94239
784.096	3156.65613
784.285	2922.59942
784.474	3040.70586
784.663	2844.53948
784.853	2956.34891
785.042	2994.31254
785.231	2947.91189
785.42	2821.32872
785.61	3072.33339
785.799	2802.33685
785.988	2943.69329
786.177	2802.33685
786.366	3023.83642
786.555	2833.98934
786.744	2998.53042
786.933	2764.34978
787.122	2884.62676
787.312	2829.76919
787.501	2922.59942
787.69	2817.1084
787.879	2724.24759
788.068	2979.54948
788.257	2886.73648
788.445	2804.44711
788.634	2996.42148
788.823	2734.80127
789.012	3103.9574
789.201	2734.80127
789.39	2960.56733
789.579	2741.13331
789.768	2819.21857
789.957	2903.61368
790.145	2715.80442
790.334	2745.35461
790.523	2852.97933
790.712	2928.92773
790.9	2966.89485
791.089	2627.13867
791.278	2724.24759
791.467	2766.46029
791.655	2842.42948
791.844	2741.13331
792.033	2926.81831
792.221	2453.9677
792.41	2686.25167
792.599	2627.13867
792.787	2696.80651
792.976	2563.79256
793.164	2804.44711
793.353	2616.58174
793.541	2926.81831
793.73	2817.1084
793.918	2745.35461
794.107	2530.00359
794.295	2833.98934
794.484	2610.24744
794.672	2777.01263
794.861	2597.57851
795.049	2739.02264
795.238	2540.56297
795.426	2777.01263
795.614	2576.46265
795.803	2658.80758
795.991	2365.2414
796.179	2572.23934
796.368	2424.39433
796.556	2709.4719
796.744	2449.74306
796.932	2593.35543
797.121	2456.08
797.309	2658.80758
797.497	2394.81888
797.685	2559.56911
797.874	2631.36135
798.062	2650.36281
798.25	2468.75359
798.438	2540.56297
798.626	2504.65991
798.814	2441.29366
799.002	2538.45111
799.19	2549.01026
799.378	2335.66194
799.566	2546.89845
799.755	2555.3456
799.943	2489.87535
800.131	2517.33196
800.318	2390.59365
800.506	2337.77482
800.694	2648.25159
800.882	2284.94985
801.07	2673.58543
801.258	2633.47267
801.446	2481.42678
801.634	2356.79032
801.822	2420.16939
802.01	2458.1923
802.197	2724.24759
802.385	2314.53257
802.573	2506.77195
802.761	2572.23934
802.949	2472.97803
803.136	2289.17607
803.324	2513.10799
803.512	2420.16939
803.699	2584.90914
803.887	2244.79895
804.075	2513.10799
804.262	2449.74306
804.45	2540.56297
804.638	2589.13231
804.825	2530.00359
805.013	2310.30659
805.201	2540.56297
805.388	2496.21166
805.576	2447.63073
805.763	2551.12205
805.951	2584.90914
806.138	2496.21166
806.326	2576.46265
806.513	2280.7236
806.701	2437.06889
806.888	2504.65991
807.075	2479.31461
807.263	2310.30659
807.45	2491.98746
807.638	2217.32542
807.825	2477.20243
808.012	2483.53894
808.2	2601.80153
808.387	2441.29366
808.574	2504.65991
808.761	2515.21998
808.949	2462.41685
809.136	2453.9677
809.323	2546.89845
809.51	2365.2414
809.698	2437.06889
809.885	2530.00359
810.072	2599.69003
810.259	2479.31461
810.446	2517.33196
810.633	2532.11549
810.82	2726.35835
811.008	2513.10799
811.195	2749.57585
811.382	2572.23934
811.569	2530.00359
811.756	2276.49731
811.943	2532.11549
812.13	2462.41685
812.317	2601.80153
812.504	2462.41685
812.691	2878.29753
812.878	2496.21166
813.064	2758.01818
813.251	2572.23934
813.438	2698.91745
813.625	2390.59365
813.812	2496.21166
813.999	2382.14306
814.186	2530.00359
814.372	2411.71939
814.559	2538.45111
814.746	2504.65991
814.933	2686.25167
815.12	2584.90914
815.306	2631.36135
815.493	2390.59365
815.68	2532.11549
815.866	2369.46688
816.053	2582.79754
816.24	2456.08
816.426	2498.32374
816.613	2606.02451
816.799	2690.47365
816.986	2627.13867
817.173	2741.13331
817.359	2483.53894
817.546	2667.25214
817.732	2631.36135
817.919	2698.91745
818.105	2411.71939
818.292	2606.02451
818.478	2399.04407
818.665	2557.45736
818.851	2464.52911
819.037	2542.67481
819.224	2405.38178
819.41	2346.22626
819.597	2293.40225
819.783	2606.02451
819.969	2574.351
820.156	2656.6964
820.342	2517.33196
820.528	2677.80756
820.714	2639.80657
820.901	2665.14102
821.087	2418.05691
821.273	2656.6964
821.459	2513.10799
821.646	2639.80657
821.832	2284.94985
822.018	2618.69315
822.204	2451.85539
822.39	2606.02451
822.576	2371.5796
822.762	2538.45111
822.948	2519.44393
823.134	2390.59365
823.32	2242.68566
823.507	2475.09023
823.693	2255.3653
823.879	2377.91771
824.065	2418.05691
824.25	2525.77976
824.436	2322.98444
824.622	2498.32374
824.808	2396.93148
824.994	2559.56911
825.18	2255.3653
825.366	2692.58462
825.552	2280.7236
825.738	2369.46688
825.923	2344.11341
826.109	2297.62839
826.295	2137.00991
826.481	2458.1923
826.667	2382.14306
826.852	2314.53257
827.038	2204.64483
827.224	2301.85449
827.409	2033.42853
827.595	2236.34572
827.781	2170.82842
827.966	2377.91771
828.152	2331.43614
828.338	2424.39433
828.523	2259.59177
828.709	2437.06889
828.894	2244.79895
829.08	2335.66194
829.266	2168.71482
829.451	2270.1578
829.637	2198.30441
829.822	2208.87172
830.008	2048.22693
830.193	2339.8877
830.378	1999.60236
830.564	2407.49433
830.749	2242.68566
830.935	2075.70877
831.12	2065.13897
831.305	2342.00056
831.491	1993.25977
831.676	2270.1578
831.861	2020.74392
832.047	2001.71655
832.232	1832.56322
832.417	2043.99885
832.602	1938.28829
832.788	2164.48761
832.973	1857.93841
833.158	2077.8227
833.343	1972.11738
833.528	2238.45904
833.714	1841.02169
833.899	2058.79701
834.084	1923.48759
834.269	2141.23733
834.454	1923.48759
834.639	2107.41705
834.824	1883.31288
835.009	2029.20035
835.194	1929.83078
835.379	2158.14672
835.564	1942.51701
835.749	2158.14672
835.934	1895.99984
836.119	2137.00991
836.304	1955.20303
836.489	2132.78245
836.674	1991.14556
836.859	2191.96393
837.044	1864.28209
837.228	2077.8227
837.413	1830.44859
837.598	2117.9861
837.783	1853.70926
837.968	2120.09989
838.152	1989.03134
838.337	2022.85804
838.522	1984.80289
838.707	2014.40152
838.891	1773.35194
839.076	1807.18737
839.261	1676.06981
839.445	1898.11431
839.63	1779.69617
839.815	1950.97438
839.999	1709.90787
840.184	1841.02169
840.368	1764.89292
840.553	2098.96167
840.737	1790.26979
840.922	1811.41673
841.106	1868.51119
841.291	1970.00311
841.475	1819.87538
841.66	1921.37318
841.844	1631.65628
842.029	1855.82383
842.213	1728.94142
842.397	1798.72862
842.582	1752.20428
842.766	2094.73394
842.951	1692.98893
843.135	1750.08949
843.319	1652.80572
843.504	1811.41673
843.688	1720.4821
843.872	1853.70926
844.056	1802.958
844.241	1735.28588
844.425	1671.84
844.609	1709.90787
844.793	1642.23103
844.977	1728.94142
845.161	1574.55174
845.346	1739.5155
845.53	1542.82647
845.714	1836.79247
845.898	1477.2602
846.082	1756.43384
846.266	1599.9317
846.45	1638.00113
846.634	1618.9665
846.818	1583.01175
847.002	1500.52573
847.186	1534.36635
847.37	1481.4903
847.554	1578.78175
847.738	1439.18926
847.922	1616.85154
848.106	1542.82647
848.29	1578.78175
848.473	1604.16167
848.657	1616.85154
848.841	1576.66675
849.025	1578.78175
849.209	1576.66675
849.392	1718.36726
849.576	1348.24256
849.76	1517.44607
849.944	1375.73791
850.127	1572.43673
850.311	1384.19805
850.495	1447.64947
850.678	1341.89751
850.862	1599.9317
851.046	1409.57856
851.229	1602.04669
851.413	1297.48258
851.596	1549.17155
851.78	1320.74745
851.964	1540.71144
852.147	1293.25263
852.331	1475.14515
852.514	1274.21796
852.698	1312.28747
852.881	1176.93315
853.065	1308.05749
853.248	1219.23009
853.431	1322.86244
853.615	1365.16275
853.798	1350.35758
853.982	1219.23009
854.165	1396.8883
854.348	1255.18349
854.532	1466.68494
854.715	1242.49396
854.898	1396.8883
855.081	1289.02269
855.265	1360.9327
855.448	1223.45986
855.631	1341.89751
855.814	1115.60533
855.997	1363.04772
856.181	1140.98193
856.364	1327.09245
856.547	1187.50725
856.73	1289.02269
856.913	1100.80262
857.096	1257.29842
857.279	1162.12957
857.462	1210.77059
857.645	1219.23009
857.828	1303.82752
858.011	1185.39243
858.194	1212.88546
858.377	1236.14923
858.56	1215.00033
858.743	1149.44094
858.926	1269.98806
859.109	1052.16689
859.292	1193.85176
859.475	1206.54086
859.658	1022.56395
859.841	1083.88554
860.023	1056.39597
860.206	1001.41971
860.389	1286.90772
860.572	942.21932
860.755	1050.05236
860.937	1083.88554
861.12	1134.63772
861.303	988.73347
861.486	1083.88554
861.668	1007.76292
861.851	1007.76292
862.034	1071.19793
862.216	1058.51052
862.399	851.31577
862.581	1130.40827
862.764	914.73532
862.947	1083.88554
863.129	1045.82331
863.312	1143.09668
863.494	1033.1363
863.677	1081.77092
863.859	851.31577
864.042	992.96219
864.224	1001.41971
864.406	980.27611
864.589	817.49515
864.771	948.56196
864.954	825.95009
865.136	895.70869
865.318	819.60887
865.501	817.49515
865.683	889.36662
865.865	923.1918
866.048	880.91064
866.23	906.27896
866.412	859.77128
866.594	1058.51052
866.777	849.20191
866.959	781.56332
867.141	779.44977
867.323	847.08807
867.505	798.47207
867.687	885.13862
867.869	857.65739
868.052	813.26773
868.234	874.56875
868.416	986.61912
868.598	830.17761
868.78	902.05083
868.962	857.65739
869.144	933.76257
869.326	866.113
869.508	1016.22061
869.69	815.38144
869.872	1096.57332
870.054	838.63277
870.236	828.06384
870.417	863.99908
870.599	868.22692
870.781	906.27896
870.963	897.82273
871.145	840.74658
871.327	885.13862
871.508	796.35845
871.69	872.4548
871.872	770.99567
872.054	889.36662
872.235	718.16124
872.417	796.35845
872.599	739.29423
872.78	798.47207
872.962	711.82155
873.144	787.90403
873.325	716.048
873.507	887.25261
873.689	770.99567
873.87	863.99908
874.052	739.29423
874.233	857.65739
874.415	792.13122
874.596	965.47598
874.778	665.33358
874.959	809.04035
875.141	673.78553
875.322	908.39304
875.503	811.15404
875.685	965.47598
875.866	728.7276
876.048	847.08807
876.229	680.12461
876.41	781.56332
876.592	711.82155
876.773	699.14248
876.954	694.9162
877.136	754.08795
877.317	711.82155
877.498	796.35845
877.679	703.36879
877.86	758.31482
878.042	821.7226
878.223	863.99908
878.404	821.7226
878.585	914.73532
878.766	768.88217
878.947	874.56875
879.128	762.54173
879.309	800.58571
879.49	730.84091
879.672	842.8604
879.853	775.2227
880.034	897.82273
880.215	633.64047
880.396	897.82273
880.576	705.48196
880.757	787.90403
880.938	758.31482
881.119	838.63277
881.3	739.29423
881.481	775.2227
881.662	716.048
881.843	754.08795
882.023	694.9162
882.204	872.4548
882.385	720.27449
882.566	749.86112
882.747	711.82155
882.927	809.04035
883.108	697.02933
883.289	980.27611
883.469	775.2227
883.65	925.30594
883.831	959.13317
884.011	840.74658
884.192	821.7226
884.373	840.74658
884.553	739.29423
884.734	842.8604
884.914	821.7226
885.095	773.10918
885.275	764.6552
885.456	976.04747
885.636	785.79045
885.817	840.74658
885.997	764.6552
886.178	902.05083
886.358	783.67688
886.538	821.7226
886.719	838.63277
886.899	902.05083
887.08	737.18088
887.26	855.54351
887.44	711.82155
887.621	868.22692
887.801	855.54351
887.981	853.42963
888.161	878.79667
888.342	929.53424
888.522	806.92668
888.702	927.42009
888.882	957.01892
889.062	957.01892
889.242	809.04035
889.423	929.53424
889.603	737.18088
889.783	887.25261
889.963	840.74658
890.143	904.16489
890.323	817.49515
890.503	916.84943
890.683	792.13122
890.863	948.56196
891.043	935.87675
891.223	857.65739
891.403	804.81301
891.583	910.50712
891.763	830.17761
891.943	720.27449
892.122	783.67688
892.302	990.84783
892.482	825.95009
892.662	770.99567
892.842	737.18088
893.022	730.84091
893.201	730.84091
893.381	798.47207
893.561	694.9162
893.741	745.63433
893.92	722.38775
894.1	821.7226
894.28	690.68998
894.459	842.8604
894.639	644.20454
894.819	792.13122
894.998	785.79045
895.178	796.35845
895.357	699.14248
895.537	722.38775
895.716	739.29423
895.896	703.36879
896.075	745.63433
896.255	815.38144
896.434	593.49984
896.614	726.61431
896.793	606.17534
896.973	770.99567
897.152	654.76892
897.331	728.7276
897.511	694.9162
897.69	669.55954
897.87	665.33358
898.049	648.43026
898.228	678.01157
898.407	800.58571
898.587	597.72496
898.766	694.9162
898.945	528.01738
899.124	798.47207
899.304	633.64047
899.483	711.82155
899.662	682.23766
899.841	639.97888
900.02	661.10768
900.199	686.4638
900.378	492.11332
900.557	678.01157
900.737	580.82481
900.916	616.7386
901.095	688.57688
901.274	610.4006
901.453	483.66592
901.632	593.49984
901.811	566.03788
901.989	601.95012
902.168	470.99526
902.347	525.90526
902.526	509.00883
902.705	576.59991
902.884	574.48747
903.063	610.4006
903.242	462.54846
903.42	559.70082
903.599	568.15026
903.778	426.6523
903.957	477.33052
904.135	601.95012
904.314	460.4368
904.493	441.43252
904.672	407.65029
904.85	443.54405
905.029	462.54846
905.207	470.99526
905.386	399.20538
905.565	401.31658
905.743	464.66014
905.922	411.87285
906.1	475.21875
906.279	397.09419
906.457	399.20538
906.636	475.21875
906.814	278.89506
906.993	485.77775
907.171	323.21326
907.35	386.5385
907.528	316.8816
907.707	416.09547
907.885	281.00526
908.063	346.43071
908.242	259.90403
908.42	327.43445
908.598	325.32385
908.777	293.6669
908.955	348.54149
909.133	449.87871
909.311	310.5501
909.49	373.87222
909.668	352.76311
909.846	375.98323
910.024	432.98659
910.202	272.56455
910.38	270.45441
910.559	382.31634
910.737	251.46407
910.915	295.77723
911.093	443.54405
911.271	350.65229
911.449	295.77723
911.627	331.65572
911.805	295.77723
911.983	327.43445
912.161	340.09847
912.339	392.87187
912.517	382.31634
912.695	403.4278
912.872	289.44628
913.05	340.09847
913.228	348.54149
913.406	386.5385
913.584	373.87222
913.762	426.6523
913.939	350.65229
914.117	424.5409
914.295	335.87706
914.473	308.43963
914.65	337.98775
914.828	390.76073
915.006	356.9848
915.184	302.10835
915.361	323.21326
915.539	384.42741
915.716	297.88759
915.894	424.5409
916.072	378.09425
916.249	281.00526
916.427	350.65229
916.604	348.54149
916.782	352.76311
916.959	350.65229
917.137	325.32385
917.314	270.45441
917.492	257.79401
917.669	302.10835
917.847	272.56455
918.024	247.24421
918.201	331.65572
918.379	340.09847
918.556	221.92663
918.733	297.88759
918.911	272.56455
919.088	243.02442
919.265	283.11549
919.442	213.48807
919.62	179.73703
919.797	316.8816
919.974	306.32919
920.151	205.04983
920.328	226.14603
920.506	264.12413
920.683	264.12413
920.86	314.77108
921.037	238.8047
921.214	361.20655
921.391	289.44628
921.568	297.88759
921.745	293.6669
921.922	198.72135
922.099	268.3443
922.276	255.68401
922.453	259.90403
922.63	272.56455
922.807	173.40929
922.984	196.6119
923.161	78.51611
923.338	255.68401
923.514	251.46407
923.691	259.90403
923.868	268.3443
924.045	281.00526
924.222	230.36551
924.399	264.12413
924.575	221.92663
924.752	236.69488
924.929	230.36551
925.105	226.14603
925.282	207.15936
925.459	192.39306
925.635	205.04983
925.812	251.46407
925.989	179.73703
926.165	253.57403
926.342	188.1743
926.518	247.24421
926.695	177.62776
926.871	169.1909
927.048	198.72135
927.224	196.6119
927.401	202.94032
927.577	124.90287
927.754	171.30008
927.93	249.35413
928.107	219.81696
928.283	179.73703
928.459	167.08173
928.636	207.15936
928.812	154.42718
928.988	160.75436
929.165	209.26891
929.341	164.97259
929.517	196.6119
929.693	188.1743
929.87	86.94927
930.046	120.68545
930.222	57.4348
930.398	167.08173
930.574	171.30008
930.751	120.68545
930.927	103.81665
931.103	162.86346
931.279	127.01161
931.455	156.53622
931.631	127.01161
931.807	120.68545
931.983	179.73703
932.159	131.22915
932.335	137.55563
932.511	122.79415
932.687	53.21881
932.863	101.70815
933.039	86.94927
933.215	217.70731
933.391	112.25088
933.566	120.68545
933.742	86.94927
933.918	135.44678
934.094	143.8823
934.27	38.46358
934.445	181.84631
934.621	112.25088
934.797	158.64528
934.973	122.79415
935.148	148.10019
935.324	133.33796
935.5	95.38278
935.675	103.81665
935.851	213.48807
936.027	148.10019
936.202	36.35578
936.378	112.25088
936.553	80.62436
936.729	114.35949
936.904	44.78711
937.08	91.16598
937.255	44.78711
937.431	89.05761
937.606	27.92483
937.782	139.6645
937.957	65.86705
938.133	127.01161
938.308	105.92518
938.483	23.70949
938.659	6.8491
938.834	44.78711
939.009	89.05761
939.185	65.86705
939.36	21.60186
939.535	11.06405
939.71	61.65088
939.886	44.78711
940.061	78.51611
940.236	57.4348
940.411	-1.58052
940.586	72.19148
940.761	82.73264
940.937	17.38667
941.112	32.14026
941.287	6.8491
941.462	72.19148
941.637	46.895
941.812	89.05761
941.987	36.35578
942.162	61.65088
942.337	70.08331
942.512	53.21881
942.687	74.29967
942.862	40.5714
943.037	-37.40208
943.212	32.14026
943.386	-47.93647
943.561	116.46812
943.736	38.46358
943.911	30.03253
944.086	137.55563
944.26	70.08331
944.435	86.94927
944.61	11.06405
944.785	6.8491
944.959	-22.65289
945.134	53.21881
945.309	55.32679
945.483	19.49425
945.658	61.65088
945.833	-10.00976
946.007	91.16598
946.182	38.46358
946.357	55.32679
946.531	61.65088
946.706	19.49425
946.88	34.24801
947.055	2.63424
947.229	2.63424
947.404	49.00291
947.578	19.49425
947.752	30.03253
947.927	15.2791
948.101	44.78711
948.276	21.60186
948.45	-3.68787
948.624	53.21881
948.799	86.94927
948.973	40.5714
949.147	57.4348
949.321	11.06405
949.496	91.16598
949.67	61.65088
949.844	70.08331
950.018	53.21881
950.193	44.78711
950.367	11.06405
950.541	61.65088
950.715	38.46358
950.889	99.59967
951.063	70.08331
951.237	17.38667
951.411	55.32679
951.585	108.03372
951.759	36.35578
951.933	44.78711
952.107	-1.58052
952.281	36.35578
952.455	67.97517
952.629	38.46358
952.803	72.19148
952.977	63.75895
953.151	164.97259
953.325	4.74166
953.499	86.94927
953.672	38.46358
953.846	44.78711
954.02	120.68545
954.194	42.67924
954.368	196.6119
954.541	32.14026
954.715	72.19148
954.889	-14.22423
955.062	44.78711
955.236	112.25088
955.41	49.00291
955.583	86.94927
955.757	120.68545
955.93	-18.43861
956.104	6.8491
956.278	55.32679
956.451	19.49425
956.625	78.51611
956.798	103.81665
956.972	38.46358
957.145	6.8491
957.319	40.5714
957.492	86.94927
957.665	70.08331
957.839	61.65088
958.012	120.68545
958.185	32.14026
958.359	27.92483
958.532	-12.11701
958.705	-10.00976
958.879	55.32679
959.052	93.27437
959.225	61.65088
959.398	38.46358
959.572	44.78711
959.745	84.84094
959.918	78.51611
960.091	86.94927
960.264	32.14026
960.438	19.49425
960.611	2.63424
960.784	2.63424
960.957	61.65088
961.13	38.46358
961.303	13.17157
961.476	67.97517
961.649	36.35578
961.822	2.63424
961.995	38.46358
962.168	91.16598
962.341	78.51611
962.514	55.32679
962.686	-3.68787
962.859	67.97517
963.032	99.59967
963.205	21.60186
963.378	44.78711
963.551	27.92483
963.723	91.16598
963.896	112.25088
964.069	44.78711
964.242	72.19148
964.414	4.74166
964.587	70.08331
964.76	169.1909
964.932	4.74166
965.105	13.17157
965.278	112.25088
965.45	80.62436
965.623	27.92483
965.795	70.08331
965.968	80.62436
966.14	74.29967
966.313	40.5714
966.485	27.92483
966.658	-12.11701
966.83	-12.11701
967.003	44.78711
967.175	55.32679
967.348	15.2791
967.52	51.11085
967.692	38.46358
967.865	27.92483
968.037	-56.36353
968.209	57.4348
968.382	97.49122
968.554	23.70949
968.726	21.60186
968.898	36.35578
969.071	-31.08114
969.243	-28.97412
969.415	89.05761
969.587	40.5714
969.759	23.70949
969.932	95.38278
970.104	65.86705
970.276	-5.79519
970.448	49.00291
970.62	15.2791
970.792	78.51611
970.964	15.2791
971.136	59.54283
971.308	61.65088
971.48	-20.54576
971.652	74.29967
971.824	103.81665
971.996	70.08331
972.168	46.895
972.339	-20.54576
972.511	25.81715
972.683	46.895
972.855	105.92518
973.027	70.08331
973.199	11.06405
973.37	46.895
973.542	-24.75999
973.714	53.21881
973.886	-14.22423
974.057	4.74166
974.229	-18.43861
974.401	89.05761
974.572	95.38278
974.744	32.14026
974.915	6.8491
975.087	44.78711
975.259	51.11085
975.43	78.51611
975.602	27.92483
975.773	46.895
975.945	27.92483
976.116	11.06405
976.288	-31.08114
976.459	-5.79519
976.63	-75.32294
976.802	80.62436
976.973	11.06405
977.145	17.38667
977.316	61.65088
977.487	44.78711
977.659	120.68545
977.83	4.74166
978.001	8.95656
978.172	-5.79519
978.344	8.95656
978.515	-18.43861
978.686	38.46358
978.857	38.46358
979.028	-31.08114
979.2	15.2791
979.371	-7.90249
979.542	-22.65289
979.713	44.78711
979.884	70.08331
980.055	36.35578
980.226	21.60186
980.397	-5.79519
980.568	91.16598
980.739	42.67924
980.91	23.70949
981.081	15.2791
981.252	32.14026
981.423	70.08331
981.594	-3.68787
981.765	13.17157
981.936	27.92483
982.106	46.895
982.277	15.2791
982.448	72.19148
982.619	17.38667
982.79	40.5714
982.96	156.53622
983.131	-5.79519
983.302	46.895
983.472	78.51611
983.643	118.57677
983.814	63.75895
983.984	27.92483
984.155	-3.68787
984.326	44.78711
984.496	53.21881
984.667	32.14026
984.837	36.35578
985.008	38.46358
985.178	-41.61591
985.349	34.24801
985.519	27.92483
985.69	49.00291
985.86	42.67924
986.031	23.70949
986.201	-18.43861
986.371	80.62436
986.542	93.27437
986.712	17.38667
986.882	30.03253
987.053	-45.82964
987.223	51.11085
987.393	-1.58052
987.563	-1.58052
987.734	38.46358
987.904	108.03372
988.074	30.03253
988.244	4.74166
988.414	-14.22423
988.585	78.51611
988.755	11.06405
988.925	110.14229
989.095	2.63424
989.265	19.49425
989.435	27.92483
989.605	42.67924
989.775	13.17157
989.945	63.75895
990.115	-24.75999
990.285	76.40788
990.455	4.74166
990.625	-12.11701
990.795	103.81665
990.965	19.49425
991.134	30.03253
991.304	23.70949
991.474	34.24801
991.644	-20.54576
991.814	55.32679
991.984	11.06405
992.153	19.49425
992.323	70.08331
992.493	2.63424
992.662	59.54283
992.832	95.38278
993.002	78.51611
993.171	19.49425
993.341	-58.47023
993.511	80.62436
993.68	44.78711
993.85	8.95656
994.019	-24.75999
994.189	72.19148
994.358	84.84094
994.528	27.92483
994.697	61.65088
994.867	15.2791
995.036	-10.00976
995.206	36.35578
995.375	61.65088
995.544	19.49425
995.714	2.63424
995.883	19.49425
996.052	32.14026
996.222	36.35578
996.391	76.40788
996.56	11.06405
996.73	36.35578
996.899	-43.72279
997.068	-45.82964
997.237	11.06405
997.406	55.32679
997.576	0.52684
997.745	72.19148
997.914	42.67924
998.083	19.49425
998.252	-10.00976
998.421	-3.68787
998.59	15.2791
998.759	4.74166
998.928	70.08331
999.097	21.60186
999.266	61.65088
999.435	65.86705
999.604	34.24801
999.773	-16.33143
999.942	6.8491
1000.111	8.95656
1000.28	-12.11701
1000.448	-5.79519
1000.617	82.73264
1000.786	36.35578
1000.955	59.54283
1001.124	-14.22423
1001.292	19.49425
1001.461	-37.40208
1001.63	15.2791
1001.798	11.06405
1001.967	70.08331
1002.136	27.92483
1002.304	-5.79519
1002.473	27.92483
1002.642	19.49425
1002.81	-7.90249
1002.979	-1.58052
1003.147	-37.40208
1003.316	61.65088
1003.484	6.8491
1003.653	53.21881
1003.821	44.78711
1003.99	-20.54576
1004.158	27.92483
1004.327	32.14026
1004.495	30.03253
1004.663	27.92483
1004.832	-7.90249
1005	-28.97412
1005.168	51.11085
1005.337	44.78711
1005.505	32.14026
1005.673	103.81665
1005.842	-45.82964
1006.01	-28.97412
1006.178	17.38667
1006.346	40.5714
1006.514	72.19148
1006.683	-5.79519
1006.851	40.5714
1007.019	21.60186
1007.187	-3.68787
1007.355	53.21881
1007.523	11.06405
1007.691	49.00291
1007.859	2.63424
1008.027	23.70949
1008.195	74.29967
1008.363	-14.22423
1008.531	11.06405
1008.699	-69.00336
1008.867	-5.79519
1009.035	110.14229
1009.203	55.32679
1009.37	-5.79519
1009.538	89.05761
1009.706	23.70949
1009.874	13.17157
1010.042	49.00291
1010.209	-56.36353
1010.377	32.14026
1010.545	27.92483
1010.713	13.17157
1010.88	27.92483
1011.048	32.14026
1011.216	-22.65289
1011.383	-5.79519
1011.551	-47.93647
1011.718	55.32679
1011.886	6.8491
1012.054	55.32679
1012.221	63.75895
1012.389	13.17157
1012.556	27.92483
1012.724	-47.93647
1012.891	-10.00976
1013.058	70.08331
1013.226	-73.21644
1013.393	-1.58052
1013.561	38.46358
1013.728	19.49425
1013.895	74.29967
1014.063	53.21881
1014.23	49.00291
1014.397	-1.58052
1014.565	51.11085
1014.732	38.46358
1014.899	4.74166
1015.066	13.17157
1015.233	-35.29512
1015.401	86.94927
1015.568	2.63424
1015.735	74.29967
1015.902	95.38278
1016.069	13.17157
1016.236	63.75895
1016.403	40.5714
1016.57	-12.11701
1016.737	-47.93647
1016.904	30.03253
1017.071	-56.36353
1017.238	-35.29512
1017.405	-3.68787
1017.572	-26.86706
1017.739	19.49425
1017.906	-20.54576
1018.073	19.49425
1018.24	49.00291
1018.407	2.63424
1018.573	27.92483
1018.74	82.73264
1018.907	44.78711
1019.074	-37.40208
1019.241	74.29967
1019.407	-18.43861
1019.574	103.81665
1019.741	32.14026
1019.907	27.92483
1020.074	27.92483
1020.241	40.5714
1020.407	63.75895
1020.574	-47.93647
1020.74	49.00291
1020.907	32.14026
1021.073	21.60186
1021.24	38.46358
1021.406	51.11085
1021.573	36.35578
1021.739	131.22915
1021.906	21.60186
1022.072	-16.33143
1022.239	-14.22423
1022.405	-12.11701
1022.571	-20.54576
1022.738	15.2791
1022.904	15.2791
1023.07	-1.58052
1023.237	-3.68787
1023.403	-47.93647
1023.569	27.92483
1023.735	-39.50901
1023.902	13.17157
1024.068	-26.86706
1024.234	70.08331
1024.4	-79.53586
1024.566	-37.40208
1024.732	-14.22423
1024.898	-1.58052
1025.065	61.65088
1025.231	103.81665
1025.397	49.00291
1025.563	-22.65289
1025.729	-14.22423
1025.895	36.35578
1026.061	-26.86706
1026.227	19.49425
1026.392	-5.79519
1026.558	15.2791
1026.724	4.74166
1026.89	86.94927
1027.056	103.81665
1027.222	36.35578
1027.388	4.74166
1027.553	42.67924
1027.719	-41.61591
1027.885	-37.40208
1028.051	21.60186
1028.216	30.03253
1028.382	11.06405
1028.548	-31.08114
1028.713	70.08331
1028.879	114.35949
1029.045	103.81665
1029.21	0.52684
1029.376	19.49425
1029.541	23.70949
1029.707	46.895
1029.873	40.5714
1030.038	-22.65289
1030.204	-66.89679
1030.369	27.92483
1030.534	2.63424
1030.7	36.35578
1030.865	21.60186
1031.031	63.75895
1031.196	-12.11701
1031.361	-10.00976
1031.527	-39.50901
1031.692	-54.2568
1031.857	-14.22423
1032.023	103.81665
1032.188	57.4348
1032.353	6.8491
1032.518	44.78711
1032.684	30.03253
1032.849	51.11085
1033.014	-24.75999
1033.179	61.65088
1033.344	49.00291
1033.509	-62.68356
1033.674	-12.11701
1033.839	-64.79019
1034.004	72.19148
1034.17	11.06405
1034.335	23.70949
1034.5	-26.86706
1034.664	46.895
1034.829	27.92483
1034.994	-54.2568
1035.159	6.8491
1035.324	-1.58052
1035.489	44.78711
1035.654	-22.65289
1035.819	-18.43861
1035.984	74.29967
1036.148	-10.00976
1036.313	55.32679
1036.478	53.21881
1036.643	-10.00976
1036.807	53.21881
1036.972	2.63424
1037.137	-10.00976
1037.301	-28.97412
1037.466	49.00291
1037.631	-14.22423
1037.795	30.03253
1037.96	-26.86706
1038.124	19.49425
1038.289	65.86705
1038.454	27.92483
1038.618	-33.18815
1038.783	23.70949
1038.947	27.92483
1039.111	-20.54576
1039.276	-20.54576
1039.44	-14.22423
1039.605	11.06405
1039.769	-5.79519
1039.933	27.92483
1040.098	32.14026
1040.262	72.19148
1040.426	13.17157
1040.591	8.95656
1040.755	13.17157
1040.919	72.19148
1041.083	40.5714
1041.248	-28.97412
1041.412	-14.22423
1041.576	-20.54576
1041.74	27.92483
1041.904	55.32679
1042.068	59.54283
1042.232	2.63424
1042.397	-43.72279
1042.561	-20.54576
1042.725	-26.86706
1042.889	-12.11701
1043.053	61.65088
1043.217	-1.58052
1043.381	15.2791
1043.544	11.06405
1043.708	-26.86706
1043.872	53.21881
1044.036	-3.68787
1044.2	-45.82964
1044.364	-22.65289
1044.528	55.32679
1044.691	70.08331
1044.855	21.60186
1045.019	38.46358
1045.183	4.74166
1045.346	19.49425
1045.51	72.19148
1045.674	-14.22423
1045.837	-28.97412
1046.001	30.03253
1046.165	21.60186
1046.328	21.60186
1046.492	15.2791
1046.655	57.4348
1046.819	2.63424
1046.983	-22.65289
1047.146	-71.10991
1047.31	13.17157
1047.473	-58.47023
1047.636	-12.11701
1047.8	49.00291
1047.963	11.06405
1048.127	36.35578
1048.29	-5.79519
