Data from mixed_try6.1_USB4F045381__27__00311.txt Node

Date: Thu Apr 03 20:34:08 EDT 2025
User: mmckonesweet
Spectrometer: USB4F04538
Trigger mode: 4
Integration Time (sec): 2.700000E-3
Scans to average: 1
Electric dark correction enabled: true
Nonlinearity correction enabled: true
Boxcar width: 0
XAxis mode: Wavelengths
Number of Pixels in Spectrum: 3648
>>>>>Begin Spectral Data<<<<<
345.52	-25.63794
345.736	-25.63794
345.952	-25.63794
346.168	-2.45859
346.384	-6.67324
346.6	58.66448
346.816	5.97099
347.032	-42.49378
347.248	-27.74501
347.464	-0.35123
347.68	18.61609
347.896	3.86356
348.112	-67.77453
348.328	-4.56592
348.544	-0.35123
348.76	27.04663
348.975	29.15432
349.191	-86.73269
349.407	-8.78052
349.623	10.18593
349.839	-42.49378
350.055	24.93896
350.27	-4.56592
350.486	-8.78052
350.702	16.50851
350.918	-6.67324
351.133	5.97099
351.349	-17.20943
351.565	-50.9211
351.781	-0.35123
351.996	-25.63794
352.212	-17.20943
352.428	12.29343
352.644	-93.05161
352.859	-8.78052
353.075	-48.81431
353.291	-10.88778
353.506	-6.67324
353.722	-27.74501
353.938	41.80097
354.153	-23.53085
354.369	18.61609
354.584	-42.49378
354.8	-46.70749
355.016	54.44846
355.231	-21.42373
355.447	-82.51994
355.662	-59.34802
355.878	50.23254
356.093	-8.78052
356.309	41.80097
356.524	-31.95906
356.74	-40.38689
356.955	-42.49378
357.171	-6.67324
357.386	92.39587
357.602	24.93896
357.817	-53.02787
358.033	79.74592
358.248	10.18593
358.464	10.18593
358.679	3.86356
358.895	24.93896
359.11	-55.13461
359.325	-55.13461
359.541	16.50851
359.756	-42.49378
359.972	1.75615
360.187	-19.31659
360.402	3.86356
360.618	-65.66794
360.833	-80.41353
361.048	-12.99502
361.264	31.26204
361.479	-17.20943
361.694	-80.41353
361.909	5.97099
362.125	-63.56133
362.34	-36.17303
362.555	-4.56592
362.77	18.61609
362.986	-65.66794
363.201	41.80097
363.416	-0.35123
363.631	8.07845
363.847	-17.20943
364.062	-109.90091
364.277	-93.05161
364.492	-17.20943
364.707	-8.78052
364.922	-80.41353
365.138	60.77252
365.353	29.15432
365.568	-44.60065
365.783	-8.78052
365.998	-40.38689
366.213	-31.95906
366.428	-8.78052
366.643	-6.67324
366.858	-27.74501
367.073	33.36978
367.288	-8.78052
367.503	18.61609
367.718	20.72369
367.933	-55.13461
368.148	-8.78052
368.363	-31.95906
368.578	18.61609
368.793	-57.24133
369.008	-25.63794
369.223	8.07845
369.438	12.29343
369.653	-63.56133
369.868	29.15432
370.083	-57.24133
370.298	-34.06606
370.513	-67.77453
370.728	-17.20943
370.943	-25.63794
371.157	37.58533
371.372	-17.20943
371.587	18.61609
371.802	29.15432
372.017	43.90883
372.232	-25.63794
372.446	-15.10224
372.661	10.18593
372.876	-40.38689
373.091	-48.81431
373.306	-25.63794
373.52	27.04663
373.735	-12.99502
373.95	27.04663
374.165	8.07845
374.379	29.15432
374.594	-59.34802
374.809	-29.85205
375.023	-17.20943
375.238	46.01671
375.453	-38.27997
375.667	52.34049
375.882	-4.56592
376.097	46.01671
376.311	-25.63794
376.526	-29.85205
376.741	8.07845
376.955	-57.24133
377.17	18.61609
377.384	-38.27997
377.599	-34.06606
377.813	18.61609
378.028	20.72369
378.242	-6.67324
378.457	-2.45859
378.672	-21.42373
378.886	-15.10224
379.101	-21.42373
379.315	-57.24133
379.53	3.86356
379.744	8.07845
379.958	8.07845
380.173	33.36978
380.387	-0.35123
380.602	-42.49378
380.816	8.07845
381.031	-88.83902
381.245	-31.95906
381.459	-0.35123
381.674	58.66448
381.888	33.36978
382.103	-46.70749
382.317	1.75615
382.531	12.29343
382.746	-6.67324
382.96	-44.60065
383.174	20.72369
383.388	37.58533
383.603	3.86356
383.817	10.18593
384.031	-76.20064
384.246	-0.35123
384.46	52.34049
384.674	46.01671
384.888	-6.67324
385.103	-38.27997
385.317	-12.99502
385.531	-25.63794
385.745	16.50851
385.959	-6.67324
386.174	-59.34802
386.388	-10.88778
386.602	24.93896
386.816	-4.56592
387.03	-82.51994
387.244	-4.56592
387.458	-42.49378
387.672	64.98867
387.887	24.93896
388.101	22.83131
388.315	54.44846
388.529	37.58533
388.743	33.36978
388.957	86.0708
389.171	43.90883
389.385	-15.10224
389.599	-0.35123
389.813	-0.35123
390.027	-0.35123
390.241	-15.10224
390.455	37.58533
390.669	-88.83902
390.883	33.36978
391.097	16.50851
391.311	52.34049
391.525	24.93896
391.738	88.17913
391.952	58.66448
392.166	3.86356
392.38	-80.41353
392.594	-19.31659
392.808	-27.74501
393.022	3.86356
393.236	-12.99502
393.449	-48.81431
393.663	-15.10224
393.877	-0.35123
394.091	46.01671
394.305	-17.20943
394.518	-25.63794
394.732	18.61609
394.946	-0.35123
395.16	-12.99502
395.373	-15.10224
395.587	-46.70749
395.801	-15.10224
396.015	-8.78052
396.228	-17.20943
396.442	1.75615
396.656	-38.27997
396.869	-17.20943
397.083	-0.35123
397.297	-10.88778
397.51	10.18593
397.724	27.04663
397.938	27.04663
398.151	-29.85205
398.365	58.66448
398.578	-36.17303
398.792	18.61609
399.005	-25.63794
399.219	-4.56592
399.433	8.07845
399.646	18.61609
399.86	18.61609
400.073	10.18593
400.287	-25.63794
400.5	24.93896
400.714	-10.88778
400.927	16.50851
401.141	-21.42373
401.354	27.04663
401.567	5.97099
401.781	-84.62633
401.994	-17.20943
402.208	-21.42373
402.421	58.66448
402.635	27.04663
402.848	-21.42373
403.061	-34.06606
403.275	-44.60065
403.488	-46.70749
403.701	50.23254
403.915	37.58533
404.128	-57.24133
404.341	8.07845
404.555	20.72369
404.768	50.23254
404.981	-0.35123
405.195	27.04663
405.408	50.23254
405.621	18.61609
405.834	-25.63794
406.048	43.90883
406.261	8.07845
406.474	-0.35123
406.687	83.96248
406.9	-21.42373
407.114	77.63768
407.327	-6.67324
407.54	-40.38689
407.753	-34.06606
407.966	-17.20943
408.179	8.07845
408.392	3.86356
408.605	62.88058
408.819	3.86356
409.032	-15.10224
409.245	12.29343
409.458	35.47754
409.671	5.97099
409.884	-80.41353
410.097	27.04663
410.31	58.66448
410.523	-42.49378
410.736	-4.56592
410.949	46.01671
411.162	-0.35123
411.375	33.36978
411.588	16.50851
411.801	62.88058
412.014	29.15432
412.227	-59.34802
412.44	1.75615
412.653	3.86356
412.865	-40.38689
413.078	-8.78052
413.291	83.96248
413.504	-42.49378
413.717	-74.09415
413.93	-55.13461
414.143	-8.78052
414.356	5.97099
414.568	-17.20943
414.781	-25.63794
414.994	-59.34802
415.207	24.93896
415.42	88.17913
415.632	-29.85205
415.845	-17.20943
416.058	50.23254
416.271	43.90883
416.483	3.86356
416.696	-17.20943
416.909	20.72369
417.121	-4.56592
417.334	54.44846
417.547	-8.78052
417.759	-84.62633
417.972	33.36978
418.185	-34.06606
418.397	-15.10224
418.61	46.01671
418.823	3.86356
419.035	12.29343
419.248	62.88058
419.46	58.66448
419.673	29.15432
419.885	16.50851
420.098	8.07845
420.311	-31.95906
420.523	18.61609
420.736	-17.20943
420.948	-42.49378
421.161	54.44846
421.373	-42.49378
421.586	14.40096
421.798	37.58533
422.01	-2.45859
422.223	31.26204
422.435	14.40096
422.648	16.50851
422.86	75.52945
423.073	52.34049
423.285	-17.20943
423.497	24.93896
423.71	1.75615
423.922	-25.63794
424.134	37.58533
424.347	-8.78052
424.559	18.61609
424.771	-34.06606
424.984	-12.99502
425.196	41.80097
425.408	-40.38689
425.621	58.66448
425.833	-8.78052
426.045	3.86356
426.257	8.07845
426.47	-93.05161
426.682	-6.67324
426.894	-21.42373
427.106	3.86356
427.318	12.29343
427.531	18.61609
427.743	-40.38689
427.955	-82.51994
428.167	27.04663
428.379	20.72369
428.591	-0.35123
428.804	-50.9211
429.016	8.07845
429.228	-31.95906
429.44	24.93896
429.652	20.72369
429.864	75.52945
430.076	29.15432
430.288	-0.35123
430.5	43.90883
430.712	-4.56592
430.924	41.80097
431.136	-80.41353
431.348	-55.13461
431.56	46.01671
431.772	20.72369
431.984	16.50851
432.196	-17.20943
432.408	-21.42373
432.62	-12.99502
432.832	41.80097
433.044	27.04663
433.256	24.93896
433.468	22.83131
433.679	-8.78052
433.891	35.47754
434.103	-50.9211
434.315	-0.35123
434.527	10.18593
434.739	-63.56133
434.95	-10.88778
435.162	39.69314
435.374	10.18593
435.586	-25.63794
435.798	35.47754
436.009	-15.10224
436.221	24.93896
436.433	-12.99502
436.645	33.36978
436.856	-63.56133
437.068	-59.34802
437.28	-21.42373
437.491	10.18593
437.703	-17.20943
437.915	67.09678
438.126	3.86356
438.338	-25.63794
438.55	3.86356
438.761	46.01671
438.973	18.61609
439.184	-0.35123
439.396	52.34049
439.608	-59.34802
439.819	-12.99502
440.031	29.15432
440.242	67.09678
440.454	56.55646
440.665	10.18593
440.877	79.74592
441.088	14.40096
441.3	64.98867
441.511	-10.88778
441.723	10.18593
441.934	8.07845
442.146	-23.53085
442.357	5.97099
442.569	5.97099
442.78	-34.06606
442.991	-31.95906
443.203	24.93896
443.414	86.0708
443.626	8.07845
443.837	58.66448
444.048	71.31307
444.26	-0.35123
444.471	12.29343
444.682	18.61609
444.894	77.63768
445.105	86.0708
445.316	54.44846
445.528	41.80097
445.739	10.18593
445.95	-8.78052
446.161	-38.27997
446.373	71.31307
446.584	5.97099
446.795	1.75615
447.006	41.80097
447.217	18.61609
447.429	71.31307
447.64	-25.63794
447.851	58.66448
448.062	33.36978
448.273	-4.56592
448.484	33.36978
448.695	107.15516
448.907	1.75615
449.118	-8.78052
449.329	-0.35123
449.54	-6.67324
449.751	35.47754
449.962	-21.42373
450.173	18.61609
450.384	8.07845
450.595	41.80097
450.806	22.83131
451.017	-4.56592
451.228	41.80097
451.439	41.80097
451.65	33.36978
451.861	20.72369
452.072	16.50851
452.283	-17.20943
452.494	16.50851
452.705	24.93896
452.915	37.58533
453.126	20.72369
453.337	-25.63794
453.548	37.58533
453.759	-8.78052
453.97	18.61609
454.181	46.01671
454.391	41.80097
454.602	105.04662
454.813	-12.99502
455.024	18.61609
455.235	24.93896
455.445	39.69314
455.656	-25.63794
455.867	-29.85205
456.078	43.90883
456.288	10.18593
456.499	71.31307
456.71	27.04663
456.921	41.80097
457.131	43.90883
457.342	96.6127
457.553	-17.20943
457.763	-12.99502
457.974	-31.95906
458.184	-6.67324
458.395	-46.70749
458.606	-4.56592
458.816	35.47754
459.027	8.07845
459.237	58.66448
459.448	-0.35123
459.659	54.44846
459.869	43.90883
460.08	14.40096
460.29	16.50851
460.501	-8.78052
460.711	12.29343
460.922	67.09678
461.132	86.0708
461.343	105.04662
461.553	54.44846
461.764	88.17913
461.974	67.09678
462.184	-6.67324
462.395	16.50851
462.605	12.29343
462.816	33.36978
463.026	67.09678
463.236	50.23254
463.447	-0.35123
463.657	-0.35123
463.867	41.80097
464.078	37.58533
464.288	-25.63794
464.498	69.20492
464.709	37.58533
464.919	50.23254
465.129	46.01671
465.339	8.07845
465.55	54.44846
465.76	71.31307
465.97	60.77252
466.18	18.61609
466.391	62.88058
466.601	67.09678
466.811	58.66448
467.021	58.66448
467.231	75.52945
467.441	52.34049
467.651	79.74592
467.862	79.74592
468.072	86.0708
468.282	24.93896
468.492	-25.63794
468.702	-34.06606
468.912	88.17913
469.122	37.58533
469.332	105.04662
469.542	60.77252
469.752	109.26371
469.962	18.61609
470.172	35.47754
470.382	43.90883
470.592	69.20492
470.802	31.26204
471.012	52.34049
471.222	75.52945
471.432	73.42125
471.642	71.31307
471.852	54.44846
472.062	43.90883
472.272	134.5681
472.482	100.82962
472.691	83.96248
472.901	111.37229
473.111	69.20492
473.321	115.58952
473.531	67.09678
473.741	100.82962
473.95	83.96248
474.16	92.39587
474.37	77.63768
474.58	126.13296
474.79	136.67694
474.999	109.26371
475.209	86.0708
475.419	119.80683
475.628	185.18606
475.838	147.22146
476.048	88.17913
476.258	50.23254
476.467	187.2954
476.677	157.7665
476.886	176.7489
477.096	88.17913
477.306	119.80683
477.515	185.18606
477.725	202.06136
477.935	227.37671
478.144	124.02423
478.354	204.17086
478.563	210.49949
478.773	229.48645
478.982	273.79547
479.192	263.24494
479.401	254.80485
479.611	164.09378
479.82	330.77629
480.03	223.15728
480.239	294.89792
480.449	269.5752
480.658	326.55503
480.868	303.33942
481.077	391.99222
481.287	320.22329
481.496	347.662
481.705	379.32569
481.915	396.21454
482.124	248.47499
482.333	381.43673
482.543	294.89792
482.752	421.54978
482.961	286.45672
483.171	410.99314
483.38	491.23337
483.589	531.3616
483.799	421.54978
484.008	541.92251
484.217	550.37148
484.426	489.12151
484.636	495.45715
484.845	506.01685
485.054	510.24083
485.263	548.25922
485.472	531.3616
485.682	632.76015
485.891	584.16957
486.1	691.92262
486.309	539.8103
486.518	643.32419
486.727	590.50708
486.936	685.58335
487.146	592.61962
487.355	658.11436
487.564	643.32419
487.773	818.72815
487.982	691.92262
488.191	793.36416
488.4	725.73377
488.609	719.39397
488.818	835.63822
489.027	831.41065
489.236	814.50072
489.445	960.36649
489.654	837.75202
489.863	989.96684
490.072	901.16997
490.281	987.85249
490.49	970.93789
490.698	992.08121
490.907	987.85249
491.116	1044.94226
491.325	1002.65311
491.534	1137.98605
491.743	1099.92152
491.952	1102.03617
492.16	1102.03617
492.369	1182.39643
492.578	1133.75658
492.787	1148.55979
492.996	1157.01885
493.204	1288.14145
493.413	1275.45168
493.622	1381.20175
493.831	1195.08542
494.039	1410.81234
494.248	1410.81234
494.457	1470.03377
494.665	1470.03377
494.874	1563.09543
495.083	1328.3262
495.291	1571.55548
495.5	1404.4672
495.709	1552.52034
495.917	1495.41436
496.126	1463.68862
496.335	1444.65315
496.543	1514.44976
496.752	1444.65315
496.96	1615.9703
497.169	1647.69462
497.377	1624.43017
497.586	1666.72896
497.794	1641.3498
498.003	1666.72896
498.211	1918.37775
498.42	1702.6821
498.628	1723.83059
498.837	1721.71575
499.045	1776.70029
499.254	1732.28989
499.462	1928.94978
499.671	1954.32206
499.879	2066.37212
500.087	1897.23328
500.296	2117.10535
500.504	1990.26464
500.713	2047.34608
500.921	2038.88988
501.129	2036.77582
501.338	1850.7136
501.546	2055.80217
501.754	1857.05733
501.962	2123.4467
502.171	1954.32206
502.379	2334.78157
502.587	2057.91618
502.795	2345.34591
503.004	2072.71401
503.212	2313.65216
503.42	2345.34591
503.628	2273.50366
503.837	2286.1825
504.045	2343.23306
504.253	2284.06939
504.461	2505.89194
504.669	2328.44285
504.877	2478.43453
505.085	2440.4135
505.294	2560.80095
505.502	2417.1767
505.71	2651.59435
505.918	2421.40167
506.126	2752.91763
506.334	2573.47114
506.542	2731.81109
506.75	2461.53674
506.958	2624.14757
507.166	2603.03324
507.374	2725.47887
507.582	2645.26067
507.79	2750.80704
507.998	2609.36767
508.206	2681.15005
508.414	2638.92687
508.622	2780.35413
508.83	2609.36767
509.037	2746.58581
509.245	2626.25894
509.453	2966.01603
509.661	2816.22916
509.869	2984.99784
510.077	2750.80704
510.285	2919.611
510.492	2788.79567
510.7	3014.52266
510.908	2890.07683
511.116	3025.06651
511.324	2961.79769
511.531	3109.4034
511.739	2913.28249
511.947	3088.32153
512.155	2976.56163
512.362	3063.02121
512.57	3155.7779
512.778	3244.28914
512.985	3269.57267
513.193	3303.28027
513.401	3063.02121
513.608	3084.10497
513.816	3119.94374
514.024	3254.82424
514.231	3193.71484
514.439	3084.10497
514.646	3010.30501
514.854	3383.31816
515.061	2976.56163
515.269	3524.37542
515.477	3212.68132
515.684	3307.49341
515.892	3414.90512
516.099	3499.11739
516.307	3303.28027
516.514	3532.79418
516.722	3454.90953
516.929	3604.34169
517.136	3459.12015
517.344	3720.03428
517.551	3398.05924
517.759	3720.03428
517.966	3623.27713
518.173	3724.24019
518.381	3665.35041
518.588	3781.01243
518.796	3558.04869
519.003	3886.1084
519.21	3501.22232
519.418	3953.34362
519.625	3715.82828
519.832	3936.53675
520.039	3757.88471
520.247	3976.45094
520.454	3867.19478
520.661	4005.8567
520.868	3564.3619
521.076	4026.85834
521.283	3976.45094
521.49	3980.65201
521.697	3905.02039
521.904	4138.13254
522.112	3917.62748
522.319	4245.1521
522.526	3829.36272
522.733	4054.15741
522.94	4079.35345
523.147	4161.21984
523.354	4031.05843
523.561	4259.83674
523.768	4096.14914
523.975	4452.73676
524.183	4178.009
524.39	4471.59751
524.597	4222.07411
524.804	4567.969
525.011	4222.07411
525.218	4465.31079
525.425	4322.75905
525.632	4431.77828
525.838	4496.7424
526.045	4341.63196
526.252	4402.43274
526.459	4549.11739
526.666	4551.2121
526.873	4672.66723
527.08	4488.36112
527.287	4693.60015
527.494	4291.30031
527.701	4814.96655
527.907	4628.70078
528.114	4825.4256
528.321	4731.27373
528.528	4798.23089
528.735	4879.80345
528.941	4865.16477
529.148	4645.45107
529.355	4720.80958
529.562	4622.41906
529.768	4781.49378
529.975	4722.90246
530.182	4877.71228
530.388	4741.73732
530.595	4990.60264
530.802	4750.10778
531.008	5109.69176
531.215	4982.24269
531.422	5074.18182
531.628	5009.41118
531.835	5182.77932
532.042	5141.01849
532.248	5353.90113
532.455	5186.95489
532.661	5201.56866
532.868	5157.72394
533.074	5113.86896
533.281	5057.46895
533.487	5451.91211
533.694	5036.57577
533.9	5608.20499
534.107	5153.54772
534.313	5566.53985
534.52	5385.18686
534.726	5247.49019
534.933	5266.27301
535.139	5418.55249
535.345	5410.21165
535.552	5547.78746
535.758	5433.14807
535.965	5656.10825
536.171	5556.12209
536.377	5662.35558
536.584	5483.18128
536.79	5737.30699
536.996	5476.92787
537.203	5591.54007
537.409	5418.55249
537.615	5810.14709
537.821	5672.76733
538.028	5905.83582
538.234	5543.62
538.44	5868.39835
538.646	5758.12139
538.853	5824.71164
539.059	5916.23376
539.265	5764.36526
539.471	5820.55045
539.677	5941.18641
539.883	5945.34486
540.09	6007.71022
540.296	5907.91545
540.502	6072.13216
540.708	5924.55169
540.914	5968.21462
541.12	6038.88495
541.326	6263.18684
541.532	6182.22053
541.738	6202.98452
541.944	6165.60765
542.15	6175.99088
542.356	6269.41354
542.562	6400.12569
542.768	6140.6855
542.974	6456.11684
543.18	6256.95993
543.386	6395.97752
543.592	6308.84443
543.798	6435.38136
544.004	6574.26481
544.21	6555.61487
544.415	6431.23398
544.621	6400.12569
544.827	6427.08651
545.033	6605.34389
545.239	6543.18054
545.445	6727.53795
545.651	6385.60669
545.856	6785.50041
546.062	6739.95999
546.268	6623.98884
546.474	6534.89052
546.679	6433.30768
546.885	6495.50787
547.091	6758.5915
547.297	6665.41538
547.502	6814.47492
547.708	6630.20341
547.914	6630.20341
548.119	6764.80159
548.325	6762.73158
548.531	6729.60835
548.736	7089.51117
548.942	6731.67872
549.147	6936.53279
549.353	6919.9872
549.559	6913.78223
549.764	6907.57705
549.97	6878.61687
550.175	6795.84896
550.381	6969.61964
550.586	6872.41054
550.792	7010.97008
550.997	7085.37824
551.203	7060.57875
551.408	7143.2312
551.614	7390.97592
551.819	7126.70357
552.025	7318.74975
552.23	6946.87305
552.435	7415.73303
552.641	7287.78747
552.846	7423.98471
553.052	7322.87768
553.257	7386.84943
553.462	7541.53347
553.668	7324.94162
553.873	7234.10779
554.078	7434.29881
554.283	7310.49363
554.489	7380.65954
554.694	7320.81373
554.899	7419.85892
555.105	7525.03962
555.31	7541.53347
555.515	7689.91659
555.72	7599.25114
555.925	7533.28672
556.131	7566.27167
556.336	7452.86284
556.541	7691.9767
556.746	7357.96157
556.951	7465.23788
557.156	7659.01253
557.361	7675.49529
557.567	7564.21027
557.772	7642.52841
557.977	7621.92136
558.182	7626.04294
558.387	7642.52841
558.592	7805.24991
558.797	7603.37319
559.002	7819.66196
559.207	7786.71863
559.412	7823.7795
559.617	7654.89163
559.822	7731.11462
560.027	7897.88105
560.232	7936.97941
560.437	7799.073
560.642	7897.88105
560.847	8008.98333
561.051	8206.35255
561.256	7807.30883
561.461	8115.91463
561.666	7945.20969
561.871	8206.35255
562.076	7840.24883
562.281	7980.18476
562.485	7873.18351
562.69	7984.29909
562.895	7844.36596
563.1	7967.8413
563.305	7916.40225
563.509	8255.66612
563.714	8027.49459
563.919	8091.24302
564.123	8126.19362
564.328	8214.57227
564.533	8113.85878
564.737	8325.50759
564.942	8115.91463
565.147	8387.11369
565.351	8259.77507
565.556	8471.28058
565.761	8389.16693
565.965	8707.18837
566.17	8348.09853
566.374	8167.30455
566.579	8383.00716
566.784	8512.32592
566.988	8200.18756
567.193	8510.27383
567.397	8270.0471
567.602	8389.16693
567.806	8159.083
568.011	8657.97586
568.215	8563.62192
568.42	8559.51867
568.624	8557.46702
568.828	8573.8797
569.033	8551.31195
569.237	8563.62192
569.442	8399.43282
569.646	8380.95387
569.85	8434.33324
570.055	8817.87784
570.259	8378.90055
570.463	8762.53976
570.668	8651.82354
570.872	8651.82354
571.076	8631.31462
571.281	9022.71971
571.485	8912.1272
571.689	8946.94892
571.893	8846.56645
572.098	9012.48182
572.302	8830.17339
572.506	8891.64144
572.71	8727.69044
572.914	9229.4326
573.119	9067.76124
573.323	8871.15388
573.527	8834.27176
573.731	9143.49403
573.935	9035.0046
574.139	9133.26124
574.343	9186.46706
574.547	9098.46657
574.751	8996.10028
574.955	9010.43419
575.159	8830.17339
575.364	9335.79163
575.568	9170.09726
575.772	9272.39071
575.976	9192.60545
576.18	9059.5725
576.383	9270.34526
576.587	9591.28147
576.791	9370.55312
576.995	9251.93539
577.199	9264.20879
577.403	9460.50212
577.607	9444.15009
577.811	9423.7086
578.015	9343.97123
578.219	9427.79703
578.422	9163.95831
578.626	9485.02822
578.83	9325.56675
579.034	9487.07196
579.238	9388.95434
579.442	9724.03846
579.645	9327.61176
579.849	9675.0281
580.053	9382.82075
580.257	9764.8737
580.46	9470.72161
580.664	9536.11687
580.868	9346.01609
581.071	9536.11687
581.275	9793.45476
581.479	9721.99654
581.682	9485.02822
581.886	9613.75265
582.09	9480.9407
582.293	9819.99167
582.497	9572.89455
582.7	9764.8737
582.904	9617.83812
583.107	9672.98581
583.311	9613.75265
583.515	9811.82674
583.718	9809.78546
583.922	9960.79947
584.125	9848.56706
584.329	10040.35581
584.532	10193.28821
584.735	10028.11779
584.939	9642.3496
585.142	10166.78554
585.346	9801.62023
585.549	10075.02741
585.753	9930.19503
585.956	10054.63285
586.159	10227.94204
586.363	10266.66812
586.566	10140.28054
586.769	10264.63003
586.973	9989.36068
587.176	10187.17241
587.379	9938.35654
587.582	10378.74264
587.786	10066.86975
587.989	10488.74077
588.192	10187.17241
588.395	10423.56126
588.599	10132.12468
588.802	10562.05209
589.005	10105.6166
589.208	10676.05975
589.411	10207.55791
589.615	10276.85839
589.818	10513.1797
590.021	10529.47131
590.224	10309.46497
590.427	10557.97967
590.63	10337.99293
590.833	10645.52577
591.036	10448.00512
591.239	10694.37882
591.442	10488.74077
591.645	10555.94344
591.848	10665.88206
592.051	10932.43929
592.254	10663.84649
592.457	10555.94344
592.66	10688.27257
592.863	10710.66161
593.066	10765.61037
593.269	10838.86195
593.472	10851.06907
593.675	10783.9247
593.878	10562.05209
594.081	10763.57539
594.284	10796.13372
594.486	11172.37744
594.689	11003.62335
594.892	11042.26041
595.095	10883.61936
595.298	10847.00008
595.5	10781.88982
595.703	11239.45204
595.906	11229.28995
596.109	11040.22698
596.311	11188.639
596.514	11221.1601
596.717	11099.19204
596.92	11091.05947
597.122	10899.8934
597.325	10903.9618
597.528	10781.88982
597.73	11391.85283
597.933	11050.39403
598.136	11196.76952
598.338	11086.99312
598.541	11265.87227
598.743	11271.969
598.946	11239.45204
599.148	11381.69453
599.351	11276.03343
599.554	11082.92673
599.756	11286.19434
599.959	11359.3454
600.161	11399.9793
600.363	11546.22915
600.566	11497.48471
600.768	11294.32288
600.971	11377.63114
601.173	11239.45204
601.376	11379.66284
601.578	11458.89147
601.78	11666.03652
601.983	11538.10545
602.185	11670.09723
602.388	11517.79555
602.59	11694.46075
602.792	11253.67853
602.995	11641.67149
603.197	11397.94769
603.399	11731.00363
603.601	11546.22915
603.804	11651.82374
604.006	11536.0745
604.208	11296.35499
604.41	11615.27458
604.613	11791.90213
604.815	11458.89147
605.017	11582.78394
605.219	11339.02697
605.421	11708.67221
605.623	11469.04792
605.826	11611.21337
606.028	11511.7024
606.23	11702.58164
606.432	11743.18396
606.634	11676.18823
606.836	11347.15446
607.038	11893.38255
607.24	11611.21337
607.442	11578.72245
607.644	11637.61053
607.846	11828.43751
608.048	11816.25936
608.25	11873.08815
608.452	11816.25936
608.654	12187.56163
608.856	11761.45386
609.058	11956.28998
609.26	11735.06377
609.462	11718.82299
609.664	11735.06377
609.866	11749.274
610.067	11789.87231
610.269	11808.14042
610.471	11706.64203
610.673	12193.64639
610.875	11704.61184
611.077	12073.96704
611.278	11775.66329
611.48	11860.9111
611.682	11743.18396
611.884	12244.35018
612.085	11974.55196
612.287	12317.35575
612.489	12151.05165
612.69	12134.82422
612.892	12021.21854
613.094	12100.33933
613.295	11771.6035
613.497	11980.63915
613.699	12122.65333
613.9	12175.3919
614.102	12015.13183
614.304	12189.58989
614.505	11603.09086
614.707	12191.61814
614.908	11960.34825
615.11	12351.82744
615.311	11964.4065
615.513	11891.35315
615.714	11948.17333
615.916	12043.53585
616.117	12069.90965
616.319	12094.25353
616.52	12059.76604
616.722	12284.90997
616.923	11994.84229
617.124	12331.55022
617.326	12254.49039
617.527	12171.33527
617.729	11956.28998
617.93	12165.25026
618.131	12126.71033
618.333	12244.35018
618.534	11887.29432
618.735	12333.57798
618.937	12207.84391
619.138	12039.47823
619.339	12082.08173
619.54	12250.43433
619.742	12282.88204
619.943	12376.1592
620.144	12301.13309
620.345	12479.55836
620.546	12061.79478
620.748	12459.28537
620.949	11895.41195
621.15	12181.4768
621.351	12173.36359
621.552	12276.79824
621.753	11988.75528
621.954	12479.55836
622.155	12082.08173
622.356	12629.55862
622.558	12495.77628
622.759	12447.12127
622.96	12140.90957
623.161	12370.07636
623.362	12185.53336
623.563	12574.83277
623.764	12317.35575
623.965	12185.53336
624.166	12270.71437
624.366	12445.09389
624.567	12290.99369
624.768	12455.2307
624.969	12376.1592
625.17	12426.84723
625.371	12518.07525
625.572	12676.17344
625.773	12321.41135
625.973	12552.53576
626.174	12319.38356
626.375	12734.94418
626.576	12232.18168
626.777	12688.33331
626.977	12432.92951
627.178	12530.23799
627.379	12643.74608
627.58	12402.5175
627.78	12398.46245
627.981	12686.30668
628.182	12493.74906
628.382	12645.77283
628.583	12645.77283
628.784	12505.91227
628.984	12439.01173
629.185	12511.99379
629.386	12146.99484
629.586	12813.97306
629.787	12363.99345
629.987	12664.01336
630.188	12593.07522
630.388	12522.12952
630.589	12404.54502
630.79	12528.21088
630.99	12645.77283
631.191	12509.96662
631.391	12542.40051
631.591	12722.78512
631.792	12552.53576
631.992	13093.54825
632.193	12824.10435
632.393	12830.18306
632.594	12824.10435
632.794	12828.15683
632.994	12666.04005
633.195	12724.81164
633.395	12759.26168
633.595	12878.81095
633.796	12779.52563
633.996	12785.6047
634.196	12698.46637
634.397	13006.44467
634.597	12751.15593
634.797	12890.96744
634.997	12666.04005
635.198	12957.82472
635.398	12779.52563
635.598	13030.75356
635.798	12799.78902
635.998	12872.73264
636.199	12625.50501
636.399	12826.13059
636.599	12704.54613
636.799	13079.36921
636.999	12844.36652
637.199	13123.93111
637.399	12967.95412
637.599	13150.26208
637.799	12801.81533
637.999	13016.57346
638.199	12771.42012
638.399	12933.51364
638.599	12718.73205
638.799	13113.80361
638.999	12680.22675
639.199	13146.21121
639.399	12854.4974
639.599	13223.17456
639.799	12696.43977
639.999	13200.89637
640.199	12925.40978
640.399	12986.18672
640.599	12368.04873
640.799	13217.09874
640.998	12726.83816
641.198	12874.75875
641.398	13014.54772
641.598	13340.63271
641.798	13085.44597
641.997	12982.13506
642.197	13046.95909
642.397	13356.83273
642.597	13235.32608
642.796	13439.85378
642.996	13073.29241
643.196	13107.72705
643.395	13077.34361
643.595	13099.62491
643.795	13138.10942
643.994	13281.90543
644.194	13016.57346
644.394	13087.47154
644.593	13018.59921
644.793	13401.38144
644.992	13245.45222
645.192	13320.38232
645.392	13257.60344
645.591	13249.50264
645.791	13352.78275
645.99	13316.3322
646.19	13302.15662
646.389	13340.63271
646.589	13229.25034
646.788	13225.19982
646.987	13243.427
647.187	13235.32608
647.386	13144.18577
647.586	13403.40633
647.785	13551.21337
647.984	13320.38232
648.184	13389.23198
648.383	13401.38144
648.582	13231.27559
648.782	13735.43957
648.981	13464.15138
649.18	13292.03108
649.38	13397.33163
649.579	13443.90342
649.778	13265.70418
649.977	13605.8768
650.177	13377.08238
650.376	13409.48099
650.575	13283.93057
650.774	13549.18875
650.973	13573.48396
651.173	13654.46441
651.372	13381.13226
651.571	13804.26453
651.77	13261.65382
651.969	13613.97487
652.168	13476.29998
652.367	13719.24494
652.566	13532.99165
652.765	13541.09023
652.964	13607.90132
653.163	13607.90132
653.362	13342.65773
653.561	13528.94234
653.76	13581.58225
653.959	13968.21657
654.158	13644.34215
654.357	13514.76964
654.556	13356.83273
654.755	13634.21981
654.954	13468.20093
655.153	13767.82822
655.352	13496.54733
655.551	13705.07448
655.749	13737.46388
655.948	13563.36102
656.147	13638.26875
656.346	14055.2459
656.545	13634.21981
656.743	13816.40976
656.942	13889.27894
657.141	13925.71219
657.34	13656.48885
657.538	13832.60323
657.737	13682.8063
657.936	13968.21657
658.135	13893.32712
658.333	13978.33649
658.532	13806.28874
658.731	14061.31754
658.929	13640.29322
659.128	13810.33716
659.326	13518.819
659.525	13897.37529
659.724	13784.02226
659.922	13848.79651
660.121	13573.48396
660.319	13510.72026
660.518	13759.73113
660.716	13666.61101
660.915	13978.33649
661.113	13840.69989
661.312	13466.17616
661.51	13775.92526
661.709	13794.14343
661.907	13731.39093
662.105	13897.37529
662.304	14026.91126
662.502	13630.17085
662.701	13856.89309
662.899	13391.2569
663.097	13901.42345
663.296	13480.34948
663.494	13848.79651
663.692	13814.38556
663.891	13692.92825
664.089	13308.23189
664.287	13915.59193
664.485	13703.05012
664.684	14205.0074
664.882	13674.70868
665.08	13755.68257
665.278	13982.38444
665.476	13980.36047
665.675	13664.58659
665.873	13899.39937
666.071	13755.68257
666.269	14051.19812
666.467	13800.2161
666.665	13978.33649
666.863	13460.10182
667.061	14075.48464
667.259	13464.15138
667.457	13982.38444
667.655	13869.03786
667.853	13970.24056
668.051	13950.00055
668.249	13751.63399
668.447	13551.21337
668.645	13792.1192
668.843	13690.90387
669.041	13954.04857
669.239	13599.80321
669.437	13854.86895
669.635	13862.96549
669.833	13875.11022
670.031	13508.69557
670.229	13968.21657
670.426	13907.49567
670.624	13929.76028
670.822	13670.65986
671.02	13931.78431
671.218	13694.95263
671.415	14010.71983
671.613	13567.4102
671.811	13992.50428
672.009	13854.86895
672.206	13755.68257
672.404	13901.42345
672.602	13988.45635
672.799	13786.0465
672.997	13792.1192
673.195	13794.14343
673.392	13743.53681
673.59	13864.98962
673.788	13717.2206
673.985	13699.00138
674.183	14006.67195
674.38	13788.07074
674.578	13998.57615
674.775	13836.65156
674.973	13585.63138
675.17	13563.36102
675.368	13573.48396
675.565	13613.97487
675.763	13707.09885
675.96	13642.31769
676.158	13595.75413
676.355	13666.61101
676.553	13947.97653
676.75	13581.58225
676.947	13917.61599
677.145	13858.91722
677.342	13818.43395
677.539	13779.97377
677.737	14180.72254
677.934	13947.97653
678.131	14079.53236
678.329	13844.74821
678.526	14041.07864
678.723	13947.97653
678.92	14188.81752
679.118	13705.07448
679.315	14115.96145
679.512	13968.21657
679.709	13680.7819
679.906	13658.51329
680.104	13745.56111
680.301	13686.85509
680.498	13537.04095
680.695	13411.50587
680.892	13721.26928
681.089	13395.30673
681.286	13832.60323
681.483	13354.80774
681.68	13535.0163
681.877	13407.45611
682.075	13656.48885
682.272	13676.73309
682.469	13913.56787
682.665	13648.39106
682.862	13755.68257
683.059	13524.89302
683.256	13735.43957
683.453	13921.66409
683.65	14059.29366
683.847	13794.14343
684.044	13541.09023
684.241	13555.2626
684.438	13980.36047
684.635	13389.23198
684.831	13632.19533
685.028	13018.59921
685.225	13672.68427
685.422	13300.13152
685.619	13500.59676
685.815	13364.93264
686.012	13528.94234
686.209	13263.679
686.405	13672.68427
686.602	13423.65507
686.799	13747.58541
686.996	13445.92823
687.192	13261.65382
687.389	13557.28721
687.586	13294.05619
687.782	13314.30713
687.979	13522.86835
688.175	13302.15662
688.372	13484.39896
688.568	13235.32608
688.765	13429.72961
688.962	13158.36376
689.158	13532.99165
689.355	13294.05619
689.551	13328.48253
689.748	13342.65773
689.944	13316.3322
690.14	13130.00756
690.337	13561.33642
690.533	13437.82895
690.73	12974.0317
690.926	13237.35131
691.123	13255.57825
691.319	13225.19982
691.515	13332.53261
691.712	12974.0317
691.908	13247.47743
692.104	13053.03608
692.301	13557.28721
692.497	13492.49789
692.693	12972.00585
692.889	13091.52268
693.086	13298.10641
693.282	13196.84573
693.478	13219.12402
693.674	13089.49712
693.87	13356.83273
694.067	13243.427
694.263	13253.55305
694.459	12965.92825
694.655	13504.64617
694.851	13304.18171
695.047	13332.53261
695.243	12897.04561
695.439	13059.11303
695.635	13233.30083
695.831	13091.52268
696.027	13010.4962
696.224	13006.44467
696.42	13134.0585
696.615	13243.427
696.811	13113.80361
697.007	13012.52196
697.203	12955.79883
697.399	13020.62494
697.595	13004.4189
697.791	12982.13506
697.987	12820.05185
698.183	12872.73264
698.379	12998.34155
698.575	13117.85463
698.77	13123.93111
698.966	13251.52785
699.162	12793.71006
699.358	12903.12374
699.554	13014.54772
699.749	13225.19982
699.945	13071.26679
700.141	12911.22783
700.337	12992.26416
700.532	13057.08738
700.728	12755.20882
700.924	12876.78485
701.119	12925.40978
701.315	12901.0977
701.511	12824.10435
701.706	13105.70152
701.902	12969.97999
702.097	13184.6937
702.293	12838.28792
702.489	13107.72705
702.684	12676.17344
702.88	12864.62814
703.075	12943.64335
703.271	12892.9935
703.466	12730.89118
703.662	12901.0977
703.857	12868.6804
704.053	12503.88508
704.248	12637.66578
704.443	12767.36732
704.639	12724.81164
704.834	12560.64386
705.03	12708.59928
705.225	12716.70551
705.42	12607.26345
705.616	12706.57271
705.811	12479.55836
706.006	12775.47288
706.202	12763.31451
706.397	12586.99446
706.592	12586.99446
706.787	12726.83816
706.983	12824.10435
707.178	12763.31451
707.373	12811.94678
707.568	12763.31451
707.763	12333.57798
707.959	12882.86314
708.154	12728.86467
708.349	12388.32471
708.544	12418.73743
708.739	12443.06651
708.934	12366.02109
709.129	12708.59928
709.324	12459.28537
709.519	13101.65045
709.714	12757.23525
709.909	12722.78512
710.104	12544.42757
710.299	12657.93324
710.494	12621.45137
710.689	12781.55199
710.884	12412.65501
711.079	12803.84163
711.274	12341.68892
711.469	12684.28004
711.664	12307.21664
711.859	12619.42454
712.054	12455.2307
712.249	12686.30668
712.443	12339.66119
712.638	12463.34002
712.833	12220.01293
713.028	12475.50382
713.223	12153.08005
713.417	12272.74233
713.612	12228.12546
713.807	12603.2097
714.002	12347.77206
714.196	12272.74233
714.391	12185.53336
714.586	12501.85789
714.78	12327.49469
714.975	12408.60002
715.17	12447.12127
715.364	12293.02158
715.559	12376.1592
715.754	12495.77628
715.948	12327.49469
716.143	12394.40738
716.337	12266.65842
716.532	12649.82632
716.726	12282.88204
716.921	12738.99715
717.115	12317.35575
717.31	12386.29715
717.504	12228.12546
717.699	12394.40738
717.893	12222.04107
718.088	12382.24199
718.282	12146.99484
718.476	12485.64013
718.671	12157.13682
718.865	12159.16519
719.059	11879.17656
719.254	12157.13682
719.448	12130.76729
719.642	12398.46245
719.837	11797.99156
720.031	11954.26083
720.225	11895.41195
720.419	12043.53585
720.614	12232.18168
720.808	12315.32794
721.002	11992.8133
721.196	12126.71033
721.39	11940.05655
721.585	12027.30517
721.779	11708.67221
721.973	11846.70417
722.167	11637.61053
722.361	11759.4239
722.555	11479.20413
722.749	11757.39394
722.943	11889.32374
723.137	11862.94063
723.331	11887.29432
723.525	12004.98716
723.719	11749.274
723.913	12067.88094
724.107	11645.73242
724.301	12088.16766
724.495	11627.45796
724.689	11800.02135
724.883	11619.33574
725.077	11978.61009
725.271	11775.66329
725.465	11619.33574
725.659	11556.38356
725.853	11915.70544
726.046	12004.98716
726.24	11946.14415
726.434	11458.89147
726.628	12043.53585
726.822	11690.40025
727.015	11893.38255
727.209	11680.24885
727.403	11873.08815
727.596	11824.37816
727.79	11919.76404
727.984	11935.99812
728.177	11765.51374
728.371	11501.54695
728.565	11678.21855
728.758	11724.91335
728.952	11629.48849
729.146	11489.3601
729.339	11688.36999
729.533	11668.06688
729.726	11787.84247
729.92	11483.26655
730.113	11731.00363
730.307	11678.21855
730.5	11960.34825
730.694	11773.6334
730.887	11862.94063
731.081	11592.93752
731.274	11848.73376
731.468	11546.22915
731.661	11726.94345
731.854	11436.54644
732.048	11745.21398
732.241	11601.06021
732.435	11889.32374
732.628	11800.02135
732.821	11645.73242
733.014	11694.46075
733.208	11548.26005
733.401	11933.96889
733.594	11931.93965
733.788	11686.33972
733.981	11452.79749
734.174	11909.61748
734.367	11862.94063
734.56	11649.79331
734.754	11824.37816
734.947	11440.60926
735.14	11582.78394
735.333	11623.39687
735.526	11712.73255
735.719	11556.38356
735.912	11735.06377
736.105	11643.70196
736.298	11464.98537
736.491	11639.64101
736.684	11594.96821
736.877	11213.03007
737.07	11391.85283
737.263	11471.07918
737.456	11895.41195
737.649	11816.25936
737.842	11548.26005
738.035	11487.32893
738.228	11428.42068
738.421	11249.61387
738.614	11594.96821
738.807	11590.90682
739	11582.78394
739.192	11452.79749
739.385	11601.06021
739.578	11343.09074
739.771	11115.45666
739.964	11343.09074
740.156	11379.66284
740.349	11324.80347
740.542	11515.76451
740.735	11404.04247
740.927	11771.6035
741.12	11566.53774
741.313	11458.89147
741.505	11225.22505
741.698	11375.59944
741.891	11054.46077
742.083	11237.41965
742.276	11420.29476
742.468	11316.67554
742.661	11204.89988
742.854	11420.29476
743.046	10964.98228
743.239	11215.06259
743.431	11525.91962
743.624	11131.72059
743.816	11343.09074
744.009	11304.48333
744.201	10997.52239
744.393	11373.56772
744.586	11105.29135
744.778	11247.58153
744.971	11332.93124
745.163	11178.47561
745.355	11229.28995
745.548	11330.89932
745.74	11164.24641
745.932	11103.25826
746.125	11180.5083
746.317	11174.41017
746.509	11174.41017
746.702	11086.99312
746.894	11221.1601
747.086	11213.03007
747.278	11152.04955
747.471	11247.58153
747.663	11021.92561
747.855	11082.92673
748.047	11009.7242
748.239	10773.75019
748.431	10879.55074
748.623	11093.09263
748.815	11070.72729
749.008	11058.52746
749.2	11074.79382
749.392	11204.89988
749.584	10991.42134
749.776	11099.19204
749.968	11032.09315
750.16	11253.67853
750.352	10816.48114
750.544	11127.65468
750.736	10879.55074
750.928	11111.39057
751.12	10871.41335
751.311	10716.76746
751.503	10908.03015
751.695	10737.11951
751.887	10897.85919
752.079	11111.39057
752.271	10733.0492
752.463	10960.91456
752.654	10820.55048
752.846	10602.77356
753.038	10627.20406
753.23	10757.47037
753.421	10629.23986
753.613	10667.91762
753.805	10767.64535
753.997	11141.8852
754.188	10731.01402
754.38	10692.34342
754.572	10633.31141
754.763	10783.9247
754.955	10651.63279
755.146	10826.65441
755.338	10519.28915
755.53	10667.91762
755.721	10659.7753
755.913	10588.52162
756.104	10505.03359
756.296	10578.34128
756.487	10413.37576
756.679	10710.66161
756.87	10311.50277
757.062	10179.01783
757.253	10325.76698
757.445	10352.25593
757.636	10407.26431
757.827	10382.81732
758.019	10189.21103
758.21	10374.66791
758.401	10494.85067
758.593	10507.07014
758.784	10496.88728
758.975	10466.3368
759.167	10388.92925
759.358	10592.59366
759.549	10225.90368
759.74	10663.84649
759.932	10578.34128
760.123	10274.82036
760.314	10364.48084
760.505	10492.81405
760.696	10107.65577
760.888	10319.65383
761.079	10140.28054
761.27	10270.74427
761.461	10401.15274
761.652	10378.74264
761.843	9989.36068
762.034	10197.36533
762.225	9897.54667
762.416	10111.73406
762.607	9809.78546
762.798	9850.60805
762.989	9815.90923
763.18	10105.6166
763.371	9934.27581
763.562	9905.70911
763.753	9983.24066
763.944	9981.20062
764.135	9850.60805
764.326	10101.53823
764.517	10093.3813
764.708	10146.39729
764.899	9634.17936
765.089	9975.08043
765.28	9795.49615
765.471	9915.91183
765.662	9660.73175
765.853	9754.66546
766.043	9640.30707
766.234	10007.71996
766.425	9634.17936
766.615	9817.95046
766.806	9942.4372
766.997	9713.8287
767.187	9738.33148
767.378	9905.70911
767.569	9677.07038
767.759	9685.23932
767.95	9429.84122
768.141	9728.12226
768.331	9617.83812
768.522	9544.29013
768.712	9717.91265
768.903	9525.89994
769.093	9388.95434
769.284	9307.16093
769.474	9370.55312
769.665	9534.07352
769.855	9525.89994
770.046	9607.62434
770.236	9282.61775
770.426	9407.35424
770.617	9352.15057
770.807	9493.20308
770.998	9529.98676
771.188	9497.29041
771.378	9348.06093
771.569	9480.9407
771.759	9227.38679
771.949	9151.67994
772.139	9425.75282
772.33	9129.16801
772.52	9096.41967
772.71	9403.26549
772.9	9215.11158
773.09	9294.88964
773.281	9231.47839
773.471	9108.70081
773.661	9174.18981
773.851	9435.97369
774.041	9196.69762
774.231	9411.44293
774.421	9147.58702
774.611	9004.29119
774.802	9145.54053
774.992	9051.38348
775.182	8846.56645
775.372	9014.52943
775.562	8846.56645
775.752	9157.8192
775.942	8688.73492
776.131	9065.71408
776.321	8908.03019
776.511	9180.32851
776.701	9026.81474
776.891	8846.56645
777.081	9157.8192
777.271	8819.92714
777.461	9035.0046
777.651	8731.79064
777.84	8733.8407
778.03	8770.73883
778.22	8715.38942
778.41	8846.56645
778.599	8596.44517
778.789	8770.73883
778.979	8649.77273
779.169	8637.46749
779.358	8602.599
779.548	8758.44011
779.738	8824.02569
779.927	8563.62192
780.117	8534.89761
780.307	8742.0408
780.496	8541.05313
780.686	8645.67106
780.875	8549.26023
781.065	8690.78538
781.254	8424.06899
781.444	8647.72191
781.633	8442.54429
781.823	8559.51867
782.012	8286.48133
782.202	8717.43963
782.391	8272.10144
782.581	8405.59212
782.77	8194.02238
782.96	8543.10493
783.149	8413.80425
783.338	8323.45375
783.528	8325.50759
783.717	8588.23981
783.906	8354.25928
784.096	8247.44798
784.285	8231.01076
784.474	8115.91463
784.663	7770.24496
784.853	8029.55129
785.042	7969.89859
785.231	8085.07467
785.42	7885.53265
785.61	7957.55451
785.799	7811.42663
785.988	7984.29909
786.177	7943.15215
786.366	7904.05497
786.555	7778.48196
786.744	7996.64157
786.933	8013.09708
787.122	8132.36077
787.312	7912.28657
787.501	8080.96233
787.69	7729.05492
787.879	8093.2991
788.068	7982.24194
788.257	7821.72074
788.445	7640.4678
788.634	8080.96233
788.823	7527.10143
789.012	7813.48549
789.201	7753.76995
789.39	7821.72074
789.579	7852.59996
789.768	7893.765
789.957	7634.28585
790.145	7473.48747
790.334	7510.60638
790.523	7591.00678
790.712	7786.71863
790.9	7951.38219
791.089	7823.7795
791.278	7696.09684
791.467	7770.24496
791.655	7656.95209
791.844	7638.40717
792.033	7467.30031
792.221	7518.85407
792.41	7638.40717
792.599	7343.51603
792.787	7541.53347
792.976	7343.51603
793.164	7456.98794
793.353	7448.73765
793.541	7683.73616
793.73	7409.54405
793.918	7411.60707
794.107	7163.88874
794.295	7467.30031
794.484	7364.15218
794.672	7320.81373
794.861	7263.01408
795.049	7401.29177
795.238	7141.16532
795.426	7347.64343
795.614	7298.10878
795.803	7595.129
795.991	7386.84943
796.179	7640.4678
796.368	7353.83438
796.556	7426.04757
796.744	7440.48702
796.932	7419.85892
797.121	7128.7696
797.309	7281.59442
797.497	7015.10463
797.685	7275.40117
797.874	7176.2822
798.062	7223.78306
798.25	6988.22846
798.438	7333.19713
798.626	7192.80557
798.814	7176.2822
799.002	7246.49673
799.19	7201.06672
799.378	7077.1121
799.566	7134.96756
799.755	6963.4163
799.943	7384.78616
800.131	7079.17867
800.318	7419.85892
800.506	7093.64402
800.694	7039.91004
800.882	6837.23747
801.07	7182.47863
801.258	6915.85057
801.446	7155.62599
801.634	6903.44016
801.822	7364.15218
802.01	6862.0662
802.197	7151.49448
802.385	6781.36083
802.573	6973.75509
802.761	6922.05548
802.949	7033.70899
803.136	6870.34172
803.324	7044.04396
803.512	7058.51198
803.699	7203.13195
803.887	6961.34847
804.075	7147.36289
804.262	6876.54812
804.45	6951.009
804.638	6754.45132
804.825	6969.61964
805.013	7060.57875
805.201	7039.91004
805.388	6655.05961
805.576	7013.03737
805.763	6748.24089
805.951	7134.96756
806.138	6932.39653
806.326	6994.43099
806.513	6804.12739
806.701	6986.1609
806.888	6791.70961
807.075	7296.04456
807.263	6878.61687
807.45	6919.9872
807.638	6986.1609
807.825	7031.64193
808.012	7112.24072
808.2	7070.91226
808.387	6942.73702
808.574	7066.77892
808.761	6979.9581
808.949	7236.17266
809.136	7126.70357
809.323	7072.97889
809.51	6773.08139
809.698	7176.2822
809.885	7039.91004
810.072	6963.4163
810.259	7015.10463
810.446	7044.04396
810.633	7172.15114
810.82	7351.77075
811.008	7281.59442
811.195	7287.78747
811.382	6990.29599
811.569	7209.32752
811.756	6986.1609
811.943	7378.59619
812.13	7172.15114
812.317	7403.35487
812.504	7298.10878
812.691	7293.98032
812.878	6986.1609
813.064	7192.80557
813.251	7147.36289
813.438	7390.97592
813.625	7010.97008
813.812	7298.10878
813.999	7046.11089
814.186	7194.87089
814.372	7081.24521
814.559	7120.50534
814.746	6733.74907
814.933	7201.06672
815.12	6793.77929
815.306	7081.24521
815.493	6862.0662
815.68	7217.58796
815.866	6810.33598
816.053	7048.17779
816.24	6901.37168
816.426	7196.93619
816.613	6804.12739
816.799	7126.70357
816.986	6961.34847
817.173	6948.94104
817.359	6808.26647
817.546	7052.31153
817.732	6779.291
817.919	6990.29599
818.105	6692.3377
818.292	7062.64549
818.478	6744.10048
818.665	6984.09332
818.851	7054.37837
819.037	6849.65225
819.224	6628.13191
819.41	6911.71386
819.597	6713.04453
819.783	6977.89045
819.969	6866.20401
820.156	6831.02977
820.342	6895.16609
820.528	6708.90335
820.714	6715.11509
820.901	6938.60089
821.087	6764.80159
821.273	6878.61687
821.459	6768.94153
821.646	7019.23909
821.832	6895.16609
822.018	6828.9605
822.204	6402.19974
822.39	6891.02892
822.576	6491.36184
822.762	6499.65381
822.948	6512.09106
823.134	6706.83272
823.32	6348.26688
823.507	6708.90335
823.693	6609.48737
823.879	6752.3812
824.065	6582.55307
824.25	6642.63192
824.436	6398.05161
824.622	6563.90397
824.808	6449.89644
824.994	6648.84587
825.18	6406.34776
825.366	6673.69958
825.552	6530.74537
825.738	6491.36184
825.923	6449.89644
826.109	6675.77058
826.295	6418.79129
826.481	6474.7768
826.667	6229.97421
826.852	6549.39781
827.038	6227.89822
827.224	6250.73281
827.409	6437.45501
827.595	6265.26243
827.781	6192.60282
827.966	6371.08655
828.152	6248.65705
828.338	6422.93895
828.523	6034.72863
828.709	6489.28879
828.894	6410.4957
829.08	6472.70356
829.266	6366.93773
829.451	6503.79965
829.637	6232.05017
829.822	6619.84568
830.008	6175.99088
830.193	6300.54389
830.378	6157.30064
830.564	6348.26688
830.749	6051.35336
830.935	6190.52641
831.12	5895.43729
831.305	6018.10239
831.491	6090.83107
831.676	6211.28946
831.861	5868.39835
832.047	6016.024
832.232	6049.27535
832.417	6130.30028
832.602	6092.9086
832.788	6001.47464
832.973	6194.67921
833.158	5876.71845
833.343	5885.03817
833.528	6111.60539
833.714	5978.60903
833.899	6283.9417
834.084	5853.83727
834.269	6076.28764
834.454	5851.75702
834.639	6007.71022
834.824	5899.59677
835.009	6202.98452
835.194	5857.99769
835.379	5895.43729
835.564	5793.50047
835.749	6086.67592
835.934	5887.11804
836.119	6016.024
836.304	5870.47841
836.489	5797.66227
836.674	5758.12139
836.859	5816.38918
837.044	5560.28926
837.228	5735.22542
837.413	5808.06634
837.598	5943.26565
837.783	5468.58966
837.968	5791.41954
838.152	5489.43448
838.337	5787.2576
838.522	5495.68747
838.707	5662.35558
838.891	5161.90007
839.076	5535.2848
839.261	5403.95577
839.445	5466.50505
839.63	5626.95123
839.815	5539.45245
839.999	5303.83298
840.184	5422.72278
840.368	5299.66002
840.553	5683.17848
840.737	5295.48697
840.922	5549.87115
841.106	5241.22883
841.291	5316.35128
841.475	5203.65624
841.66	5376.84452
841.844	4975.97249
842.029	5303.83298
842.213	5007.32143
842.397	5476.92787
842.582	5366.41606
842.766	5418.55249
842.951	5149.3714
843.135	5216.18128
843.319	5044.93332
843.504	5232.88002
843.688	5015.68028
843.872	5237.05447
844.056	5184.86712
844.241	5324.69635
844.425	5090.89322
844.609	5178.60366
844.793	5061.64731
844.977	5230.79276
845.161	5036.57577
845.346	5151.45957
845.53	4992.69257
845.714	5076.27083
845.898	4814.96655
846.082	5034.48632
846.266	4863.07344
846.45	5065.82557
846.634	4957.16063
846.818	4865.16477
847.002	4637.07611
847.186	5019.85956
847.37	4716.62377
847.554	4950.8896
847.738	4710.34487
847.922	4863.07344
848.106	4781.49378
848.29	4846.34198
848.473	4603.57267
848.657	4609.855
848.841	4607.76091
849.025	4844.25044
849.209	4641.26364
849.392	4814.96655
849.576	4572.158
849.76	4572.158
849.944	4492.55181
850.127	4745.92259
850.311	4465.31079
850.495	4563.77991
850.678	4572.158
850.862	4649.63842
851.046	4421.29822
851.229	4630.79465
851.413	4373.08292
851.596	4565.87446
851.78	4370.98634
851.964	4683.13397
852.147	4171.71323
852.331	4391.95115
852.514	4423.39428
852.698	4505.12333
852.881	4280.81299
853.065	4377.27601
853.248	4157.02234
853.431	4479.97949
853.615	4293.39771
853.798	4586.8188
853.982	4127.63748
854.165	4456.92819
854.348	4266.12984
854.532	4526.0741
854.715	4148.62709
854.898	4450.64101
855.081	3972.2498
855.265	3999.5558
855.448	4010.05719
855.631	4186.40308
855.814	4035.25843
855.997	4211.58327
856.181	3963.84726
856.364	4391.95115
856.547	4045.75807
856.73	4278.71546
856.913	3944.94035
857.096	4138.13254
857.279	3923.93075
857.462	4060.4567
857.645	3997.45546
857.828	3961.74657
858.011	4089.85091
858.194	4186.40308
858.377	3848.27956
858.56	4035.25843
858.743	3869.29638
858.926	3942.83948
859.109	3812.54641
859.292	3947.0412
859.475	3690.59073
859.658	3953.34362
859.841	3841.97412
860.023	3759.98733
860.206	3808.34213
860.389	3986.95346
860.572	3692.69396
860.755	4005.8567
860.937	3862.99154
861.12	3724.24019
861.303	3625.38097
861.486	3608.5497
861.668	3614.86157
861.851	3606.4457
862.034	3581.19632
862.216	3566.46627
862.399	3334.87716
862.581	3673.76415
862.764	3475.96188
862.947	3831.46467
863.129	3547.5263
863.312	3820.95472
863.494	3465.43593
863.677	3625.38097
863.859	3442.27726
864.042	3524.37542
864.224	3339.08979
864.406	3221.11044
864.589	3172.63942
864.771	3336.98348
864.954	3320.13243
865.136	3404.37658
865.318	3067.23808
865.501	3355.9396
865.683	3088.32153
865.865	3052.47874
866.048	2984.99784
866.23	3237.96787
866.412	3162.10109
866.594	3275.89318
866.777	3138.91534
866.959	3050.3702
867.141	2833.11015
867.323	3176.85463
867.505	3039.82727
867.687	3246.39619
867.869	3210.574
868.052	3252.71725
868.234	3079.88834
868.416	3280.10677
868.598	3122.05176
868.78	3248.50323
868.962	3090.42979
869.144	3339.08979
869.326	3008.19616
869.508	3229.53929
869.69	3073.56328
869.872	3181.06978
870.054	3126.26775
870.236	3273.78636
870.417	3105.18715
870.599	3311.70649
870.781	3033.50132
870.963	3098.86266
871.145	3162.10109
871.327	3119.94374
871.508	2976.56163
871.69	3071.4549
871.872	2807.78833
872.054	3098.86266
872.235	3058.80427
872.417	2966.01603
872.599	2911.17296
872.78	3126.26775
872.962	2959.6885
873.144	2883.74771
873.325	2934.37701
873.507	3164.20879
873.689	3033.50132
873.87	3164.20879
874.052	2892.18651
874.233	3109.4034
874.415	2738.14319
874.596	2938.59574
874.778	2748.69643
874.959	2854.21012
875.141	2666.37251
875.322	3060.91274
875.503	2742.36453
875.685	3084.10497
875.866	2894.29617
876.048	3153.67014
876.229	2856.32004
876.41	3079.88834
876.592	2807.78833
876.773	2984.99784
876.954	2818.33933
877.136	2898.51545
877.317	2712.81408
877.498	2936.48638
877.679	2814.11897
877.86	2913.28249
878.042	2801.45757
878.223	2849.99024
878.404	2984.99784
878.585	3025.06651
878.766	2805.67809
878.947	3077.78
879.128	2909.06341
879.309	3016.63146
879.49	2719.14653
879.672	3041.93588
879.853	2691.70505
880.034	2856.32004
880.215	2805.67809
880.396	2885.85743
880.576	2721.25733
880.757	2911.17296
880.938	2714.92491
881.119	2976.56163
881.3	2831.00007
881.481	3079.88834
881.662	2721.25733
881.843	3050.3702
882.023	2839.44029
882.204	3008.19616
882.385	2875.30869
882.566	3054.58726
882.747	2883.74771
882.927	2881.63798
883.108	2799.34729
883.289	3050.3702
883.469	2755.02821
883.65	2968.12518
883.831	2746.58581
884.011	2864.75958
884.192	2771.91237
884.373	3025.06651
884.553	2702.25972
884.734	2911.17296
884.914	2670.59473
885.095	3075.67165
885.275	2828.88998
885.456	3077.78
885.636	3046.15307
885.817	3181.06978
885.997	2919.611
886.178	3037.71863
886.358	2805.67809
886.538	3067.23808
886.719	2824.66976
886.899	3084.10497
887.08	2771.91237
887.26	3185.28487
887.44	2771.91237
887.621	3286.42702
887.801	2932.26763
887.981	3214.78863
888.161	3020.84902
888.342	3122.05176
888.522	3052.47874
888.702	3077.78
888.882	2961.79769
889.062	3060.91274
889.242	3079.88834
889.423	3237.96787
889.603	2826.77988
889.783	3170.53178
889.963	3037.71863
890.143	3162.10109
890.323	2961.79769
890.503	3090.42979
890.683	2767.69141
890.863	2984.99784
891.043	2820.44949
891.223	3058.80427
891.403	2706.48151
891.583	3065.12965
891.763	2721.25733
891.943	3231.64646
892.122	2898.51545
892.302	3041.93588
892.482	2949.1423
892.662	2974.45254
892.842	2748.69643
893.022	2900.62507
893.201	2698.03789
893.381	2898.51545
893.561	2774.02283
893.741	2866.86943
893.92	2615.70199
894.1	2807.78833
894.28	2522.78785
894.459	2831.00007
894.639	2679.03901
894.819	2790.90602
894.998	2695.92696
895.178	2700.14882
895.357	2619.9248
895.537	2624.14757
895.716	2539.68303
895.896	2619.9248
896.075	2520.6759
896.255	2797.23699
896.434	2505.89194
896.614	2968.12518
896.793	2518.56394
896.973	2679.03901
897.152	2628.37029
897.331	2805.67809
897.511	2577.69444
897.69	2613.59056
897.87	2408.72664
898.049	2550.24214
898.228	2586.1409
898.407	2624.14757
898.587	2404.50155
898.766	2666.37251
898.945	2377.03742
899.124	2638.92687
899.304	2370.6993
899.483	2434.07632
899.662	2319.99109
899.841	2484.77103
900.02	2254.48478
900.199	2611.47912
900.378	2265.05092
900.557	2520.6759
900.737	2281.95626
900.916	2653.70555
901.095	2265.05092
901.274	2294.63488
901.453	2286.1825
901.632	2262.93771
901.811	2163.60693
901.989	2360.13556
902.168	2186.85625
902.347	2417.1767
902.526	1947.97907
902.705	2100.19475
902.884	1933.17855
903.063	2205.87767
903.242	1778.81503
903.42	1964.89359
903.599	1990.26464
903.778	2123.4467
903.957	1776.70029
904.135	2095.96703
904.314	1723.83059
904.493	1931.06417
904.672	1768.24129
904.85	1945.86473
905.029	1827.45286
905.207	2070.60006
905.386	1804.19157
905.565	1791.50337
905.743	1734.40471
905.922	1840.14061
906.1	1393.89199
906.279	1654.03943
906.457	1448.88325
906.636	1647.69462
906.814	1417.15749
906.993	1497.52941
907.171	1421.38758
907.35	1546.17526
907.528	1419.27253
907.707	1436.19294
907.885	1317.7512
908.063	1601.16545
908.242	1266.99189
908.42	1372.74161
908.598	1381.20175
908.777	1501.7595
908.955	1271.22178
909.133	1429.84778
909.311	1216.23401
909.49	1533.48509
909.668	1192.97058
909.846	1512.33472
910.024	1241.61274
910.202	1370.62658
910.38	1250.07242
910.559	1514.44976
910.737	1317.7512
910.915	1516.5648
911.093	1351.59134
911.271	1563.09543
911.449	1152.78931
911.627	1379.08671
911.805	1190.85574
911.983	1317.7512
912.161	1343.13127
912.339	1410.81234
912.517	1326.2112
912.695	1501.7595
912.872	1478.49398
913.05	1482.72408
913.228	1396.00703
913.406	1423.50263
913.584	1455.22841
913.762	1406.58225
913.939	1262.762
914.117	1503.87455
914.295	1476.37892
914.473	1489.06922
914.65	1446.7682
914.828	1489.06922
915.006	1425.61768
915.184	1577.9005
915.361	1209.8894
915.539	1457.34346
915.716	1326.2112
915.894	1499.64446
916.072	1326.2112
916.249	1351.59134
916.427	1199.31511
916.604	1529.25502
916.782	1157.01885
916.959	1345.24629
917.137	1286.02648
917.314	1326.2112
917.492	1171.82237
917.669	1290.25642
917.847	1171.82237
918.024	1283.91152
918.201	1182.39643
918.379	1362.16646
918.556	1118.9536
918.733	1317.7512
918.911	1070.31686
919.088	1379.08671
919.265	1159.13363
919.442	1266.99189
919.62	964.59503
919.797	1212.00427
919.974	1076.66063
920.151	1212.00427
920.328	1008.99632
920.506	1233.15312
920.683	1097.80687
920.86	1135.87131
921.037	1006.88191
921.214	1114.72421
921.391	947.68104
921.568	1218.34889
921.745	1072.43144
921.922	1199.31511
922.099	1057.62946
922.276	1106.2655
922.453	945.56682
922.63	1080.88983
922.807	905.3981
922.984	1038.59873
923.161	896.94188
923.338	1076.66063
923.514	844.09347
923.691	888.48578
923.868	880.02982
924.045	1015.3396
924.222	894.82784
924.399	968.8236
924.575	894.82784
924.752	926.53919
924.929	822.95561
925.105	949.79526
925.282	719.39397
925.459	924.42505
925.635	795.47777
925.812	954.02373
925.989	829.29687
926.165	808.15966
926.342	793.36416
926.518	835.63822
926.695	761.66112
926.871	884.25779
927.048	721.50723
927.224	746.86714
927.401	679.24418
927.577	761.66112
927.754	772.22855
927.93	825.06936
928.107	658.11436
928.283	751.09394
928.459	694.03574
928.636	787.02337
928.812	677.13115
928.988	668.67912
929.165	516.57691
929.341	681.35723
929.517	590.50708
929.693	770.11505
929.87	531.3616
930.046	814.50072
930.222	668.67912
930.398	738.41367
930.574	516.57691
930.751	818.72815
930.927	601.06987
931.103	751.09394
931.279	628.53462
931.455	624.30913
931.631	410.99314
931.807	617.971
931.983	522.91312
932.159	617.971
932.335	468.00366
932.511	425.77255
932.687	516.57691
932.863	548.25922
933.039	404.65936
933.215	541.92251
933.391	404.65936
933.566	495.45715
933.742	297.00827
933.918	432.10681
934.094	286.45672
934.27	463.78027
934.445	345.55122
934.621	413.10444
934.797	328.66565
934.973	375.10364
935.148	322.33385
935.324	398.32572
935.5	351.8836
935.675	362.43791
935.851	303.33942
936.027	391.99222
936.202	216.8283
936.378	197.84241
936.553	229.48645
936.729	316.00221
936.904	189.40476
937.08	172.53045
937.255	204.17086
937.431	176.7489
937.606	193.62355
937.782	187.2954
937.957	206.28038
938.133	170.42125
938.308	100.82962
938.483	145.11251
938.659	126.13296
938.834	113.4809
939.009	170.42125
939.185	117.69816
939.36	157.7665
939.535	136.67694
939.71	109.26371
939.886	50.23254
940.061	143.00359
940.236	43.90883
940.411	71.31307
940.586	92.39587
940.761	117.69816
940.937	71.31307
941.112	43.90883
941.287	71.31307
941.462	33.36978
941.637	75.52945
941.812	128.24171
941.987	22.83131
942.162	105.04662
942.337	111.37229
942.512	-4.56592
942.687	56.55646
942.862	69.20492
943.037	92.39587
943.212	43.90883
943.386	130.35049
943.561	86.0708
943.736	24.93896
943.911	109.26371
944.086	102.93811
944.26	20.72369
944.435	50.23254
944.61	79.74592
944.785	50.23254
944.959	119.80683
945.134	35.47754
945.309	-21.42373
945.483	-6.67324
945.658	50.23254
945.833	67.09678
946.007	77.63768
946.182	111.37229
946.357	75.52945
946.531	92.39587
946.706	159.87558
946.88	94.50427
947.055	100.82962
947.229	27.04663
947.404	-0.35123
947.578	43.90883
947.752	88.17913
947.927	86.0708
948.101	50.23254
948.276	109.26371
948.45	56.55646
948.624	50.23254
948.799	16.50851
948.973	54.44846
949.147	67.09678
949.321	43.90883
949.496	102.93811
949.67	60.77252
949.844	86.0708
950.018	92.39587
950.193	94.50427
950.367	62.88058
950.541	96.6127
950.715	100.82962
950.889	187.2954
951.063	16.50851
951.237	100.82962
951.411	145.11251
951.585	94.50427
951.759	124.02423
951.933	100.82962
952.107	64.98867
952.281	96.6127
952.455	54.44846
952.629	54.44846
952.803	54.44846
952.977	94.50427
953.151	77.63768
953.325	119.80683
953.499	143.00359
953.672	119.80683
953.846	94.50427
954.02	71.31307
954.194	58.66448
954.368	92.39587
954.541	77.63768
954.715	105.04662
954.889	88.17913
955.062	113.4809
955.236	62.88058
955.41	75.52945
955.583	128.24171
955.757	117.69816
955.93	153.54842
956.104	56.55646
956.278	121.91552
956.451	86.0708
956.625	168.31207
956.798	50.23254
956.972	69.20492
957.145	92.39587
957.319	50.23254
957.492	119.80683
957.665	109.26371
957.839	94.50427
958.012	100.82962
958.185	33.36978
958.359	153.54842
958.532	75.52945
958.705	58.66448
958.879	100.82962
959.052	166.20292
959.225	147.22146
959.398	145.11251
959.572	75.52945
959.745	43.90883
959.918	75.52945
960.091	153.54842
960.264	75.52945
960.438	24.93896
960.611	52.34049
960.784	100.82962
960.957	86.0708
961.13	100.82962
961.303	79.74592
961.476	41.80097
961.649	117.69816
961.822	58.66448
961.995	31.26204
962.168	35.47754
962.341	58.66448
962.514	71.31307
962.686	96.6127
962.859	109.26371
963.032	-21.42373
963.205	90.28749
963.378	52.34049
963.551	109.26371
963.723	50.23254
963.896	92.39587
964.069	67.09678
964.242	41.80097
964.414	102.93811
964.587	86.0708
964.76	86.0708
964.932	33.36978
965.105	100.82962
965.278	92.39587
965.45	75.52945
965.623	18.61609
965.795	115.58952
965.968	132.45929
966.14	113.4809
966.313	92.39587
966.485	69.20492
966.658	94.50427
966.83	75.52945
967.003	67.09678
967.175	43.90883
967.348	81.85419
967.52	105.04662
967.692	62.88058
967.865	-25.63794
968.037	96.6127
968.209	88.17913
968.382	33.36978
968.554	58.66448
968.726	105.04662
968.898	8.07845
969.071	155.65745
969.243	20.72369
969.415	102.93811
969.587	50.23254
969.759	-12.99502
969.932	83.96248
970.104	62.88058
970.276	52.34049
970.448	102.93811
970.62	88.17913
970.792	126.13296
970.964	69.20492
971.136	67.09678
971.308	14.40096
971.48	46.01671
971.652	-10.88778
971.824	24.93896
971.996	-23.53085
972.168	113.4809
972.339	75.52945
972.511	60.77252
972.683	50.23254
972.855	92.39587
973.027	86.0708
973.199	77.63768
973.37	62.88058
973.542	86.0708
973.714	83.96248
973.886	33.36978
974.057	62.88058
974.229	33.36978
974.401	50.23254
974.572	69.20492
974.744	41.80097
974.915	81.85419
975.087	-8.78052
975.259	-0.35123
975.43	83.96248
975.602	86.0708
975.773	75.52945
975.945	77.63768
976.116	94.50427
976.288	86.0708
976.459	8.07845
976.63	83.96248
976.802	37.58533
976.973	54.44846
977.145	100.82962
977.316	24.93896
977.487	60.77252
977.659	37.58533
977.83	35.47754
978.001	27.04663
978.172	8.07845
978.344	3.86356
978.515	75.52945
978.686	75.52945
978.857	43.90883
979.028	35.47754
979.2	52.34049
979.371	-23.53085
979.542	-42.49378
979.713	-38.27997
979.884	20.72369
980.055	-21.42373
980.226	58.66448
980.397	62.88058
980.568	60.77252
980.739	86.0708
980.91	43.90883
981.081	54.44846
981.252	67.09678
981.423	105.04662
981.594	10.18593
981.765	46.01671
981.936	29.15432
982.106	54.44846
982.277	52.34049
982.448	-34.06606
982.619	-8.78052
982.79	16.50851
982.96	33.36978
983.131	33.36978
983.302	16.50851
983.472	-17.20943
983.643	35.47754
983.814	-0.35123
983.984	-17.20943
984.155	16.50851
984.326	71.31307
984.496	1.75615
984.667	-23.53085
984.837	12.29343
985.008	41.80097
985.178	-29.85205
985.349	3.86356
985.519	50.23254
985.69	67.09678
985.86	10.18593
986.031	-10.88778
986.201	77.63768
986.371	50.23254
986.542	41.80097
986.712	1.75615
986.882	71.31307
987.053	12.29343
987.223	54.44846
987.393	-71.98763
987.563	48.12461
987.734	-10.88778
987.904	58.66448
988.074	81.85419
988.244	128.24171
988.414	1.75615
988.585	-38.27997
988.755	1.75615
988.925	43.90883
989.095	64.98867
989.265	24.93896
989.435	-25.63794
989.605	18.61609
989.775	54.44846
989.945	20.72369
990.115	-29.85205
990.285	35.47754
990.455	41.80097
990.625	35.47754
990.795	24.93896
990.965	-0.35123
991.134	41.80097
991.304	1.75615
991.474	8.07845
991.644	46.01671
991.814	8.07845
991.984	67.09678
992.153	-25.63794
992.323	67.09678
992.493	-31.95906
992.662	77.63768
992.832	-84.62633
993.002	-59.34802
993.171	-53.02787
993.341	-10.88778
993.511	50.23254
993.68	-12.99502
993.85	-15.10224
994.019	58.66448
994.189	58.66448
994.358	43.90883
994.528	43.90883
994.697	-27.74501
994.867	-25.63794
995.036	88.17913
995.206	10.18593
995.375	22.83131
995.544	43.90883
995.714	3.86356
995.883	-12.99502
996.052	-25.63794
996.222	8.07845
996.391	54.44846
996.56	-6.67324
996.73	37.58533
996.899	3.86356
997.068	-38.27997
997.237	-17.20943
997.406	41.80097
997.576	22.83131
997.745	58.66448
997.914	119.80683
998.083	24.93896
998.252	3.86356
998.421	24.93896
998.59	83.96248
998.759	-63.56133
998.928	83.96248
999.097	20.72369
999.266	-8.78052
999.435	18.61609
999.604	-74.09415
999.773	10.18593
999.942	37.58533
1000.111	-34.06606
1000.28	46.01671
1000.448	62.88058
1000.617	-29.85205
1000.786	3.86356
1000.955	39.69314
1001.124	-4.56592
1001.292	92.39587
1001.461	-17.20943
1001.63	102.93811
1001.798	-42.49378
1001.967	77.63768
1002.136	-0.35123
1002.304	-36.17303
1002.473	-48.81431
1002.642	81.85419
1002.81	37.58533
1002.979	-21.42373
1003.147	60.77252
1003.316	10.18593
1003.484	-25.63794
1003.653	-65.66794
1003.821	-12.99502
1003.99	-4.56592
1004.158	50.23254
1004.327	33.36978
1004.495	50.23254
1004.663	-101.47647
1004.832	35.47754
1005	24.93896
1005.168	37.58533
1005.337	81.85419
1005.505	54.44846
1005.673	-31.95906
1005.842	-29.85205
1006.01	20.72369
1006.178	12.29343
1006.346	-23.53085
1006.514	58.66448
1006.683	16.50851
1006.851	90.28749
1007.019	-38.27997
1007.187	-17.20943
1007.355	20.72369
1007.523	16.50851
1007.691	94.50427
1007.859	-2.45859
1008.027	52.34049
1008.195	69.20492
1008.363	-21.42373
1008.531	12.29343
1008.699	33.36978
1008.867	-8.78052
1009.035	3.86356
1009.203	-12.99502
1009.37	50.23254
1009.538	29.15432
1009.706	-6.67324
1009.874	-27.74501
1010.042	-23.53085
1010.209	54.44846
1010.377	24.93896
1010.545	-42.49378
1010.713	-50.9211
1010.88	-17.20943
1011.048	3.86356
1011.216	8.07845
1011.383	52.34049
1011.551	-15.10224
1011.718	-0.35123
1011.886	58.66448
1012.054	-6.67324
1012.221	-21.42373
1012.389	-59.34802
1012.556	-76.20064
1012.724	-48.81431
1012.891	-8.78052
1013.058	37.58533
1013.226	52.34049
1013.393	16.50851
1013.561	50.23254
1013.728	31.26204
1013.895	60.77252
1014.063	-23.53085
1014.23	-71.98763
1014.397	-65.66794
1014.565	-74.09415
1014.732	-8.78052
1014.899	16.50851
1015.066	-23.53085
1015.233	16.50851
1015.401	-15.10224
1015.568	-29.85205
1015.735	98.72115
1015.902	100.82962
1016.069	-4.56592
1016.236	-15.10224
1016.403	60.77252
1016.57	-29.85205
1016.737	37.58533
1016.904	27.04663
1017.071	12.29343
1017.238	16.50851
1017.405	35.47754
1017.572	-12.99502
1017.739	58.66448
1017.906	41.80097
1018.073	-8.78052
1018.24	3.86356
1018.407	-59.34802
1018.573	-38.27997
1018.74	-38.27997
1018.907	60.77252
1019.074	8.07845
1019.241	41.80097
1019.407	-12.99502
1019.574	-6.67324
1019.741	-31.95906
1019.907	-15.10224
1020.074	33.36978
1020.241	-8.78052
1020.407	75.52945
1020.574	-61.45468
1020.74	-29.85205
1020.907	52.34049
1021.073	-61.45468
1021.24	-0.35123
1021.406	46.01671
1021.573	33.36978
1021.739	24.93896
1021.906	22.83131
1022.072	-31.95906
1022.239	-31.95906
1022.405	-25.63794
1022.571	50.23254
1022.738	41.80097
1022.904	54.44846
1023.07	86.0708
1023.237	-10.88778
1023.403	29.15432
1023.569	1.75615
1023.735	43.90883
1023.902	37.58533
1024.068	29.15432
1024.234	-25.63794
1024.4	-23.53085
1024.566	-6.67324
1024.732	-25.63794
1024.898	-65.66794
1025.065	27.04663
1025.231	18.61609
1025.397	24.93896
1025.563	18.61609
1025.729	-25.63794
1025.895	-59.34802
1026.061	-42.49378
1026.227	-61.45468
1026.392	27.04663
1026.558	-40.38689
1026.724	18.61609
1026.89	-34.06606
1027.056	-48.81431
1027.222	-29.85205
1027.388	24.93896
1027.553	48.12461
1027.719	33.36978
1027.885	54.44846
1028.051	10.18593
1028.216	-76.20064
1028.382	-8.78052
1028.548	16.50851
1028.713	-50.9211
1028.879	79.74592
1029.045	-4.56592
1029.21	-34.06606
1029.376	20.72369
1029.541	41.80097
1029.707	12.29343
1029.873	41.80097
1030.038	81.85419
1030.204	-6.67324
1030.369	-2.45859
1030.534	-21.42373
1030.7	75.52945
1030.865	-17.20943
1031.031	-25.63794
1031.196	56.55646
1031.361	-50.9211
1031.527	-25.63794
1031.692	71.31307
1031.857	-6.67324
1032.023	-15.10224
1032.188	3.86356
1032.353	-0.35123
1032.518	1.75615
1032.684	20.72369
1032.849	-36.17303
1033.014	-67.77453
1033.179	-21.42373
1033.344	16.50851
1033.509	-31.95906
1033.674	-46.70749
1033.839	33.36978
1034.004	56.55646
1034.17	-8.78052
1034.335	-0.35123
1034.5	8.07845
1034.664	-67.77453
1034.829	-4.56592
1034.994	60.77252
1035.159	10.18593
1035.324	-29.85205
1035.489	-0.35123
1035.654	3.86356
1035.819	-46.70749
1035.984	35.47754
1036.148	10.18593
1036.313	-42.49378
1036.478	33.36978
1036.643	-17.20943
1036.807	-23.53085
1036.972	46.01671
1037.137	24.93896
1037.301	-90.94533
1037.466	-31.95906
1037.631	-6.67324
1037.795	24.93896
1037.96	-84.62633
1038.124	16.50851
1038.289	29.15432
1038.454	-46.70749
1038.618	1.75615
1038.783	-38.27997
1038.947	24.93896
1039.111	-8.78052
1039.276	20.72369
1039.44	-44.60065
1039.605	33.36978
1039.769	-21.42373
1039.933	-109.90091
1040.098	-38.27997
1040.262	43.90883
1040.426	-12.99502
1040.591	58.66448
1040.755	-63.56133
1040.919	-50.9211
1041.083	-10.88778
1041.248	22.83131
1041.412	-46.70749
1041.576	10.18593
1041.74	-36.17303
1041.904	-0.35123
1042.068	16.50851
1042.232	5.97099
1042.397	-17.20943
1042.561	16.50851
1042.725	-42.49378
1042.889	31.26204
1043.053	39.69314
1043.217	-46.70749
1043.381	-40.38689
1043.544	-48.81431
1043.708	22.83131
1043.872	-2.45859
1044.036	24.93896
1044.2	-38.27997
1044.364	-34.06606
1044.528	-15.10224
1044.691	-25.63794
1044.855	-6.67324
1045.019	-59.34802
1045.183	29.15432
1045.346	29.15432
1045.51	46.01671
1045.674	-23.53085
1045.837	43.90883
1046.001	-34.06606
1046.165	-71.98763
1046.328	-0.35123
1046.492	10.18593
1046.655	-34.06606
1046.819	-17.20943
1046.983	-59.34802
1047.146	-57.24133
1047.31	-4.56592
1047.473	56.55646
1047.636	1.75615
1047.8	-17.20943
1047.963	33.36978
1048.127	-25.63794
1048.29	-15.10224
