Data from mixed_try6.1_USB4F045381__3__00287.txt Node

Date: Thu Apr 03 20:31:31 EDT 2025
User: mmckonesweet
Spectrometer: USB4F04538
Trigger mode: 4
Integration Time (sec): 2.700000E-3
Scans to average: 1
Electric dark correction enabled: true
Nonlinearity correction enabled: true
Boxcar width: 0
XAxis mode: Wavelengths
Number of Pixels in Spectrum: 3648
>>>>>Begin Spectral Data<<<<<
345.52	-108.32136
345.736	-108.32136
345.952	-108.32136
346.168	-7.20006
346.384	-17.73622
346.6	-2.98542
346.816	-45.12736
347.032	22.3044
347.248	-2.98542
347.464	-17.73622
347.68	-15.62904
347.896	58.13747
348.112	30.7351
348.328	-2.98542
348.544	-7.20006
348.76	-15.62904
348.975	-0.87807
349.191	20.19678
349.407	-85.15292
349.623	-78.83371
349.839	-53.55456
350.055	-0.87807
350.27	-13.52183
350.486	-36.69976
350.702	-70.40773
350.918	-68.30117
351.133	-11.4146
351.349	7.55158
351.565	41.27401
351.781	-24.05762
351.996	-24.05762
352.212	18.08919
352.428	-49.34101
352.644	-32.48582
352.859	53.92147
353.075	13.87408
353.291	13.87408
353.506	-0.87807
353.722	-17.73622
353.938	15.98162
354.153	-36.69976
354.369	-24.05762
354.584	-32.48582
354.8	5.44413
355.016	-11.4146
355.231	15.98162
355.447	13.87408
355.662	-36.69976
355.878	-2.98542
356.093	-0.87807
356.309	-40.91361
356.524	-70.40773
356.74	7.55158
356.955	32.84284
357.171	-11.4146
357.386	18.08919
357.602	-66.19459
357.817	-7.20006
358.033	13.87408
358.248	-5.09275
358.464	-43.0205
358.679	49.70556
358.895	-17.73622
359.11	-13.52183
359.325	-11.4146
359.541	-24.05762
359.756	-78.83371
359.972	-15.62904
360.187	43.38186
360.402	26.51971
360.618	-49.34101
360.833	-70.40773
361.048	-83.04654
361.264	1.22931
361.479	-28.27177
361.694	-11.4146
361.909	-21.95051
362.125	15.98162
362.34	24.41204
362.555	-24.05762
362.77	-7.20006
362.986	-11.4146
363.201	-87.25927
363.416	47.59764
363.631	-93.57817
363.847	7.55158
364.062	72.8942
364.277	-36.69976
364.492	62.35357
364.707	-57.768
364.922	7.55158
365.138	-49.34101
365.353	-11.4146
365.568	-28.27177
365.783	98.19403
365.998	-53.55456
366.213	24.41204
366.428	-2.98542
366.643	-32.48582
366.858	-118.85142
367.073	30.7351
367.288	-36.69976
367.503	-17.73622
367.718	5.44413
367.933	-43.0205
368.148	-40.91361
368.363	-13.52183
368.578	-17.73622
368.793	51.8135
369.008	-19.84338
369.223	-2.98542
369.438	15.98162
369.653	-11.4146
369.868	-34.5928
370.083	-51.44779
370.298	-36.69976
370.513	-11.4146
370.728	-7.20006
370.943	26.51971
371.157	30.7351
371.372	56.02946
371.587	-43.0205
371.802	39.16618
372.017	-76.72725
372.232	-28.27177
372.446	-38.8067
372.661	93.97717
372.876	7.55158
373.091	-28.27177
373.306	-11.4146
373.52	41.27401
373.735	-45.12736
373.95	-7.20006
374.165	-36.69976
374.379	13.87408
374.594	20.19678
374.809	3.33671
375.023	32.84284
375.238	5.44413
375.453	-43.0205
375.667	-36.69976
375.882	18.08919
376.097	-45.12736
376.311	-74.62077
376.526	9.65906
376.741	-99.89684
376.955	-5.09275
377.17	22.3044
377.384	-26.16471
377.599	66.56975
377.813	-78.83371
378.028	5.44413
378.242	1.22931
378.457	-34.5928
378.672	-36.69976
378.886	13.87408
379.101	-19.84338
379.315	56.02946
379.53	-45.12736
379.744	9.65906
379.958	-28.27177
380.173	-13.52183
380.387	9.65906
380.602	-5.09275
380.816	-36.69976
381.031	56.02946
381.245	-9.30734
381.459	22.3044
381.674	-9.30734
381.888	-34.5928
382.103	9.65906
382.317	34.9506
382.531	-95.68442
382.746	7.55158
382.96	24.41204
383.174	-61.98135
383.388	5.44413
383.603	58.13747
383.817	-64.08798
384.031	34.9506
384.246	30.7351
384.46	-28.27177
384.674	-2.98542
384.888	-61.98135
385.103	-2.98542
385.317	-45.12736
385.531	9.65906
385.745	-32.48582
385.959	15.98162
386.174	-45.12736
386.388	-66.19459
386.602	41.27401
386.816	32.84284
387.03	-2.98542
387.244	-53.55456
387.458	-11.4146
387.672	-51.44779
387.887	98.19403
388.101	-28.27177
388.315	9.65906
388.529	-43.0205
388.743	64.46165
388.957	-40.91361
389.171	9.65906
389.385	5.44413
389.599	58.13747
389.813	-21.95051
390.027	-49.34101
390.241	30.7351
390.455	-7.20006
390.669	-53.55456
390.883	-53.55456
391.097	-9.30734
391.311	41.27401
391.525	-70.40773
391.738	-74.62077
391.952	-43.0205
392.166	-17.73622
392.38	-36.69976
392.594	-5.09275
392.808	1.22931
393.022	-83.04654
393.236	-2.98542
393.449	-30.3788
393.663	47.59764
393.877	-32.48582
394.091	-32.48582
394.305	-17.73622
394.518	85.54372
394.732	-51.44779
394.946	43.38186
395.16	49.70556
395.373	5.44413
395.587	72.8942
395.801	13.87408
396.015	11.76656
396.228	64.46165
396.442	-9.30734
396.656	-9.30734
396.869	13.87408
397.083	-9.30734
397.297	7.55158
397.51	13.87408
397.724	-59.87469
397.938	22.3044
398.151	7.55158
398.365	131.93208
398.578	22.3044
398.792	13.87408
399.005	-24.05762
399.219	58.13747
399.433	-24.05762
399.646	-19.84338
399.86	32.84284
400.073	-45.12736
400.287	58.13747
400.5	-59.87469
400.714	45.48974
400.927	30.7351
401.141	30.7351
401.354	11.76656
401.567	13.87408
401.781	-0.87807
401.994	83.43541
402.208	64.46165
402.421	15.98162
402.635	7.55158
402.848	56.02946
403.061	49.70556
403.275	62.35357
403.488	37.05838
403.701	26.51971
403.915	-9.30734
404.128	-17.73622
404.341	24.41204
404.555	13.87408
404.768	-36.69976
404.981	58.13747
405.195	-61.98135
405.408	34.9506
405.621	-17.73622
405.834	-2.98542
406.048	47.59764
406.261	22.3044
406.474	-40.91361
406.687	-36.69976
406.9	-34.5928
407.114	41.27401
407.327	72.8942
407.54	-112.53347
407.753	-19.84338
407.966	-7.20006
408.179	3.33671
408.392	22.3044
408.605	18.08919
408.819	9.65906
409.032	20.19678
409.245	-51.44779
409.458	-61.98135
409.671	51.8135
409.884	85.54372
410.097	-38.8067
410.31	81.32712
410.523	-9.30734
410.736	47.59764
410.949	7.55158
411.162	51.8135
411.375	91.86877
411.588	30.7351
411.801	47.59764
412.014	-24.05762
412.227	142.47636
412.44	-91.4719
412.653	34.9506
412.865	-36.69976
413.078	89.7604
413.291	87.65205
413.504	5.44413
413.717	49.70556
413.93	20.19678
414.143	66.56975
414.356	-24.05762
414.568	89.7604
414.781	51.8135
414.994	28.62739
415.207	-11.4146
415.42	32.84284
415.632	56.02946
415.845	49.70556
416.058	-19.84338
416.271	72.8942
416.483	66.56975
416.696	64.46165
416.909	-2.98542
417.121	106.62802
417.334	47.59764
417.547	30.7351
417.759	58.13747
417.972	26.51971
418.185	7.55158
418.397	39.16618
418.61	30.7351
418.823	41.27401
419.035	41.27401
419.248	53.92147
419.46	7.55158
419.673	47.59764
419.885	24.41204
420.098	-7.20006
420.311	34.9506
420.523	47.59764
420.736	104.51949
420.948	13.87408
421.161	49.70556
421.373	106.62802
421.586	77.11062
421.798	68.67788
422.01	39.16618
422.223	5.44413
422.435	98.19403
422.648	49.70556
422.86	41.27401
423.073	81.32712
423.285	75.0024
423.497	-28.27177
423.71	-2.98542
423.922	22.3044
424.134	7.55158
424.347	7.55158
424.559	30.7351
424.771	62.35357
424.984	7.55158
425.196	58.13747
425.408	41.27401
425.621	89.7604
425.833	32.84284
426.045	81.32712
426.257	-32.48582
426.47	159.34831
426.682	98.19403
426.894	66.56975
427.106	81.32712
427.318	108.73657
427.531	89.7604
427.743	140.36746
427.955	13.87408
428.167	75.0024
428.379	131.93208
428.591	60.24551
428.804	75.0024
429.016	117.171
429.228	70.78603
429.44	131.93208
429.652	110.84515
429.864	108.73657
430.076	81.32712
430.288	115.06236
430.5	81.32712
430.712	85.54372
430.924	83.43541
431.136	81.32712
431.348	117.171
431.56	134.0409
431.772	66.56975
431.984	49.70556
432.196	165.67563
432.408	102.41098
432.62	224.73956
432.832	136.14973
433.044	176.22159
433.256	216.30089
433.468	212.08167
433.679	100.3025
433.891	174.11236
434.103	79.21886
434.315	136.14973
434.527	134.0409
434.739	134.0409
434.95	142.47636
435.162	180.44012
435.374	134.0409
435.586	252.16739
435.798	176.22159
436.009	224.73956
436.221	184.65873
436.433	250.05744
436.645	207.86254
436.856	207.86254
437.068	174.11236
437.28	224.73956
437.491	321.80621
437.703	233.17854
437.915	193.0962
438.126	283.8189
438.338	218.41053
438.55	172.00315
438.761	235.28834
438.973	283.8189
439.184	180.44012
439.396	334.46994
439.608	233.17854
439.819	283.8189
440.031	247.94751
440.242	283.8189
440.454	224.73956
440.665	271.15779
440.877	304.92223
441.088	258.49735
441.3	321.80621
441.511	288.03942
441.723	258.49735
441.934	241.61784
442.146	351.3559
442.357	321.80621
442.569	326.02738
442.78	315.47458
442.991	372.4649
443.203	353.46672
443.414	269.04767
443.626	334.46994
443.837	355.57756
444.048	351.3559
444.26	330.24862
444.471	359.79929
444.682	359.79929
444.894	330.24862
445.105	351.3559
445.316	433.6904
445.528	345.02353
445.739	313.36408
445.95	361.91018
446.161	437.91335
446.373	452.69416
446.584	404.13155
446.795	478.03445
447.006	328.13799
447.217	416.79924
447.429	397.79792
447.64	421.02194
447.851	406.24279
448.062	387.2422
448.273	385.13111
448.484	380.90897
448.695	520.27302
448.907	368.24296
449.118	414.68792
449.329	385.13111
449.54	448.471
449.751	380.90897
449.962	497.04108
450.173	497.04108
450.384	522.3851
450.595	579.4165
450.806	621.66823
451.017	478.03445
451.228	537.17005
451.439	647.02168
451.65	532.94571
451.861	554.06798
452.072	630.11918
452.283	575.19162
452.494	672.37686
452.705	623.78095
452.915	632.23195
453.126	632.23195
453.337	613.21748
453.548	613.21748
453.759	735.77199
453.97	750.56559
454.181	697.73371
454.391	716.75241
454.602	942.92406
454.813	849.90653
455.024	826.65467
455.235	750.56559
455.445	799.17662
455.656	752.679
455.867	763.24622
456.078	843.56501
456.288	739.99868
456.499	824.54092
456.71	887.95728
456.921	809.74492
457.131	1057.10082
457.342	816.086
457.553	917.55413
457.763	957.72367
457.974	1145.91634
458.184	953.49517
458.395	1135.34263
458.606	1012.69656
458.816	1109.96618
459.027	1177.63809
459.237	1137.45737
459.448	1128.99846
459.659	1327.79745
459.869	1222.04993
460.08	1217.82017
460.29	1359.52268
460.501	1268.5781
460.711	1281.26782
460.922	1348.94757
461.132	1412.39863
461.343	1338.37249
461.553	1361.6377
461.764	1439.89428
461.974	1353.17761
462.184	1433.54912
462.395	1458.92975
462.605	1681.00457
462.816	1497.00065
463.026	1611.21161
463.236	1522.38116
463.447	1645.05095
463.657	1598.52171
463.867	1968.59359
464.078	1793.08941
464.288	1881.90321
464.498	2010.87794
464.709	2025.67685
464.919	1793.08941
465.129	2010.87794
465.339	2122.91826
465.55	2175.76011
465.76	1996.07871
465.97	2163.07853
466.18	2053.15966
466.391	2501.13983
466.601	2215.91648
466.811	2382.84728
467.021	2304.67187
467.231	2403.97341
467.441	2340.59198
467.651	2545.49057
467.862	2579.27817
468.072	2769.27428
468.282	2693.28827
468.492	2520.14791
468.702	2971.81616
468.912	3157.35871
469.122	2830.47255
469.332	3165.78955
469.542	3039.30011
469.752	3081.46958
469.962	3132.06464
470.172	3325.9251
470.382	3233.22683
470.592	3233.22683
470.802	3294.32711
471.012	3448.06713
471.222	3467.01485
471.432	3706.8903
471.642	3534.37266
471.852	3704.78719
472.062	3900.29254
472.272	3908.69753
472.482	3988.52879
472.691	4200.56731
472.901	4009.53213
473.111	4125.01363
473.321	4169.08993
473.531	4328.52596
473.741	4380.9449
473.95	4734.93605
474.16	4401.90867
474.37	4544.40421
474.58	4427.06232
474.79	4856.27646
474.999	4676.33066
475.209	4655.39588
475.419	4739.12148
475.628	5326.261
475.838	5048.58963
476.048	5121.70096
476.258	5175.99382
476.467	5572.26936
476.677	5486.82901
476.886	5655.58763
477.096	5892.83756
477.306	5915.71388
477.515	5538.9315
477.725	5838.75493
477.935	5844.99605
478.144	6025.89613
478.354	5994.71919
478.563	6515.71843
478.773	6341.52416
478.982	6270.97019
479.192	6584.10708
479.401	6418.27283
479.611	6582.03507
479.82	6631.75702
480.03	6876.03093
480.239	7074.52886
480.449	6938.08387
480.658	7155.10956
480.868	7241.85097
481.077	7363.63631
481.287	7466.7847
481.496	7574.00172
481.705	7487.40788
481.915	7732.65938
482.124	7526.58598
482.333	7961.15494
482.543	7714.12146
482.752	7989.95615
482.961	7940.5802
483.171	8290.07615
483.38	8220.22314
483.589	8248.9889
483.799	8257.20698
484.008	8520.02107
484.217	8606.18865
484.426	8776.37552
484.636	8706.67579
484.845	8772.27612
485.054	8737.42828
485.263	9024.25535
485.472	9138.88933
485.682	9216.64601
485.891	9147.0754
486.1	9147.0754
486.309	9509.04113
486.518	9637.75387
486.727	9459.99113
486.936	9901.11777
487.146	9980.69061
487.355	9684.72877
487.564	9868.46605
487.773	10080.63566
487.982	10323.21985
488.191	10363.97148
488.4	10137.73186
488.609	10341.55874
488.818	10502.48789
489.027	10292.65263
489.236	10693.86997
489.445	10803.76414
489.654	10545.25303
489.863	11051.91906
490.072	10781.3811
490.281	10879.04215
490.49	10999.04764
490.698	11041.75206
490.907	11043.78548
491.116	11543.69051
491.325	11590.39915
491.534	11667.55929
491.743	11346.6465
491.952	11509.16356
492.16	11959.84097
492.369	11992.30605
492.578	11900.99274
492.787	11884.75753
492.996	12276.29125
493.204	12006.50887
493.413	12051.14381
493.622	12351.32052
493.831	12162.71482
494.039	12397.95557
494.248	12284.40299
494.457	12797.25613
494.665	12669.58676
494.874	12752.67577
495.083	12770.91352
495.291	12900.59119
495.5	12979.60277
495.709	12922.87731
495.917	12718.22542
496.126	13001.88668
496.335	13086.96515
496.543	13109.24619
496.752	13218.6177
496.96	13230.76928
497.169	13352.2765
497.377	13429.2234
497.586	13680.2758
497.794	14058.78769
498.003	13528.43617
498.211	13639.78711
498.42	13518.31283
498.628	13714.69017
498.837	13601.32161
499.045	13951.51856
499.254	13832.09718
499.462	14291.51993
499.671	14376.51151
499.879	14097.24104
500.087	14368.4172
500.296	14370.44078
500.504	14408.88849
500.713	14291.51993
500.921	14410.91204
501.129	14663.84494
501.338	14301.63814
501.546	14712.40604
501.754	14461.50026
501.962	14591.00222
502.171	14730.61631
502.379	15098.85786
502.587	14833.80666
502.795	15216.20758
503.004	14771.08335
503.212	15017.92682
503.42	14912.71577
503.628	15240.48685
503.837	14955.20498
504.045	15046.25273
504.253	15404.37277
504.461	15479.23507
504.669	15454.95533
504.877	15936.52527
505.085	15483.2817
505.294	15972.94901
505.502	15825.23308
505.71	16027.58544
505.918	15711.92093
506.126	15764.52973
506.334	15622.89208
506.542	16163.16942
506.75	15677.52321
506.958	16252.21361
507.166	16252.21361
507.374	16128.76685
507.582	16231.976
507.79	16264.35626
507.998	16290.66555
508.206	16195.54874
508.414	16225.90475
508.622	16553.77641
508.83	16438.40824
509.037	16719.75711
509.245	16318.99898
509.453	16723.80561
509.661	16863.48493
509.869	16689.39363
510.077	16673.2
510.285	16995.07793
510.492	16863.48493
510.7	17136.80614
510.908	17027.47176
511.116	17047.71826
511.324	16958.63568
511.531	17019.37324
511.739	17003.17632
511.947	17177.30243
512.155	17148.95491
512.362	17379.80142
512.57	17312.97346
512.778	17501.31538
512.985	17553.97495
513.193	17663.35182
513.401	17677.531
513.608	17829.46112
513.816	17665.3774
514.024	17768.68679
514.231	17634.99394
514.439	17645.12168
514.646	17551.94955
514.854	17942.91483
515.061	17517.5181
515.269	18236.73067
515.477	17902.39439
515.684	17867.95312
515.892	17770.71255
516.099	18392.78841
516.307	17643.09612
516.514	18336.03757
516.722	17971.27996
516.929	18546.84143
517.136	18350.225
517.344	18301.58314
517.551	18275.23637
517.759	18852.98706
517.966	18704.97168
518.173	18638.06752
518.381	18885.43162
518.588	19001.0237
518.796	18611.71251
519.003	18891.51509
519.21	18709.02662
519.418	18962.49156
519.625	19136.91191
519.832	19059.83875
520.039	18846.90382
520.247	19236.30443
520.454	19110.54411
520.661	19388.45495
520.868	19422.94564
521.076	19404.68571
521.283	19335.70681
521.49	19207.90556
521.697	19228.19038
521.904	19524.39578
522.112	19463.52445
522.319	19853.16596
522.526	19406.71458
522.733	20102.86131
522.94	19767.91869
523.147	19698.91442
523.354	19883.6132
523.561	20064.28633
523.768	19838.95756
523.975	20295.759
524.183	20027.74301
524.39	20285.60554
524.597	20486.66349
524.804	20307.94329
525.011	20379.0213
525.218	20340.43545
525.425	20624.78767
525.632	20608.53677
525.838	20799.50173
526.045	20825.91466
526.252	20551.6607
526.459	20779.18456
526.666	20951.89365
526.873	21118.53527
527.08	20675.57347
527.287	21043.33991
527.494	20945.79752
527.701	21815.87844
527.907	20980.3427
528.114	21004.72825
528.321	21333.99061
528.528	21033.1788
528.735	21697.92768
528.941	21435.6362
529.148	21403.10852
529.355	21201.86637
529.562	20972.21432
529.768	21413.27331
529.975	21220.15948
530.182	21401.07558
530.388	21657.25804
530.595	22019.27225
530.802	21571.85691
531.008	22359.02391
531.215	21880.96029
531.422	22041.6479
531.628	22534.02574
531.835	22375.30202
532.042	22236.94553
532.248	22165.73929
532.455	22304.087
532.661	22499.43025
532.868	22133.18938
533.074	22493.32527
533.281	22336.64188
533.487	22580.83305
533.694	22350.88494
533.9	22861.71592
534.107	22507.57027
534.313	22759.93912
534.52	22448.5564
534.726	23181.34994
534.933	22770.11641
535.139	23150.80813
535.345	22973.68024
535.552	23112.12289
535.758	22987.93098
535.965	23014.39707
536.171	23026.61238
536.377	23085.65473
536.584	23352.39751
536.79	23073.43884
536.996	23439.96626
537.203	22975.71605
537.409	23218.00108
537.615	23863.63456
537.821	22792.50676
538.028	24136.64168
538.234	23480.69788
538.44	23757.70535
538.646	23643.63668
538.853	23604.93695
539.059	23698.63291
539.265	24354.67547
539.471	23896.22974
539.677	23963.45963
539.883	24232.40973
540.09	24260.93755
540.296	24075.5163
540.502	24271.12618
540.708	24118.3038
540.914	24423.9636
541.12	24644.07501
541.326	24393.39494
541.532	24393.39494
541.738	24876.44611
541.944	24725.60515
542.15	24525.86336
542.356	24764.33333
542.562	24754.14162
542.768	24279.27713
542.974	24593.12068
543.18	24595.15882
543.386	25025.2613
543.592	25227.09844
543.798	25347.3954
544.004	25439.15225
544.21	25190.39917
544.415	25076.22822
544.621	25641.0319
544.827	25349.43439
545.033	25408.56616
545.239	25543.1484
545.445	26122.35618
545.651	25486.05182
545.856	25987.73826
546.062	25955.10479
546.268	25380.01957
546.474	24986.5274
546.679	25245.44834
546.885	25198.5545
547.091	25231.17618
547.297	25204.67103
547.502	25673.66074
547.708	25685.89669
547.914	25653.26766
548.119	25938.78822
548.325	25973.46106
548.531	25759.31382
548.736	26316.13762
548.942	26244.74268
549.147	25732.80179
549.353	26161.11124
549.559	25887.79971
549.764	26175.38957
549.97	26099.91933
550.175	26295.73886
550.381	26454.85356
550.586	26279.41997
550.792	26844.52085
550.997	26736.38775
551.203	26756.78991
551.408	26683.34285
551.614	26493.61375
551.819	27032.23318
552.025	27003.66749
552.23	27044.4757
552.435	26687.42319
552.641	27403.61116
552.846	27026.11194
553.052	26977.14245
553.257	26928.17377
553.462	27195.47083
553.668	27166.90362
553.873	27303.62049
554.078	27373.00145
554.283	27289.33637
554.489	27468.91284
554.694	27621.96864
554.899	27287.29578
555.105	27362.79827
555.31	27446.46524
555.515	27281.17404
555.72	27144.45814
555.925	27281.17404
556.131	27793.39923
556.336	27407.69248
556.541	27805.64459
556.746	27701.56037
556.951	27721.9688
557.156	27544.4195
557.361	27877.07671
557.567	27760.74514
557.772	28075.05305
557.977	28011.7811
558.182	28285.28687
558.387	28177.10685
558.592	28181.18905
558.797	28168.94244
559.002	28044.43746
559.207	28360.81059
559.412	28403.67606
559.617	28183.23016
559.822	28317.94559
560.027	28260.79301
560.232	28564.93608
560.437	28307.73971
560.642	28581.26658
560.847	28483.28461
561.051	28328.1515
561.256	28413.88219
561.461	28928.30551
561.666	28769.07214
561.871	28352.64579
562.076	28807.85917
562.281	29097.75308
562.485	28362.85179
562.69	28650.67195
562.895	28528.19271
563.1	28807.85917
563.305	28662.92008
563.509	28954.84502
563.714	28632.29982
563.919	28752.74087
564.123	28893.60026
564.328	29124.29371
564.533	28887.47583
564.737	28646.58924
564.942	29340.70847
565.147	29361.12557
565.351	29083.46204
565.556	28836.43933
565.761	29234.54128
565.965	29099.79466
566.17	29210.04155
566.374	29273.33281
566.579	30079.87568
566.784	29383.58449
566.988	29816.45436
567.193	29161.04256
567.397	29455.04555
567.602	29636.76667
567.806	29112.04416
568.011	29744.98665
568.215	29822.58023
568.42	29499.96459
568.624	29830.74806
568.828	29232.49963
569.033	29361.12557
569.237	30179.93992
569.442	30157.47628
569.646	29579.59507
569.85	29959.39384
570.055	30161.56057
570.259	29806.24461
570.463	30135.01278
570.668	30006.36087
570.872	29642.89225
571.076	29910.3854
571.281	30265.71151
571.485	30449.51493
571.689	30947.87856
571.893	30181.98208
572.098	30516.91202
572.302	30247.33171
572.506	30275.92256
572.71	30320.8515
572.914	30604.73455
573.119	30388.24602
573.323	30269.79593
573.527	30551.63227
573.731	30690.517
573.935	30547.54752
574.139	30343.31619
574.343	30153.39199
574.547	30447.47261
574.751	30118.67577
574.955	30594.5225
575.159	30347.4007
575.364	30909.06867
575.568	30892.72781
575.772	30900.89823
575.976	30900.89823
576.18	30459.72652
576.383	31015.28643
576.587	30931.53749
576.791	31199.13418
576.995	31411.59587
577.199	31148.06415
577.403	31037.75607
577.607	31158.27808
577.811	30945.83592
578.015	31540.30711
578.219	31611.81623
578.422	31513.74711
578.626	31495.35958
578.83	31123.55087
579.034	31115.37982
579.238	31470.84309
579.442	31857.0067
579.645	31511.70404
579.849	31325.79198
580.053	31497.40263
580.257	31462.67097
580.46	31906.04794
580.664	32214.62483
580.868	32077.70101
581.071	32020.48179
581.275	31742.58126
581.479	31793.66333
581.682	31713.97579
581.886	32026.61235
582.09	31938.74272
582.293	31707.84609
582.497	31603.64365
582.7	32083.83173
582.904	32419.00627
583.107	32190.10048
583.311	32402.65496
583.515	32484.41296
583.718	32055.22185
583.922	32116.52923
584.125	32055.22185
584.329	32249.36817
584.532	32504.85303
584.735	32705.17796
584.939	32490.54496
585.142	32643.85159
585.346	32490.54496
585.549	32468.06107
585.753	32288.19968
585.956	32190.10048
586.159	32768.55084
586.363	33244.94908
586.566	32784.90552
586.769	32380.17213
586.973	32157.40182
587.176	32611.14507
587.379	33083.40717
587.582	33371.74126
587.786	32983.21889
587.989	33073.18358
588.192	33009.79882
588.395	33259.26377
588.599	32766.50652
588.802	33334.92947
589.005	33032.28989
589.208	33596.72349
589.411	33484.22774
589.615	33465.82023
589.818	33780.82827
590.021	33306.29874
590.224	33514.90746
590.427	33561.95107
590.63	33388.10237
590.833	33523.08884
591.036	33367.65102
591.239	34081.59152
591.442	33437.18683
591.645	33962.91401
591.848	33744.00519
592.051	33651.95217
592.254	33694.90942
592.457	34273.957
592.66	33919.94751
592.863	34153.21313
593.066	33967.00614
593.269	34466.35622
593.472	34003.83594
593.675	34165.49157
593.878	33756.27943
594.081	34896.31512
594.284	34048.85169
594.486	34138.88845
594.689	34691.54944
594.892	34669.02785
595.095	34783.6886
595.298	34241.2116
595.5	34057.03656
595.703	34570.75777
595.906	34480.68522
596.109	34683.35971
596.311	34550.28604
596.514	34572.80497
596.717	34851.26291
596.92	35113.41564
597.122	34476.5912
597.325	34093.86919
597.528	34572.80497
597.73	34916.79411
597.933	34554.38036
598.136	34992.57031
598.338	34560.52186
598.541	35060.15977
598.743	35336.71579
598.946	35465.80589
599.148	35726.09749
599.351	35383.84161
599.554	35299.83655
599.756	35183.06275
599.959	35931.11277
600.161	35250.66671
600.363	35221.98559
600.566	35361.30284
600.768	34845.11959
600.971	34838.97631
601.173	35193.30543
601.376	35355.15601
601.578	35334.6669
601.78	35455.55991
601.983	35424.82274
602.185	35299.83655
602.388	35701.49934
602.59	35346.96031
602.792	35262.9589
602.995	35570.32225
603.197	35461.70749
603.399	36052.09819
603.601	35547.77837
603.804	35514.98839
604.006	35890.10526
604.208	35260.91019
604.41	35365.40075
604.613	35965.97093
604.815	35859.3511
605.017	35748.64647
605.219	35709.69864
605.421	35762.99617
605.623	35693.30014
605.826	35965.97093
606.028	36047.99666
606.23	35855.25064
606.432	35826.54805
606.634	36189.51296
606.836	36166.95051
607.038	35900.35693
607.24	36062.35212
607.442	35998.78012
607.644	35933.1632
607.846	35877.80345
608.048	35777.34613
608.25	35674.85223
608.452	35914.70949
608.654	36177.20608
608.856	35637.95772
609.058	36130.03168
609.26	35965.97093
609.462	35721.99774
609.664	36273.61578
609.866	36265.41018
610.067	36599.86883
610.269	36386.45271
610.471	36043.89516
610.673	36419.28152
610.875	36706.60299
611.077	36569.0834
611.278	35633.85844
611.48	35857.30087
611.682	36548.56059
611.884	36899.59112
612.085	36445.9561
612.287	36710.7085
612.489	36404.91872
612.69	36435.69652
612.892	36146.43981
613.094	36199.76886
613.295	35900.35693
613.497	36431.59273
613.699	35957.76886
613.9	36610.13096
614.102	36462.37175
614.304	36425.43709
614.505	36015.18526
614.707	36560.8742
614.908	36255.15332
615.11	36322.85143
615.311	36287.97582
615.513	36121.82776
615.714	36115.67487
615.916	35957.76886
616.117	35990.57768
616.319	36296.18169
616.52	36056.19974
616.722	36199.76886
616.923	36757.92383
617.124	36054.14896
617.326	35631.8088
617.527	36056.19974
617.729	36349.52221
617.93	36419.28152
618.131	36158.74616
618.333	36171.05272
618.534	35992.62828
618.735	36462.37175
618.937	36064.40292
619.138	36144.38877
619.339	36041.84441
619.54	36378.24576
619.742	36349.52221
619.943	36253.10197
620.144	36579.34505
620.345	36470.57973
620.546	36367.98721
620.748	36647.07598
620.949	36396.71154
621.15	36608.07852
621.351	36376.19404
621.552	36281.82148
621.753	36138.2357
621.954	35676.90198
622.155	36066.45373
622.356	36218.22986
622.558	36089.013
622.759	36421.33337
622.96	36505.46477
623.161	36296.18169
623.362	36117.72583
623.563	36573.18804
623.764	36606.02609
623.965	36872.89771
624.166	37043.3449
624.366	36593.71163
624.567	36060.30132
624.768	36006.98265
624.969	35892.15558
625.17	35959.81937
625.371	36072.60619
625.572	35970.072
625.773	36210.02491
625.973	36532.1428
626.174	36195.66649
626.375	36562.92649
626.576	36495.20427
626.777	36903.6979
626.977	36751.76511
627.178	36597.81642
627.379	36489.04805
627.58	36893.431
627.78	36296.18169
627.981	36345.41895
628.182	36973.51739
628.382	36653.23369
628.583	36940.66016
628.784	37031.02181
628.984	36669.65454
629.185	37123.45118
629.386	36058.25053
629.586	37185.07878
629.787	36567.03109
629.987	36901.6445
630.188	36585.50211
630.388	37000.21519
630.589	36877.00431
630.79	36698.39204
630.99	36121.82776
631.191	36630.65571
631.391	36603.97366
631.591	36191.56413
631.792	36456.21583
631.992	37131.66782
632.193	36874.95101
632.393	36482.89188
632.594	37033.07564
632.794	37191.24189
632.994	37109.07234
633.195	36887.27094
633.395	36577.29271
633.595	36310.54219
633.796	36359.78049
633.996	36374.14232
634.196	36971.46376
634.397	37092.6398
634.597	36587.55448
634.797	36907.80471
634.997	36844.15225
635.198	36439.80033
635.398	36402.86692
635.598	36813.35502
635.798	36431.59273
635.998	36267.46157
636.199	37160.42697
636.399	37039.23718
636.599	37047.45265
636.799	36792.82438
636.999	36267.46157
637.199	36160.79724
637.399	36640.91833
637.599	36287.97582
637.799	35972.12254
637.999	37123.45118
638.199	36833.88634
638.399	36885.2176
638.599	36743.55357
638.799	37000.21519
638.999	37443.98635
639.199	37448.09695
639.399	37417.26822
639.599	37382.33103
639.799	37211.78608
639.999	37698.90107
640.199	37256.98584
640.399	37526.20401
640.599	36304.38765
640.799	37770.87446
640.998	37396.71667
641.198	37158.37269
641.398	36825.67373
641.598	37059.77608
641.798	37365.89075
641.997	37417.26822
642.197	37579.65203
642.397	37670.11442
642.597	37409.04751
642.796	37049.50654
642.996	37131.66782
643.196	37074.15374
643.395	37211.78608
643.595	37779.10061
643.795	37427.54427
643.994	37322.73727
644.194	37033.07564
644.394	37608.43389
644.593	37043.3449
644.793	37781.15717
644.992	37458.37357
645.192	37622.82539
645.392	37532.37082
645.591	38044.46309
645.791	37435.76525
645.99	37528.2596
646.19	37908.67935
646.389	37573.48468
646.589	37199.45948
646.788	37281.64175
646.987	36899.59112
647.187	37548.816
647.386	37803.77982
647.586	37733.85837
647.785	37863.426
647.984	37849.02803
648.184	37713.29498
648.383	37894.28013
648.582	37781.15717
648.782	37633.10526
648.981	37729.74563
649.18	37123.45118
649.38	37466.595
649.579	37606.37799
649.778	37877.82437
649.977	38258.49896
650.177	37464.53963
650.376	37645.44137
650.575	37271.36833
650.774	37657.77775
650.973	37454.26289
651.173	37310.40831
651.372	37333.01161
651.571	37246.71286
651.77	37164.53553
651.969	37417.26822
652.168	37277.53236
652.367	37851.08486
652.566	37236.44006
652.765	37896.33714
652.964	37388.49626
653.163	37666.00217
653.362	37468.65037
653.561	37349.45094
653.76	38161.75992
653.959	37797.60991
654.158	38028.00255
654.357	37742.08395
654.556	37962.16565
654.755	37912.79349
654.954	37760.59196
655.153	37483.03822
655.352	38274.96705
655.551	37886.05219
655.749	38365.55143
655.948	37598.15448
656.147	38190.57384
656.346	38114.42635
656.545	38048.57831
656.743	37982.73878
656.942	38087.67455
657.141	38165.87609
657.34	37842.85759
657.538	38258.49896
657.737	38707.45495
657.936	38767.21053
658.135	38653.8875
658.333	38870.25559
658.532	38349.0803
658.731	38108.25273
658.929	37966.28021
659.128	37670.11442
659.326	37663.94605
659.525	37812.00648
659.724	38264.67443
659.922	38223.50607
660.121	38167.93419
660.319	37803.77982
660.518	38151.46963
660.716	38295.55294
660.915	38439.67843
661.113	38167.93419
661.312	37454.26289
661.51	37495.37096
661.709	37744.14036
661.907	37807.89313
662.105	38215.27281
662.304	38322.31589
662.502	37949.82217
662.701	37787.32689
662.899	37501.53743
663.097	37353.56085
663.296	38040.34791
663.494	38592.0865
663.692	37285.75117
663.891	37600.21034
664.089	37483.03822
664.287	38040.34791
664.485	37639.27328
664.684	37999.19787
664.882	37589.93109
665.08	38231.73947
665.278	38038.29033
665.476	37816.11986
665.675	37628.99329
665.873	37818.17656
666.071	37799.66654
666.269	37968.3375
666.467	37865.48289
666.665	38489.10275
666.863	37573.48468
667.061	37411.10267
667.259	37394.66156
667.457	38044.46309
667.655	37536.48207
667.853	38369.6693
668.051	37774.98752
668.249	37517.98169
668.447	37501.53743
668.645	37517.98169
668.843	37676.28286
669.041	37330.95673
669.239	37452.20757
669.437	37361.78075
669.635	37139.88458
669.833	37180.97007
670.031	36959.14213
670.229	37195.35067
670.426	36973.51739
670.624	37053.61434
670.822	37162.48124
671.02	38118.54213
671.218	37727.68927
671.415	37287.80589
671.613	37542.649
671.811	37045.39877
672.009	37312.46311
672.206	37600.21034
672.404	37478.92737
672.602	37583.76363
672.799	37146.04722
672.997	37156.31843
673.195	37100.85601
673.392	37226.16744
673.59	37472.76115
673.788	36737.39499
673.985	36835.93951
674.183	37359.72577
674.38	37429.59951
674.578	37639.27328
674.775	37209.73163
674.973	37361.78075
675.17	37478.92737
675.368	37384.3861
675.565	37365.89075
675.763	37495.37096
675.96	37538.53771
676.158	37254.93123
676.355	36874.95101
676.553	37409.04751
676.75	36505.46477
676.947	37370.00078
677.145	37263.14972
677.342	37581.70783
677.539	36963.24931
677.737	36772.29441
677.934	36992.00035
678.131	36985.8393
678.329	36981.73197
678.526	37137.83038
678.723	37363.83575
678.92	37534.42644
679.118	37384.3861
679.315	36778.45333
679.512	36987.89298
679.709	37024.86036
679.906	36634.76074
680.104	36840.04587
680.301	36548.56059
680.498	36300.28466
680.695	36372.09061
680.892	36735.34214
681.089	36439.80033
681.286	36523.93406
681.483	36134.13368
681.68	36497.25636
681.877	36386.45271
682.075	36363.88384
682.272	36031.59078
682.469	36503.41265
682.665	36240.79397
682.862	36480.83984
683.059	36300.28466
683.256	36714.81404
683.453	36842.09906
683.65	36723.0252
683.847	36745.60645
684.044	36031.59078
684.241	36212.07614
684.438	36755.87091
684.635	35998.78012
684.831	36244.89661
685.028	36345.41895
685.225	36119.77679
685.422	35783.4962
685.619	36427.48897
685.815	36207.97369
686.012	35906.50799
686.209	35178.9657
686.405	35847.04979
686.602	35693.30014
686.799	35039.67758
686.996	35803.99678
687.192	35211.74257
687.389	35543.67955
687.586	35808.09696
687.782	35678.95173
687.979	36113.62393
688.175	35558.02551
688.372	36015.18526
688.568	35754.79631
688.765	35353.10708
688.962	34535.95608
689.158	35058.11153
689.355	35400.23382
689.551	35603.11449
689.748	35353.10708
689.944	35062.20801
690.14	34980.28185
690.337	35217.88837
690.533	35250.66671
690.73	34734.54663
690.926	35283.44629
691.123	34507.29675
691.319	35267.05634
691.515	35318.27597
691.712	34877.88441
691.908	35246.56935
692.104	35013.05143
692.301	35197.40254
692.497	34544.1446
692.693	34296.47003
692.889	33879.02844
693.086	34249.39786
693.282	35076.54585
693.478	35205.59681
693.674	35267.05634
693.87	35285.49505
694.067	34992.57031
694.263	34583.04101
694.459	34204.37419
694.655	34849.21513
694.851	34226.8858
695.047	34556.42752
695.243	34327.17036
695.439	34621.9389
695.635	34449.98047
695.831	34286.23678
696.027	33854.47767
696.224	33729.6854
696.42	33752.188
696.615	34046.80549
696.811	34022.25127
697.007	34327.17036
697.203	33641.72446
697.399	33412.64438
697.595	33386.05722
697.791	34087.73034
697.987	34130.703
698.183	34580.99379
698.379	34243.25816
698.575	34630.12812
698.77	34425.41731
698.966	34521.62631
699.162	34380.38633
699.358	34533.90896
699.554	34327.17036
699.749	34216.65319
699.945	33699.00067
700.141	33531.27027
700.337	33879.02844
700.532	33518.99815
700.728	33870.8448
700.924	33653.99772
701.119	33132.48135
701.315	32868.72575
701.511	33189.73659
701.706	34054.99034
701.902	33717.41142
702.097	33590.58711
702.293	33637.6334
702.489	33651.95217
702.684	33881.07436
702.88	34034.52831
703.075	33858.56943
703.271	33457.6392
703.466	33967.00614
703.662	33549.67866
703.857	33467.8655
704.053	33688.77259
704.248	33805.37758
704.443	33594.67803
704.639	33400.37332
704.834	33242.90413
705.03	33347.19996
705.225	33189.73659
705.42	33263.3537
705.616	33484.22774
705.811	33148.83977
706.006	33553.76945
706.202	32713.35498
706.397	32776.72816
706.592	32925.9713
706.787	32903.48174
706.983	32868.72575
707.178	33060.91536
707.373	32995.48649
707.568	33099.76505
707.763	33017.97736
707.959	33314.47889
708.154	32936.19393
708.349	33116.12312
708.544	33001.62033
708.739	32772.6395
708.934	33052.7366
709.129	32762.41788
709.324	32578.43916
709.519	33187.69172
709.714	32934.1494
709.909	33028.20058
710.104	32296.37483
710.299	32155.35817
710.494	32991.39728
710.689	32688.82405
710.884	32494.63297
711.079	32852.37025
711.274	32412.87451
711.469	32985.26348
711.664	32557.99826
711.859	32958.68395
712.054	33187.69172
712.249	32846.23698
712.443	32347.47031
712.638	32343.38262
712.833	32425.13805
713.028	32486.45696
713.223	32151.27088
713.417	32186.01312
713.612	32298.41862
713.807	32275.93701
714.002	32500.76499
714.196	32104.26761
714.391	31718.06226
714.586	32435.35773
714.78	32423.09412
714.975	31814.09648
715.17	32065.43962
715.364	32494.63297
715.559	32357.68957
715.754	32136.96542
715.948	31830.44313
716.143	31981.65534
716.337	31746.66778
716.532	32075.65744
716.726	32208.49372
716.921	32369.95275
717.115	32110.39841
717.31	31957.13374
717.504	31904.00454
717.699	32114.48562
717.893	31922.39527
718.088	31924.43869
718.282	32335.20727
718.476	31814.09648
718.671	31564.82428
718.865	31838.6165
719.059	31393.20909
719.254	31423.85381
719.448	31399.338
719.642	31356.43591
719.837	31070.4395
720.031	31197.09136
720.225	30904.98344
720.419	31376.86539
720.614	31374.82243
720.808	31448.36984
721.002	30747.70659
721.196	31070.4395
721.39	31188.92009
721.585	30821.23761
721.779	30731.3666
721.973	30745.66409
722.167	30320.8515
722.361	29994.10854
722.555	30339.23169
722.749	30447.47261
722.943	30306.55586
723.137	30135.01278
723.331	30308.5981
723.525	30196.27721
723.719	30239.16294
723.913	30508.7426
724.107	30055.37058
724.301	30153.39199
724.495	29938.97358
724.689	30216.69892
724.883	30049.24433
725.077	29887.92342
725.271	29987.98239
725.465	30028.82357
725.659	29849.12576
725.853	30259.5849
726.046	30020.6553
726.24	30510.78496
726.434	29887.92342
726.628	30616.98904
726.822	30083.95988
727.015	30704.8143
727.209	30306.55586
727.403	30561.84418
727.596	30396.41515
727.79	30163.60271
727.984	30410.71116
728.177	30661.92259
728.371	30449.51493
728.565	30139.09704
728.758	30039.03394
728.952	30388.24602
729.146	30110.5073
729.339	30212.61457
729.533	30214.65674
729.726	30094.1704
729.92	29881.79744
730.113	29971.64605
730.307	29575.51141
730.5	29881.79744
730.694	29881.79744
730.887	29955.30978
731.081	29877.71347
731.274	29951.22572
731.468	29769.48972
731.661	29587.76239
731.854	30171.77131
732.048	30216.69892
732.241	30094.1704
732.435	29638.80853
732.628	29957.35181
732.821	30006.36087
733.014	30345.35845
733.208	30341.27394
733.401	30120.71789
733.594	29906.30139
733.788	30053.3285
733.981	29712.31615
734.174	29638.80853
734.367	29477.50501
734.56	29689.85534
734.754	29908.3434
734.947	30132.97065
735.14	29798.07682
735.333	30329.02046
735.526	30220.78328
735.719	29902.21739
735.912	30345.35845
736.105	30304.51364
736.298	29548.96777
736.491	29569.38594
736.684	29436.66973
736.877	29479.54678
737.07	29530.59151
737.263	29669.43653
737.456	29457.08731
737.649	29426.46097
737.842	29450.96203
738.035	29777.65744
738.228	29305.99966
738.421	29042.6308
738.614	29110.00258
738.807	29612.26445
739	29122.25211
739.192	29536.71692
739.385	29720.48375
739.578	29401.96007
739.771	29395.83487
739.964	29383.58449
740.156	29256.99949
740.349	28830.31499
740.542	29473.42146
740.735	29128.3769
740.927	29093.66992
741.12	28897.68321
741.313	29016.09071
741.505	28867.06115
741.698	28785.40347
741.891	29395.83487
742.083	29334.58337
742.276	29781.74131
742.468	29573.46959
742.661	29314.16641
742.854	29575.51141
743.046	29228.41633
743.239	29220.24975
743.431	29777.65744
743.624	29365.209
743.816	29256.99949
744.009	29320.29149
744.201	28838.48078
744.393	28738.45106
744.586	28701.70608
744.778	28520.02756
744.971	28505.73859
745.163	28997.7169
745.355	28905.84914
745.548	28579.22526
745.74	28093.42253
745.932	28228.13478
746.125	28119.95638
746.317	28609.84511
746.509	28354.68699
746.702	28622.09312
746.894	28270.99877
747.086	28513.90371
747.278	28824.19066
747.471	28591.47317
747.663	28667.0028
747.855	28965.05257
748.047	28448.58324
748.239	28191.3946
748.431	28417.96465
748.623	28364.89299
748.815	27997.49404
749.008	28879.30995
749.2	28362.85179
749.392	27697.4787
749.584	27381.16401
749.776	27530.13433
749.968	27595.43848
750.16	27689.31537
750.352	27454.62799
750.544	27515.84922
750.736	27381.16401
750.928	27556.66399
751.12	27428.09914
751.311	27215.87615
751.503	27319.94529
751.695	27583.19385
751.887	27575.0308
752.079	27842.38093
752.271	27491.36059
752.463	27648.49902
752.654	27217.91669
752.846	27342.39202
753.038	27397.4892
753.23	27593.3977
753.421	27283.21462
753.613	27566.86776
753.805	27932.18245
753.997	27426.05847
754.188	27462.79075
754.38	26838.4
754.572	26995.50591
754.763	26664.98139
754.955	26220.26489
755.146	26338.57645
755.338	26328.37696
755.53	26375.29497
755.721	26673.14202
755.913	27024.07153
756.104	26616.0181
756.296	26869.00438
756.487	26562.97553
756.679	26864.92378
756.87	25773.58966
757.062	26128.47536
757.253	26395.69437
757.445	26265.14103
757.636	26373.25504
757.827	26499.73384
758.019	26734.34754
758.21	26350.8159
758.401	26216.18528
758.593	25804.18106
758.784	26083.60175
758.975	25818.4572
759.167	26089.72083
759.358	26316.13762
759.549	26163.15099
759.74	25955.10479
759.932	25657.34626
760.123	25479.93442
760.314	25614.52133
760.505	25944.90692
760.696	25844.97026
760.888	25877.60215
761.079	25712.40814
761.27	25918.39268
761.461	25477.89529
761.652	25416.72241
761.843	25571.69728
762.034	25687.93602
762.225	25459.54323
762.416	25092.53793
762.607	24957.98716
762.798	25333.12249
762.989	25518.67824
763.18	25606.3643
763.371	25218.94299
763.562	25253.60391
763.753	24921.29323
763.944	25657.34626
764.135	25604.32505
764.326	25751.15624
764.517	25045.6479
764.708	24919.2547
764.899	24880.52308
765.089	24674.64835
765.28	25072.15081
765.471	24915.17765
765.662	24709.29881
765.853	24731.72007
766.043	24542.16791
766.234	24923.33176
766.425	24509.55897
766.615	24686.87784
766.806	24711.33709
766.997	24613.50222
767.187	24503.44486
767.378	24458.6088
767.569	24069.4039
767.759	24662.41895
767.95	24648.15142
768.141	24436.19124
768.331	24534.01561
768.522	24036.80485
768.712	23994.01969
768.903	23973.64625
769.093	23765.85347
769.284	24044.95455
769.474	24326.14594
769.665	23810.66897
769.855	24161.09252
770.046	23782.14985
770.236	23452.18561
770.426	23429.78355
770.617	23643.63668
770.807	23902.34142
770.998	24049.02941
771.188	23843.26294
771.378	23839.18866
771.569	23572.34855
771.759	23293.34281
771.949	23142.66377
772.139	23291.30649
772.33	23053.07929
772.52	23533.65084
772.71	23289.27017
772.9	23020.50471
773.09	23570.3118
773.281	23395.16291
773.471	23417.5644
773.661	23411.45486
773.851	23211.89248
774.041	23160.98865
774.231	23708.81764
774.421	23122.3031
774.611	23118.23101
774.802	23024.57649
774.992	23046.97149
775.182	22550.30633
775.372	22654.10044
775.562	22619.50138
775.752	22627.64224
775.942	22405.82411
776.131	22647.99465
776.321	22216.60043
776.511	22672.41799
776.701	22609.32538
776.891	22513.67532
777.081	22460.76592
777.271	22633.74793
777.461	22863.75154
777.651	23087.69072
777.84	22173.87691
778.03	22230.84196
778.22	22023.34052
778.41	22436.34701
778.599	22395.64999
778.789	22536.0608
778.979	22489.2553
779.169	22033.51125
779.358	21805.70976
779.548	21856.55414
779.738	21929.77427
779.927	22019.27225
780.117	22175.91133
780.307	21844.35127
780.496	21624.72346
780.686	22051.8188
780.875	22045.71625
781.065	22405.82411
781.254	22013.16988
781.444	22403.78927
781.633	22053.85299
781.823	21830.11476
782.012	21620.65671
782.202	21582.02335
782.391	21468.1649
782.581	21437.66921
782.77	21864.68946
782.96	21457.99957
783.149	21415.30628
783.338	21628.79023
783.528	21319.76103
783.717	21297.40065
783.906	21116.50289
784.096	21331.9578
784.285	21165.28115
784.474	20504.94352
784.663	20344.49705
784.853	20326.22
785.042	20421.67057
785.231	20224.68702
785.42	20352.62029
785.61	20366.83613
785.799	20352.62029
785.988	20326.22
786.177	20011.50197
786.366	19960.75046
786.555	20303.88184
786.744	20238.901
786.933	20312.00475
787.122	20137.37706
787.312	19843.01708
787.501	20035.86363
787.69	20096.77042
787.879	20470.41486
788.068	20015.56221
788.257	20019.62246
788.445	19816.63051
788.634	20567.91067
788.823	20393.23752
789.012	20474.47699
789.201	20106.92192
789.39	20078.49799
789.579	19816.63051
789.768	20446.04241
789.957	19782.12605
790.145	20232.80927
790.334	19903.91189
790.523	19790.24464
790.712	19859.25533
790.9	20082.5585
791.089	19903.91189
791.278	19926.24094
791.467	19869.40437
791.655	19936.39067
791.844	19690.79658
792.033	19518.30848
792.221	19307.30512
792.41	19607.59267
792.599	19161.25202
792.787	19396.5703
792.976	19483.81448
793.164	19611.65124
793.353	19185.59273
793.541	19230.21889
793.73	19289.04731
793.918	19611.65124
794.107	19112.57238
794.295	19280.93284
794.484	19370.19566
794.672	19092.28989
794.861	18859.07034
795.049	18773.90772
795.238	18441.43434
795.426	19021.30437
795.614	18836.76516
795.803	18615.76708
795.991	18745.52174
796.179	18597.52162
796.368	18556.97727
796.556	18540.75997
796.744	18765.79736
796.932	19136.91191
797.121	18660.36844
797.309	18696.86186
797.497	18384.68096
797.685	18650.2316
797.874	18427.24572
798.062	18784.04576
798.25	18317.79685
798.438	18619.82168
798.626	18329.9573
798.814	18530.62428
799.002	18648.20424
799.19	19132.85528
799.378	18409.00347
799.566	18431.29959
799.755	18394.81528
799.943	18350.225
800.131	18453.59617
800.318	18230.65095
800.506	18222.5447
800.694	18040.16962
800.882	18086.77379
801.07	18313.7434
801.258	18567.11321
801.446	18561.03164
801.634	18143.51188
801.822	18186.06732
802.01	17610.6877
802.197	18048.27456
802.385	18060.43207
802.573	18186.06732
802.761	18427.24572
802.949	18252.94343
803.136	17833.51285
803.324	18246.86362
803.512	18054.3533
803.699	18094.87906
803.887	17833.51285
804.075	17985.46279
804.262	17630.94286
804.45	17817.306
804.638	18015.85516
804.825	18220.51815
805.013	18196.19981
805.201	18084.74748
805.388	18107.03707
805.576	17819.33185
805.763	17886.18661
805.951	17934.81063
806.138	17404.10331
806.326	17679.55661
806.513	17869.97905
806.701	18277.26302
806.888	18344.14465
807.075	18425.21879
807.263	18190.12031
807.45	18374.54674
807.638	18060.43207
807.825	17849.71991
808.012	17853.77171
808.2	18030.03853
808.387	18404.94968
808.574	18530.62428
808.761	18437.38043
808.949	18579.27647
809.136	18459.67714
809.323	18348.19821
809.51	18210.38544
809.698	18293.47637
809.885	18275.23637
810.072	17869.97905
810.259	17938.86272
810.446	17685.63346
810.633	17718.04384
810.82	18028.01232
811.008	17983.43666
811.195	18117.16884
811.382	18080.69488
811.569	18275.23637
811.756	18579.27647
811.943	18717.13654
812.13	18380.62726
812.317	18437.38043
812.504	18340.0911
812.691	18498.19071
812.878	18289.42301
813.064	18390.76154
813.251	18327.93055
813.438	18696.86186
813.625	18084.74748
813.812	18133.37987
813.999	18297.52975
814.186	17819.33185
814.372	17827.43526
814.559	17861.87535
814.746	17464.86001
814.933	17697.78725
815.12	18145.53829
815.306	18046.24832
815.493	18056.37955
815.68	18263.07653
815.866	17732.22366
816.053	18131.35348
816.24	18054.3533
816.426	18145.53829
816.613	17985.46279
816.799	18036.11717
816.986	18050.3008
817.173	17837.56459
817.359	17327.14881
817.546	17699.8129
817.732	17543.84794
817.919	17770.71255
818.105	17582.33101
818.292	17566.12747
818.478	17934.81063
818.665	17770.71255
818.851	17867.95312
819.037	17995.59349
819.224	17764.63527
819.41	17740.32648
819.597	17529.67027
819.783	17805.15102
819.969	18001.67195
820.156	17797.04776
820.342	17683.60784
820.528	17760.58378
820.714	17462.83474
820.901	17497.26473
821.087	17770.71255
821.273	17659.30065
821.459	17556.00037
821.646	17509.41671
821.832	17377.77628
822.018	17090.23681
822.204	17205.65052
822.39	17472.96112
822.576	17363.60039
822.762	17709.94117
822.948	17159.07896
823.134	17499.29006
823.32	17155.02933
823.507	17485.11287
823.693	17290.6982
823.879	17039.61963
824.065	17045.6936
824.25	16709.63589
824.436	16754.16969
824.622	16995.07793
824.808	16833.11886
824.994	16669.15161
825.18	16355.42821
825.366	16827.04571
825.552	16796.68032
825.738	17122.63271
825.923	16723.80561
826.109	16946.48846
826.295	16248.16607
826.481	16353.40435
826.667	16339.23737
826.852	16470.79161
827.038	16365.54755
827.224	16855.38726
827.409	16468.76763
827.595	16669.15161
827.781	16796.68032
827.966	16713.68437
828.152	16561.87268
828.338	16418.16891
828.523	16007.3496
828.709	16185.43016
828.894	15863.67906
829.08	16086.2702
829.266	15960.80771
829.451	16149.0036
829.637	15861.65558
829.822	16260.3087
830.008	16074.12842
830.193	16116.62488
830.378	16108.53026
830.564	16474.83956
830.749	16173.28791
830.935	16363.52368
831.12	15792.85784
831.305	16377.69082
831.491	16033.65622
831.676	16260.3087
831.861	15782.74064
832.047	15768.57659
832.232	15809.04543
832.417	15853.56166
832.602	15564.21485
832.788	15517.67816
832.973	15372.00007
833.158	15734.17842
833.343	15796.90473
833.528	16106.50661
833.714	15703.82732
833.899	15618.84535
834.084	15525.77147
834.269	15815.11579
834.454	15282.97563
834.639	15626.93881
834.824	15481.25839
835.009	15363.90692
835.194	15226.32394
835.379	15635.03228
835.564	15177.76543
835.749	15523.74815
835.934	15195.97487
836.119	15319.39465
836.304	15242.51012
836.489	15200.02141
836.674	15005.78714
836.859	15076.60186
837.044	14809.52675
837.228	15030.0665
837.413	15046.25273
837.598	15505.53822
837.783	15187.88179
837.968	15003.76385
838.152	14793.34009
838.337	14680.03204
838.522	14852.01653
838.707	15078.62513
838.891	14762.98997
839.076	14558.62721
839.261	14890.45944
839.445	14870.22636
839.63	14433.17097
839.815	14659.79816
839.999	14562.6741
840.184	14688.12556
840.368	14684.0788
840.553	14801.43342
840.737	14738.70975
840.922	14586.95536
841.106	14499.94671
841.291	14091.16951
841.475	13973.78253
841.66	14087.12182
841.844	13850.31462
842.029	14285.44899
842.213	14457.45324
842.397	14483.75879
842.582	14212.59636
842.766	14821.66672
842.951	14331.99249
843.135	14390.67649
843.319	14164.02653
843.504	14145.81253
843.688	14168.07406
843.872	14109.38403
844.056	14279.37803
844.241	14342.11052
844.425	13955.56658
844.609	14131.64598
844.793	13712.66582
844.977	13708.61711
845.161	13174.06055
845.346	13451.49645
845.53	13222.66824
845.714	13514.26347
845.898	13400.87521
846.082	13413.02453
846.266	13532.48549
846.45	13615.49325
846.634	13530.46083
846.818	13198.36472
847.002	13325.95122
847.186	13072.786
847.37	13097.09297
847.554	13076.83721
847.738	13076.83721
847.922	13465.66996
848.106	13330.00131
848.29	13206.46597
848.473	13151.78115
848.657	13036.32425
848.841	12900.59119
849.025	12872.22611
849.209	12718.22542
849.392	12971.49938
849.576	13234.81977
849.76	13012.01552
849.944	12876.27833
850.127	13157.8574
850.311	12795.2298
850.495	12766.86072
850.678	12655.39984
850.862	12902.61723
851.046	12424.31293
851.229	12578.37996
851.413	12339.15426
851.596	12477.02427
851.78	12659.45327
851.964	12675.66677
852.147	12578.37996
852.331	12991.7577
852.514	12641.21262
852.698	12562.16411
852.881	12274.2633
853.065	12574.32603
853.248	12420.25802
853.431	12762.80791
853.615	12326.98775
853.798	12631.07872
853.982	12268.1794
854.165	12264.12343
854.348	11864.46277
854.532	12176.91313
854.715	12418.23056
854.898	12156.62972
855.081	11771.09602
855.265	11864.46277
855.448	11679.74128
855.631	11572.12244
855.814	11381.18661
855.997	11649.2857
856.181	11427.91281
856.364	11752.82649
856.547	11736.58632
856.73	11819.81135
856.913	11681.77158
857.096	11821.84105
857.279	11462.44626
857.462	11527.44287
857.645	11151.54134
857.828	11253.17045
858.011	11429.94427
858.194	11657.40739
858.377	11417.75538
858.56	11336.4871
858.743	11486.82113
858.926	11373.05978
859.109	11513.22569
859.292	11515.25675
859.475	11464.47755
859.658	11775.15582
859.841	11301.94324
860.023	11358.83746
860.206	10771.20652
860.389	11135.27824
860.572	11076.31875
860.755	11094.61749
860.937	11112.91536
861.12	11360.86925
861.303	11041.75206
861.486	11478.69633
861.668	11149.50849
861.851	11060.05246
862.034	10921.76049
862.216	11090.55118
862.399	10789.52055
862.581	10744.75122
862.764	10535.07136
862.947	11066.1524
863.129	10730.50523
863.312	10854.6294
863.494	10579.86835
863.677	10530.9986
863.859	10565.61542
864.042	10541.1804
864.224	10333.40825
864.406	10557.47061
864.589	10288.57677
864.771	10380.27065
864.954	10229.47079
865.136	9997.01052
865.318	10070.43876
865.501	10235.58573
865.683	10229.47079
865.865	10396.56898
866.048	9984.77067
866.23	9754.15503
866.412	9905.19897
866.594	9990.89066
866.777	10266.1586
866.959	9923.56364
867.141	9801.1099
867.323	9764.36329
867.505	9754.15503
867.687	9915.40171
867.869	9666.34826
868.052	9735.77921
868.234	9558.08194
868.416	9703.10803
868.598	9854.17974
868.78	9717.40216
868.962	9572.38379
869.144	10184.62413
869.326	9862.34344
869.508	9923.56364
869.69	9952.12855
869.872	9778.65422
870.054	9598.94232
870.236	9774.57117
870.417	9433.41851
870.599	9564.2114
870.781	9592.81366
870.963	9556.03875
871.145	9486.56103
871.327	9500.86677
871.508	9339.37024
871.69	9404.79878
871.872	9261.65188
872.054	9517.21523
872.235	9314.83019
872.417	9331.19048
872.599	9564.2114
872.78	9694.93963
872.962	9658.17875
873.144	9701.06596
873.325	9574.42684
873.507	9676.55981
873.689	9523.34564
873.87	9556.03875
874.052	9347.54972
874.233	9406.84315
874.415	9631.62611
874.596	9596.89945
874.778	9284.15177
874.959	9588.72781
875.141	9625.4982
875.322	9314.83019
875.503	9427.28598
875.685	9449.77122
875.866	9177.77074
876.048	9443.63907
876.229	9308.6948
876.41	9370.04196
876.592	9175.7245
876.773	9484.51729
876.954	9355.72895
877.136	9639.79643
877.317	9206.41627
877.498	9498.82314
877.679	9349.59455
877.86	9758.23838
878.042	9290.28775
878.223	9523.34564
878.404	9210.50822
878.585	9435.46266
878.766	9206.41627
878.947	9762.32167
879.128	9235.05849
879.309	9576.46989
879.49	9327.10051
879.672	9625.4982
879.853	9175.7245
880.034	9001.73156
880.215	9116.37621
880.396	9042.68234
880.576	9020.16028
880.757	9183.90935
880.938	9188.00167
881.119	9472.2545
881.3	9327.10051
881.481	9645.92401
881.662	9351.63937
881.843	9110.23591
882.023	9496.7795
882.204	9376.17586
882.385	9320.96542
882.566	9609.15643
882.747	9233.01272
882.927	9067.24946
883.108	8852.2013
883.289	9142.9824
883.469	9024.25535
883.65	9408.88751
883.831	9296.42358
884.011	9370.04196
884.192	9341.41513
884.373	9466.12289
884.553	9275.97022
884.734	9549.9091
884.914	9181.86316
885.095	9506.99756
885.275	9267.78841
885.456	9564.2114
885.636	9347.54972
885.817	9707.19215
885.997	9504.95398
886.178	9629.58349
886.358	9588.72781
886.538	9780.69572
886.719	9515.17173
886.899	9445.68314
887.08	9498.82314
887.26	9762.32167
887.44	9447.72718
887.621	9617.32744
887.801	9263.69741
887.981	9513.12821
888.161	9312.78508
888.342	9073.39085
888.522	9194.14002
888.702	9429.33017
888.882	9623.45553
889.062	9228.92115
889.242	9157.3076
889.423	9052.91894
889.603	9149.12187
889.783	9230.96694
889.963	8925.95409
890.143	9089.76712
890.323	8962.82182
890.503	9384.35416
890.683	9163.44672
890.863	9308.6948
891.043	9106.14229
891.223	9474.29834
891.403	9343.46001
891.583	9545.82259
891.763	9257.56077
891.943	9089.76712
892.122	9363.90791
892.302	9429.33017
892.482	9185.95552
892.662	9439.5509
892.842	9304.60446
893.022	9435.46266
893.201	8907.51806
893.381	9190.0478
893.561	9001.73156
893.741	9206.41627
893.92	9179.81696
894.1	9453.85923
894.28	9472.2545
894.459	9439.5509
894.639	9171.63198
894.819	9267.78841
894.998	9095.90794
895.178	9196.1861
895.357	8688.22231
895.537	8954.62949
895.716	9124.56304
895.896	9165.49306
896.075	9183.90935
896.255	9069.2966
896.434	9052.91894
896.614	9484.51729
896.793	8999.68384
896.973	9104.09545
897.152	8864.49504
897.331	9134.79619
897.511	9075.43794
897.69	9016.06513
897.87	9085.67316
898.049	8597.98364
898.228	8460.50491
898.407	8919.80891
898.587	8579.52128
898.766	8917.76048
898.945	8505.65657
899.124	8632.85285
899.304	8677.96972
899.483	8682.07081
899.662	8821.46411
899.841	8856.29929
900.02	8495.39564
900.199	8534.38464
900.378	8403.02577
900.557	8464.60999
900.737	8146.2362
900.916	8499.50007
901.095	8370.17376
901.274	8495.39564
901.453	8511.8129
901.632	8610.29104
901.811	8277.7508
901.989	8600.03492
902.168	8536.43651
902.347	8548.74729
902.526	7940.5802
902.705	8281.85933
902.884	8164.73535
903.063	8238.71586
903.242	7942.63776
903.42	8010.526
903.599	7911.7721
903.778	8109.23302
903.957	7718.24114
904.135	8002.2983
904.314	7833.55832
904.493	8226.38756
904.672	7944.69531
904.85	7996.12732
905.029	8053.71605
905.207	7932.34972
905.386	7961.15494
905.565	7897.36654
905.743	7623.46696
905.922	7854.1438
906.1	7499.78075
906.279	7802.67622
906.457	7773.84869
906.636	7716.18131
906.814	7318.23375
906.993	7188.15851
907.171	7281.07832
907.35	7437.90862
907.528	7487.40788
907.707	7532.77128
907.885	7470.90951
908.063	7738.83832
908.242	7518.3386
908.42	7693.52176
908.598	7454.40976
908.777	7633.77067
908.955	7384.27033
909.133	7594.61373
909.311	7109.65795
909.49	7126.18705
909.668	6936.01577
909.846	7351.25484
910.024	6931.87949
910.202	7419.34318
910.38	7000.11647
910.559	6985.64401
910.737	6884.30583
910.915	7084.86161
911.093	6987.71157
911.271	7070.3956
911.449	6735.30182
911.627	6621.39937
911.805	6501.20851
911.983	6695.96156
912.161	6621.39937
912.339	6784.98296
912.517	6784.98296
912.695	6687.67834
912.872	6586.17907
913.05	6648.32805
913.228	6445.231
913.406	6656.61301
913.584	6592.3949
913.762	6727.02035
913.939	6546.80731
914.117	6606.8977
914.295	6339.44943
914.473	6420.34667
914.65	6233.60713
914.828	6339.44943
915.006	6071.61272
915.184	6420.34667
915.361	6111.08606
915.539	6407.90325
915.716	5924.03183
915.894	6104.854
916.072	5824.19149
916.249	5990.56186
916.427	5828.35259
916.604	6044.59975
916.782	5638.927
916.959	5884.5182
917.137	5599.35194
917.314	5878.27842
917.492	5722.21507
917.669	5905.31591
917.847	5580.60289
918.024	5613.93321
918.201	5407.60506
918.379	5697.23261
918.556	5351.29374
918.733	5463.89925
918.911	5347.12186
919.088	5397.17833
919.265	5075.74858
919.442	5340.86385
919.62	5142.58469
919.797	5457.64519
919.974	5355.46554
920.151	5588.93604
920.328	5098.72617
920.506	5332.51951
920.683	5357.5514
920.86	5263.6644
921.037	5046.50032
921.214	4946.18619
921.391	4728.65775
921.568	5061.12502
921.745	4967.08934
921.922	4954.54772
922.099	4510.88501
922.276	4877.18948
922.453	4628.17731
922.63	5046.50032
922.807	4720.28636
922.984	4647.02134
923.161	4688.89044
923.338	4739.12148
923.514	4703.5425
923.691	4762.13968
923.868	4481.55108
924.045	4544.40421
924.222	4309.65183
924.399	4393.52342
924.575	4219.45145
924.752	4561.16168
924.929	4292.87336
925.105	4571.63438
925.282	4223.64769
925.459	4406.10116
925.635	4345.30149
925.812	4349.49516
925.989	4282.38612
926.165	4380.9449
926.342	4154.39886
926.518	4192.17381
926.695	4345.30149
926.871	4290.77596
927.048	4032.63344
927.224	4150.20122
927.401	3938.11245
927.577	4013.73255
927.754	3931.80959
927.93	4154.39886
928.107	3780.48682
928.283	4009.53213
928.459	3713.1995
928.636	4164.89259
928.812	3898.19125
928.988	3936.01152
929.165	3578.56602
929.341	3893.98859
929.517	3647.9961
929.693	3889.78586
929.87	3589.08704
930.046	3759.46167
930.222	3479.64586
930.398	3586.98287
930.574	3275.36648
930.751	3561.73142
930.927	3479.64586
931.103	3557.52258
931.279	3127.84873
931.455	3191.0805
931.631	3210.04717
931.807	3258.51142
931.983	3115.20064
932.159	3328.0315
932.335	2967.5979
932.511	3170.00487
932.687	2929.63087
932.863	3060.38563
933.039	2798.81971
933.215	3035.08282
933.391	2636.28775
933.566	2822.0321
933.742	2534.93133
933.918	2794.5991
934.094	2625.7311
934.27	2855.79256
934.445	2401.86084
934.621	2676.40019
934.797	2372.28384
934.973	2355.3818
935.148	2173.64653
935.324	2245.50338
935.5	2139.82819
935.675	2213.80306
935.851	1729.64637
936.027	2084.86911
936.202	1721.18705
936.378	1907.27698
936.553	1771.94211
936.729	1850.18495
936.904	1564.68169
937.08	1786.74526
937.255	1425.08892
937.431	1670.43006
937.606	1467.38996
937.782	1469.50501
937.957	1306.6475
938.133	1344.71753
938.308	1071.90279
938.483	1090.93428
938.659	974.63792
938.834	1002.12451
939.009	1035.95561
939.185	940.80986
939.36	913.32592
939.535	959.83792
939.71	775.92721
939.886	921.78238
940.061	767.47318
940.236	824.54092
940.411	731.54534
940.586	657.58613
940.761	505.48886
940.937	680.82896
941.112	454.80577
941.287	699.84686
941.462	551.95569
941.637	701.96001
941.812	600.54173
941.987	632.23195
942.162	397.79792
942.337	621.66823
942.512	486.48169
942.687	522.3851
942.862	429.46752
943.037	473.81092
943.212	484.36986
943.386	380.90897
943.561	370.35392
943.736	494.92917
943.911	501.26494
944.086	587.86644
944.26	336.58062
944.435	461.14068
944.61	433.6904
944.785	478.03445
944.959	376.6869
945.134	399.90911
945.309	444.24789
945.483	370.35392
945.658	414.68792
945.833	433.6904
946.007	336.58062
946.182	448.471
946.357	283.8189
946.531	410.46532
946.706	315.47458
946.88	518.16095
947.055	283.8189
947.229	581.52897
947.404	389.35331
947.578	397.79792
947.752	380.90897
947.927	376.6869
948.101	368.24296
948.276	454.80577
948.45	402.02032
948.624	511.82484
948.799	376.6869
948.973	444.24789
949.147	364.02109
949.321	596.31658
949.496	340.80204
949.67	423.13331
949.844	435.80187
950.018	461.14068
950.193	412.57661
950.367	423.13331
950.541	505.48886
950.715	562.51727
950.889	482.25804
951.063	444.24789
951.237	465.36403
951.411	604.76693
951.585	471.69917
951.759	530.83356
951.933	467.47573
952.107	469.58744
952.281	406.24279
952.455	501.26494
952.629	518.16095
952.803	505.48886
952.977	490.7054
953.151	418.91058
953.325	448.471
953.499	532.94571
953.672	545.61891
953.846	537.17005
954.02	532.94571
954.194	638.57033
954.368	520.27302
954.541	739.99868
954.715	575.19162
954.889	570.96678
955.062	465.36403
955.236	579.4165
955.41	494.92917
955.583	606.87955
955.757	452.69416
955.93	710.41275
956.104	484.36986
956.278	556.18028
956.451	549.84342
956.625	511.82484
956.798	469.58744
956.972	522.3851
957.145	421.02194
957.319	528.72142
957.492	478.03445
957.665	541.39445
957.839	395.68674
958.012	617.44283
958.185	494.92917
958.359	524.49719
958.532	566.742
958.705	541.39445
958.879	473.81092
959.052	528.72142
959.225	494.92917
959.398	554.06798
959.572	484.36986
959.745	528.72142
959.918	528.72142
960.091	511.82484
960.264	486.48169
960.438	528.72142
960.611	437.91335
960.784	524.49719
960.957	516.0489
961.13	471.69917
961.303	423.13331
961.476	562.51727
961.649	435.80187
961.822	402.02032
961.995	564.62963
962.168	522.3851
962.341	463.25235
962.514	431.57895
962.686	402.02032
962.859	397.79792
963.032	330.24862
963.205	461.14068
963.378	393.57558
963.551	575.19162
963.723	351.3559
963.896	471.69917
964.069	482.25804
964.242	490.7054
964.414	437.91335
964.587	397.79792
964.76	380.90897
964.932	421.02194
965.105	355.57756
965.278	469.58744
965.45	423.13331
965.623	452.69416
965.795	317.58511
965.968	437.91335
966.14	313.36408
966.313	370.35392
966.485	309.14312
966.658	368.24296
966.83	376.6869
967.003	336.58062
967.175	216.30089
967.348	385.13111
967.52	376.6869
967.692	395.68674
967.865	397.79792
968.037	376.6869
968.209	262.71742
968.382	412.57661
968.554	283.8189
968.726	345.02353
968.898	361.91018
969.071	410.46532
969.243	328.13799
969.415	277.48826
969.587	283.8189
969.759	309.14312
969.932	275.37808
970.104	288.03942
970.276	328.13799
970.448	304.92223
970.62	296.48068
970.792	336.58062
970.964	292.26001
971.136	275.37808
971.308	315.47458
971.48	292.26001
971.652	321.80621
971.824	273.26793
971.996	235.28834
972.168	273.26793
972.339	300.70142
972.511	342.91278
972.683	254.27736
972.855	212.08167
973.027	212.08167
973.199	277.48826
973.37	203.64348
973.542	161.45739
973.714	218.41053
973.886	239.50798
974.057	258.49735
974.229	216.30089
974.401	264.82749
974.572	345.02353
974.744	226.84928
974.915	260.60738
975.087	233.17854
975.259	207.86254
975.43	235.28834
975.602	277.48826
975.773	186.76807
975.945	197.31505
976.116	186.76807
976.288	245.8376
976.459	178.33085
976.63	197.31505
976.802	309.14312
976.973	165.67563
977.145	134.0409
977.316	155.13019
977.487	96.08559
977.659	228.95901
977.83	190.9868
978.001	165.67563
978.172	131.93208
978.344	150.91217
978.515	186.76807
978.686	258.49735
978.857	205.753
979.028	169.89395
979.2	169.89395
979.371	150.91217
979.542	131.93208
979.713	176.22159
979.884	182.54942
980.055	218.41053
980.226	142.47636
980.397	119.27966
980.568	182.54942
980.739	245.8376
980.91	138.25859
981.081	247.94751
981.252	106.62802
981.423	201.53399
981.594	119.27966
981.765	186.76807
981.936	91.86877
982.106	142.47636
982.277	165.67563
982.448	100.3025
982.619	153.02117
982.79	91.86877
982.96	96.08559
983.131	117.171
983.302	155.13019
983.472	93.97717
983.643	110.84515
983.814	157.23924
983.984	125.60578
984.155	117.171
984.326	106.62802
984.496	123.49705
984.667	98.19403
984.837	157.23924
985.008	136.14973
985.178	77.11062
985.349	47.59764
985.519	87.65205
985.69	106.62802
985.86	58.13747
986.031	110.84515
986.201	77.11062
986.371	91.86877
986.542	161.45739
986.712	91.86877
986.882	91.86877
987.053	56.02946
987.223	106.62802
987.393	66.56975
987.563	100.3025
987.734	66.56975
987.904	83.43541
988.074	93.97717
988.244	165.67563
988.414	75.0024
988.585	22.3044
988.755	64.46165
988.925	110.84515
989.095	142.47636
989.265	184.65873
989.435	32.84284
989.605	81.32712
989.775	72.8942
989.945	98.19403
990.115	115.06236
990.285	53.92147
990.455	123.49705
990.625	98.19403
990.795	13.87408
990.965	72.8942
991.134	98.19403
991.304	93.97717
991.474	60.24551
991.644	58.13747
991.814	75.0024
991.984	66.56975
992.153	51.8135
992.323	53.92147
992.493	47.59764
992.662	64.46165
992.832	47.59764
993.002	161.45739
993.171	5.44413
993.341	106.62802
993.511	108.73657
993.68	-32.48582
993.85	85.54372
994.019	43.38186
994.189	32.84284
994.358	3.33671
994.528	102.41098
994.697	11.76656
994.867	123.49705
995.036	49.70556
995.206	56.02946
995.375	47.59764
995.544	66.56975
995.714	89.7604
995.883	28.62739
996.052	75.0024
996.222	22.3044
996.391	66.56975
996.56	56.02946
996.73	106.62802
996.899	53.92147
997.068	115.06236
997.237	123.49705
997.406	39.16618
997.576	58.13747
997.745	49.70556
997.914	43.38186
998.083	13.87408
998.252	5.44413
998.421	68.67788
998.59	15.98162
998.759	43.38186
998.928	20.19678
999.097	49.70556
999.266	64.46165
999.435	-24.05762
999.604	24.41204
999.773	56.02946
999.942	-36.69976
1000.111	15.98162
1000.28	9.65906
1000.448	30.7351
1000.617	-13.52183
1000.786	102.41098
1000.955	-32.48582
1001.124	11.76656
1001.292	-32.48582
1001.461	58.13747
1001.63	53.92147
1001.798	-7.20006
1001.967	-11.4146
1002.136	-26.16471
1002.304	-36.69976
1002.473	-5.09275
1002.642	39.16618
1002.81	13.87408
1002.979	68.67788
1003.147	30.7351
1003.316	83.43541
1003.484	47.59764
1003.653	13.87408
1003.821	-28.27177
1003.99	51.8135
1004.158	-45.12736
1004.327	-38.8067
1004.495	47.59764
1004.663	-2.98542
1004.832	-21.95051
1005	68.67788
1005.168	41.27401
1005.337	18.08919
1005.505	26.51971
1005.673	-2.98542
1005.842	60.24551
1006.01	30.7351
1006.178	-34.5928
1006.346	18.08919
1006.514	-19.84338
1006.683	-5.09275
1006.851	32.84284
1007.019	5.44413
1007.187	34.9506
1007.355	13.87408
1007.523	-19.84338
1007.691	53.92147
1007.859	-7.20006
1008.027	34.9506
1008.195	24.41204
1008.363	22.3044
1008.531	22.3044
1008.699	-17.73622
1008.867	13.87408
1009.035	-0.87807
1009.203	18.08919
1009.37	-19.84338
1009.538	1.22931
1009.706	34.9506
1009.874	39.16618
1010.042	32.84284
1010.209	85.54372
1010.377	1.22931
1010.545	56.02946
1010.713	49.70556
1010.88	-17.73622
1011.048	-24.05762
1011.216	11.76656
1011.383	39.16618
1011.551	5.44413
1011.718	30.7351
1011.886	-17.73622
1012.054	-59.87469
1012.221	-0.87807
1012.389	-2.98542
1012.556	-49.34101
1012.724	102.41098
1012.891	-11.4146
1013.058	9.65906
1013.226	-28.27177
1013.393	22.3044
1013.561	-2.98542
1013.728	89.7604
1013.895	72.8942
1014.063	-45.12736
1014.23	-13.52183
1014.397	7.55158
1014.565	-28.27177
1014.732	-55.66129
1014.899	49.70556
1015.066	43.38186
1015.233	18.08919
1015.401	-19.84338
1015.568	-87.25927
1015.735	13.87408
1015.902	-95.68442
1016.069	-61.98135
1016.236	1.22931
1016.403	119.27966
1016.57	75.0024
1016.737	43.38186
1016.904	5.44413
1017.071	13.87408
1017.238	77.11062
1017.405	53.92147
1017.572	-19.84338
1017.739	1.22931
1017.906	66.56975
1018.073	-0.87807
1018.24	9.65906
1018.407	30.7351
1018.573	-57.768
1018.74	64.46165
1018.907	-36.69976
1019.074	-11.4146
1019.241	-74.62077
1019.407	75.0024
1019.574	-15.62904
1019.741	75.0024
1019.907	7.55158
1020.074	24.41204
1020.241	-24.05762
1020.407	30.7351
1020.574	58.13747
1020.74	3.33671
1020.907	5.44413
1021.073	-24.05762
1021.24	-2.98542
1021.406	-70.40773
1021.573	30.7351
1021.739	-2.98542
1021.906	11.76656
1022.072	-19.84338
1022.239	7.55158
1022.405	1.22931
1022.571	26.51971
1022.738	11.76656
1022.904	-61.98135
1023.07	-36.69976
1023.237	30.7351
1023.403	-9.30734
1023.569	-36.69976
1023.735	-36.69976
1023.902	-11.4146
1024.068	66.56975
1024.234	15.98162
1024.4	-28.27177
1024.566	-32.48582
1024.732	-30.3788
1024.898	-45.12736
1025.065	26.51971
1025.231	-38.8067
1025.397	-36.69976
1025.563	28.62739
1025.729	30.7351
1025.895	13.87408
1026.061	-24.05762
1026.227	22.3044
1026.392	24.41204
1026.558	26.51971
1026.724	-19.84338
1026.89	-74.62077
1027.056	-11.4146
1027.222	-34.5928
1027.388	-40.91361
1027.553	-72.51427
1027.719	30.7351
1027.885	-40.91361
1028.051	30.7351
1028.216	-55.66129
1028.382	-36.69976
1028.548	-59.87469
1028.713	-9.30734
1028.879	9.65906
1029.045	5.44413
1029.21	15.98162
1029.376	-49.34101
1029.541	-9.30734
1029.707	-5.09275
1029.873	22.3044
1030.038	56.02946
1030.204	43.38186
1030.369	26.51971
1030.534	24.41204
1030.7	39.16618
1030.865	51.8135
1031.031	-24.05762
1031.196	18.08919
1031.361	26.51971
1031.527	30.7351
1031.692	-5.09275
1031.857	28.62739
1032.023	-11.4146
1032.188	-11.4146
1032.353	-43.0205
1032.518	-43.0205
1032.684	60.24551
1032.849	41.27401
1033.014	32.84284
1033.179	-74.62077
1033.344	13.87408
1033.509	-59.87469
1033.674	5.44413
1033.839	-55.66129
1034.004	-15.62904
1034.17	24.41204
1034.335	58.13747
1034.5	24.41204
1034.664	-2.98542
1034.829	34.9506
1034.994	-102.00301
1035.159	-2.98542
1035.324	-89.3656
1035.489	13.87408
1035.654	-19.84338
1035.819	18.08919
1035.984	-36.69976
1036.148	-9.30734
1036.313	-53.55456
1036.478	-34.5928
1036.643	9.65906
1036.807	-40.91361
1036.972	-11.4146
1037.137	15.98162
1037.301	20.19678
1037.466	-24.05762
1037.631	49.70556
1037.795	-28.27177
1037.96	-36.69976
1038.124	-45.12736
1038.289	-17.73622
1038.454	20.19678
1038.618	-2.98542
1038.783	-32.48582
1038.947	-0.87807
1039.111	15.98162
1039.276	72.8942
1039.44	-15.62904
1039.605	-17.73622
1039.769	-15.62904
1039.933	-64.08798
1040.098	-32.48582
1040.262	-19.84338
1040.426	-0.87807
1040.591	30.7351
1040.755	70.78603
1040.919	-13.52183
1041.083	-36.69976
1041.248	-28.27177
1041.412	-49.34101
1041.576	-19.84338
1041.74	-7.20006
1041.904	30.7351
1042.068	-59.87469
1042.232	-28.27177
1042.397	-9.30734
1042.561	-11.4146
1042.725	30.7351
1042.889	-15.62904
1043.053	-15.62904
1043.217	22.3044
1043.381	-2.98542
1043.544	13.87408
1043.708	-80.94014
1043.872	49.70556
1044.036	39.16618
1044.2	-26.16471
1044.364	-49.34101
1044.528	-36.69976
1044.691	-32.48582
1044.855	-30.3788
1045.019	13.87408
1045.183	49.70556
1045.346	-15.62904
1045.51	9.65906
1045.674	-36.69976
1045.837	-15.62904
1046.001	-34.5928
1046.165	93.97717
1046.328	-49.34101
1046.492	-28.27177
1046.655	-24.05762
1046.819	-21.95051
1046.983	-15.62904
1047.146	30.7351
1047.31	-17.73622
1047.473	-64.08798
1047.636	-51.44779
1047.8	-7.20006
1047.963	24.41204
1048.127	13.87408
1048.29	-61.98135
