Data from mixed_try6.1_USB4F045381__19__00303.txt Node

Date: Thu Apr 03 20:32:51 EDT 2025
User: mmckonesweet
Spectrometer: USB4F04538
Trigger mode: 4
Integration Time (sec): 2.700000E-3
Scans to average: 1
Electric dark correction enabled: true
Nonlinearity correction enabled: true
Boxcar width: 0
XAxis mode: Wavelengths
Number of Pixels in Spectrum: 3648
>>>>>Begin Spectral Data<<<<<
345.52	-42.66935
345.736	-42.66935
345.952	-42.66935
346.168	-51.09666
346.384	18.44046
346.6	-70.05664
346.816	14.22533
347.032	28.97868
347.248	10.01031
347.464	18.44046
347.68	-19.49219
347.896	-67.95008
348.112	69.02924
348.328	18.44046
348.544	26.87099
348.76	45.84105
348.975	-74.26969
349.191	10.01031
349.407	-8.95613
349.623	-25.81353
349.839	5.79537
350.055	-4.74153
350.27	43.73317
350.486	-19.49219
350.702	31.08639
350.918	-36.3486
351.133	69.02924
351.349	-19.49219
351.565	-57.41689
351.781	-70.05664
351.996	-34.24164
352.212	18.44046
352.428	-19.49219
352.644	18.44046
352.859	-15.27784
353.075	-63.73688
353.291	45.84105
353.506	-6.84884
353.722	10.01031
353.938	-23.70644
354.153	10.01031
354.369	14.22533
354.584	35.30189
354.8	-74.26969
355.016	-27.92059
355.231	-11.06339
355.447	-32.13465
355.662	-46.88306
355.878	26.87099
356.093	-70.05664
356.309	-11.06339
356.524	41.62532
356.74	-93.22713
356.955	-2.6342
357.171	-15.27784
357.386	-103.75813
357.602	33.19413
357.817	-61.63024
358.033	-23.70644
358.248	39.51749
358.464	-2.6342
358.679	-11.06339
358.895	-11.06339
359.11	-2.6342
359.325	-19.49219
359.541	16.33288
359.756	1.58054
359.972	-19.49219
360.187	-70.05664
360.402	-8.95613
360.618	1.58054
360.833	-36.3486
361.048	-13.17063
361.264	-46.88306
361.479	64.813
361.694	-4.74153
361.909	14.22533
362.125	-2.6342
362.34	62.70491
362.555	-27.92059
362.77	5.79537
362.986	47.94895
363.201	-57.41689
363.416	71.13739
363.631	-2.6342
363.847	7.90283
364.062	-51.09666
364.277	43.73317
364.492	58.48881
364.707	-11.06339
364.922	20.54805
365.138	-76.37618
365.353	-15.27784
365.568	-44.77622
365.783	-25.81353
365.998	-34.24164
366.213	47.94895
366.428	56.38079
366.643	31.08639
366.858	69.02924
367.073	-2.6342
367.288	24.76332
367.503	-25.81353
367.718	5.79537
367.933	5.79537
368.148	62.70491
368.363	-53.20343
368.578	-19.49219
368.793	-19.49219
369.008	22.65567
369.223	-25.81353
369.438	-53.20343
369.653	31.08639
369.868	-8.95613
370.083	24.76332
370.298	-44.77622
370.513	-19.49219
370.728	-21.59933
370.943	22.65567
371.157	81.6785
371.372	-25.81353
371.587	-17.38502
371.802	16.33288
372.017	-36.3486
372.232	-23.70644
372.446	7.90283
372.661	-8.95613
372.876	-70.05664
373.091	-51.09666
373.306	22.65567
373.52	-76.37618
373.735	-51.09666
373.95	-25.81353
374.165	-40.56246
374.379	39.51749
374.594	-34.24164
374.809	-21.59933
375.023	-40.56246
375.238	-57.41689
375.453	5.79537
375.667	-6.84884
375.882	-11.06339
376.097	43.73317
376.311	-6.84884
376.526	-51.09666
376.741	-59.52357
376.955	-11.06339
377.17	-15.27784
377.384	-67.95008
377.599	43.73317
377.813	7.90283
378.028	16.33288
378.242	-51.09666
378.457	41.62532
378.672	-99.54581
378.886	-15.27784
379.101	35.30189
379.315	-32.13465
379.53	14.22533
379.744	5.79537
379.958	47.94895
380.173	-25.81353
380.387	-13.17063
380.602	-53.20343
380.816	-67.95008
381.031	-36.3486
381.245	-23.70644
381.459	-19.49219
381.674	31.08639
381.888	-63.73688
382.103	-30.02763
382.317	-80.58907
382.531	24.76332
382.746	14.22533
382.96	-15.27784
383.174	-53.20343
383.388	16.33288
383.603	5.79537
383.817	-11.06339
384.031	-0.52684
384.246	22.65567
384.46	-19.49219
384.674	5.79537
384.888	-36.3486
385.103	-25.81353
385.317	69.02924
385.531	-19.49219
385.745	10.01031
385.959	39.51749
386.174	-15.27784
386.388	-40.56246
386.602	-32.13465
386.816	-44.77622
387.03	-34.24164
387.244	5.79537
387.458	-2.6342
387.672	-59.52357
387.887	26.87099
388.101	-32.13465
388.315	-15.27784
388.529	5.79537
388.743	43.73317
388.957	-63.73688
389.171	-27.92059
389.385	-80.58907
389.599	-93.22713
389.813	16.33288
390.027	-6.84884
390.241	-2.6342
390.455	56.38079
390.669	24.76332
390.883	7.90283
391.097	-11.06339
391.311	31.08639
391.525	10.01031
391.738	12.11781
391.952	-32.13465
392.166	1.58054
392.38	-97.43961
392.594	-44.77622
392.808	58.48881
393.022	18.44046
393.236	-78.48264
393.449	35.30189
393.663	14.22533
393.877	5.79537
394.091	28.97868
394.305	-15.27784
394.518	-51.09666
394.732	-40.56246
394.946	5.79537
395.16	10.01031
395.373	47.94895
395.587	-76.37618
395.801	14.22533
396.015	10.01031
396.228	1.58054
396.442	41.62532
396.656	-86.90822
396.869	-6.84884
397.083	33.19413
397.297	22.65567
397.51	14.22533
397.724	-21.59933
397.938	7.90283
398.151	-11.06339
398.365	-30.02763
398.578	18.44046
398.792	-17.38502
399.005	5.79537
399.219	-11.06339
399.433	24.76332
399.646	10.01031
399.86	45.84105
400.073	-86.90822
400.287	-36.3486
400.5	-8.95613
400.714	-2.6342
400.927	-0.52684
401.141	10.01031
401.354	26.87099
401.567	22.65567
401.781	10.01031
401.994	37.40968
402.208	47.94895
402.421	20.54805
402.635	18.44046
402.848	-15.27784
403.061	-6.84884
403.275	-0.52684
403.488	-8.95613
403.701	-15.27784
403.915	-0.52684
404.128	77.46199
404.341	35.30189
404.555	-6.84884
404.768	-67.95008
404.981	-19.49219
405.195	14.22533
405.408	-95.33338
405.621	50.05688
405.834	-27.92059
406.048	-46.88306
406.261	-84.80186
406.474	5.79537
406.687	18.44046
406.9	64.813
407.114	-17.38502
407.327	33.19413
407.54	-32.13465
407.753	22.65567
407.966	-42.66935
408.179	-51.09666
408.392	24.76332
408.605	58.48881
408.819	-40.56246
409.032	-53.20343
409.245	90.11179
409.458	-8.95613
409.671	-23.70644
409.884	-70.05664
410.097	14.22533
410.31	-65.84349
410.523	-17.38502
410.736	-8.95613
410.949	1.58054
411.162	-23.70644
411.375	16.33288
411.588	54.2728
411.801	-6.84884
412.014	1.58054
412.227	-44.77622
412.44	-21.59933
412.653	58.48881
412.865	-32.13465
413.078	-6.84884
413.291	-48.98987
413.504	-78.48264
413.717	14.22533
413.93	10.01031
414.143	1.58054
414.356	-25.81353
414.568	5.79537
414.781	5.79537
414.994	-19.49219
415.207	39.51749
415.42	22.65567
415.632	-17.38502
415.845	41.62532
416.058	-0.52684
416.271	92.22017
416.483	-27.92059
416.696	-32.13465
416.909	-67.95008
417.121	10.01031
417.334	-2.6342
417.547	45.84105
417.759	-19.49219
417.972	58.48881
418.185	-57.41689
418.397	-15.27784
418.61	92.22017
418.823	-61.63024
419.035	-57.41689
419.248	-76.37618
419.46	26.87099
419.673	-19.49219
419.885	-34.24164
420.098	-34.24164
420.311	-15.27784
420.523	20.54805
420.736	12.11781
420.948	-27.92059
421.161	-34.24164
421.373	-74.26969
421.586	18.44046
421.798	20.54805
422.01	-19.49219
422.223	-84.80186
422.435	-23.70644
422.648	-11.06339
422.86	31.08639
423.073	64.813
423.285	39.51749
423.497	-0.52684
423.71	-34.24164
423.922	104.87091
424.134	14.22533
424.347	14.22533
424.559	-59.52357
424.771	24.76332
424.984	-17.38502
425.196	-40.56246
425.408	-36.3486
425.621	14.22533
425.833	-34.24164
426.045	-17.38502
426.257	43.73317
426.47	-78.48264
426.682	20.54805
426.894	31.08639
427.106	31.08639
427.318	-17.38502
427.531	58.48881
427.743	43.73317
427.955	24.76332
428.167	-44.77622
428.379	31.08639
428.591	-44.77622
428.804	47.94895
429.016	18.44046
429.228	-40.56246
429.44	60.59685
429.652	-6.84884
429.864	-15.27784
430.076	7.90283
430.288	-27.92059
430.5	-53.20343
430.712	-48.98987
430.924	7.90283
431.136	1.58054
431.348	-19.49219
431.56	-23.70644
431.772	-34.24164
431.984	-8.95613
432.196	-8.95613
432.408	7.90283
432.62	43.73317
432.832	24.76332
433.044	-48.98987
433.256	60.59685
433.468	-42.66935
433.679	58.48881
433.891	-19.49219
434.103	14.22533
434.315	-40.56246
434.527	43.73317
434.739	-57.41689
434.95	14.22533
435.162	18.44046
435.374	31.08639
435.586	35.30189
435.798	-40.56246
436.009	69.02924
436.221	121.73979
436.433	35.30189
436.645	7.90283
436.856	-78.48264
437.068	14.22533
437.28	66.92111
437.491	-32.13465
437.703	-27.92059
437.915	66.92111
438.126	75.35377
438.338	54.2728
438.55	-63.73688
438.761	-0.52684
438.973	-44.77622
439.184	31.08639
439.396	-48.98987
439.608	33.19413
439.819	-2.6342
440.031	-19.49219
440.242	22.65567
440.454	33.19413
440.665	1.58054
440.877	-59.52357
441.088	-0.52684
441.3	-23.70644
441.511	20.54805
441.723	60.59685
441.934	-17.38502
442.146	14.22533
442.357	26.87099
442.569	-2.6342
442.78	-15.27784
442.991	43.73317
443.203	5.79537
443.414	-32.13465
443.626	14.22533
443.837	14.22533
444.048	73.24557
444.26	85.8951
444.471	16.33288
444.682	22.65567
444.894	16.33288
445.105	31.08639
445.316	10.01031
445.528	20.54805
445.739	31.08639
445.95	18.44046
446.161	-8.95613
446.373	35.30189
446.584	-19.49219
446.795	50.05688
447.006	-6.84884
447.217	81.6785
447.429	35.30189
447.64	22.65567
447.851	-48.98987
448.062	64.813
448.273	-34.24164
448.484	39.51749
448.695	20.54805
448.907	14.22533
449.118	20.54805
449.329	7.90283
449.54	22.65567
449.751	-38.45555
449.962	5.79537
450.173	-0.52684
450.384	-61.63024
450.595	-25.81353
450.806	-30.02763
451.017	33.19413
451.228	-0.52684
451.439	47.94895
451.65	1.58054
451.861	1.58054
452.072	-4.74153
452.283	12.11781
452.494	56.38079
452.705	33.19413
452.915	18.44046
453.126	-0.52684
453.337	-11.06339
453.548	16.33288
453.759	69.02924
453.97	52.16483
454.181	-2.6342
454.391	88.00344
454.602	14.22533
454.813	-40.56246
455.024	-11.06339
455.235	-17.38502
455.445	92.22017
455.656	43.73317
455.867	7.90283
456.078	47.94895
456.288	-2.6342
456.499	39.51749
456.71	98.54544
456.921	33.19413
457.131	-36.3486
457.342	-2.6342
457.553	39.51749
457.763	-23.70644
457.974	-27.92059
458.184	50.05688
458.395	1.58054
458.606	-8.95613
458.816	39.51749
459.027	39.51749
459.237	-8.95613
459.448	33.19413
459.659	18.44046
459.869	-17.38502
460.08	-2.6342
460.29	-40.56246
460.501	24.76332
460.711	5.79537
460.922	16.33288
461.132	7.90283
461.343	-4.74153
461.553	35.30189
461.764	37.40968
461.974	33.19413
462.184	12.11781
462.395	26.87099
462.605	26.87099
462.816	31.08639
463.026	12.11781
463.236	-11.06339
463.447	-2.6342
463.657	56.38079
463.867	62.70491
464.078	26.87099
464.288	52.16483
464.498	90.11179
464.709	31.08639
464.919	39.51749
465.129	75.35377
465.339	56.38079
465.55	33.19413
465.76	-8.95613
465.97	-19.49219
466.18	39.51749
466.391	-27.92059
466.601	-19.49219
466.811	79.57023
467.021	39.51749
467.231	-48.98987
467.441	7.90283
467.651	45.84105
467.862	31.08639
468.072	5.79537
468.282	33.19413
468.492	18.44046
468.702	22.65567
468.912	56.38079
469.122	92.22017
469.332	1.58054
469.542	24.76332
469.752	-27.92059
469.962	56.38079
470.172	100.65391
470.382	-4.74153
470.592	5.79537
470.802	85.8951
471.012	142.82785
471.222	18.44046
471.432	52.16483
471.642	18.44046
471.852	56.38079
472.062	47.94895
472.272	-6.84884
472.482	50.05688
472.691	106.97945
472.901	7.90283
473.111	58.48881
473.321	31.08639
473.531	5.79537
473.741	35.30189
473.95	119.63111
474.16	50.05688
474.37	109.088
474.58	62.70491
474.79	66.92111
474.999	56.38079
475.209	69.02924
475.419	115.4138
475.628	100.65391
475.838	14.22533
476.048	147.04571
476.258	47.94895
476.467	98.54544
476.677	98.54544
476.886	125.95723
477.096	47.94895
477.306	94.32857
477.515	52.16483
477.725	119.63111
477.935	117.52244
478.144	98.54544
478.354	37.40968
478.563	90.11179
478.773	73.24557
478.982	98.54544
479.192	106.97945
479.401	100.65391
479.611	104.87091
479.82	31.08639
480.03	90.11179
480.239	161.80891
480.449	119.63111
480.658	144.93677
480.868	138.61006
481.077	159.69982
481.287	81.6785
481.496	149.15468
481.705	125.95723
481.915	100.65391
482.124	182.90097
482.333	144.93677
482.543	208.21413
482.752	136.50121
482.961	170.24549
483.171	136.50121
483.38	252.51905
483.589	187.11962
483.799	140.71894
484.008	229.31064
484.217	178.68239
484.426	180.79167
484.636	193.44776
484.845	149.15468
485.054	250.4091
485.263	208.21413
485.472	237.74979
485.682	252.51905
485.891	227.2009
486.1	269.39935
486.309	233.53017
486.518	233.53017
486.727	284.17061
486.936	248.29916
487.146	286.28086
487.355	292.61173
487.564	229.31064
487.773	237.74979
487.982	377.03874
488.191	273.61962
488.4	241.96948
488.609	358.04023
488.818	343.26457
489.027	284.17061
489.236	317.93686
489.445	402.37219
489.654	322.15797
489.863	330.6004
490.072	364.37291
490.281	368.59479
490.49	324.26855
490.698	410.8172
490.907	393.92744
491.116	474.16288
491.325	457.26933
491.534	463.6043
491.743	362.262
491.952	389.70517
492.16	385.48296
492.369	516.40091
492.578	482.61001
492.787	427.708
492.996	438.26527
493.204	520.62503
493.413	446.71136
493.622	573.43126
493.831	598.78124
494.039	596.66867
494.248	539.63428
494.457	605.11903
494.665	579.76858
494.874	676.95506
495.083	579.76858
495.291	712.87816
495.5	636.80966
495.709	660.05121
495.917	683.29419
496.126	632.58408
496.335	731.89756
496.543	757.2581
496.752	622.02035
496.96	759.37154
497.169	641.03529
497.377	791.07442
497.586	725.55767
497.794	765.71194
498.003	734.01088
498.211	827.00696
498.42	706.53856
498.628	858.71433
498.837	693.85964
499.045	884.08162
499.254	803.75619
499.462	896.76571
499.671	854.48657
499.879	903.10786
500.087	858.71433
500.296	911.56417
500.504	854.48657
500.713	1013.04897
500.921	1163.18696
501.129	892.53765
501.338	934.81966
501.546	1103.97461
501.754	917.90649
501.962	1106.08928
502.171	1114.54799
502.379	1072.25523
502.587	979.21894
502.795	1078.59901
503.004	911.56417
503.212	1218.17265
503.42	1023.62118
503.628	1120.89207
503.837	1120.89207
504.045	1292.19514
504.253	1123.00677
504.461	1209.71316
504.669	1089.17209
504.877	1207.59829
505.085	1120.89207
505.294	1268.93059
505.502	1154.72785
505.71	1410.63609
505.918	1235.09178
506.126	1326.03495
506.334	1340.84
506.542	1408.52104
506.75	1089.17209
506.958	1338.72499
507.166	1283.73527
507.374	1368.33529
507.582	1416.98123
507.79	1499.4682
507.998	1292.19514
508.206	1636.94366
508.414	1370.45033
508.622	1427.55648
508.83	1438.13174
509.037	1539.65393
509.245	1349.30007
509.453	1594.64423
509.661	1649.63332
509.869	1685.58684
510.077	1649.63332
510.285	1577.72425
510.492	1404.29095
510.7	1641.17355
510.908	1636.94366
511.116	1723.65435
511.324	1535.42387
511.531	1704.62072
511.739	1573.49424
511.947	1562.91918
512.155	1687.70173
512.362	1700.39099
512.57	1649.63332
512.778	1691.93149
512.985	1672.89745
513.193	1679.24216
513.401	1763.83554
513.608	1911.85827
513.816	1672.89745
514.024	1717.30984
514.231	1662.32288
514.439	1886.48464
514.646	1738.4581
514.854	1825.162
515.061	1810.35939
515.269	1865.33937
515.477	2091.56312
515.684	1924.54479
515.892	1706.73558
516.099	1937.2311
516.307	1890.71363
516.514	2110.58778
516.722	1854.76655
516.929	1922.43038
517.136	1797.67127
517.344	2102.13245
517.551	1966.83169
517.759	2072.53785
517.966	1916.08713
518.173	2161.31717
518.381	2070.42389
518.588	2228.94902
518.796	2173.9988
519.003	2324.04091
519.21	2197.24767
519.418	2372.63596
519.625	2040.82777
519.832	2347.28267
520.039	2330.37969
520.247	2446.57456
520.454	2385.31205
520.661	2611.30317
520.868	2266.98802
521.076	2554.28972
521.283	2324.04091
521.49	2414.88816
521.697	2516.27597
521.904	2410.66313
522.112	2488.81929
522.319	2689.41816
522.526	2459.24844
522.733	2600.74578
522.94	2478.25852
523.147	2554.28972
523.354	2598.63427
523.561	2775.95741
523.768	2478.25852
523.975	2702.08382
524.183	2490.93141
524.39	2702.08382
524.597	2706.3056
524.804	2873.02308
525.011	2642.97347
525.218	2951.0758
525.425	2585.96494
525.632	2917.32572
525.838	2740.07798
526.045	2925.76359
526.252	2826.60404
526.459	3050.19449
526.666	2881.46216
526.873	2862.4739
527.08	2797.06113
527.287	2856.14422
527.494	2841.37447
527.701	2974.27678
527.907	2995.36701
528.114	2832.93431
528.321	2984.82209
528.528	3223.04207
528.735	3058.62856
528.941	2942.63863
529.148	3031.21692
529.355	3043.86877
529.562	3026.99951
529.768	3254.64866
529.975	3018.56452
530.182	3277.82441
530.388	3294.67822
530.595	3309.42441
530.802	3174.5714
531.008	3359.97637
531.215	3315.74395
531.422	3404.2011
531.628	3300.99812
531.835	3463.15525
532.042	3229.36369
532.248	3349.44553
532.455	3319.95689
532.661	3399.98955
532.868	3250.43466
533.074	3692.51869
533.281	3461.04999
533.487	3515.78097
533.694	3389.46038
533.9	3663.07163
534.107	3393.6721
534.313	3583.12518
534.52	3578.91673
534.726	3778.7348
534.933	3604.16635
535.139	3837.59524
535.345	3589.43773
535.552	3831.28951
535.758	3631.51707
535.965	3774.5299
536.171	3675.69226
536.377	3909.04773
536.584	3799.75816
536.79	3814.47334
536.996	3705.13771
537.203	3915.35125
537.409	3818.6775
537.615	3696.72511
537.821	3999.38077
538.028	4129.56161
538.234	3799.75816
538.44	4030.88343
538.646	3852.30793
538.853	3990.97929
539.059	3808.16695
539.265	4123.26438
539.471	3990.97929
539.677	4167.34105
539.883	4053.98243
540.09	4335.16644
540.296	3995.18007
540.502	4093.8748
540.708	4072.87975
540.914	4175.73555
541.12	4089.67596
541.326	4368.71502
541.532	4205.11365
541.738	4328.87546
541.944	4408.54674
542.15	4578.2668
542.356	4297.41767
542.562	4318.39007
542.768	4305.80689
542.974	4546.8481
543.18	4351.94142
543.386	4733.1921
543.592	4561.51078
543.798	4808.51652
544.004	4377.1013
544.21	4691.33253
544.415	4412.7391
544.621	4634.80783
544.827	4609.68049
545.033	4507.04391
545.239	4381.29431
545.445	4791.7803
545.651	4483.99574
545.856	4835.70977
546.062	4745.74821
546.268	4687.14608
546.474	4620.15061
546.679	4655.74481
546.885	4705.98441
547.091	4703.89135
547.297	4687.14608
547.502	4890.0847
547.708	4605.49229
547.914	4829.43475
548.119	4697.61204
548.325	4942.35369
548.531	4645.2766
548.736	4925.62917
548.942	4821.06773
549.147	4837.8014
549.353	5000.87791
549.559	5013.41646
549.764	4940.26321
549.97	5021.77503
550.175	4963.25727
550.381	5266.09911
550.586	4915.1756
550.792	5107.42907
550.997	4971.61806
551.203	5153.37371
551.408	5025.95418
551.614	5393.35505
551.819	5117.87202
552.025	5478.83866
552.23	5322.43626
552.435	5483.00758
552.641	5474.66964
552.846	5405.86731
553.052	5216.00733
553.257	5512.18739
553.462	5522.60763
553.668	5480.92313
553.873	5447.56875
554.078	5491.34514
554.283	5612.19741
554.489	5618.44623
554.694	5516.35556
554.899	5730.88874
555.105	5622.61199
555.31	5728.80709
555.515	5555.94845
555.72	5760.02926
555.925	5510.10327
556.131	5916.06047
556.336	5580.95011
556.541	5714.23493
556.746	5616.36331
556.951	5668.42917
557.156	5716.31674
557.361	5730.88874
557.567	5489.26078
557.772	5820.37707
557.977	5668.42917
558.182	5789.16517
558.387	5949.32995
558.592	6111.43228
558.797	5893.18419
559.002	6028.32078
559.207	5949.32995
559.412	5799.56972
559.617	5701.74358
559.822	5922.29895
560.027	5818.29644
560.232	6184.12399
560.437	5938.93388
560.642	5968.04138
560.847	6088.58037
561.051	5932.69596
561.256	5782.92215
561.461	6080.26988
561.666	6042.86801
561.871	6283.76875
562.076	6065.72561
562.281	6275.46708
562.485	5951.40909
562.69	6138.43542
562.895	5974.2781
563.1	6206.96402
563.305	5913.98092
563.509	6078.1922
563.714	6067.80344
563.919	6279.61796
564.123	6217.34491
564.328	6325.27148
564.533	6146.74328
564.737	6281.69337
564.942	6267.16504
565.147	6447.65013
565.351	6196.58254
565.556	6327.34637
565.761	6368.83928
565.965	6472.53079
566.17	6281.69337
566.374	6474.60403
566.579	6339.79522
566.784	6375.06242
566.988	6484.96986
567.193	6582.38041
567.397	6265.08947
567.602	6445.57659
567.806	6431.06117
568.011	6487.04296
568.215	6669.38494
568.42	6617.60143
568.624	6302.44613
568.828	6627.95928
569.033	6594.81212
569.237	6863.96271
569.442	6561.65904
569.646	6830.85733
569.85	6582.38041
570.055	6913.60987
570.259	6636.24515
570.463	6642.45931
570.668	6582.38041
570.872	6861.89379
571.076	6768.76904
571.281	6936.36045
571.485	6727.36542
571.689	6915.67821
571.893	6719.08359
572.098	6969.44733
572.302	6797.74613
572.506	7081.073
572.71	6714.94254
572.914	7039.73779
573.119	6911.54149
573.323	7134.7954
573.527	6785.32793
573.731	7072.80668
573.935	6985.9886
574.139	7211.22057
574.343	6750.13854
574.547	7186.43735
574.751	7000.46103
574.955	7240.13029
575.159	7014.93236
575.364	7021.13402
575.568	7110.00232
575.772	7202.95985
575.976	7186.43735
576.18	7188.50274
576.383	7174.04455
576.587	7211.22057
576.791	7054.20613
576.995	7320.64173
577.199	7260.77744
577.403	7372.23408
577.607	7140.99317
577.811	7582.59032
578.015	7190.56811
578.219	7520.74412
578.422	7533.11491
578.626	7603.20144
578.83	7399.05671
579.034	7829.7841
579.238	7366.04372
579.442	7601.14042
579.645	7207.09025
579.849	7493.9381
580.053	7662.96165
580.257	7535.17663
580.46	7763.89538
580.664	7722.70404
580.868	7621.74962
581.071	7693.8651
581.275	7582.59032
581.479	7627.93197
581.682	7528.9914
581.886	7611.44529
582.09	7528.9914
582.293	7772.13264
582.497	7662.96165
582.7	7835.96007
582.904	7726.82355
583.107	7883.303
583.311	7697.9852
583.515	7907.99932
583.718	7578.46784
583.922	7928.57731
584.125	7788.60615
584.329	7712.4049
584.532	7977.95614
584.735	8121.91077
584.939	7821.54917
585.142	8130.13376
585.346	7811.25505
585.549	7926.51961
585.753	8323.2826
585.956	8072.56606
586.159	8154.80082
586.363	8195.9062
586.566	8204.12632
586.769	8140.41205
586.973	7891.53544
587.176	8261.65831
587.379	7998.52717
587.582	8454.68925
587.786	8146.57879
587.989	8136.3008
588.192	8356.1417
588.395	8393.10224
588.599	8239.0583
588.802	8403.36795
589.005	8136.3008
589.208	8538.83033
589.411	8296.58091
589.615	8376.67611
589.818	8241.11295
590.021	8561.39933
590.224	8294.52679
590.427	8374.62276
590.63	8214.40103
590.833	8631.14371
591.036	8583.96606
591.239	8688.56405
591.442	8432.10936
591.645	8717.26878
591.848	8672.15972
592.051	8645.50016
592.254	8624.99066
592.457	8676.26092
592.66	8475.21442
592.863	8696.76577
593.066	8674.21033
593.269	8817.70706
593.472	8460.847
593.675	8852.5428
593.878	8633.19468
594.081	8881.22716
594.284	8782.86609
594.486	8926.29548
594.689	8942.68183
594.892	8750.06978
595.095	8914.00498
595.298	8985.6906
595.5	8879.17839
595.703	8948.82641
595.906	8581.91464
596.109	8950.87458
596.311	9188.34269
596.514	9347.89053
596.717	9313.12593
596.92	9241.53663
597.122	9212.89516
597.325	9182.20419
597.528	9204.71127
597.73	9323.35131
597.933	8952.92272
598.136	9339.71105
598.338	9081.92029
598.541	9100.34288
598.743	9227.2163
598.946	9360.15925
599.148	9321.30626
599.351	9343.80082
599.554	9480.77038
599.756	9441.93567
599.959	9405.13951
600.161	9466.46354
600.363	9407.18388
600.566	9433.7592
600.768	9319.26121
600.971	9658.51915
601.173	9531.85987
601.376	9566.59504
601.578	9446.02381
601.78	9564.55192
601.983	9433.7592
602.185	9437.84747
602.388	9450.11189
602.59	9564.55192
602.792	9558.42247
602.995	9347.89053
603.197	9509.38172
603.399	9848.39698
603.601	9380.60581
603.804	9327.44134
604.006	9364.24869
604.208	9629.92392
604.41	9509.38172
604.613	9576.81039
604.815	9591.11123
605.017	9587.02536
605.219	9513.4688
605.421	9507.33816
605.623	9584.98239
605.826	10021.82861
606.028	9597.23993
606.23	9727.9521
606.432	9597.23993
606.634	9989.19068
606.836	9533.90324
607.038	9901.45787
607.24	9801.45012
607.442	9964.70981
607.644	9772.86989
607.846	9670.77332
608.048	9850.43797
608.25	9911.66075
608.452	9748.37019
608.654	9879.01025
608.856	9819.82157
609.058	9972.87033
609.26	9974.91042
609.462	9858.60177
609.664	10199.234
609.866	9915.74179
610.067	9819.82157
610.269	10131.95477
610.471	9919.82278
610.673	10193.11833
610.875	10127.87675
611.077	10352.08613
611.278	9856.56084
611.48	9870.84704
611.682	9778.99447
611.884	10254.26951
612.085	9932.0654
612.287	10062.62089
612.489	9899.41725
612.69	10435.61367
612.892	9968.7901
613.094	10252.23134
613.295	9850.43797
613.497	10178.84794
613.699	9850.43797
613.9	9987.15068
614.102	10072.81807
614.304	10197.19545
614.505	10131.95477
614.707	10027.94782
614.908	9864.72447
615.11	10148.26627
615.311	10162.5381
615.513	10148.26627
615.714	10156.42169
615.916	10254.26951
616.117	9852.47894
616.319	10307.25734
616.52	10152.34401
616.722	10325.59717
616.923	10307.25734
617.124	10250.19315
617.326	10023.86836
617.527	10372.46074
617.729	10117.68147
617.93	10348.01106
618.131	10154.38285
618.333	10260.38396
618.534	10062.62089
618.735	10500.79075
618.937	10382.64754
619.138	10244.0785
619.339	10441.72458
619.54	10270.57443
619.742	10529.30161
619.943	10235.92545
620.144	10398.94575
620.345	10541.51978
620.546	10425.42856
620.748	10372.46074
620.949	10242.04026
621.15	10295.03019
621.351	10162.5381
621.552	10311.33295
621.753	10195.1569
621.954	10506.90043
622.155	10148.26627
622.356	10763.40581
622.558	10398.94575
622.759	10480.42432
622.96	10337.82313
623.161	10531.338
623.362	10311.33295
623.563	10669.78354
623.764	10639.249
623.965	10694.2092
624.166	10374.49812
624.366	10531.338
624.567	10726.77404
624.768	10712.5273
624.969	10515.04649
625.17	10543.5561
625.371	10738.98506
625.572	10655.53443
625.773	10421.35443
625.973	10539.48345
626.174	10498.75416
626.375	10555.77375
626.576	10517.08297
626.777	10745.09041
626.977	10482.46102
627.178	10773.58061
627.379	10482.46102
627.58	10439.68763
627.78	10669.78354
627.981	10675.89012
628.182	10472.2774
628.382	10824.45022
628.583	10592.424
628.784	10763.40581
628.984	10690.13838
629.185	10751.19565
629.386	10547.6287
629.586	11082.7573
629.787	10563.9186
629.987	10759.3358
630.188	10901.75809
630.388	10861.07182
630.589	10773.58061
630.79	10893.6212
630.99	10631.10599
631.191	10852.93401
631.391	11096.98949
631.591	10749.16058
631.792	10667.74799
631.992	10999.38659
632.193	10950.57558
632.393	10865.14065
632.594	10631.10599
632.794	10901.75809
632.994	10840.72695
633.195	11155.94581
633.395	10802.0685
633.595	10885.48413
633.796	10950.57558
633.996	10834.62327
634.196	10897.68967
634.397	11332.76192
634.597	10883.44984
634.797	11003.45388
634.997	10844.79602
635.198	10763.40581
635.398	10810.20747
635.598	11074.62438
635.798	10995.31925
635.998	10875.31254
636.199	11121.3863
636.399	11101.05573
636.599	10977.01568
636.799	11074.62438
636.999	10795.96415
637.199	10966.84663
637.399	10865.14065
637.599	11031.92369
637.799	11003.45388
637.999	11031.92369
638.199	11131.55118
638.399	11296.18565
638.599	11216.92573
638.799	11365.27143
638.999	11300.24984
639.199	11119.35329
639.399	11115.28724
639.599	11440.43997
639.799	10741.02019
639.999	11164.07701
640.199	11176.2735
640.399	11050.22458
640.599	11046.15779
640.799	11462.78481
640.998	11080.72408
641.198	11157.97863
641.398	11251.47685
641.598	11438.40857
641.798	11265.70291
641.997	11411.9994
642.197	11474.97241
642.397	11682.10996
642.597	11206.76306
642.796	11641.50229
642.996	11367.30319
643.196	11611.04416
643.395	11430.28285
643.595	11472.94116
643.795	11448.5655
643.994	11615.10536
644.194	11414.03093
644.394	11452.62821
644.593	11649.62411
644.793	11649.62411
644.992	11440.43997
645.192	11594.79898
645.392	11631.3498
645.591	11734.8946
645.791	11470.90991
645.99	11537.93621
646.19	11393.71516
646.389	11503.4088
646.589	11470.90991
646.788	11562.30686
646.987	11590.7376
647.187	11539.96715
647.386	11692.26132
647.586	11694.29156
647.785	11698.35202
647.984	11939.88745
648.184	11544.029
648.383	11753.16482
648.582	11497.31544
648.782	11868.86004
648.981	11779.5539
649.18	11893.21344
649.38	11712.56337
649.579	11966.26651
649.778	11643.53276
649.977	12063.65445
650.177	11696.3218
650.376	11716.62367
650.575	11653.68497
650.774	11789.70316
650.973	11619.16653
651.173	11714.59352
651.372	11749.10484
651.571	12096.11309
651.77	11885.09577
651.969	12100.17028
652.168	11763.31464
652.367	11917.56564
652.566	11879.00743
652.765	11933.79978
652.964	11641.50229
653.163	12213.75944
653.362	11712.56337
653.561	11836.38698
653.76	11868.86004
653.959	12177.25118
654.158	12209.70308
654.357	11982.4991
654.556	11795.79261
654.755	12063.65445
654.954	11653.68497
655.153	11893.21344
655.352	12225.92833
655.551	12242.15311
655.749	12075.82667
655.948	12375.99024
656.147	12023.07835
656.346	12161.02452
656.545	11870.88954
656.743	11911.4777
656.942	12126.54129
657.141	11917.56564
657.34	12047.42438
657.538	12126.54129
657.737	12185.36433
657.936	12568.58293
658.135	12047.42438
658.333	12357.7415
658.532	12199.56206
658.731	12136.68364
658.929	12161.02452
659.128	12146.82581
659.326	12094.08448
659.525	12268.5174
659.724	12092.05587
659.922	12219.84391
660.121	12173.19456
660.319	12041.33798
660.518	11816.09022
660.716	12311.10332
660.915	12250.26533
661.113	12396.26596
661.312	11966.26651
661.51	12392.21087
661.709	12035.25151
661.907	12300.9641
662.105	12021.04946
662.304	12402.34854
662.502	12227.95645
662.701	12183.33606
662.899	12197.53384
663.097	12209.70308
663.296	12278.65718
663.494	12292.85259
663.692	11960.17916
663.891	12179.27948
664.089	11966.26651
664.287	12098.14169
664.485	12120.45578
664.684	12357.7415
664.882	12193.47737
665.08	12169.13791
665.278	12461.14376
665.476	12643.57718
665.675	12388.15575
665.873	12438.84278
666.071	12250.26533
666.269	12548.31276
666.467	12373.96263
666.665	12396.26596
666.863	12181.30777
667.061	12250.26533
667.259	12307.04765
667.457	12363.82448
667.655	12238.09696
667.853	12635.4701
668.051	12331.38124
668.249	12501.68896
668.447	12248.23728
668.645	12400.32102
668.843	12448.97969
669.041	12526.01484
669.239	12258.37743
669.437	12396.26596
669.635	12365.85212
669.833	12205.6467
670.031	12282.71305
670.229	12363.82448
670.426	12290.8247
670.624	12430.73314
670.822	11994.67321
671.02	12205.6467
671.218	12262.43344
671.415	12102.19886
671.613	12440.87018
671.811	12388.15575
672.009	12193.47737
672.206	12317.18677
672.404	12428.70571
672.602	12327.32571
672.799	12096.11309
672.997	12378.01784
673.195	11998.73118
673.392	12323.27016
673.59	12436.81538
673.788	12296.90836
673.985	12045.39559
674.183	12215.7876
674.38	12513.85202
674.578	12414.51353
674.775	12201.59028
674.973	12382.07302
675.17	12268.5174
675.368	12578.71778
675.565	12371.93501
675.763	12337.46448
675.96	12475.33488
676.158	12588.85248
676.355	12390.18331
676.553	12655.73762
676.75	12227.95645
676.947	12678.03121
677.145	11998.73118
677.342	12692.21767
677.539	12260.40544
677.737	12440.87018
677.934	12298.93623
678.131	12495.60735
678.329	12258.37743
678.526	12373.96263
678.723	12408.43107
678.92	12440.87018
679.118	12388.15575
679.315	12274.60129
679.512	12392.21087
679.709	12414.51353
679.906	12252.29336
680.104	12493.58013
680.301	12055.53948
680.498	11927.71204
680.695	12171.16624
680.892	12193.47737
681.089	12120.45578
681.286	12463.17108
681.483	11974.38287
681.68	12242.15311
681.877	12272.57333
682.075	12242.15311
682.272	12302.99196
682.469	12398.29349
682.665	12353.68616
682.862	12627.36292
683.059	12171.16624
683.256	12365.85212
683.453	12335.43674
683.65	12471.2803
683.847	12363.82448
684.044	12000.76016
684.241	12118.42727
684.438	12511.82486
684.635	12067.71188
684.831	12359.76917
685.028	12305.01981
685.225	12351.65847
685.422	12004.81808
685.619	12448.97969
685.815	12298.93623
686.012	12156.96778
686.209	11714.59352
686.405	12073.79798
686.602	12114.37021
686.799	12075.82667
686.996	11933.79978
687.192	12041.33798
687.389	11998.73118
687.586	12262.43344
687.782	12055.53948
687.979	12542.23158
688.175	12057.56823
688.372	12183.33606
688.568	12225.92833
688.765	12154.9394
688.962	12035.25151
689.158	11990.61521
689.355	12039.30916
689.551	12092.05587
689.748	11950.03341
689.944	12010.90491
690.14	11899.3016
690.337	12169.13791
690.533	11909.44837
690.73	12025.10723
690.926	11925.68278
691.123	11876.97797
691.319	11850.59421
691.515	12270.54537
691.712	11840.44623
691.908	12169.13791
692.104	11740.98475
692.301	11992.64421
692.497	11779.5539
692.693	11745.04481
692.889	11487.15966
693.086	11663.83695
693.282	11665.86732
693.478	12019.02057
693.674	11676.01904
693.87	11990.61521
694.067	12014.96275
694.263	12061.62571
694.459	11747.07483
694.655	12016.99166
694.851	11862.77151
695.047	11787.67332
695.243	12114.37021
695.439	12043.36679
695.635	11982.4991
695.831	11669.92803
696.027	11521.68836
696.224	11852.62378
696.42	11734.8946
696.615	11948.00423
696.811	11820.14964
697.007	11903.36033
697.203	11621.19709
697.399	11769.40443
697.595	11887.1252
697.791	11548.09081
697.987	11497.31544
698.183	11722.71406
698.379	11755.1948
698.575	11992.64421
698.77	11722.71406
698.966	11846.53504
699.162	11533.8743
699.358	11832.32769
699.554	11706.47284
699.749	12027.1361
699.945	11743.01479
700.141	12171.16624
700.337	11834.35734
700.532	11937.85824
700.728	11288.05714
700.924	11633.38032
701.119	11568.39931
701.315	11296.18565
701.511	11387.62024
701.706	11714.59352
701.902	11487.15966
702.097	11789.70316
702.293	11611.04416
702.489	11702.41245
702.684	11706.47284
702.88	12006.84703
703.075	11602.92164
703.271	11803.91175
703.466	11684.14025
703.662	11773.46424
703.857	11625.25821
704.053	11777.52402
704.248	11633.38032
704.443	11810.00102
704.639	11495.28431
704.834	11556.21432
705.03	11414.03093
705.225	11472.94116
705.42	11580.58397
705.616	11422.15697
705.811	11442.47137
706.006	11807.97128
706.202	11537.93621
706.397	11592.76829
706.592	11550.1217
706.787	11481.06608
706.983	11527.78137
707.178	11604.95229
707.373	11172.20805
707.568	11609.01354
707.763	11288.05714
707.959	11704.44265
708.154	11381.52523
708.349	11458.7222
708.544	11507.47099
708.739	11519.65733
708.934	11227.08813
709.129	11554.18346
709.324	11241.31506
709.519	11592.76829
709.714	11257.57379
709.909	11673.98871
710.104	11237.25028
710.299	11316.5062
710.494	11180.33891
710.689	11416.06246
710.884	11495.28431
711.079	11422.15697
711.274	11196.60014
711.469	11690.23106
711.664	11436.37715
711.859	11446.53414
712.054	11440.43997
712.249	11483.09728
712.443	11401.84159
712.638	11318.5382
712.833	11013.62192
713.028	11448.5655
713.223	11416.06246
713.417	11403.87317
713.612	11436.37715
713.807	11836.38698
714.002	11336.82575
714.196	11651.65454
714.391	11164.07701
714.586	11513.5642
714.78	11082.7573
714.975	11351.04883
715.17	11446.53414
715.364	11539.96715
715.559	11436.37715
715.754	11304.31399
715.948	11426.21993
716.143	11537.93621
716.337	11139.6829
716.532	11586.67617
716.726	11190.50226
716.921	11548.09081
717.115	11373.39841
717.31	11420.12547
717.504	11359.17609
717.699	11552.15258
717.893	11170.17531
718.088	11269.76741
718.282	11054.29132
718.476	11145.78157
718.671	11153.91298
718.865	11298.21775
719.059	11074.62438
719.254	11216.92573
719.448	11147.81444
719.642	11511.53314
719.837	11072.59112
720.031	11186.43695
720.225	10924.13358
720.419	11235.21787
720.614	10846.83053
720.808	11281.96066
721.002	11056.32468
721.196	10936.33782
721.39	10885.48413
721.585	10879.38121
721.779	10812.24219
721.973	11157.97863
722.167	10565.95478
722.361	11031.92369
722.555	10549.66499
722.749	10891.58695
722.943	10690.13838
723.137	10734.91477
723.331	10863.10624
723.525	10968.88046
723.719	10527.2652
723.913	10909.89479
724.107	10783.75513
724.301	10966.84663
724.495	10690.13838
724.689	11088.85687
724.883	10950.57558
725.077	11074.62438
725.271	11127.48526
725.465	11015.65549
725.659	10867.17505
725.853	11082.7573
726.046	10773.58061
726.24	10944.47375
726.434	10555.77375
726.628	10844.79602
726.822	10653.4988
727.015	11011.58833
727.209	10521.1559
727.403	10938.37182
727.596	10557.80998
727.79	11042.09096
727.984	10832.58868
728.177	10875.31254
728.371	10600.56795
728.565	10793.92934
728.758	10810.20747
728.952	10789.85969
729.146	10624.9986
729.339	10909.89479
729.533	10639.249
729.726	10673.85461
729.92	10718.63312
730.113	11015.65549
730.307	10696.2446
730.5	10842.76149
730.694	10616.85525
730.887	10907.86063
731.081	11192.5349
731.274	11080.72408
731.468	10649.42749
731.661	10903.79228
731.854	10773.58061
732.048	10972.94809
732.241	10490.6077
732.435	10958.7112
732.628	10757.30078
732.821	10913.96307
733.014	10751.19565
733.208	11048.19119
733.401	10854.96848
733.594	10999.38659
733.788	10909.89479
733.981	10745.09041
734.174	10771.54568
734.367	10747.1255
734.56	10710.49201
734.754	10453.94606
734.947	10696.2446
735.14	10915.9972
735.333	10885.48413
735.526	10877.34688
735.719	10710.49201
735.912	10832.58868
736.105	10895.65544
736.298	10584.27985
736.491	10468.20386
736.684	10673.85461
736.877	10616.85525
737.07	10555.77375
737.263	10763.40581
737.456	10631.10599
737.649	10641.28472
737.842	10795.96415
738.035	10879.38121
738.228	10730.84443
738.421	10588.35195
738.614	10810.20747
738.807	10863.10624
739	10755.26575
739.192	10567.99095
739.385	10675.89012
739.578	10771.54568
739.771	10826.48486
739.964	10681.99659
740.156	10710.49201
740.349	10584.27985
740.542	10618.89111
740.735	10429.50265
740.927	10641.28472
741.12	10567.99095
741.313	10445.79846
741.505	10618.89111
741.698	10714.56259
741.891	10537.44711
742.083	10602.6039
742.276	10600.56795
742.468	10608.7117
742.661	10553.73751
742.854	10897.68967
743.046	10535.41075
743.239	10749.16058
743.431	10854.96848
743.624	10551.70125
743.816	10227.77217
744.009	10449.87228
744.201	10427.46561
744.393	10392.83402
744.586	10488.57105
744.778	10315.40851
744.971	10419.31734
745.163	10665.71243
745.355	10364.31105
745.548	10415.24313
745.74	10392.83402
745.932	10176.80926
746.125	10415.24313
746.317	10510.97348
746.509	10315.40851
746.702	10335.7855
746.894	10217.58028
747.086	10413.206
747.278	10388.75947
747.471	10390.79675
747.663	10417.28024
747.855	10441.72458
748.047	10205.34955
748.239	10290.95436
748.431	10376.5355
748.623	10288.91643
748.815	10290.95436
749.008	10388.75947
749.2	10323.55947
749.392	10339.86074
749.584	10170.69313
749.776	10435.61367
749.968	10358.19865
750.16	10500.79075
750.352	10333.74786
750.544	10431.53967
750.736	10254.26951
750.928	10370.42334
751.12	10258.34582
751.311	10242.04026
751.503	10494.68096
751.695	10352.08613
751.887	10087.09352
752.079	10223.69546
752.271	10127.87675
752.463	10350.0486
752.654	10158.46051
752.846	10103.40749
753.038	9817.78036
753.23	10023.86836
753.421	9997.35051
753.613	10091.1721
753.805	10148.26627
753.997	10292.99228
754.188	9981.03062
754.38	9958.58926
754.572	9889.21393
754.763	9936.14615
754.955	9783.07745
755.146	9764.70356
755.338	9901.45787
755.53	9850.43797
755.721	9776.95296
755.913	9885.1325
756.104	9754.49532
756.296	9825.94512
756.487	9746.32845
756.679	9795.32603
756.87	9797.36741
757.062	9392.87295
757.253	9499.16375
757.445	9825.94512
757.636	9607.45411
757.827	9815.73913
758.019	9895.33597
758.21	9711.61653
758.401	9646.26442
758.593	9603.36848
758.784	9537.98993
758.975	9601.32565
759.167	9805.53277
759.358	10056.50241
759.549	9709.57452
759.74	9636.05173
759.932	9544.11986
760.123	9660.56155
760.314	9605.4113
760.505	9558.42247
760.696	9484.85791
760.888	9703.44838
761.079	9527.77307
761.27	9746.32845
761.461	9533.90324
761.652	9662.60393
761.843	9288.58333
762.034	9490.98908
762.225	9327.44134
762.416	9380.60581
762.607	9466.46354
762.798	9362.20398
762.989	9433.7592
763.18	9378.56122
763.371	9419.44975
763.562	9497.1201
763.753	9364.24869
763.944	9533.90324
764.135	9231.30791
764.326	9335.62122
764.517	9304.94533
764.708	9221.07877
764.899	9180.15799
765.089	9264.03833
765.28	9122.85747
765.471	9280.40193
765.662	8909.908
765.853	8959.06704
766.043	8844.34663
766.234	9167.88044
766.425	8782.86609
766.615	9057.35467
766.806	9126.95081
766.997	9196.52712
767.187	8979.54696
767.378	9149.46295
767.569	8756.21944
767.759	8870.98315
767.95	8920.15031
768.141	8971.35521
768.331	8989.78627
768.522	9053.26015
768.712	9038.92881
768.903	9161.74143
769.093	9036.8814
769.284	9075.77912
769.474	8674.21033
769.665	9022.54908
769.855	9055.30742
770.046	8963.16317
770.236	9016.40639
770.426	8911.9565
770.617	9026.64412
770.807	9304.94533
770.998	8768.51828
771.188	8938.58535
771.378	8754.16957
771.569	8770.56802
771.759	8797.213
771.949	8666.00779
772.139	8598.32552
772.33	8672.15972
772.52	8663.95711
772.71	8581.91464
772.9	8499.8421
773.09	8370.51599
773.281	8413.63317
773.471	8510.10282
773.661	8479.31922
773.851	8614.73521
774.041	8573.70874
774.231	8577.81173
774.421	8411.58016
774.611	8563.45095
774.802	8588.06886
774.992	8676.26092
775.182	8657.80496
775.372	8659.8557
775.562	8469.05707
775.752	8452.63663
775.942	8284.25593
776.131	8421.845
776.321	8269.8759
776.511	8362.30223
776.701	8101.35188
776.891	8195.9062
777.081	8280.14745
777.271	8370.51599
777.461	8501.89428
777.651	8503.94644
777.84	8222.62044
778.03	8195.9062
778.22	8228.78479
778.41	8292.47266
778.599	8294.52679
778.789	8380.78276
778.979	8156.85628
779.169	8204.12632
779.358	8130.13376
779.548	8241.11295
779.738	8031.43659
779.927	8097.23986
780.117	7858.60371
780.307	7945.03823
780.496	7844.19441
780.686	8039.66313
780.875	7825.66668
781.065	8089.01558
781.254	8043.77628
781.444	8058.17166
781.633	8072.56606
781.823	7712.4049
782.012	7693.8651
782.202	7994.41312
782.391	7629.99271
782.581	7907.99932
782.77	8117.79915
782.96	7875.07023
783.149	7687.68479
783.338	7702.10522
783.528	7862.72046
783.717	8002.64113
783.906	7819.49039
784.096	7903.88347
784.285	7827.7254
784.474	7768.01405
784.663	7671.20303
784.853	7516.62036
785.042	7491.87595
785.231	7580.52909
785.42	7547.54651
785.61	7615.56709
785.799	7807.13726
785.988	7687.68479
786.177	7390.80399
786.366	7454.75352
786.555	7553.73116
786.744	7541.36167
786.933	7496.00023
787.122	7844.19441
787.312	7685.62465
787.501	7487.75158
787.69	7479.50258
787.879	7708.28509
788.068	7277.29357
788.257	7619.6888
788.445	7306.19342
788.634	7514.55844
788.823	7207.09025
789.012	7396.99357
789.201	7306.19342
789.39	7322.70569
789.579	7202.95985
789.768	7547.54651
789.957	7176.11007
790.145	7182.30651
790.334	6992.19121
790.523	7306.19342
790.712	7430.00134
790.9	7392.8672
791.089	7244.25989
791.278	7537.23833
791.467	7128.59743
791.655	7522.80597
791.844	7219.48093
792.033	7250.45414
792.221	7008.7305
792.41	7107.93609
792.599	7223.61098
792.787	7363.98022
792.976	7027.33548
793.164	7101.73725
793.353	7194.69878
793.541	7238.06545
793.73	7174.04455
793.918	6996.32617
794.107	7066.6067
794.295	6913.60987
794.484	6967.37957
794.672	7171.97901
794.861	7066.6067
795.049	6942.56468
795.238	6892.92514
795.426	6936.36045
795.614	7045.93865
795.803	6954.97253
795.991	6671.45598
796.179	6950.83667
796.368	6721.15408
796.556	6754.27881
796.744	6526.42741
796.932	6950.83667
797.121	6739.78746
797.309	7159.58527
797.497	6745.99818
797.685	6723.22455
797.874	6797.74613
798.062	6975.65048
798.25	6820.51071
798.438	6719.08359
798.626	6696.30669
798.814	6890.85654
799.002	6659.02939
799.19	6671.45598
799.378	6654.88701
799.566	6756.34891
799.755	6530.57266
799.943	6870.16932
800.131	6588.59636
800.318	6766.69908
800.506	6389.58224
800.694	6540.93536
800.882	6598.95583
801.07	6903.26778
801.258	6669.38494
801.446	6851.54888
801.634	6565.8035
801.822	6781.18834
802.01	6271.31611
802.197	6663.17168
802.385	6263.01388
802.573	6532.64524
802.761	6549.22511
802.949	6830.85733
803.136	6791.53713
803.324	6704.58952
803.512	6727.36542
803.699	6663.17168
803.887	6793.60682
804.075	6959.1083
804.262	6478.75043
804.45	6630.03078
804.638	6314.89667
804.825	6619.67304
805.013	6553.36985
805.201	6752.20869
805.388	6503.62691
805.576	6569.94786
805.763	6677.66897
805.951	6437.28221
806.138	6594.81212
806.326	6630.03078
806.513	6404.10093
806.701	6752.20869
806.888	6735.64687
807.075	6665.24279
807.263	6777.04867
807.45	6909.4731
807.638	6603.09946
807.825	6822.58008
808.012	6559.58678
808.2	6644.53065
808.387	6540.93536
808.574	6801.88535
808.761	6489.11604
808.949	6754.27881
809.136	6669.38494
809.323	6847.41075
809.51	6739.78746
809.698	6909.4731
809.885	6603.09946
810.072	6710.8014
810.259	6582.38041
810.446	6700.44815
810.633	6511.91832
810.82	6615.52979
811.008	6654.88701
811.195	6886.71928
811.382	6812.233
811.569	7122.39926
811.756	6712.87198
811.943	7136.86134
812.13	6793.60682
812.317	6868.10047
812.504	6779.11851
812.691	6944.63271
812.878	6677.66897
813.064	6787.39768
813.251	6605.17124
813.438	6923.95138
813.625	6671.45598
813.812	6540.93536
813.999	6522.28207
814.186	6710.8014
814.372	6503.62691
814.559	6659.02939
814.746	6358.46693
814.933	6385.43384
815.12	6619.67304
815.306	6673.527
815.493	6582.38041
815.68	6934.29233
815.866	6509.84551
816.053	6803.95493
816.24	6878.44448
816.426	6892.92514
816.613	6812.233
816.799	6963.24398
816.986	6777.04867
817.173	6812.233
817.359	6364.69041
817.546	6428.98744
817.732	6283.76875
817.919	6603.09946
818.105	6772.9089
818.292	6592.74022
818.478	6362.61594
818.665	6731.50619
818.851	6659.02939
819.037	6704.58952
819.224	6540.93536
819.41	6478.75043
819.597	6420.69231
819.783	6439.35584
819.969	6445.57659
820.156	6632.10226
820.342	6572.02001
820.528	6630.03078
820.714	6511.91832
820.901	6399.95285
821.087	6505.6998
821.273	6756.34891
821.459	6499.48106
821.646	6619.67304
821.832	6391.65641
822.018	6601.02766
822.204	6281.69337
822.39	6627.95928
822.576	6331.49608
822.762	6520.20937
822.948	6358.46693
823.134	6520.20937
823.32	6468.38425
823.507	6348.09399
823.693	6163.35787
823.879	6204.88777
824.065	6204.88777
824.25	6182.04749
824.436	6096.89049
824.622	6487.04296
824.808	6238.10494
824.994	6495.33512
825.18	6182.04749
825.366	6242.25666
825.552	6096.89049
825.738	6466.31094
825.923	6244.33249
826.109	6422.76613
826.295	6084.42517
826.481	6113.50959
826.667	5947.25078
826.852	6157.12758
827.038	6107.2776
827.224	6323.19656
827.409	6130.12719
827.595	6240.18081
827.781	6026.24251
827.966	6204.88777
828.152	5787.08418
828.338	5974.2781
828.523	6090.65794
828.709	6067.80344
828.894	6078.1922
829.08	6169.58795
829.266	5843.26242
829.451	5868.22501
829.637	5726.72543
829.822	6188.27694
830.008	5932.69596
830.193	6198.65889
830.378	5849.50339
830.564	6049.10218
830.749	5951.40909
830.935	5930.61661
831.12	5739.21507
831.305	6044.94609
831.491	5701.74358
831.676	5965.96242
831.861	5655.93471
832.047	5760.02926
832.232	5493.42947
832.417	5476.75416
832.602	5445.4839
832.788	5785.00318
832.973	5533.02729
833.158	5705.90746
833.343	5651.7697
833.528	5718.39852
833.714	5805.81217
833.899	6022.0859
834.084	5491.34514
834.269	5839.10166
834.454	5474.66964
834.639	5730.88874
834.824	5647.6046
835.009	5580.95011
835.194	5520.52363
835.379	5789.16517
835.564	5372.4994
835.749	5641.35677
835.934	5510.10327
836.119	5618.44623
836.304	5364.15648
836.489	5480.92313
836.674	5197.21944
836.859	5280.70667
837.044	5272.35963
837.228	5272.35963
837.413	5314.09109
837.598	5745.45958
837.783	5393.35505
837.968	5501.76656
838.152	5289.05334
838.337	5605.94837
838.522	5516.35556
838.707	5395.44048
838.891	5399.61129
839.076	5372.4994
839.261	5299.48615
839.445	5230.61882
839.63	5122.04904
839.815	5324.52249
839.999	5109.51771
840.184	5299.48615
840.368	5036.40165
840.553	5476.75416
840.737	5259.83837
840.922	5407.95261
841.106	4982.06852
841.291	5209.74491
841.475	5021.77503
841.66	5130.4028
841.844	4904.72146
842.029	5197.21944
842.213	5086.54144
842.397	5063.56236
842.582	4946.53459
842.766	5113.69491
842.951	5013.41646
843.135	5226.44422
843.319	4867.08181
843.504	4971.61806
843.688	4745.74821
843.872	5140.84447
844.056	5134.57953
844.241	5174.25391
844.425	4806.42457
844.609	5165.90211
844.793	5128.31439
844.977	5025.95418
845.161	4827.34303
845.346	5051.02713
845.53	4864.9905
845.714	4967.43771
845.898	4662.02547
846.082	5170.07805
846.266	4877.53801
846.45	4806.42457
846.634	4708.07744
846.818	4959.07674
847.002	4599.20982
847.186	4858.71643
847.37	4469.32733
847.554	4601.304
847.738	4318.39007
847.922	4649.46395
848.106	4638.9954
848.29	4645.2766
848.473	4555.22691
848.657	4536.37409
848.841	4498.66306
849.025	4729.00655
849.209	4586.64427
849.392	4574.07793
849.576	4544.75334
849.76	4603.39815
849.944	4419.02747
850.127	4515.4244
850.311	4056.08221
850.495	4444.17898
850.678	4074.97935
850.862	4442.08314
851.046	4339.36031
851.229	4408.54674
851.413	4278.54067
851.596	4278.54067
851.78	4364.52175
851.964	4444.17898
852.147	4372.9082
852.331	4603.39815
852.514	4307.90414
852.698	4515.4244
852.881	4370.81162
853.065	4377.1013
853.248	4133.75966
853.431	4284.8332
853.615	4244.97727
853.798	4261.75966
853.982	4091.77539
854.165	4276.44312
854.348	3833.39144
854.532	4217.70299
854.715	4169.4397
854.898	4133.75966
855.081	3919.5535
855.265	4314.19576
855.448	3768.22239
855.631	3881.73039
855.814	3932.15975
855.997	4020.38305
856.181	3780.83723
856.364	4200.91703
856.547	4018.28292
856.73	4152.64985
856.913	3738.78504
857.096	4066.58083
857.279	3730.37367
857.462	4060.28172
857.645	3566.2909
857.828	3846.00261
858.011	3797.65591
858.194	3877.52742
858.377	3633.62084
858.56	3787.14438
858.743	3612.5823
858.926	3913.2501
859.109	3831.28951
859.292	3969.97414
859.475	3625.20565
859.658	3772.42741
859.841	3637.82833
860.023	3665.17512
860.206	3397.88375
860.389	3671.48546
860.572	3446.31264
860.755	3663.07163
860.937	3507.36162
861.12	3602.06232
861.303	3684.10563
861.486	3623.10181
861.668	3553.66442
861.851	3747.1961
862.034	3549.45544
862.216	3587.33357
862.399	3267.29023
862.581	3431.57441
862.764	3404.2011
862.947	3623.10181
863.129	3412.62397
863.312	3404.2011
863.494	3117.66003
863.677	3233.57802
863.859	3250.43466
864.042	3402.09533
864.224	3284.14472
864.406	3562.08215
864.589	3376.8248
864.771	3444.20723
864.954	3418.94094
865.136	3359.97637
865.318	3134.52389
865.501	3244.11355
865.683	3134.52389
865.865	3210.39839
866.048	2913.10669
866.23	3174.5714
866.412	3145.06327
866.594	3119.76807
866.777	2999.58488
866.959	3132.41596
867.141	2824.49392
867.323	3024.89079
867.505	3033.3256
867.687	2953.18506
867.869	2904.66847
868.052	2982.71306
868.234	2917.32572
868.416	3208.29105
868.598	2925.76359
868.78	3138.73969
868.962	3166.14083
869.144	3223.04207
869.326	2957.40352
869.508	3022.78205
869.69	2934.20123
869.872	3050.19449
870.054	2824.49392
870.236	3064.95395
870.417	2919.43521
870.599	3149.27891
870.781	2965.84027
870.963	3039.65155
871.145	2929.98244
871.327	2980.60401
871.508	2727.41373
871.69	2989.0401
871.872	2805.50224
872.054	2961.62193
872.235	2737.9673
872.417	2929.98244
872.599	2887.79133
872.78	3064.95395
872.962	2868.80345
873.144	2923.65415
873.325	2695.75104
873.507	3037.54291
873.689	2687.30717
873.87	3149.27891
874.052	2771.7365
874.233	2932.09184
874.415	2927.87302
874.596	2915.21621
874.778	2849.81441
874.959	2847.70445
875.141	2666.19658
875.322	2955.2943
875.503	3022.78205
875.685	3039.65155
875.866	2769.62603
876.048	2925.76359
876.229	2670.4188
876.41	2972.16768
876.592	2575.40683
876.773	3098.68698
876.954	2750.63115
877.136	2862.4739
877.317	2843.48448
877.498	3050.19449
877.679	2731.6352
877.86	2942.63863
878.042	2811.83292
878.223	2921.54468
878.404	2807.61248
878.585	3024.89079
878.766	2908.88761
878.947	3201.96894
879.128	2837.15442
879.309	2997.47595
879.49	2744.29929
879.672	3132.41596
879.853	2636.63964
880.034	2940.5293
880.215	2775.95741
880.396	2866.69361
880.576	2693.6401
880.757	2915.21621
880.938	2697.86198
881.119	2881.46216
881.3	2822.38379
881.481	2797.06113
881.662	2657.75199
881.843	2877.24265
882.023	2725.30298
882.204	3029.10822
882.385	2668.3077
882.566	2847.70445
882.747	2507.82796
882.927	2873.02308
883.108	2727.41373
883.289	2807.61248
883.469	2642.97347
883.65	3073.38758
883.831	2763.29452
884.011	2816.05331
884.192	2864.58376
884.373	2845.59447
884.553	2820.27364
884.734	3132.41596
884.914	2666.19658
885.095	2963.73111
885.275	2913.10669
885.456	2896.23002
885.636	2921.54468
885.817	3161.92545
885.997	2655.64081
886.178	2938.41996
886.358	2659.86316
886.538	3022.78205
886.719	2980.60401
886.899	2999.58488
887.08	2820.27364
887.26	3077.60431
887.44	2860.36402
887.621	3174.5714
887.801	2953.18506
887.981	3117.66003
888.161	2974.27678
888.342	3048.08593
888.522	2858.25412
888.702	3048.08593
888.882	2714.74901
889.062	2879.35241
889.242	2674.64097
889.423	2976.38587
889.603	2680.97413
889.783	2854.0343
889.963	2778.06784
890.143	2944.74795
890.323	2668.3077
890.503	2915.21621
890.683	2780.17826
890.863	2721.08143
891.043	2611.30317
891.223	2904.66847
891.403	2889.90102
891.583	3107.11961
891.763	2830.82423
891.943	2915.21621
892.122	2767.51554
892.302	2854.0343
892.482	2600.74578
892.662	2889.90102
892.842	2699.97291
893.022	2735.85661
893.201	2609.19171
893.381	2765.40504
893.561	2474.03413
893.741	2974.27678
893.92	2604.96877
894.1	2868.80345
894.28	2566.96013
894.459	2723.19221
894.639	2661.97431
894.819	2811.83292
894.998	2695.75104
895.178	2828.71414
895.357	2522.61185
895.537	2811.83292
895.716	2661.97431
895.896	2689.41816
896.075	2501.49184
896.255	2706.3056
896.434	2598.63427
896.614	2752.74175
896.793	2505.71593
896.973	2680.97413
897.152	2357.84672
897.331	2602.85728
897.511	2507.82796
897.69	2649.3072
897.87	2465.58523
898.049	2493.04352
898.228	2391.64996
898.407	2520.4999
898.587	2235.28905
898.766	2645.08473
898.945	2273.32756
899.124	2383.19939
899.304	2247.96888
899.483	2457.13615
899.662	2271.21439
899.841	2526.83572
900.02	2364.18502
900.199	2440.23747
900.378	2212.04188
900.557	2385.31205
900.737	2169.77162
900.916	2237.40238
901.095	2127.49808
901.274	2138.06677
901.453	2119.043
901.632	2167.65802
901.811	2104.2463
901.989	2116.9292
902.168	2034.48557
902.347	2203.5881
902.526	1930.88797
902.705	2045.05587
902.884	1772.29457
903.063	2072.53785
903.242	1941.45983
903.42	2053.51199
903.599	1839.96439
903.778	2127.49808
903.957	1797.67127
904.135	1886.48464
904.314	1784.98299
904.493	1806.13003
904.672	1681.35705
904.85	1875.91207
905.029	1740.57291
905.207	1892.82812
905.386	1814.58873
905.565	1943.57418
905.743	1573.49424
905.922	1655.97811
906.1	1374.68039
906.279	1772.29457
906.457	1491.00802
906.636	1706.73558
906.814	1581.95425
906.993	1653.86318
907.171	1408.52104
907.35	1636.94366
907.528	1332.37996
907.707	1512.15846
907.885	1438.13174
908.063	1613.67908
908.242	1436.01668
908.42	1603.10418
908.598	1391.60069
908.777	1491.00802
908.955	1389.48565
909.133	1501.58325
909.311	1266.81564
909.49	1359.87518
909.668	1302.77003
909.846	1484.66287
910.024	1186.44984
910.202	1493.12306
910.38	1137.80982
910.559	1349.30007
910.737	1226.63219
910.915	1433.90163
911.093	1326.03495
911.271	1514.27351
911.449	1298.54007
911.627	1332.37996
911.805	1163.18696
911.983	1501.58325
912.161	1173.76094
912.339	1552.34408
912.517	1410.63609
912.695	1514.27351
912.872	1273.16048
913.05	1510.04342
913.228	1361.99021
913.406	1491.00802
913.584	1323.91994
913.762	1366.22027
913.939	1224.5173
914.117	1586.18425
914.295	1427.55648
914.473	1433.90163
914.65	1366.22027
914.828	1545.99901
915.006	1275.27544
915.184	1560.80416
915.361	1226.63219
915.539	1378.91046
915.716	1156.84262
915.894	1334.49497
916.072	1361.99021
916.249	1357.76016
916.427	1326.03495
916.604	1438.13174
916.782	1089.17209
916.959	1368.33529
917.137	1205.48343
917.314	1351.41509
917.492	1129.35091
917.669	1230.86198
917.847	1182.22019
918.024	1182.22019
918.201	1125.12148
918.379	1158.9574
918.556	1080.71362
918.733	1167.41654
918.911	1137.80982
919.088	1182.22019
919.265	1010.93454
919.442	1197.02402
919.62	854.48657
919.797	1194.90918
919.974	1055.3387
920.151	1245.66633
920.328	1004.59131
920.506	1220.28753
920.683	1131.46563
920.86	1150.49832
921.037	867.16996
921.214	1142.0393
921.391	1040.53703
921.568	1222.40241
921.745	1084.94284
921.922	1146.2688
922.099	1023.62118
922.276	1152.61308
922.453	879.85366
922.63	998.24813
922.807	782.6201
922.984	943.27643
923.161	926.36301
923.338	983.44761
923.514	837.57587
923.691	934.81966
923.868	900.9938
924.045	913.67827
924.222	750.91783
924.399	917.90649
924.575	774.16594
924.752	951.73331
924.929	841.80349
925.105	917.90649
925.282	801.64253
925.459	936.93384
925.635	856.60045
925.812	862.94213
925.989	776.27947
926.165	829.12073
926.342	824.89321
926.518	769.93892
926.695	734.01088
926.871	757.2581
927.048	613.56959
927.224	860.82823
927.401	655.82537
927.577	746.69103
927.754	683.29419
927.93	714.99138
928.107	670.61603
928.283	740.35091
928.459	721.33112
928.636	643.14812
928.812	609.34428
928.988	736.12421
929.165	505.84085
929.341	776.27947
929.517	609.34428
929.693	750.91783
929.87	592.44357
930.046	655.82537
930.222	575.54369
930.398	657.93829
930.574	588.21852
930.751	520.62503
930.927	486.83367
931.103	596.66867
931.279	651.59957
931.455	588.21852
931.631	507.95283
931.807	567.09406
931.983	518.51296
932.159	600.89382
932.335	459.38097
932.511	539.63428
932.687	353.81853
932.863	503.72888
933.039	434.04231
933.215	389.70517
933.391	364.37291
933.566	406.59467
933.742	427.708
933.918	434.04231
934.094	436.15378
934.27	512.17684
934.445	370.70575
934.621	427.708
934.797	271.50948
934.973	303.16355
935.148	296.83241
935.324	246.18925
935.5	271.50948
935.675	284.17061
935.851	218.76214
936.027	250.4091
936.202	349.59689
936.378	248.29916
936.553	301.05315
936.729	193.44776
936.904	208.21413
937.08	271.50948
937.255	216.6525
937.431	185.01029
937.606	132.28355
937.782	128.06598
937.957	140.71894
938.133	100.65391
938.308	136.50121
938.483	132.28355
938.659	7.90283
938.834	132.28355
939.009	176.57313
939.185	123.8485
939.36	104.87091
939.535	128.06598
939.71	174.4639
939.886	128.06598
940.061	109.088
940.236	54.2728
940.411	52.16483
940.586	98.54544
940.761	90.11179
940.937	85.8951
941.112	123.8485
941.287	66.92111
941.462	81.6785
941.637	98.54544
941.812	71.13739
941.987	7.90283
942.162	115.4138
942.337	77.46199
942.512	85.8951
942.687	-2.6342
942.862	90.11179
943.037	81.6785
943.212	35.30189
943.386	85.8951
943.561	47.94895
943.736	5.79537
943.911	18.44046
944.086	-2.6342
944.26	106.97945
944.435	77.46199
944.61	60.59685
944.785	56.38079
944.959	24.76332
945.134	26.87099
945.309	31.08639
945.483	47.94895
945.658	73.24557
945.833	69.02924
946.007	-27.92059
946.182	104.87091
946.357	134.39237
946.531	159.69982
946.706	56.38079
946.88	102.7624
947.055	58.48881
947.229	26.87099
947.404	39.51749
947.578	128.06598
947.752	41.62532
947.927	123.8485
948.101	62.70491
948.276	37.40968
948.45	39.51749
948.624	106.97945
948.799	-2.6342
948.973	33.19413
949.147	58.48881
949.321	98.54544
949.496	115.4138
949.67	56.38079
949.844	31.08639
950.018	85.8951
950.193	64.813
950.367	100.65391
950.541	106.97945
950.715	39.51749
950.889	64.813
951.063	47.94895
951.237	83.78679
951.411	104.87091
951.585	106.97945
951.759	115.4138
951.933	140.71894
952.107	52.16483
952.281	52.16483
952.455	22.65567
952.629	94.32857
952.803	81.6785
952.977	81.6785
953.151	24.76332
953.325	100.65391
953.499	50.05688
953.672	134.39237
953.846	81.6785
954.02	81.6785
954.194	1.58054
954.368	109.088
954.541	7.90283
954.715	-8.95613
954.889	102.7624
955.062	98.54544
955.236	56.38079
955.41	149.15468
955.583	71.13739
955.757	35.30189
955.93	123.8485
956.104	31.08639
956.278	28.97868
956.451	132.28355
956.625	83.78679
956.798	90.11179
956.972	100.65391
957.145	22.65567
957.319	123.8485
957.492	50.05688
957.665	168.13631
957.839	117.52244
958.012	83.78679
958.185	-2.6342
958.359	100.65391
958.532	85.8951
958.705	54.2728
958.879	83.78679
959.052	16.33288
959.225	73.24557
959.398	64.813
959.572	-2.6342
959.745	33.19413
959.918	138.61006
960.091	60.59685
960.264	113.30518
960.438	52.16483
960.611	31.08639
960.784	18.44046
960.957	31.08639
961.13	39.51749
961.303	85.8951
961.476	22.65567
961.649	85.8951
961.822	75.35377
961.995	18.44046
962.168	43.73317
962.341	85.8951
962.514	134.39237
962.686	56.38079
962.859	69.02924
963.032	106.97945
963.205	45.84105
963.378	166.02716
963.551	117.52244
963.723	94.32857
963.896	58.48881
964.069	54.2728
964.242	90.11179
964.414	-11.06339
964.587	123.8485
964.76	96.437
964.932	33.19413
965.105	43.73317
965.278	109.088
965.45	94.32857
965.623	47.94895
965.795	75.35377
965.968	18.44046
966.14	90.11179
966.313	94.32857
966.485	94.32857
966.658	58.48881
966.83	94.32857
967.003	-13.17063
967.175	123.8485
967.348	106.97945
967.52	18.44046
967.692	79.57023
967.865	117.52244
968.037	22.65567
968.209	73.24557
968.382	26.87099
968.554	-23.70644
968.726	43.73317
968.898	119.63111
969.071	81.6785
969.243	119.63111
969.415	47.94895
969.587	41.62532
969.759	58.48881
969.932	31.08639
970.104	85.8951
970.276	41.62532
970.448	88.00344
970.62	7.90283
970.792	60.59685
970.964	83.78679
971.136	-67.95008
971.308	14.22533
971.48	83.78679
971.652	77.46199
971.824	-36.3486
971.996	-6.84884
972.168	83.78679
972.339	24.76332
972.511	14.22533
972.683	58.48881
972.855	3.68794
973.027	58.48881
973.199	-11.06339
973.37	98.54544
973.542	33.19413
973.714	60.59685
973.886	88.00344
974.057	83.78679
974.229	41.62532
974.401	33.19413
974.572	39.51749
974.744	-11.06339
974.915	7.90283
975.087	-0.52684
975.259	26.87099
975.43	31.08639
975.602	56.38079
975.773	22.65567
975.945	60.59685
976.116	31.08639
976.288	20.54805
976.459	-11.06339
976.63	73.24557
976.802	47.94895
976.973	58.48881
977.145	-0.52684
977.316	92.22017
977.487	33.19413
977.659	117.52244
977.83	115.4138
978.001	39.51749
978.172	-11.06339
978.344	96.437
978.515	39.51749
978.686	81.6785
978.857	85.8951
979.028	28.97868
979.2	7.90283
979.371	26.87099
979.542	14.22533
979.713	22.65567
979.884	33.19413
980.055	-23.70644
980.226	92.22017
980.397	35.30189
980.568	90.11179
980.739	18.44046
980.91	-23.70644
981.081	-4.74153
981.252	-0.52684
981.423	33.19413
981.594	-19.49219
981.765	16.33288
981.936	31.08639
982.106	64.813
982.277	-8.95613
982.448	54.2728
982.619	-19.49219
982.79	31.08639
982.96	28.97868
983.131	-44.77622
983.302	102.7624
983.472	10.01031
983.643	-27.92059
983.814	-48.98987
983.984	16.33288
984.155	50.05688
984.326	45.84105
984.496	64.813
984.667	22.65567
984.837	47.94895
985.008	39.51749
985.178	10.01031
985.349	24.76332
985.519	-61.63024
985.69	10.01031
985.86	58.48881
986.031	18.44046
986.201	-2.6342
986.371	69.02924
986.542	-19.49219
986.712	7.90283
986.882	58.48881
987.053	33.19413
987.223	35.30189
987.393	22.65567
987.563	-17.38502
987.734	-23.70644
987.904	41.62532
988.074	7.90283
988.244	39.51749
988.414	-0.52684
988.585	92.22017
988.755	16.33288
988.925	-2.6342
989.095	33.19413
989.265	75.35377
989.435	43.73317
989.605	20.54805
989.775	24.76332
989.945	73.24557
990.115	22.65567
990.285	1.58054
990.455	-19.49219
990.625	-17.38502
990.795	14.22533
990.965	-32.13465
991.134	39.51749
991.304	10.01031
991.474	-21.59933
991.644	33.19413
991.814	39.51749
991.984	-17.38502
992.153	7.90283
992.323	71.13739
992.493	58.48881
992.662	-11.06339
992.832	47.94895
993.002	24.76332
993.171	-42.66935
993.341	22.65567
993.511	56.38079
993.68	39.51749
993.85	-27.92059
994.019	100.65391
994.189	41.62532
994.358	18.44046
994.528	24.76332
994.697	-0.52684
994.867	22.65567
995.036	-61.63024
995.206	-32.13465
995.375	-48.98987
995.544	-36.3486
995.714	-27.92059
995.883	33.19413
996.052	-2.6342
996.222	41.62532
996.391	66.92111
996.56	5.79537
996.73	56.38079
996.899	-44.77622
997.068	79.57023
997.237	39.51749
997.406	10.01031
997.576	24.76332
997.745	5.79537
997.914	-23.70644
998.083	-57.41689
998.252	83.78679
998.421	-21.59933
998.59	-27.92059
998.759	73.24557
998.928	1.58054
999.097	39.51749
999.266	58.48881
999.435	-32.13465
999.604	39.51749
999.773	-25.81353
999.942	31.08639
1000.111	-8.95613
1000.28	-25.81353
1000.448	-8.95613
1000.617	-32.13465
1000.786	-4.74153
1000.955	-42.66935
1001.124	31.08639
1001.292	14.22533
1001.461	1.58054
1001.63	7.90283
1001.798	1.58054
1001.967	39.51749
1002.136	-48.98987
1002.304	41.62532
1002.473	22.65567
1002.642	22.65567
1002.81	-34.24164
1002.979	43.73317
1003.147	52.16483
1003.316	-51.09666
1003.484	26.87099
1003.653	1.58054
1003.821	7.90283
1003.99	28.97868
1004.158	-57.41689
1004.327	18.44046
1004.495	-11.06339
1004.663	1.58054
1004.832	-32.13465
1005	24.76332
1005.168	-42.66935
1005.337	64.813
1005.505	-38.45555
1005.673	-6.84884
1005.842	-11.06339
1006.01	-36.3486
1006.178	41.62532
1006.346	39.51749
1006.514	56.38079
1006.683	7.90283
1006.851	31.08639
1007.019	56.38079
1007.187	-27.92059
1007.355	54.2728
1007.523	26.87099
1007.691	56.38079
1007.859	14.22533
1008.027	52.16483
1008.195	18.44046
1008.363	5.79537
1008.531	22.65567
1008.699	-8.95613
1008.867	31.08639
1009.035	14.22533
1009.203	-2.6342
1009.37	64.813
1009.538	-36.3486
1009.706	-0.52684
1009.874	-15.27784
1010.042	77.46199
1010.209	-30.02763
1010.377	7.90283
1010.545	-32.13465
1010.713	24.76332
1010.88	-48.98987
1011.048	-25.81353
1011.216	47.94895
1011.383	85.8951
1011.551	-6.84884
1011.718	33.19413
1011.886	7.90283
1012.054	-40.56246
1012.221	10.01031
1012.389	1.58054
1012.556	-6.84884
1012.724	41.62532
1012.891	14.22533
1013.058	-8.95613
1013.226	-15.27784
1013.393	14.22533
1013.561	-27.92059
1013.728	39.51749
1013.895	-6.84884
1014.063	-42.66935
1014.23	-11.06339
1014.397	83.78679
1014.565	-17.38502
1014.732	-13.17063
1014.899	-6.84884
1015.066	-36.3486
1015.233	22.65567
1015.401	1.58054
1015.568	12.11781
1015.735	20.54805
1015.902	7.90283
1016.069	-19.49219
1016.236	-13.17063
1016.403	1.58054
1016.57	-86.90822
1016.737	33.19413
1016.904	69.02924
1017.071	-11.06339
1017.238	-15.27784
1017.405	7.90283
1017.572	-8.95613
1017.739	16.33288
1017.906	-32.13465
1018.073	5.79537
1018.24	39.51749
1018.407	-25.81353
1018.573	-15.27784
1018.74	-27.92059
1018.907	1.58054
1019.074	-17.38502
1019.241	5.79537
1019.407	71.13739
1019.574	22.65567
1019.741	7.90283
1019.907	1.58054
1020.074	-6.84884
1020.241	-6.84884
1020.407	22.65567
1020.574	-6.84884
1020.74	56.38079
1020.907	-19.49219
1021.073	-19.49219
1021.24	-19.49219
1021.406	41.62532
1021.573	5.79537
1021.739	-19.49219
1021.906	60.59685
1022.072	-27.92059
1022.239	-8.95613
1022.405	-2.6342
1022.571	12.11781
1022.738	-27.92059
1022.904	1.58054
1023.07	39.51749
1023.237	-19.49219
1023.403	43.73317
1023.569	-2.6342
1023.735	-114.28848
1023.902	73.24557
1024.068	10.01031
1024.234	-74.26969
1024.4	-15.27784
1024.566	-27.92059
1024.732	31.08639
1024.898	-2.6342
1025.065	20.54805
1025.231	41.62532
1025.397	-6.84884
1025.563	-27.92059
1025.729	-23.70644
1025.895	-44.77622
1026.061	-36.3486
1026.227	-36.3486
1026.392	10.01031
1026.558	-53.20343
1026.724	-19.49219
1026.89	-27.92059
1027.056	-44.77622
1027.222	5.79537
1027.388	-78.48264
1027.553	5.79537
1027.719	-53.20343
1027.885	-8.95613
1028.051	64.813
1028.216	50.05688
1028.382	-59.52357
1028.548	-59.52357
1028.713	90.11179
1028.879	41.62532
1029.045	7.90283
1029.21	10.01031
1029.376	20.54805
1029.541	64.813
1029.707	-2.6342
1029.873	-15.27784
1030.038	39.51749
1030.204	-19.49219
1030.369	-11.06339
1030.534	-36.3486
1030.7	-19.49219
1030.865	-53.20343
1031.031	14.22533
1031.196	28.97868
1031.361	39.51749
1031.527	24.76332
1031.692	-19.49219
1031.857	-11.06339
1032.023	-13.17063
1032.188	-40.56246
1032.353	24.76332
1032.518	35.30189
1032.684	-61.63024
1032.849	-11.06339
1033.014	-44.77622
1033.179	1.58054
1033.344	-34.24164
1033.509	-23.70644
1033.674	-34.24164
1033.839	31.08639
1034.004	1.58054
1034.17	47.94895
1034.335	33.19413
1034.5	-36.3486
1034.664	-8.95613
1034.829	41.62532
1034.994	22.65567
1035.159	-15.27784
1035.324	73.24557
1035.489	1.58054
1035.654	66.92111
1035.819	18.44046
1035.984	18.44046
1036.148	16.33288
1036.313	14.22533
1036.478	39.51749
1036.643	39.51749
1036.807	-23.70644
1036.972	-17.38502
1037.137	66.92111
1037.301	39.51749
1037.466	-11.06339
1037.631	-23.70644
1037.795	-44.77622
1037.96	-40.56246
1038.124	-30.02763
1038.289	-40.56246
1038.454	58.48881
1038.618	24.76332
1038.783	-8.95613
1038.947	50.05688
1039.111	-48.98987
1039.276	-40.56246
1039.44	16.33288
1039.605	33.19413
1039.769	-23.70644
1039.933	24.76332
1040.098	-65.84349
1040.262	-36.3486
1040.426	5.79537
1040.591	18.44046
1040.755	-93.22713
1040.919	7.90283
1041.083	-13.17063
1041.248	35.30189
1041.412	-11.06339
1041.576	7.90283
1041.74	7.90283
1041.904	-2.6342
1042.068	24.76332
1042.232	14.22533
1042.397	-2.6342
1042.561	26.87099
1042.725	-32.13465
1042.889	-23.70644
1043.053	31.08639
1043.217	-0.52684
1043.381	-27.92059
1043.544	-38.45555
1043.708	20.54805
1043.872	81.6785
1044.036	18.44046
1044.2	-6.84884
1044.364	-19.49219
1044.528	10.01031
1044.691	20.54805
1044.855	-11.06339
1045.019	39.51749
1045.183	12.11781
1045.346	-36.3486
1045.51	-2.6342
1045.674	-6.84884
1045.837	-23.70644
1046.001	16.33288
1046.165	-78.48264
1046.328	66.92111
1046.492	16.33288
1046.655	12.11781
1046.819	14.22533
1046.983	-27.92059
1047.146	16.33288
1047.31	37.40968
1047.473	-91.12085
1047.636	5.79537
1047.8	39.51749
1047.963	-11.06339
1048.127	39.51749
1048.29	-34.24164
