Data from mixed_try6.1_USB4F045381__32__00316.txt Node

Date: Thu Apr 03 20:34:25 EDT 2025
User: mmckonesweet
Spectrometer: USB4F04538
Trigger mode: 4
Integration Time (sec): 2.700000E-3
Scans to average: 1
Electric dark correction enabled: true
Nonlinearity correction enabled: true
Boxcar width: 0
XAxis mode: Wavelengths
Number of Pixels in Spectrum: 3648
>>>>>Begin Spectral Data<<<<<
345.52	-5.44397
345.736	-5.44397
345.952	-5.44397
346.168	-18.08741
346.384	9.30781
346.6	40.92271
346.816	-9.65855
347.032	0.87808
347.248	-58.11912
347.464	55.67812
347.68	9.30781
347.896	-26.51589
348.112	-30.72997
348.328	-37.05092
348.544	0.87808
348.76	13.52282
348.975	40.92271
349.191	26.16843
349.407	2.98547
349.623	-7.55127
349.839	-47.58533
350.055	-7.55127
350.27	38.81488
350.486	34.5993
350.702	-20.19457
350.918	32.49155
351.133	-1.2293
351.349	-3.33665
351.565	78.86748
351.781	-32.83698
351.996	43.03055
352.212	34.5993
352.428	-20.19457
352.644	-18.08741
352.859	36.70708
353.075	-24.40881
353.291	-83.39761
353.506	-5.44397
353.722	-5.44397
353.938	-11.7658
354.153	-22.3017
354.369	-28.62294
354.584	32.49155
354.8	-9.65855
355.016	-24.40881
355.231	11.4153
355.447	-24.40881
355.662	11.4153
355.878	68.32652
356.093	17.73793
356.309	55.67812
356.524	13.52282
356.74	87.30066
356.955	-15.98024
357.171	-72.86535
357.386	0.87808
357.602	34.5993
357.817	51.46218
358.033	30.38382
358.248	89.40901
358.464	28.27611
358.679	66.2184
358.895	-3.33665
359.11	-22.3017
359.325	17.73793
359.541	53.57014
359.756	11.4153
359.972	68.32652
360.187	-15.98024
360.402	13.52282
360.618	19.84552
360.833	28.27611
361.048	17.73793
361.264	-3.33665
361.479	-7.55127
361.694	-11.7658
361.909	47.24632
362.125	5.09289
362.34	47.24632
362.555	-20.19457
362.77	-62.33245
362.986	-9.65855
363.201	-49.69214
363.416	-9.65855
363.631	11.4153
363.847	99.95108
364.062	-24.40881
364.277	45.13842
364.492	43.03055
364.707	34.5993
364.922	-15.98024
365.138	38.81488
365.353	38.81488
365.568	-30.72997
365.783	26.16843
365.998	21.95313
366.213	-58.11912
366.428	19.84552
366.643	59.89417
366.858	78.86748
367.073	110.49372
367.288	-39.15785
367.503	51.46218
367.718	-20.19457
367.933	26.16843
368.148	34.5993
368.363	-72.86535
368.578	-5.44397
368.793	17.73793
369.008	-3.33665
369.223	68.32652
369.438	24.06077
369.653	17.73793
369.868	26.16843
370.083	47.24632
370.298	-20.19457
370.513	0.87808
370.728	17.73793
370.943	53.57014
371.157	62.00222
371.372	-3.33665
371.587	-37.05092
371.802	-49.69214
372.017	-7.55127
372.232	-5.44397
372.446	51.46218
372.661	68.32652
372.876	62.00222
373.091	51.46218
373.306	7.20034
373.52	24.06077
373.735	-7.55127
373.95	51.46218
374.165	11.4153
374.379	-20.19457
374.594	62.00222
374.809	11.4153
375.023	17.73793
375.238	26.16843
375.453	-66.54569
375.667	13.52282
375.882	-58.11912
376.097	2.98547
376.311	-20.19457
376.526	17.73793
376.741	34.5993
376.955	40.92271
377.17	43.03055
377.384	0.87808
377.599	7.20034
377.813	-15.98024
378.028	51.46218
378.242	17.73793
378.457	43.03055
378.672	0.87808
378.886	-13.87303
379.101	38.81488
379.315	28.27611
379.53	13.52282
379.744	11.4153
379.958	62.00222
380.173	9.30781
380.387	34.5993
380.602	26.16843
380.816	17.73793
381.031	28.27611
381.245	21.95313
381.459	17.73793
381.674	43.03055
381.888	-41.26476
382.103	47.24632
382.317	-15.98024
382.531	-11.7658
382.746	9.30781
382.96	17.73793
383.174	55.67812
383.388	110.49372
383.603	30.38382
383.817	51.46218
384.031	-22.3017
384.246	-32.83698
384.46	24.06077
384.674	-22.3017
384.888	-11.7658
385.103	76.75925
385.317	-32.83698
385.531	2.98547
385.745	-28.62294
385.959	9.30781
386.174	-5.44397
386.388	72.54284
386.602	-37.05092
386.816	26.16843
387.03	28.27611
387.244	26.16843
387.458	19.84552
387.672	68.32652
387.887	19.84552
388.101	-79.18478
388.315	9.30781
388.529	80.97574
388.743	2.98547
388.957	43.03055
389.171	11.4153
389.385	70.43467
389.599	5.09289
389.813	34.5993
390.027	11.4153
390.241	45.13842
390.455	5.09289
390.669	-9.65855
390.883	76.75925
391.097	26.16843
391.311	-70.75882
391.525	-13.87303
391.738	30.38382
391.952	26.16843
392.166	-11.7658
392.38	-15.98024
392.594	76.75925
392.808	38.81488
393.022	156.88773
393.236	-43.37164
393.449	21.95313
393.663	59.89417
393.877	2.98547
394.091	21.95313
394.305	43.03055
394.518	43.03055
394.732	-22.3017
394.946	-11.7658
395.16	38.81488
395.373	-32.83698
395.587	17.73793
395.801	28.27611
396.015	-26.51589
396.228	0.87808
396.442	30.38382
396.656	89.40901
396.869	43.03055
397.083	-7.55127
397.297	-37.05092
397.51	78.86748
397.724	26.16843
397.938	-24.40881
398.151	34.5993
398.365	51.46218
398.578	43.03055
398.792	80.97574
399.005	-11.7658
399.219	34.5993
399.433	9.30781
399.646	53.57014
399.86	-7.55127
400.073	-18.08741
400.287	74.65103
400.5	-32.83698
400.714	-26.51589
400.927	-13.87303
401.141	47.24632
401.354	49.35423
401.567	-62.33245
401.781	21.95313
401.994	17.73793
402.208	45.13842
402.421	55.67812
402.635	-20.19457
402.848	-15.98024
403.061	7.20034
403.275	-26.51589
403.488	26.16843
403.701	-9.65855
403.915	26.16843
404.128	72.54284
404.341	36.70708
404.555	55.67812
404.768	-15.98024
404.981	26.16843
405.195	9.30781
405.408	17.73793
405.621	30.38382
405.834	17.73793
406.048	-13.87303
406.261	-39.15785
406.474	-18.08741
406.687	26.16843
406.9	66.2184
407.114	-22.3017
407.327	-22.3017
407.54	59.89417
407.753	11.4153
407.966	-11.7658
408.179	28.27611
408.392	32.49155
408.605	32.49155
408.819	-15.98024
409.032	70.43467
409.245	9.30781
409.458	114.71092
409.671	123.1456
409.884	36.70708
410.097	53.57014
410.31	-7.55127
410.523	-41.26476
410.736	21.95313
410.949	28.27611
411.162	-45.4785
411.375	38.81488
411.588	-64.43909
411.801	-32.83698
412.014	51.46218
412.227	-7.55127
412.44	76.75925
412.653	34.5993
412.865	5.09289
413.078	24.06077
413.291	51.46218
413.504	51.46218
413.717	9.30781
413.93	-13.87303
414.143	47.24632
414.356	-26.51589
414.568	47.24632
414.781	26.16843
414.994	70.43467
415.207	9.30781
415.42	0.87808
415.632	70.43467
415.845	59.89417
416.058	38.81488
416.271	30.38382
416.483	5.09289
416.696	21.95313
416.909	64.1103
417.121	34.5993
417.334	51.46218
417.547	-43.37164
417.759	-15.98024
417.972	-15.98024
418.185	-41.26476
418.397	62.00222
418.61	43.03055
418.823	51.46218
419.035	0.87808
419.248	-3.33665
419.46	-24.40881
419.673	-28.62294
419.885	40.92271
420.098	9.30781
420.311	49.35423
420.523	13.52282
420.736	38.81488
420.948	-24.40881
421.161	87.30066
421.373	43.03055
421.586	26.16843
421.798	34.5993
422.01	17.73793
422.223	38.81488
422.435	-28.62294
422.648	66.2184
422.86	-28.62294
423.073	-26.51589
423.285	68.32652
423.497	76.75925
423.71	-64.43909
423.922	64.1103
424.134	-49.69214
424.347	-39.15785
424.559	43.03055
424.771	0.87808
424.984	51.46218
425.196	68.32652
425.408	43.03055
425.621	-13.87303
425.833	-13.87303
426.045	62.00222
426.257	0.87808
426.47	53.57014
426.682	32.49155
426.894	36.70708
427.106	-91.82295
427.318	-43.37164
427.531	26.16843
427.743	-11.7658
427.955	-22.3017
428.167	15.63036
428.379	30.38382
428.591	59.89417
428.804	19.84552
429.016	47.24632
429.228	47.24632
429.44	17.73793
429.652	9.30781
429.864	55.67812
430.076	85.19233
430.288	78.86748
430.5	5.09289
430.712	97.84262
430.924	2.98547
431.136	76.75925
431.348	0.87808
431.56	47.24632
431.772	51.46218
431.984	78.86748
432.196	93.62577
432.408	-5.44397
432.62	70.43467
432.832	7.20034
433.044	57.78613
433.256	66.2184
433.468	-56.01241
433.679	9.30781
433.891	9.30781
434.103	62.00222
434.315	34.5993
434.527	80.97574
434.739	30.38382
434.95	43.03055
435.162	15.63036
435.374	68.32652
435.586	26.16843
435.798	-7.55127
436.009	0.87808
436.221	-3.33665
436.433	-7.55127
436.645	28.27611
436.856	34.5993
437.068	38.81488
437.28	62.00222
437.491	70.43467
437.703	-24.40881
437.915	85.19233
438.126	110.49372
438.338	-30.72997
438.55	17.73793
438.761	47.24632
438.973	53.57014
439.184	9.30781
439.396	9.30781
439.608	19.84552
439.819	-11.7658
440.031	9.30781
440.242	146.34273
440.454	51.46218
440.665	19.84552
440.877	26.16843
441.088	-13.87303
441.3	57.78613
441.511	-32.83698
441.723	21.95313
441.934	34.5993
442.146	93.62577
442.357	9.30781
442.569	47.24632
442.78	38.81488
442.991	9.30781
443.203	17.73793
443.414	45.13842
443.626	72.54284
443.837	55.67812
444.048	87.30066
444.26	-30.72997
444.471	72.54284
444.682	28.27611
444.894	0.87808
445.105	87.30066
445.316	21.95313
445.528	-7.55127
445.739	-24.40881
445.95	87.30066
446.161	-20.19457
446.373	59.89417
446.584	55.67812
446.795	40.92271
447.006	89.40901
447.217	102.05957
447.429	68.32652
447.64	9.30781
447.851	34.5993
448.062	133.68943
448.273	34.5993
448.484	26.16843
448.695	-7.55127
448.907	-20.19457
449.118	89.40901
449.329	87.30066
449.54	26.16843
449.751	51.46218
449.962	21.95313
450.173	-22.3017
450.384	64.1103
450.595	11.4153
450.806	80.97574
451.017	26.16843
451.228	62.00222
451.439	78.86748
451.65	17.73793
451.861	-13.87303
452.072	-5.44397
452.283	93.62577
452.494	36.70708
452.705	76.75925
452.915	-7.55127
453.126	32.49155
453.337	36.70708
453.548	102.05957
453.759	55.67812
453.97	93.62577
454.181	36.70708
454.391	13.52282
454.602	45.13842
454.813	53.57014
455.024	110.49372
455.235	114.71092
455.445	95.73419
455.656	40.92271
455.867	19.84552
456.078	110.49372
456.288	76.75925
456.499	9.30781
456.71	43.03055
456.921	38.81488
457.131	59.89417
457.342	99.95108
457.553	87.30066
457.763	133.68943
457.974	24.06077
458.184	26.16843
458.395	118.92822
458.606	112.60231
458.816	78.86748
459.027	163.21498
459.237	26.16843
459.448	62.00222
459.659	123.1456
459.869	95.73419
460.08	9.30781
460.29	131.58062
460.501	87.30066
460.711	87.30066
460.922	114.71092
461.132	131.58062
461.343	45.13842
461.553	59.89417
461.764	51.46218
461.974	144.23379
462.184	55.67812
462.395	76.75925
462.605	131.58062
462.816	108.38515
463.026	51.46218
463.236	110.49372
463.447	127.36306
463.657	129.47183
463.867	180.08857
464.078	156.88773
464.288	110.49372
464.498	137.90711
464.709	127.36306
464.919	102.05957
465.129	169.54242
465.339	177.9793
465.55	135.79826
465.76	129.47183
465.97	104.16807
466.18	148.45169
466.391	209.6205
466.601	161.10588
466.811	118.92822
467.021	175.87005
467.231	182.19786
467.441	135.79826
467.651	211.73008
467.862	230.71714
468.072	118.92822
468.282	177.9793
468.492	220.16857
468.702	156.88773
468.912	270.8061
469.122	148.45169
469.332	211.73008
469.542	144.23379
469.752	277.13656
469.962	203.2919
470.172	285.57744
470.382	177.9793
470.592	285.57744
470.802	192.74463
471.012	270.8061
471.222	262.36575
471.432	298.23931
471.642	222.27825
471.852	344.67174
472.062	220.16857
472.272	196.96348
472.482	321.45445
472.691	285.57744
472.901	397.44606
473.111	313.01233
473.321	342.56099
473.531	338.33954
473.741	304.5705
473.95	336.22884
474.16	412.22473
474.37	414.33604
474.58	332.0075
474.79	471.34722
474.999	448.11907
475.209	372.11307
475.419	450.23064
475.628	500.91295
475.838	435.44996
476.048	557.94055
476.258	566.38994
476.467	547.37911
476.677	469.23549
476.886	638.2182
477.096	633.9926
477.306	699.49467
477.515	688.92907
477.725	583.28936
477.935	602.30222
478.144	646.66954
478.354	621.31611
478.563	904.51724
478.773	754.44019
478.982	832.64368
479.192	822.07489
479.401	955.25704
479.611	798.82435
479.82	710.06055
480.03	836.87127
480.239	1008.11532
480.449	862.23749
480.658	1014.45858
480.868	993.31459
481.077	1126.53129
481.287	1048.29025
481.496	1189.97456
481.705	1048.29025
481.915	1338.01999
482.124	1147.67864
482.333	1314.75496
482.543	1149.7934
482.752	1204.77848
482.961	1225.92723
483.171	1414.16117
483.38	1329.55995
483.589	1551.63908
483.799	1458.57724
484.008	1420.50631
484.217	1500.87823
484.426	1648.92834
484.636	1598.16922
484.845	1602.39919
485.054	1577.01925
485.263	1714.49005
485.472	1581.24925
485.682	2065.4913
485.891	1796.96637
486.1	1720.83457
486.309	1699.68604
486.518	1921.72558
486.727	1944.98375
486.936	2002.06891
487.146	1911.15346
487.355	2147.93069
487.564	1959.78404
487.773	2232.47127
487.982	2025.3245
488.191	2268.39681
488.4	2103.54168
488.609	2316.99772
488.818	2300.09362
489.027	2536.69123
489.236	2494.45158
489.445	2688.7145
489.654	2418.40899
489.863	2612.71079
490.072	2574.70294
490.281	2608.48789
490.49	2593.70736
490.698	2600.04195
490.907	2730.93162
491.116	2806.90907
491.325	2692.93644
491.534	2718.26703
491.743	2747.817
491.952	2963.02805
492.16	2941.93553
492.369	2823.79055
492.578	2828.01078
492.787	2893.41715
492.996	3106.4169
493.204	3119.06539
493.413	3152.7919
493.622	3264.48105
493.831	3085.3348
494.039	3380.33474
494.248	3239.19702
494.457	3460.34823
494.665	3348.74346
494.874	3380.33474
495.083	3264.48105
495.291	3527.70788
495.5	3498.24032
495.709	3435.08359
495.917	3264.48105
496.126	3525.60317
496.335	3674.99113
496.543	3738.08411
496.752	3544.54487
496.96	3784.34122
497.169	3578.21531
497.377	3889.43562
497.586	3685.50783
497.794	4055.38229
498.003	3662.37047
498.211	4055.38229
498.42	3792.75059
498.628	4191.82407
498.837	3811.67052
499.045	4120.46555
499.254	3994.47995
499.462	4118.3664
499.671	4225.3961
499.879	4227.49417
500.087	4128.86193
500.296	4328.17645
500.504	4288.32896
500.713	4204.41422
500.921	4149.85141
501.129	4273.64635
501.338	4206.5125
501.546	4382.69196
501.754	4317.69102
501.962	4309.30229
502.171	4422.52092
502.379	4680.16845
502.587	4395.27038
502.795	4638.29748
503.004	4510.53583
503.212	4881.02328
503.42	4701.10057
503.628	4657.14053
503.837	4481.20184
504.045	4684.35506
504.253	4860.11069
504.461	4945.83778
504.669	4740.86538
504.877	4889.38768
505.085	4799.45125
505.294	5014.80958
505.502	4952.10898
505.71	5033.61571
505.918	4927.02294
506.126	5334.25794
506.334	4824.55403
506.542	5330.08567
506.75	4979.28179
506.958	5229.92306
507.166	5131.79505
507.374	5108.8215
507.582	5094.20051
507.79	5085.84514
507.998	5098.37805
508.206	5484.3972
508.414	5227.83576
508.622	5442.70407
508.83	5298.79064
509.037	5288.3578
509.245	5221.57374
509.453	5386.40342
509.661	5359.2896
509.869	5694.80358
510.077	5467.72107
510.285	5686.47523
510.492	5305.05007
510.7	5709.37728
510.908	5526.08092
511.116	5486.48161
511.324	5617.75193
511.531	5669.81739
511.739	5767.66054
511.947	5742.68427
512.155	5678.1465
512.362	5763.49807
512.57	5676.06426
512.778	5807.19936
512.985	5909.12856
513.193	5994.37275
513.401	5975.664
513.608	6052.56552
513.816	5934.08218
514.024	6104.50776
514.231	5825.9253
514.439	5952.79517
514.646	6044.2534
514.854	6353.6263
515.061	6218.72899
515.269	6183.43183
515.477	6100.35293
515.684	6260.24638
515.892	6218.72899
516.099	6316.28001
516.307	6395.1133
516.514	6475.98617
516.722	6264.39761
516.929	6488.42501
517.136	6227.03322
517.344	6490.49807
517.551	6316.28001
517.759	6382.66818
517.966	6679.0496
518.173	6606.55241
518.381	6565.11276
518.588	6550.6067
518.796	6674.90767
519.003	6710.1112
519.21	6629.34028
519.418	6912.92041
519.625	6627.26877
519.832	6658.339
520.039	6726.67528
520.247	6813.61265
520.454	6879.82364
520.661	7082.45069
520.868	6585.83374
521.076	7030.78065
521.283	6697.68718
521.49	7049.38348
521.697	6832.23684
521.904	7057.65082
522.112	6776.35871
522.319	7258.02461
522.526	6875.68613
522.733	7218.79258
522.94	7274.54098
523.147	7315.82575
523.354	7206.40186
523.561	7505.62323
523.768	7032.84772
523.975	7276.60543
524.183	7319.95374
524.39	7781.74235
524.597	7392.17947
524.804	7610.75832
525.011	7385.98974
525.218	7437.56483
525.425	7806.45095
525.632	7691.11832
525.838	7606.63642
526.045	7581.90325
526.252	7806.45095
526.459	7660.21444
526.666	7515.93305
526.873	7818.80413
527.08	7802.33306
527.287	8067.76803
527.494	7779.68316
527.701	7981.38478
527.907	8026.63762
528.114	8063.65536
528.321	7804.39202
528.528	8004.01243
528.735	8075.99315
528.941	8104.7785
529.148	7773.50548
529.355	8049.26035
529.562	7950.52491
529.768	8283.57119
529.975	7707.59845
530.182	8217.82582
530.388	8067.76803
530.595	8373.9383
530.802	8195.22118
531.008	8614.0515
531.215	8550.45707
531.422	8704.28376
531.628	8462.21537
531.835	8612.00035
532.042	8398.57735
532.248	8864.15356
532.455	8339.02821
532.661	8667.3749
532.868	8423.21361
533.074	8782.18288
533.281	8597.64176
533.487	8716.58538
533.694	8683.77958
533.9	8851.8598
534.107	8620.20484
534.313	8864.15356
534.52	8667.3749
534.726	9142.64131
534.933	8782.18288
535.139	8839.56539
535.345	8915.37062
535.552	9159.01293
535.758	9034.1515
535.965	9146.73432
536.171	8720.68577
536.377	9224.48853
536.584	8884.64172
536.79	9289.94687
536.996	9185.61449
537.203	9314.48934
537.409	9048.48313
537.615	9259.26541
537.821	9130.36187
538.028	9424.90107
538.234	9073.04966
538.44	9339.02942
538.646	9435.12197
538.853	9261.31096
539.059	9126.26859
539.265	9420.81259
539.471	9410.59113
539.677	9418.76833
539.883	9594.51608
540.09	9764.02302
540.296	9390.14697
540.502	9737.48073
540.708	9739.52253
540.914	9996.67053
541.12	9737.48073
541.326	10212.82394
541.532	9806.89364
541.738	9957.90919
541.944	9717.06183
542.15	9804.85233
542.356	9676.21943
542.562	9808.93493
542.768	9761.9814
542.974	9945.66769
543.18	9668.05022
543.386	10394.1922
543.592	9964.02975
543.798	9935.46603
544.004	9986.47068
544.21	10269.89508
544.415	10051.7435
544.621	10400.3039
544.827	10163.89729
545.033	10553.05876
545.239	10384.00576
545.445	10601.92525
545.651	10286.19917
545.856	10548.98623
546.062	10282.12323
546.268	10646.71326
546.474	10379.93109
546.679	10518.44062
546.885	10204.67005
547.091	10278.04723
547.297	10033.387
547.502	10473.63523
547.708	10540.84101
547.914	10487.89216
548.119	10559.16746
548.325	10921.42148
548.531	10204.67005
548.736	10701.67225
548.942	10770.86736
549.147	10449.19332
549.353	10819.70271
549.559	10689.45991
549.764	10548.98623
549.97	10679.28262
550.175	10787.14656
550.381	11283.31544
550.586	10905.1484
550.792	11297.54038
550.997	11055.64689
551.203	11328.02073
551.408	11084.11277
551.614	11078.01312
551.819	11051.58016
552.025	11220.31323
552.23	11303.63664
552.435	11193.88998
552.641	11309.7328
552.846	11425.54277
553.052	11157.30102
553.257	11342.24412
553.462	11250.7994
553.668	11585.99927
553.873	11521.01135
554.078	11596.15277
554.283	11417.4168
554.489	11435.70001
554.694	11547.41384
554.899	11535.22827
555.105	11244.70235
555.31	11514.91824
555.515	11835.71043
555.72	11920.94779
555.925	11518.98032
556.131	11807.29469
556.336	11344.27599
556.541	11709.85648
556.746	11551.47562
556.951	11579.90705
557.156	11612.3979
557.361	11776.8474
557.567	11884.41929
557.772	12008.19966
557.977	11701.73572
558.182	11927.03562
558.387	11799.1756
558.592	11941.24026
558.797	11937.18183
559.002	11847.8881
559.207	12083.26511
559.412	12227.28041
559.617	12030.51753
559.822	12056.89198
560.027	11874.27201
560.232	12034.57523
560.437	12310.42738
560.642	12426.00246
560.847	12239.44901
561.051	12280.00914
561.256	12320.56644
561.461	12417.89265
561.666	12543.58296
561.871	12551.69116
562.076	12336.78857
562.281	12383.42475
562.485	12241.47709
562.69	12367.20388
562.895	12340.84404
563.1	12152.23488
563.305	12269.86938
563.509	12318.53864
563.714	12277.9812
563.919	12505.06761
564.123	12415.86518
564.328	12350.98257
564.533	12448.3039
564.737	12253.64538
564.942	12849.60082
565.147	12667.22229
565.351	12950.9029
565.556	12788.81309
565.761	12588.17684
565.965	12886.0711
566.17	12683.43561
566.374	12922.53965
566.579	12823.26008
566.784	12655.06205
566.988	12744.23221
567.193	12762.47017
567.397	12904.30559
567.602	12973.18759
567.806	12886.0711
568.011	12979.26513
568.215	13335.73891
568.42	13202.0778
568.624	12900.25352
568.828	13019.78089
569.033	12559.79927
569.237	12973.18759
569.442	13080.5508
569.646	13212.2043
569.85	13161.57065
570.055	13483.55532
570.259	13181.82445
570.463	13313.46335
570.668	13183.84981
570.872	13125.11265
571.076	13274.98618
571.281	13167.64684
571.485	13226.38123
571.689	13222.3307
571.893	13424.83623
572.098	14011.90046
572.302	13489.62953
572.506	13623.25384
572.71	13422.81138
572.914	13671.84077
573.119	13526.07407
573.323	13665.7675
573.527	13503.80255
573.731	13787.2273
573.935	13501.77784
574.139	13645.52309
574.343	13487.6048
574.547	13491.65426
574.751	13617.18034
574.955	13730.54746
575.159	13368.13884
575.364	13714.35278
575.568	13841.88065
575.772	13868.19448
575.976	13811.51794
576.18	13795.32423
576.383	13852.00141
576.587	14022.02011
576.791	13445.08456
576.995	14007.85258
577.199	13957.25325
577.403	13829.73565
577.607	13979.51715
577.811	14123.21345
578.015	14098.92757
578.219	14115.11819
578.422	13973.4452
578.626	14305.34813
578.83	14301.30086
579.034	14198.09299
579.238	14234.51986
579.442	14416.64542
579.645	14216.3065
579.849	14469.25704
580.053	14424.73958
580.257	14264.87511
580.46	14250.70938
580.664	14681.71819
580.868	14133.33248
581.071	14538.05543
581.275	14297.25359
581.479	14578.52439
581.682	14908.33196
581.886	14720.16227
582.09	14222.37764
582.293	14916.42516
582.497	14467.23353
582.7	14584.59469
582.904	14382.24496
583.107	14538.05543
583.311	14362.00919
583.515	14633.15674
583.718	14596.73526
583.922	14554.24307
584.125	14797.04953
584.329	15185.5213
584.532	14766.69944
584.735	14918.44846
584.939	14758.60605
585.142	14946.7746
585.346	14606.85237
585.549	15535.55091
585.753	15051.98534
585.956	15181.47476
586.159	15029.72929
586.363	15225.98673
586.566	14906.30866
586.769	14981.17051
586.973	14760.6294
587.176	15132.91627
587.379	14958.91434
587.582	15521.3876
587.786	15312.98759
587.989	15399.98896
588.192	15484.9678
588.395	15317.03415
588.599	15266.4522
588.802	15349.40669
589.005	15525.43425
589.208	15675.1626
589.411	15292.7548
589.615	15355.47655
589.818	15430.33844
590.021	15616.48476
590.224	15665.04568
590.427	15458.66473
590.63	15298.82463
590.833	15551.73759
591.036	15383.80261
591.239	15899.76471
591.442	15563.87762
591.645	15782.4034
591.848	15486.99112
592.051	15756.09879
592.254	15397.96566
592.457	15934.16449
592.66	15642.78853
592.863	15942.25861
593.066	15612.43804
593.269	15669.09244
593.472	15634.69505
593.675	16144.61896
593.878	15948.32921
594.081	16051.53137
594.284	15897.74121
594.486	16047.48415
594.689	15794.54405
594.892	16075.81477
595.095	16051.53137
595.298	16092.00383
595.5	16187.11659
595.703	16179.02174
595.906	16154.73738
596.109	16314.61402
596.311	16148.66632
596.514	16286.28065
596.717	16553.43906
596.92	16440.09486
597.122	16353.06704
597.325	16377.35351
597.528	16037.36615
597.73	16573.6798
597.933	16146.64264
598.136	16648.57245
598.338	16120.33492
598.541	16674.88683
598.743	16699.17736
598.946	16525.10239
599.148	16869.22081
599.351	17097.99826
599.554	16678.93523
599.756	16614.16194
599.959	16589.87255
600.161	16537.24663
600.363	16660.7175
600.566	16674.88683
600.768	17043.3315
600.971	16925.90588
601.173	16597.96897
601.376	16824.68394
601.578	16652.62079
601.78	16644.52412
601.983	16577.72797
602.185	16727.51675
602.388	16755.8566
602.59	16703.22582
602.792	17059.52885
602.995	16895.53862
603.197	16901.61203
603.399	17452.3709
603.601	17282.2607
603.804	17110.1467
604.006	17264.03587
604.208	17209.36281
604.41	16966.39646
604.613	17274.16075
604.815	16871.24524
605.017	17199.2384
605.219	16707.27428
605.421	16755.8566
605.623	16931.9794
605.826	17458.44667
606.028	16976.51927
606.23	17112.17145
606.432	16992.7159
606.634	17470.59829
606.836	16917.80788
607.038	17055.47949
607.24	17055.47949
607.442	17110.1467
607.644	16875.29411
607.846	17326.8113
608.048	17314.66099
608.25	16994.74049
608.452	17324.78624
608.654	17531.35808
608.856	17308.58588
609.058	17424.0177
609.26	17223.5371
609.462	17355.16244
609.664	17405.79096
609.866	17146.59264
610.067	17438.19423
610.269	17438.19423
610.471	17488.82593
610.673	17622.50317
610.875	17334.91157
611.077	17642.75853
611.278	17486.80062
611.48	17610.35011
611.682	17308.58588
611.884	17332.88649
612.085	17541.48499
612.287	17887.87491
612.489	17699.47529
612.69	17650.86077
612.892	17355.16244
613.094	17802.78756
613.295	17409.84133
613.497	17654.9119
613.699	17509.07916
613.9	17705.55224
614.102	17622.50317
614.304	17719.73191
614.505	17547.56117
614.707	17669.09099
614.908	17602.24814
615.11	17916.23872
615.311	17476.67414
615.513	17713.65489
615.714	17618.45214
615.916	17612.37561
616.117	17602.24814
616.319	17845.33048
616.52	17895.97878
616.722	17764.29765
616.923	17671.11659
617.124	17677.1934
617.326	17345.03697
617.527	17338.96172
617.729	17328.83636
617.93	17695.42401
618.131	18157.35911
618.333	17717.70623
618.534	17772.40069
618.735	18047.93685
618.937	17987.15124
619.138	17981.07285
619.339	17812.91669
619.54	17993.22965
619.742	18051.98934
619.943	17857.48587
620.144	17788.60692
620.345	17831.14934
620.546	17966.89008
620.748	17883.82299
620.949	17567.81533
621.15	17480.72472
621.351	17590.09527
621.552	17699.47529
621.753	17253.91107
621.954	17663.01422
622.155	17711.62922
622.356	18256.65889
622.558	17794.68432
622.759	17958.78571
622.96	17622.50317
623.161	17902.05673
623.362	17717.70623
623.563	18173.57072
623.764	17581.99343
623.965	18242.47267
624.166	18163.43843
624.366	18272.87194
624.567	18126.96298
624.768	18078.33087
624.969	17594.14622
625.17	18179.65013
625.371	18199.91508
625.572	17756.19467
625.773	17987.15124
625.973	17989.17737
626.174	17656.93748
626.375	18165.46488
626.576	18135.06853
626.777	18167.49134
626.977	18037.80569
627.178	18445.15044
627.379	18449.20438
627.58	18185.72957
627.78	18305.29876
627.981	18114.80475
628.182	18072.252
628.382	18161.41199
628.583	18329.6195
628.784	18307.32547
628.984	18047.93685
629.185	18278.9519
629.386	17849.38226
629.586	18084.40977
629.787	17916.23872
629.987	18339.75331
630.188	18272.87194
630.388	18208.02116
630.589	18033.75325
630.79	17948.65533
630.99	18317.45907
631.191	18179.65013
631.391	17993.22965
631.591	18045.91061
631.792	17920.29074
631.992	18396.50434
632.193	18054.01559
632.393	18163.43843
632.594	18120.88385
632.794	18218.15384
632.994	18283.00522
633.195	18169.51779
633.395	18090.4887
633.595	18157.35911
633.796	18201.94159
633.996	18714.77114
634.196	18536.36782
634.397	18783.70783
634.597	18236.39291
634.797	18668.14008
634.997	17808.86503
635.198	18481.63646
635.398	18250.57906
635.598	18692.46907
635.798	18329.6195
635.998	18808.03952
636.199	18986.48948
636.399	19031.10684
636.599	18491.77169
636.799	18743.15628
636.999	18145.20056
637.199	18619.48379
637.399	18518.12372
637.599	18319.4858
637.799	18457.31231
637.999	18678.27709
638.199	18858.73237
638.399	18726.9361
638.599	18544.47641
638.799	18779.6526
638.999	18718.82611
639.199	18842.51039
639.399	18392.45059
639.599	18901.31631
639.799	18609.34735
639.999	18700.57886
640.199	18708.68871
640.399	18935.79031
640.599	18384.34315
640.799	18824.26096
640.998	18759.37671
641.198	18692.46907
641.398	19175.11263
641.598	19124.40402
641.798	18893.20494
641.997	18824.26096
642.197	18929.70657
642.397	19175.11263
642.597	18830.34407
642.796	18848.5936
642.996	18589.07475
643.196	19014.88211
643.395	18856.70461
643.595	19025.02253
643.795	18769.5146
643.994	18925.65077
644.194	18921.59499
644.394	19398.26101
644.593	19465.21527
644.793	19195.39679
644.992	19187.28308
645.192	18881.03802
645.392	19025.02253
645.591	19556.52383
645.791	19108.17781
645.99	19002.71374
646.19	19067.61341
646.389	18994.60158
646.589	19304.93835
646.788	19047.33182
646.987	19093.98008
647.187	19416.52081
647.386	19242.05191
647.586	19422.60749
647.785	19345.51234
647.984	19071.66977
648.184	18846.56586
648.383	19051.3881
648.582	19059.50072
648.782	19240.02338
648.981	19408.4053
649.18	19477.38926
649.38	19258.28029
649.579	19625.51813
649.778	19471.30224
649.977	19446.95457
650.177	19560.58219
650.376	19274.50893
650.575	19061.52889
650.774	19536.23231
650.973	19321.16775
651.173	19422.60749
651.372	19266.39458
651.571	19164.9707
651.77	19237.99486
651.969	19584.93266
652.168	19536.23231
652.367	19317.11037
652.566	19430.72311
652.765	19570.72815
652.964	19408.4053
653.163	19367.82874
653.362	19741.19587
653.561	19511.88304
653.76	19252.19462
653.959	19826.44082
654.158	19664.07586
654.357	19388.11681
654.556	19223.7953
654.755	19505.79581
654.954	19424.63639
655.153	19586.9619
655.352	19528.11582
655.551	19487.53436
655.749	19491.59243
655.948	19394.20332
656.147	19538.26145
656.346	19938.0823
656.545	19566.66975
656.743	19576.81577
656.942	19613.34231
657.141	19655.95832
657.34	19593.04962
657.538	19700.60564
657.737	19430.72311
657.936	20041.61578
658.135	19700.60564
658.333	20191.86027
658.532	19698.57617
658.731	19530.14494
658.929	19444.92562
659.128	19747.28455
659.326	19436.80988
659.525	19643.78213
659.724	19390.14564
659.922	19499.70862
660.121	19284.65197
660.319	19416.52081
660.518	19536.23231
660.716	19645.81148
660.915	19905.60347
661.113	19925.90262
661.312	19455.07039
661.51	20151.25138
661.709	19771.63965
661.907	19944.17221
662.105	19733.07769
662.304	19781.78778
662.502	19741.19587
662.701	19607.25446
662.899	19580.87421
663.097	19804.11404
663.296	19686.39945
663.494	19633.63542
663.692	19621.4595
663.891	19586.9619
664.089	19542.31973
664.287	19986.80258
664.485	19584.93266
664.684	19862.97663
664.882	19619.4302
665.08	19451.01247
665.278	19800.05469
665.476	19915.75299
665.675	19396.23216
665.873	19578.84499
666.071	19763.52121
666.269	20116.73514
666.467	19706.69407
666.665	20167.49473
666.863	19700.60564
667.061	20266.99115
667.259	19731.04816
667.457	20358.3743
667.655	20287.29778
667.853	20068.00841
668.051	19812.23281
668.249	19759.46202
668.447	19913.72308
668.645	19998.98302
668.843	19791.93602
669.041	20009.13351
669.239	19755.40285
669.437	19528.11582
669.635	19958.38212
669.833	19735.10723
670.031	19519.9994
670.229	20256.83799
670.426	19889.36446
670.624	19753.37327
670.822	19751.34369
671.02	19820.35165
671.218	19511.88304
671.415	19867.03625
671.613	19915.75299
671.811	19856.88724
672.009	19873.12571
672.206	19934.02239
672.404	19560.58219
672.602	19848.7681
672.799	19820.35165
672.997	20043.64595
673.195	19540.29058
673.392	19891.39432
673.59	19795.99534
673.788	19684.37002
673.985	19436.80988
674.183	19785.84706
674.38	19722.93006
674.578	20035.52527
674.775	19712.78253
674.973	19842.67879
675.17	19962.44214
675.368	19897.48393
675.565	19970.56222
675.763	19862.97663
675.96	19406.37643
676.158	19915.75299
676.355	19286.68059
676.553	19990.86271
676.75	19408.4053
676.947	19733.07769
677.145	19745.25499
677.342	19934.02239
677.539	19729.01863
677.737	20029.4348
677.934	19844.70855
678.131	20019.2841
678.329	19706.69407
678.526	19611.31302
678.723	19451.01247
678.92	19944.17221
679.118	19499.70862
679.315	20039.5856
679.512	19944.17221
679.709	20082.22012
679.906	19477.38926
680.104	19905.60347
680.301	19601.16665
680.498	19570.72815
680.695	19260.30886
680.892	19548.40718
681.089	19345.51234
681.286	19532.17406
681.483	19179.16943
681.68	19538.26145
681.877	19453.04143
682.075	19467.24426
682.272	19108.17781
682.469	19341.45487
682.665	19718.87104
682.862	19444.92562
683.059	19469.27325
683.256	19296.82374
683.453	19398.26101
683.65	19290.73784
683.847	19201.48212
684.044	19020.96635
684.241	19375.94392
684.438	19519.9994
684.635	19073.69796
684.831	19357.68486
685.028	19276.53753
685.225	19128.46062
685.422	18814.12253
685.619	19296.82374
685.815	19154.82888
686.012	19215.68136
686.209	18964.18153
686.405	19325.22514
686.602	18931.73448
686.799	18672.19487
686.996	18751.26646
687.192	18879.01022
687.389	18929.70657
687.586	19296.82374
687.782	19284.65197
687.979	19240.02338
688.175	18597.18374
688.372	18680.3045
688.568	18745.18382
688.765	18830.34407
688.962	18597.18374
689.158	18801.95654
689.355	18781.68021
689.551	19012.85404
689.748	18767.48702
689.944	18988.5175
690.14	18883.06583
690.337	19154.82888
690.533	19077.75435
690.73	18783.70783
690.926	19169.02746
691.123	18968.23749
691.319	19089.92362
691.515	19045.30368
691.712	18816.15021
691.908	18824.26096
692.104	19199.45367
692.301	18986.48948
692.497	18773.56979
692.693	18651.92107
692.889	18635.7023
693.086	18779.6526
693.282	18852.6491
693.478	19154.82888
693.674	18647.86635
693.87	18793.84596
694.067	18593.12924
694.263	18720.8536
694.459	18475.55537
694.655	18497.85287
694.851	18587.04752
695.047	18722.8811
695.243	18641.78431
695.439	18745.18382
695.635	18390.42373
695.831	18826.28866
696.027	18801.95654
696.224	18739.10121
696.42	18441.09652
696.615	18706.66124
696.811	18285.03189
697.007	18191.80905
697.203	18133.04214
697.399	18580.96582
697.595	18303.27206
697.791	18335.69977
697.987	18157.35911
698.183	18493.79874
698.379	18193.83555
698.575	18647.86635
698.77	18443.12348
698.966	18489.74464
699.162	18518.12372
699.358	18917.53922
699.554	18481.63646
699.749	18274.89859
699.945	18240.44608
700.141	18384.34315
700.337	18106.69934
700.532	18205.99463
700.728	18345.83363
700.924	18120.88385
701.119	18576.91138
701.315	18248.55245
701.511	18424.88097
701.706	18670.16747
701.902	18165.46488
702.097	18437.04261
702.293	18139.12133
702.489	18662.05792
702.684	18094.54134
702.88	18287.05856
703.075	18084.40977
703.271	18017.54364
703.466	18131.01575
703.662	18380.28945
703.857	18171.54425
704.053	18432.98871
704.248	17934.47295
704.443	18222.20694
704.639	18327.59275
704.834	18353.94079
705.03	17914.21271
705.225	18238.41949
705.42	17620.47765
705.616	18159.38555
705.811	17739.98886
706.006	17794.68432
706.202	17675.16779
706.397	17865.58954
706.592	17928.39484
706.787	17918.26473
706.983	18051.98934
707.178	18236.39291
707.373	17677.1934
707.568	18021.59602
707.763	18027.67462
707.959	17914.21271
708.154	17900.03074
708.349	17904.08272
708.544	18021.59602
708.739	17835.20107
708.934	18098.59399
709.129	18291.11191
709.324	17916.23872
709.519	17912.1867
709.714	17693.39837
709.909	18175.59718
710.104	17494.90186
710.299	17861.5377
710.494	17760.24615
710.689	18035.77947
710.884	17646.80964
711.079	18027.67462
711.274	17505.02848
711.469	17906.10871
711.664	17863.56362
711.859	17895.97878
712.054	17713.65489
712.249	17804.81338
712.443	17513.12984
712.638	17691.37274
712.833	17774.42645
713.028	17586.04435
713.223	17409.84133
713.417	17667.0654
713.612	17494.90186
713.807	17764.29765
714.002	17697.44965
714.196	17966.89008
714.391	17910.1607
714.586	17772.40069
714.78	17247.83622
714.975	17594.14622
715.17	17176.96496
715.364	17695.42401
715.559	17683.27024
715.754	17764.29765
715.948	17669.09099
716.143	17841.2787
716.337	17644.78408
716.532	18094.54134
716.726	17630.60527
716.921	17527.30734
717.115	17711.62922
717.31	17517.18054
717.504	17776.45223
717.699	18007.41275
717.893	17717.70623
718.088	17683.27024
718.282	17525.28197
718.476	17610.35011
718.671	17102.04773
718.865	17424.0177
719.059	17043.3315
719.254	17272.13576
719.448	17166.84078
719.642	17268.08581
719.837	16881.36744
720.031	17065.6029
720.225	16741.68662
720.419	16938.05294
720.614	16936.02842
720.808	16848.97663
721.002	17160.76631
721.196	17399.71544
721.39	17511.1045
721.585	17494.90186
721.779	17286.31069
721.973	17345.03697
722.167	17031.1836
722.361	17053.45482
722.555	16719.41973
722.749	16788.24559
722.943	16608.08956
723.137	16861.1231
723.331	16814.5621
723.525	16670.83844
723.719	16751.80802
723.913	16836.83024
724.107	16877.31855
724.301	16804.44031
724.495	16782.1726
724.689	16549.39094
724.883	16634.40334
725.077	16431.9991
725.271	16608.08956
725.465	16788.24559
725.659	16575.70389
725.853	16741.68662
726.046	16555.46313
726.24	16998.78969
726.434	16668.81424
726.628	16960.3228
726.822	16553.43906
727.015	17150.64225
727.209	16877.31855
727.403	17144.56784
727.596	16715.37124
727.79	16814.5621
727.984	16739.66234
728.177	16697.15314
728.371	16658.69332
728.565	16411.75982
728.758	16502.83816
728.952	16887.44079
729.146	16687.03205
729.339	16680.95943
729.533	16464.38236
729.726	16336.87621
729.92	16579.75206
730.113	16701.20159
730.307	16326.75701
730.5	16423.90336
730.694	16460.33442
730.887	16340.92391
731.081	16585.82435
731.274	16423.90336
731.468	16243.78125
731.661	16840.87902
731.854	16444.14276
732.048	16203.30635
732.241	16183.06916
732.435	16264.01896
732.628	16247.82878
732.821	16108.19299
733.014	16442.11881
733.208	16280.20925
733.401	16294.37586
733.594	16551.415
733.788	16387.47296
733.981	16751.80802
734.174	16551.415
734.367	16620.23433
734.56	16543.31878
734.754	16454.26253
734.947	16199.2589
735.14	16158.78475
735.333	16796.34293
735.526	16537.24663
735.719	16282.23305
735.912	16274.13788
736.105	15837.03663
736.298	16264.01896
736.491	16276.16167
736.684	16610.11368
736.877	16346.99546
737.07	16162.83214
737.263	16377.35351
737.456	16674.88683
737.649	16035.34255
737.842	16334.85237
738.035	16274.13788
738.228	16460.33442
738.421	16650.59662
738.614	16585.82435
738.807	16387.47296
739	16411.75982
739.192	16209.37754
739.385	16264.01896
739.578	16138.54793
739.771	15994.87091
739.964	15865.3653
740.156	16140.5716
740.349	15907.85874
740.542	15966.5411
740.735	15628.62495
740.927	15754.07537
741.12	16007.01234
741.313	16094.02747
741.505	16102.12204
741.698	16007.01234
741.891	16328.78084
742.083	16506.88618
742.276	16440.09486
742.468	15907.85874
742.661	15826.9193
742.854	16207.35381
743.046	16045.46055
743.239	15934.16449
743.431	16235.68621
743.624	15778.35652
743.816	15387.84919
744.009	15788.47372
744.201	15590.18113
744.393	15630.64831
744.586	15699.44329
744.778	15713.6071
744.971	15588.15778
745.163	15930.11744
745.355	15798.59094
745.548	15810.73164
745.74	15847.15398
745.932	15837.03663
746.125	15782.4034
746.317	15665.04568
746.509	15592.20448
746.702	15885.6002
746.894	15582.08773
747.086	15768.23936
747.278	15930.11744
747.471	16077.8384
747.663	16083.90929
747.855	16049.50776
748.047	15766.21593
748.239	15881.55321
748.431	15810.73164
748.623	15812.75509
748.815	15626.60158
749.008	15835.01316
749.2	15889.6472
749.392	15640.76516
749.584	15472.82791
749.776	15549.71425
749.968	15410.10544
750.16	15602.32125
750.352	15276.56858
750.544	15610.41468
750.736	15673.13921
750.928	15478.89785
751.12	15347.38341
751.311	15308.94103
751.503	15567.92431
751.695	15527.45758
751.887	15290.73152
752.079	15754.07537
752.271	14991.28694
752.463	15244.19619
752.654	15173.38168
752.846	15592.20448
753.038	15100.54392
753.23	15116.7301
753.421	15110.66028
753.613	15569.94765
753.805	15847.15398
753.997	15272.52203
754.188	15300.84791
754.38	15201.70747
754.572	15345.36012
754.763	15066.14827
754.955	15070.19482
755.146	15547.69091
755.338	15114.70683
755.53	15120.77664
755.721	15062.10172
755.913	15068.17155
756.104	14886.07561
756.296	15258.3591
756.487	14922.49505
756.679	14997.35679
756.87	14697.90521
757.062	15005.44992
757.253	15064.125
757.445	15223.96346
757.636	14946.7746
757.827	14871.91245
758.019	14946.7746
758.21	15068.17155
758.401	15005.44992
758.593	15088.40429
758.784	14784.90951
758.975	14491.51551
759.167	14507.70339
759.358	14869.88914
759.549	14675.64804
759.74	14629.10993
759.932	14651.36735
760.123	14882.029
760.314	14659.46093
760.505	14618.99287
760.696	14635.18015
760.888	14960.93763
761.079	14402.48058
761.27	15031.75257
761.461	14752.536
761.652	14835.49276
761.843	14313.44265
762.034	14610.89921
762.225	14333.67883
762.416	14465.21003
762.607	13995.70888
762.798	14473.30405
762.989	14058.45038
763.18	14270.94611
763.371	14301.30086
763.562	14453.06895
763.753	14030.1158
763.944	14627.08652
764.135	14457.11598
764.326	14724.209
764.517	14202.14045
764.708	14386.2921
764.899	14303.3245
765.089	14461.16301
765.28	14335.70244
765.471	14242.61464
765.662	14054.40261
765.853	14341.77325
766.043	14109.04673
766.234	14147.49902
766.425	14185.95055
766.615	14153.57037
766.806	14216.3065
766.997	14183.92681
767.187	14074.64137
767.378	13811.51794
767.569	13635.40075
767.759	13481.53058
767.95	13619.20484
768.141	13528.09873
768.331	13799.37268
768.522	13428.88593
768.712	13692.08476
768.903	13449.13418
769.093	13554.41901
769.284	13447.10937
769.474	13773.05757
769.665	13582.76325
769.855	13588.83693
770.046	13852.00141
770.236	13722.45015
770.426	13337.76393
770.617	13520.00006
770.807	13582.76325
770.998	13679.9384
771.188	13493.67898
771.378	13380.28854
771.569	13611.10681
771.759	13293.2124
771.949	13556.44362
772.139	13214.22959
772.33	13244.60838
772.52	13449.13418
772.71	13453.18378
772.9	13376.23866
773.09	13325.61371
773.281	13135.24002
773.471	13135.24002
773.661	13137.26548
773.851	12904.30559
774.041	12865.81005
774.231	13121.06167
774.421	12659.11549
774.611	12782.73404
774.802	12505.06761
774.992	13001.54905
775.182	12721.94073
775.372	12764.49658
775.562	12748.28513
775.752	12719.9142
775.942	12438.16698
776.131	12782.73404
776.321	12586.14991
776.511	12655.06205
776.701	12732.07331
776.891	12788.81309
777.081	12699.64855
777.271	12790.83942
777.461	12488.84993
777.651	12355.03794
777.84	12578.04213
778.03	12523.31201
778.22	12401.6727
778.41	12717.88766
778.599	12683.43561
778.789	12565.88028
778.979	12328.67756
779.169	12324.62201
779.358	12306.3717
779.548	12590.20376
779.738	12095.43689
779.927	12324.62201
780.117	12513.1763
780.307	12505.06761
780.496	12334.76083
780.686	12553.7182
780.875	12342.87176
781.065	12610.47265
781.254	12342.87176
781.444	12537.50174
781.633	12253.64538
781.823	12249.58931
782.012	12129.92209
782.202	11929.06488
782.391	12075.15044
782.581	12176.57508
782.77	12247.56127
782.96	12206.99883
783.149	11557.56823
783.338	11925.00635
783.528	11608.33667
783.717	11669.25125
783.906	11648.9473
784.096	11612.3979
784.285	11581.9378
784.474	11673.31193
784.663	11819.47307
784.853	11722.03735
785.042	11620.52024
785.231	11786.99671
785.42	11417.4168
785.61	11620.52024
785.799	11301.60456
785.988	11409.29067
786.177	11321.92485
786.366	11527.10437
786.555	11362.5624
786.744	11378.8163
786.933	11543.35202
787.122	11431.63714
787.312	11600.21411
787.501	11494.60726
787.69	11356.46702
787.879	11484.45141
788.068	11242.66998
788.257	11315.82887
788.445	11234.5404
788.634	11480.38901
788.823	11202.0204
789.012	11376.7846
789.201	10933.6258
789.39	11338.18035
789.579	11216.24823
789.768	11315.82887
789.957	11108.5104
790.145	11206.08554
790.334	10884.80603
790.523	11283.31544
790.712	11153.23537
790.9	11393.03795
791.089	11075.97988
791.278	11262.99322
791.467	10962.10098
791.655	11165.4322
791.844	11027.17888
792.033	10960.06712
792.221	10687.42447
792.41	11071.91337
792.599	10953.96544
792.787	11128.84057
792.976	11065.81352
793.164	11332.08461
793.353	11096.31178
793.541	11265.02549
793.73	10860.39368
793.918	10953.96544
794.107	10939.72781
794.295	11019.04476
794.484	10530.6592
794.672	10750.51729
794.861	10443.08255
795.049	10726.09564
795.238	10353.44448
795.426	10622.28418
795.614	10477.7087
795.803	10646.71326
795.991	10662.99833
796.179	10595.81733
796.368	10149.62552
796.556	10361.59445
796.744	10261.74271
796.932	10774.93723
797.121	10302.5024
797.309	10489.92882
797.497	10249.51375
797.685	10467.52493
797.874	10174.091
798.062	10502.14847
798.25	9986.47068
798.438	10257.66644
798.626	10337.14392
798.814	10273.97118
799.002	10388.08037
799.19	10292.31298
799.378	10451.23021
799.566	10335.10629
799.755	10286.19917
799.943	10540.84101
800.131	10432.89768
800.318	10292.31298
800.506	10167.97482
800.694	10225.05437
800.882	9968.11005
801.07	10365.66935
801.258	10139.43098
801.446	10491.96546
801.634	10373.819
801.822	10467.52493
802.01	10622.28418
802.197	10779.00706
802.385	10500.11189
802.573	10420.6754
802.761	10369.7442
802.949	10581.56509
803.136	10453.2671
803.324	10571.38454
803.512	10400.3039
803.699	10426.7866
803.887	10159.81971
804.075	10308.61589
804.262	10102.72776
804.45	10306.57807
804.638	10208.74702
804.825	10485.8555
805.013	10496.0387
805.201	10316.76702
805.388	10349.36942
805.576	10377.89374
805.763	10147.58664
805.951	10286.19917
806.138	10306.57807
806.326	10229.13107
806.513	9898.73704
806.701	10131.2751
806.888	10057.86208
807.075	10253.59012
807.263	9986.47068
807.45	10345.29431
807.638	10010.94971
807.825	10153.70324
808.012	9933.42566
808.2	9998.71046
808.387	9959.94939
808.574	10000.75037
808.761	10229.13107
808.949	10231.1694
809.136	9864.04418
809.323	10312.69148
809.51	10172.05228
809.698	10139.43098
809.885	9900.77767
810.072	10192.4388
810.259	10055.82257
810.446	10288.23712
810.633	10416.6012
810.82	10288.23712
811.008	10214.86238
811.195	10591.74532
811.382	10331.03099
811.569	10194.47738
811.756	10174.091
811.943	10453.2671
812.13	10112.92355
812.317	10457.34083
812.504	10522.51353
812.691	10571.38454
812.878	10394.1922
813.064	10612.10487
813.251	10477.7087
813.438	10540.84101
813.625	10479.74542
813.812	10522.51353
813.999	10300.46454
814.186	10408.45266
814.372	9972.19029
814.559	10261.74271
814.746	9788.52133
814.933	10239.32258
815.12	10402.34111
815.306	10192.4388
815.493	10027.26791
815.68	10339.18154
815.866	10186.32299
816.053	10365.66935
816.24	10174.091
816.426	10123.119
816.613	10261.74271
816.799	10353.44448
816.986	9894.65575
817.173	10045.6248
817.359	9978.31055
817.546	10253.59012
817.732	10047.66438
817.919	10125.15804
818.105	9943.62738
818.292	10110.88442
818.478	10000.75037
818.665	10280.08523
818.851	10125.15804
819.037	10006.87002
819.224	10019.10892
819.41	10245.43732
819.597	10057.86208
819.783	10084.37444
819.969	10212.82394
820.156	10310.65369
820.342	10216.9008
820.528	10106.80612
820.714	9896.6964
820.901	10172.05228
821.087	10243.39909
821.273	10100.68856
821.459	9992.59063
821.646	10100.68856
821.832	9813.01747
822.018	9968.11005
822.204	9755.85644
822.39	9864.04418
822.576	9764.02302
822.762	9872.20759
822.948	9576.12938
823.134	10088.45306
823.32	9961.98958
823.507	10082.33511
823.693	10206.70854
823.879	10196.51594
824.065	10127.19708
824.25	9888.5337
824.436	9868.12591
824.622	10241.36084
824.808	10106.80612
824.994	9927.30444
825.18	9751.77305
825.366	9733.39707
825.552	9727.27147
825.738	9892.61508
825.923	9882.41152
826.109	9755.85644
826.295	9686.43061
826.481	9857.92146
826.667	9674.17715
826.852	9576.12938
827.038	9631.28567
827.224	9496.43889
827.409	9218.35093
827.595	9621.0724
827.781	9232.67176
827.966	9559.78458
828.152	9156.96654
828.338	9296.08271
828.523	9275.62932
828.709	9584.3014
828.894	9341.07432
829.08	9600.6447
829.266	9373.79047
829.451	9439.21021
829.637	9140.59478
829.822	9363.56712
830.008	9216.30503
830.193	9457.60652
830.378	9187.66064
830.564	9451.47456
830.749	8982.96011
830.935	9118.08182
831.12	9163.10567
831.305	8847.76173
831.491	8835.46711
831.676	9046.43581
831.861	8759.63585
832.047	8929.7094
832.232	8821.12256
832.417	9052.57773
832.602	9021.86657
832.788	8939.95085
832.973	9066.90826
833.158	8978.86433
833.343	9011.62864
833.528	8978.86433
833.714	8753.48628
833.899	9103.75431
834.084	8886.69044
834.269	8913.32215
834.454	8357.51072
834.639	8616.10263
834.824	8523.78305
835.009	8823.17183
835.194	8390.36464
835.379	8858.00676
835.564	8581.23082
835.749	8702.23342
835.934	8260.97349
836.119	8755.53615
836.304	8527.88695
836.489	8800.62881
836.674	8763.73547
836.859	8757.58601
837.044	8679.67852
837.228	8921.51592
837.413	8648.91823
837.598	8720.68577
837.783	8458.11025
837.968	8712.48491
838.152	8215.77095
838.337	8595.59046
838.522	8314.3824
838.707	8511.47088
838.891	8049.26035
839.076	8252.75556
839.261	8322.59798
839.445	8375.99166
839.63	8131.50423
839.815	8322.59798
839.999	8306.16651
840.184	8474.53028
840.368	8135.61558
840.553	8447.84711
840.737	8117.11387
840.922	8226.0451
841.106	7925.8337
841.291	8014.29691
841.475	8059.5426
841.66	7964.92676
841.844	7919.66043
842.029	8102.72253
842.213	7827.03916
842.397	8141.78245
842.582	7705.5385
842.766	7989.6133
842.951	7859.97597
843.135	7944.35239
843.319	7643.73043
843.504	7985.49908
843.688	7678.75734
843.872	8014.29691
844.056	8028.69433
844.241	8223.99031
844.425	7946.40992
844.609	7952.58238
844.793	7888.79133
844.977	7899.08154
845.161	7511.80919
845.346	7880.55878
845.53	7443.75293
845.714	7680.81756
845.898	7388.053
846.082	7392.17947
846.266	7154.76527
846.45	7600.45341
846.634	7344.71986
846.818	7493.25072
847.002	7278.66985
847.186	7544.79771
847.37	7390.11625
847.554	7363.29239
847.738	7276.60543
847.922	7295.18446
848.106	7179.55256
848.29	7406.62141
848.473	7334.40103
848.657	7260.08924
848.841	7173.35604
849.025	7656.09357
849.209	7028.71356
849.392	7101.04847
849.576	7160.96239
849.76	7239.44201
849.944	7067.98449
850.127	7458.19107
850.311	7072.1178
850.495	7160.96239
850.678	7189.87966
850.862	7146.50213
851.046	6914.98877
851.229	7119.64445
851.413	6850.85919
851.596	6809.47368
851.78	7076.25102
851.964	6937.73919
852.147	6666.62352
852.331	6890.167
852.514	6616.91088
852.698	6724.60485
852.881	6751.51864
853.065	6805.33463
853.248	6737.02708
853.431	7039.0488
853.615	6650.05411
853.798	6759.79903
853.982	6507.08171
854.165	6623.12569
854.348	6359.84994
854.532	6739.09737
854.715	6751.51864
854.898	6923.26196
855.081	6467.69315
855.265	6614.83923
855.448	6337.02888
855.631	6436.59099
855.814	6343.25309
855.997	6531.95438
856.181	6496.71711
856.364	6482.2057
856.547	6459.39975
856.73	6502.93594
856.913	6278.92615
857.096	6749.44849
857.279	6355.70087
857.462	6662.4813
857.645	6471.83971
857.828	6465.61983
858.011	6270.62427
858.194	6239.48886
858.377	6175.12563
858.56	6424.14866
858.743	6237.41298
858.926	6212.50057
859.109	6256.09507
859.292	6581.68973
859.475	5979.82167
859.658	6378.51962
859.841	5929.92348
860.023	6195.89042
860.206	5950.71604
860.389	6218.72899
860.572	6033.86272
860.755	6320.42997
860.937	6127.35769
861.12	6008.92267
861.303	6011.00114
861.486	6048.40951
861.668	5684.39308
861.851	5967.34839
862.034	5852.9705
862.216	5882.09164
862.399	5790.55247
862.581	6004.76567
862.764	5748.92866
862.947	5963.19045
863.129	5676.06426
863.312	5523.99695
863.494	5240.35918
863.677	5619.83483
863.859	5584.42229
864.042	5628.1662
864.224	5703.13155
864.406	5709.37728
864.589	5576.08894
864.771	5684.39308
864.954	5327.9995
865.136	5611.50308
865.318	5396.83076
865.501	5271.66403
865.683	5225.74845
865.865	5451.04345
866.048	5444.78895
866.23	5503.15604
866.412	5305.05007
866.594	5503.15604
866.777	5227.83576
866.959	5194.43589
867.141	5027.34721
867.323	5234.09758
867.505	5156.8539
867.687	5426.02418
867.869	5181.9094
868.052	5396.83076
868.234	5223.66111
868.416	5286.27116
868.598	5048.24141
868.78	5254.96876
868.962	5067.04421
869.144	5469.80567
869.326	5117.17585
869.508	5150.5895
869.69	5131.79505
869.872	5567.75521
870.054	5117.17585
870.236	5167.2941
870.417	4954.19933
870.599	5000.1813
870.781	4868.476
870.963	5138.06008
871.145	4899.84267
871.327	5110.91012
871.508	4805.72725
871.69	4868.476
871.872	4665.51463
872.054	5014.80958
872.235	4893.56974
872.417	5008.54046
872.599	4979.28179
872.78	5321.74084
872.962	4935.38532
873.144	5179.82157
873.325	5029.43674
873.507	5115.08729
873.689	4943.74733
873.87	5213.22405
874.052	4943.74733
874.233	4878.93213
874.415	4753.42099
874.596	5018.98888
874.778	4692.72799
874.959	4895.66074
875.141	4782.71424
875.322	5029.43674
875.503	4908.20624
875.685	4960.47026
875.866	4663.42114
876.048	4991.82177
876.229	4801.54327
876.41	5058.68764
876.592	4655.04695
876.773	5039.88401
876.954	4866.38471
877.136	4952.10898
877.317	4734.58726
877.498	4935.38532
877.679	4707.37976
877.86	4945.83778
878.042	4707.37976
878.223	5158.94199
878.404	4862.20205
878.585	5050.3307
878.766	5046.1521
878.947	5150.5895
879.128	5021.0785
879.309	5171.47002
879.49	5096.28929
879.672	5336.34404
879.853	5018.98888
880.034	5156.8539
880.215	5144.3249
880.396	5046.1521
880.576	4993.91169
880.757	5102.5555
880.938	4979.28179
881.119	5117.17585
881.3	4885.20553
881.481	5087.93402
881.662	4855.92789
881.843	5008.54046
882.023	4916.56945
882.204	5079.57837
882.385	5008.54046
882.566	5175.64584
882.747	4979.28179
882.927	5133.88342
883.108	4715.75171
883.289	4918.66019
883.469	4862.20205
883.65	5142.23665
883.831	4899.84267
884.011	5069.1333
884.192	4954.19933
884.373	4939.56637
884.553	4830.82921
884.734	5008.54046
884.914	4841.2874
885.095	4977.19171
885.275	4966.74097
885.456	5142.23665
885.636	4866.38471
885.817	5102.5555
885.997	5035.70517
886.178	5238.272
886.358	5081.66732
886.538	5112.99872
886.719	5092.1117
886.899	5173.55794
887.08	4874.74975
887.26	5227.83576
887.44	4991.82177
887.621	5142.23665
887.801	4803.63527
887.981	4970.92134
888.161	4891.47873
888.342	5075.40041
888.522	4851.74501
888.702	5041.97339
888.882	4713.65876
889.062	5104.64419
889.242	4839.19581
889.423	5083.75624
889.603	4807.81921
889.783	5248.70765
889.963	4799.45125
890.143	5267.49035
890.323	4659.23409
890.503	4929.11357
890.683	4768.06817
890.863	4918.66019
891.043	4615.26462
891.223	4920.75091
891.403	4646.67239
891.583	4870.56727
891.763	4719.93755
891.943	5048.24141
892.122	4839.19581
892.302	5069.1333
892.482	4855.92789
892.662	5041.97339
892.842	4853.83646
893.022	4862.20205
893.201	4788.99079
893.381	4885.20553
893.561	4667.6081
893.741	4939.56637
893.92	4673.88838
894.1	4841.2874
894.28	4521.0112
894.459	4736.67999
894.639	4405.75179
894.819	4709.47278
894.998	4665.51463
895.178	4916.56945
895.357	4701.10057
895.537	4883.11442
895.716	4560.81258
895.896	4807.81921
896.075	4388.98127
896.255	4696.91433
896.434	4470.72436
896.614	4598.51175
896.793	4388.98127
896.973	4646.67239
897.152	4558.71797
897.331	4602.7001
897.511	4445.57619
897.69	4466.53322
897.87	4254.76716
898.049	4531.48603
898.228	4263.15813
898.407	4355.43604
898.587	4256.86493
898.766	4571.2853
898.945	3994.47995
899.124	4323.98235
899.304	4198.11924
899.483	4137.25798
899.662	3893.63837
899.841	4206.5125
900.02	3996.58031
900.199	4126.76287
900.378	4103.67178
900.557	4284.13403
900.737	3912.54971
900.916	4198.11924
901.095	4028.08338
901.274	4193.92248
901.453	4007.08185
901.632	4063.78125
901.811	3878.92842
901.989	4019.68301
902.168	3618.19276
902.347	3967.1733
902.526	3565.58945
902.705	3632.91959
902.884	3565.58945
903.063	3559.27627
903.242	3348.74346
903.42	3691.81762
903.599	3491.92538
903.778	3487.71533
903.957	3544.54487
904.135	3649.74912
904.314	3582.42378
904.493	3754.90597
904.672	3355.06203
904.85	3542.44031
905.029	3317.14827
905.207	3422.4503
905.386	3207.5886
905.565	3262.37414
905.743	3003.09972
905.922	3038.94867
906.1	2878.64916
906.279	3102.20061
906.457	3087.44308
906.636	3169.6536
906.814	2870.21
906.993	2842.78114
907.171	2884.97838
907.35	2979.90099
907.528	2646.49222
907.707	2975.68285
907.885	2547.25042
908.063	2783.6956
908.242	2612.71079
908.42	2819.57026
908.598	2606.37643
908.777	2925.06044
908.955	2608.48789
909.133	2910.29398
909.311	2534.57935
909.49	2899.74607
909.668	2528.24367
909.846	3026.29661
910.024	2743.59574
910.202	2819.57026
910.38	2654.93708
910.559	2809.0193
910.737	2699.26927
910.915	2884.97838
911.093	2486.00311
911.271	2777.36436
911.449	2676.04835
911.627	2910.29398
911.805	2614.82223
911.983	2935.60748
912.161	2589.48424
912.339	2844.89114
912.517	2882.86866
912.695	3106.4169
912.872	3032.62271
913.05	2859.66072
913.228	2716.15622
913.406	2884.97838
913.584	2648.60346
913.762	2657.04827
913.939	2768.92253
914.117	2800.57829
914.295	2684.4925
914.473	2967.24637
914.65	2737.26374
914.828	2977.79193
915.006	2505.01192
915.184	2806.90907
915.361	2505.01192
915.539	2811.12952
915.716	2631.71324
915.894	2766.81204
916.072	2528.24367
916.249	2536.69123
916.427	2416.2965
916.604	2745.70638
916.782	2454.31975
916.959	2756.25938
917.137	2519.79592
917.314	2840.67113
917.492	2562.0328
917.669	2395.17098
917.847	2234.58461
918.024	2445.87044
918.201	2352.91686
918.379	2414.18399
918.556	2321.22365
918.733	2367.70627
918.911	2188.08915
919.088	2403.62131
919.265	2234.58461
919.442	2498.67575
919.62	2221.90444
919.797	2321.22365
919.974	2088.7446
920.151	2433.19615
920.328	2040.12309
920.506	2323.33659
920.683	2243.03788
920.86	2272.62317
921.037	2065.4913
921.214	2249.37773
921.391	2228.24457
921.568	2369.819
921.745	2090.85849
921.922	2236.69794
922.099	2067.60527
922.276	2435.30856
922.453	1964.01264
922.63	2224.01783
922.807	1995.72634
922.984	2071.8332
923.161	1980.92679
923.338	2164.83988
923.514	2012.63973
923.691	2029.5527
923.868	2012.63973
924.045	1765.24539
924.222	1761.01585
924.399	2012.63973
924.575	1811.76917
924.752	1983.04103
924.929	1792.73696
925.105	1978.81254
925.282	1835.03028
925.459	1995.72634
925.635	1845.60333
925.812	1966.12693
925.989	1661.61791
926.165	1936.52631
926.342	1826.57176
926.518	1868.86362
926.695	1625.66389
926.871	1911.15346
927.048	1822.34247
927.224	1788.50753
927.401	1591.82424
927.577	1505.10832
927.754	1519.91361
927.93	1689.11165
928.107	1549.52405
928.283	1720.83457
928.459	1741.98278
928.636	1655.27313
928.812	1414.16117
928.988	1562.21417
929.165	1414.16117
929.341	1490.303
929.517	1428.96651
929.693	1661.61791
929.87	1422.62136
930.046	1469.1525
930.222	1240.73153
930.398	1528.37376
930.574	1291.49015
930.751	1572.78923
930.927	1340.135
931.103	1454.34714
931.279	1141.33439
931.455	1373.97538
931.631	1170.9412
931.807	1202.66362
931.983	1069.43578
932.159	1285.14525
932.335	1166.71161
932.511	1236.50171
932.687	1130.76072
932.863	1149.7934
933.039	1008.11532
933.215	1145.56388
933.391	972.17123
933.566	883.37696
933.742	834.75747
933.918	874.92107
934.094	832.64368
934.27	912.97357
934.445	798.82435
934.621	877.03503
934.797	792.48349
934.973	790.36989
935.148	695.26839
935.324	722.73996
935.5	773.46144
935.675	754.44019
935.851	617.09072
936.027	720.6267
936.202	538.93021
936.378	532.59368
936.553	475.57071
936.729	536.81802
936.904	549.49137
937.08	557.94055
937.255	418.55869
937.431	441.78444
937.606	338.33954
937.782	475.57071
937.957	372.11307
938.133	473.45896
938.308	342.56099
938.483	391.11258
938.659	264.47581
938.834	321.45445
939.009	245.48595
939.185	270.8061
939.36	241.26619
939.535	220.16857
939.71	275.02639
939.886	220.16857
940.061	150.56067
940.236	264.47581
940.411	215.94929
940.586	296.12896
940.761	245.48595
940.937	237.04651
941.112	177.9793
941.287	161.10588
941.462	152.66967
941.637	163.21498
941.812	144.23379
941.987	232.82691
942.162	203.2919
942.337	177.9793
942.512	218.05892
942.687	180.08857
942.862	161.10588
943.037	148.45169
943.212	156.88773
943.386	237.04651
943.561	112.60231
943.736	123.1456
943.911	177.9793
944.086	196.96348
944.26	230.71714
944.435	186.41651
944.61	106.2766
944.785	68.32652
944.959	112.60231
945.134	165.32411
945.309	104.16807
945.483	167.43326
945.658	137.90711
945.833	171.65161
946.007	62.00222
946.182	165.32411
946.357	131.58062
946.531	118.92822
946.706	91.51738
946.88	194.85404
947.055	118.92822
947.229	228.60739
947.404	118.92822
947.578	144.23379
947.752	146.34273
947.927	104.16807
948.101	129.47183
948.276	207.51095
948.45	114.71092
948.624	188.52586
948.799	152.66967
948.973	163.21498
949.147	116.81956
949.321	228.60739
949.496	283.46719
949.67	127.36306
949.844	175.87005
950.018	182.19786
950.193	171.65161
950.367	154.77869
950.541	144.23379
950.715	144.23379
950.889	150.56067
951.063	201.1824
951.237	110.49372
951.411	148.45169
951.585	148.45169
951.759	156.88773
951.933	114.71092
952.107	146.34273
952.281	188.52586
952.455	142.12488
952.629	171.65161
952.803	188.52586
952.977	144.23379
953.151	188.52586
953.325	152.66967
953.499	125.25432
953.672	165.32411
953.846	121.0369
954.02	154.77869
954.194	194.85404
954.368	222.27825
954.541	186.41651
954.715	154.77869
954.889	211.73008
955.062	186.41651
955.236	182.19786
955.41	177.9793
955.583	180.08857
955.757	213.83967
955.93	163.21498
956.104	121.0369
956.278	169.54242
956.451	167.43326
956.625	150.56067
956.798	161.10588
956.972	144.23379
957.145	173.76082
957.319	146.34273
957.492	72.54284
957.665	264.47581
957.839	127.36306
958.012	222.27825
958.185	161.10588
958.359	232.82691
958.532	123.1456
958.705	237.04651
958.879	144.23379
959.052	161.10588
959.225	127.36306
959.398	218.05892
959.572	207.51095
959.745	220.16857
959.918	226.49765
960.091	177.9793
960.264	78.86748
960.438	182.19786
960.611	161.10588
960.784	203.2919
960.957	188.52586
961.13	144.23379
961.303	186.41651
961.476	135.79826
961.649	184.30718
961.822	127.36306
961.995	87.30066
962.168	106.2766
962.341	140.01598
962.514	173.76082
962.686	182.19786
962.859	177.9793
963.032	127.36306
963.205	199.07293
963.378	144.23379
963.551	203.2919
963.723	171.65161
963.896	194.85404
964.069	165.32411
964.242	165.32411
964.414	207.51095
964.587	137.90711
964.76	188.52586
964.932	175.87005
965.105	207.51095
965.278	186.41651
965.45	169.54242
965.623	180.08857
965.795	211.73008
965.968	76.75925
966.14	123.1456
966.313	154.77869
966.485	102.05957
966.658	169.54242
966.83	87.30066
967.003	171.65161
967.175	116.81956
967.348	133.68943
967.52	140.01598
967.692	253.9257
967.865	186.41651
968.037	142.12488
968.209	118.92822
968.382	76.75925
968.554	110.49372
968.726	121.0369
968.898	180.08857
969.071	95.73419
969.243	135.79826
969.415	131.58062
969.587	182.19786
969.759	76.75925
969.932	161.10588
970.104	93.62577
970.276	156.88773
970.448	51.46218
970.62	142.12488
970.792	55.67812
970.964	89.40901
971.136	76.75925
971.308	123.1456
971.48	161.10588
971.652	146.34273
971.824	78.86748
971.996	129.47183
972.168	68.32652
972.339	142.12488
972.511	72.54284
972.683	83.08402
972.855	80.97574
973.027	127.36306
973.199	108.38515
973.37	104.16807
973.542	127.36306
973.714	102.05957
973.886	127.36306
974.057	72.54284
974.229	161.10588
974.401	70.43467
974.572	80.97574
974.744	85.19233
974.915	89.40901
975.087	-20.19457
975.259	135.79826
975.43	62.00222
975.602	121.0369
975.773	85.19233
975.945	70.43467
976.116	55.67812
976.288	70.43467
976.459	64.1103
976.63	43.03055
976.802	62.00222
976.973	66.2184
977.145	80.97574
977.316	85.19233
977.487	118.92822
977.659	64.1103
977.83	125.25432
978.001	102.05957
978.172	165.32411
978.344	87.30066
978.515	87.30066
978.686	85.19233
978.857	87.30066
979.028	74.65103
979.2	78.86748
979.371	131.58062
979.542	129.47183
979.713	51.46218
979.884	93.62577
980.055	30.38382
980.226	169.54242
980.397	62.00222
980.568	51.46218
980.739	64.1103
980.91	104.16807
981.081	95.73419
981.252	19.84552
981.423	85.19233
981.594	137.90711
981.765	140.01598
981.936	85.19233
982.106	93.62577
982.277	72.54284
982.448	184.30718
982.619	0.87808
982.79	2.98547
982.96	118.92822
983.131	53.57014
983.302	17.73793
983.472	68.32652
983.643	72.54284
983.814	43.03055
983.984	45.13842
984.155	49.35423
984.326	102.05957
984.496	51.46218
984.667	-32.83698
984.837	146.34273
985.008	89.40901
985.178	34.5993
985.349	40.92271
985.519	47.24632
985.69	53.57014
985.86	62.00222
986.031	66.2184
986.201	80.97574
986.371	-3.33665
986.542	85.19233
986.712	76.75925
986.882	110.49372
987.053	53.57014
987.223	64.1103
987.393	53.57014
987.563	28.27611
987.734	5.09289
987.904	154.77869
988.074	0.87808
988.244	55.67812
988.414	28.27611
988.585	142.12488
988.755	95.73419
988.925	110.49372
989.095	78.86748
989.265	21.95313
989.435	30.38382
989.605	51.46218
989.775	85.19233
989.945	53.57014
990.115	28.27611
990.285	72.54284
990.455	-24.40881
990.625	13.52282
990.795	45.13842
990.965	17.73793
991.134	161.10588
991.304	72.54284
991.474	43.03055
991.644	17.73793
991.814	26.16843
991.984	26.16843
992.153	28.27611
992.323	47.24632
992.493	108.38515
992.662	64.1103
992.832	51.46218
993.002	-11.7658
993.171	99.95108
993.341	11.4153
993.511	30.38382
993.68	-15.98024
993.85	76.75925
994.019	9.30781
994.189	51.46218
994.358	51.46218
994.528	87.30066
994.697	-5.44397
994.867	59.89417
995.036	76.75925
995.206	7.20034
995.375	70.43467
995.544	11.4153
995.714	76.75925
995.883	76.75925
996.052	68.32652
996.222	11.4153
996.391	62.00222
996.56	36.70708
996.73	13.52282
996.899	47.24632
997.068	19.84552
997.237	80.97574
997.406	68.32652
997.576	93.62577
997.745	43.03055
997.914	72.54284
998.083	59.89417
998.252	26.16843
998.421	34.5993
998.59	108.38515
998.759	0.87808
998.928	-53.90568
999.097	38.81488
999.266	97.84262
999.435	28.27611
999.604	17.73793
999.773	59.89417
999.942	36.70708
1000.111	45.13842
1000.28	43.03055
1000.448	78.86748
1000.617	28.27611
1000.786	62.00222
1000.955	43.03055
1001.124	26.16843
1001.292	80.97574
1001.461	51.46218
1001.63	17.73793
1001.798	26.16843
1001.967	55.67812
1002.136	66.2184
1002.304	-58.11912
1002.473	53.57014
1002.642	80.97574
1002.81	-24.40881
1002.979	40.92271
1003.147	32.49155
1003.316	15.63036
1003.484	51.46218
1003.653	62.00222
1003.821	11.4153
1003.99	59.89417
1004.158	104.16807
1004.327	38.81488
1004.495	87.30066
1004.663	68.32652
1004.832	15.63036
1005	-15.98024
1005.168	43.03055
1005.337	34.5993
1005.505	-15.98024
1005.673	28.27611
1005.842	43.03055
1006.01	76.75925
1006.178	-15.98024
1006.346	53.57014
1006.514	28.27611
1006.683	59.89417
1006.851	53.57014
1007.019	21.95313
1007.187	97.84262
1007.355	-47.58533
1007.523	-45.4785
1007.691	129.47183
1007.859	55.67812
1008.027	15.63036
1008.195	9.30781
1008.363	38.81488
1008.531	55.67812
1008.699	-26.51589
1008.867	-7.55127
1009.035	83.08402
1009.203	-45.4785
1009.37	-49.69214
1009.538	80.97574
1009.706	43.03055
1009.874	43.03055
1010.042	51.46218
1010.209	17.73793
1010.377	-45.4785
1010.545	-11.7658
1010.713	59.89417
1010.88	9.30781
1011.048	-18.08741
1011.216	-26.51589
1011.383	53.57014
1011.551	15.63036
1011.718	28.27611
1011.886	78.86748
1012.054	64.1103
1012.221	26.16843
1012.389	34.5993
1012.556	26.16843
1012.724	-7.55127
1012.891	0.87808
1013.058	36.70708
1013.226	80.97574
1013.393	0.87808
1013.561	43.03055
1013.728	78.86748
1013.895	26.16843
1014.063	87.30066
1014.23	-34.94396
1014.397	30.38382
1014.565	19.84552
1014.732	-24.40881
1014.899	34.5993
1015.066	-62.33245
1015.233	0.87808
1015.401	36.70708
1015.568	11.4153
1015.735	51.46218
1015.902	70.43467
1016.069	51.46218
1016.236	0.87808
1016.403	34.5993
1016.57	-49.69214
1016.737	-41.26476
1016.904	28.27611
1017.071	9.30781
1017.238	-119.20241
1017.405	-18.08741
1017.572	-26.51589
1017.739	43.03055
1017.906	-30.72997
1018.073	59.89417
1018.24	5.09289
1018.407	9.30781
1018.573	13.52282
1018.74	-5.44397
1018.907	9.30781
1019.074	2.98547
1019.241	51.46218
1019.407	34.5993
1019.574	2.98547
1019.741	34.5993
1019.907	-28.62294
1020.074	28.27611
1020.241	-3.33665
1020.407	-7.55127
1020.574	85.19233
1020.74	-24.40881
1020.907	30.38382
1021.073	118.92822
1021.24	51.46218
1021.406	26.16843
1021.573	-64.43909
1021.739	19.84552
1021.906	24.06077
1022.072	38.81488
1022.239	36.70708
1022.405	9.30781
1022.571	55.67812
1022.738	55.67812
1022.904	-5.44397
1023.07	45.13842
1023.237	36.70708
1023.403	13.52282
1023.569	24.06077
1023.735	21.95313
1023.902	-39.15785
1024.068	47.24632
1024.234	51.46218
1024.4	13.52282
1024.566	59.89417
1024.732	59.89417
1024.898	40.92271
1025.065	51.46218
1025.231	34.5993
1025.397	28.27611
1025.563	9.30781
1025.729	66.2184
1025.895	-11.7658
1026.061	-51.79892
1026.227	0.87808
1026.392	-28.62294
1026.558	-28.62294
1026.724	11.4153
1026.89	0.87808
1027.056	-58.11912
1027.222	-32.83698
1027.388	70.43467
1027.553	34.5993
1027.719	57.78613
1027.885	89.40901
1028.051	30.38382
1028.216	47.24632
1028.382	59.89417
1028.548	21.95313
1028.713	21.95313
1028.879	5.09289
1029.045	57.78613
1029.21	36.70708
1029.376	47.24632
1029.541	55.67812
1029.707	72.54284
1029.873	26.16843
1030.038	78.86748
1030.204	9.30781
1030.369	0.87808
1030.534	9.30781
1030.7	43.03055
1030.865	-43.37164
1031.031	38.81488
1031.196	26.16843
1031.361	80.97574
1031.527	0.87808
1031.692	-41.26476
1031.857	51.46218
1032.023	-58.11912
1032.188	17.73793
1032.353	93.62577
1032.518	45.13842
1032.684	21.95313
1032.849	7.20034
1033.014	34.5993
1033.179	-3.33665
1033.344	28.27611
1033.509	-7.55127
1033.674	26.16843
1033.839	-13.87303
1034.004	68.32652
1034.17	28.27611
1034.335	5.09289
1034.5	-13.87303
1034.664	59.89417
1034.829	-22.3017
1034.994	17.73793
1035.159	21.95313
1035.324	89.40901
1035.489	43.03055
1035.654	5.09289
1035.819	11.4153
1035.984	-22.3017
1036.148	-3.33665
1036.313	-41.26476
1036.478	51.46218
1036.643	19.84552
1036.807	51.46218
1036.972	-15.98024
1037.137	87.30066
1037.301	-24.40881
1037.466	0.87808
1037.631	85.19233
1037.795	32.49155
1037.96	40.92271
1038.124	21.95313
1038.289	123.1456
1038.454	30.38382
1038.618	-3.33665
1038.783	-37.05092
1038.947	68.32652
1039.111	-9.65855
1039.276	28.27611
1039.44	59.89417
1039.605	64.1103
1039.769	-60.2258
1039.933	0.87808
1040.098	53.57014
1040.262	36.70708
1040.426	49.35423
1040.591	21.95313
1040.755	47.24632
1040.919	2.98547
1041.083	-45.4785
1041.248	32.49155
1041.412	0.87808
1041.576	40.92271
1041.74	26.16843
1041.904	26.16843
1042.068	17.73793
1042.232	129.47183
1042.397	-89.71665
1042.561	72.54284
1042.725	-93.92922
1042.889	85.19233
1043.053	38.81488
1043.217	-9.65855
1043.381	51.46218
1043.544	43.03055
1043.708	53.57014
1043.872	40.92271
1044.036	19.84552
1044.2	-13.87303
1044.364	76.75925
1044.528	55.67812
1044.691	-45.4785
1044.855	62.00222
1045.019	-5.44397
1045.183	76.75925
1045.346	47.24632
1045.51	17.73793
1045.674	-22.3017
1045.837	26.16843
1046.001	-32.83698
1046.165	59.89417
1046.328	9.30781
1046.492	15.63036
1046.655	-13.87303
1046.819	-15.98024
1046.983	-91.82295
1047.146	11.4153
1047.31	51.46218
1047.473	13.52282
1047.636	17.73793
1047.8	-5.44397
1047.963	24.06077
1048.127	-32.83698
1048.29	9.30781
