Data from mixed_try6.1_USB4F045381__24__00308.txt Node

Date: Thu Apr 03 20:33:52 EDT 2025
User: mmckonesweet
Spectrometer: USB4F04538
Trigger mode: 4
Integration Time (sec): 2.700000E-3
Scans to average: 1
Electric dark correction enabled: true
Nonlinearity correction enabled: true
Boxcar width: 0
XAxis mode: Wavelengths
Number of Pixels in Spectrum: 3648
>>>>>Begin Spectral Data<<<<<
345.52	-7.90249
345.736	-7.90249
345.952	-7.90249
346.168	-16.33143
346.384	-22.65289
346.6	-20.54576
346.816	-12.11701
347.032	-41.61591
347.248	-7.90249
347.464	32.14026
347.68	6.8491
347.896	19.49425
348.112	23.70949
348.328	-35.29512
348.544	25.81715
348.76	21.60186
348.975	-12.11701
349.191	-52.15005
349.407	40.5714
349.623	-12.11701
349.839	-58.47023
350.055	-3.68787
350.27	8.95656
350.486	-7.90249
350.702	11.06405
350.918	-22.65289
351.133	46.895
351.349	0.52684
351.565	-37.40208
351.781	27.92483
351.996	-37.40208
352.212	0.52684
352.428	25.81715
352.644	-5.79519
352.859	-20.54576
353.075	-37.40208
353.291	13.17157
353.506	40.5714
353.722	-14.22423
353.938	-47.93647
354.153	23.70949
354.369	-31.08114
354.584	-33.18815
354.8	30.03253
355.016	-52.15005
355.231	19.49425
355.447	-24.75999
355.662	46.895
355.878	21.60186
356.093	-18.43861
356.309	-37.40208
356.524	-52.15005
356.74	4.74166
356.955	-52.15005
357.171	55.32679
357.386	-33.18815
357.602	95.38278
357.817	-41.61591
358.033	-37.40208
358.248	-5.79519
358.464	-28.97412
358.679	2.63424
358.895	-28.97412
359.11	59.54283
359.325	4.74166
359.541	-12.11701
359.756	57.4348
359.972	-1.58052
360.187	25.81715
360.402	-94.28026
360.618	2.63424
360.833	-28.97412
361.048	-43.72279
361.264	55.32679
361.479	25.81715
361.694	30.03253
361.909	-43.72279
362.125	8.95656
362.34	-24.75999
362.555	-87.96139
362.77	-54.2568
362.986	4.74166
363.201	-1.58052
363.416	-37.40208
363.631	-62.68356
363.847	-54.2568
364.062	65.86705
364.277	-3.68787
364.492	67.97517
364.707	34.24801
364.922	-50.04327
365.138	46.895
365.353	13.17157
365.568	-12.11701
365.783	74.29967
365.998	80.62436
366.213	-66.89679
366.428	46.895
366.643	-7.90249
366.858	-20.54576
367.073	30.03253
367.288	-62.68356
367.503	8.95656
367.718	-35.29512
367.933	-52.15005
368.148	67.97517
368.363	-92.17399
368.578	-75.32294
368.793	8.95656
369.008	-69.00336
369.223	55.32679
369.438	25.81715
369.653	13.17157
369.868	-45.82964
370.083	21.60186
370.298	-28.97412
370.513	-75.32294
370.728	-45.82964
370.943	-26.86706
371.157	-22.65289
371.372	-16.33143
371.587	30.03253
371.802	-26.86706
372.017	0.52684
372.232	30.03253
372.446	-41.61591
372.661	30.03253
372.876	53.21881
373.091	-26.86706
373.306	-85.85504
373.52	-20.54576
373.735	15.2791
373.95	-35.29512
374.165	30.03253
374.379	97.49122
374.594	-45.82964
374.809	32.14026
375.023	-12.11701
375.238	-62.68356
375.453	13.17157
375.667	6.8491
375.882	-16.33143
376.097	-10.00976
376.311	-1.58052
376.526	-12.11701
376.741	-45.82964
376.955	-83.74867
377.17	-1.58052
377.384	30.03253
377.599	57.4348
377.813	23.70949
378.028	30.03253
378.242	-45.82964
378.457	72.19148
378.672	15.2791
378.886	-3.68787
379.101	-18.43861
379.315	-33.18815
379.53	-52.15005
379.744	-79.53586
379.958	-18.43861
380.173	38.46358
380.387	-24.75999
380.602	4.74166
380.816	-3.68787
381.031	30.03253
381.245	89.05761
381.459	32.14026
381.674	-20.54576
381.888	42.67924
382.103	63.75895
382.317	-69.00336
382.531	-62.68356
382.746	13.17157
382.96	-24.75999
383.174	-1.58052
383.388	4.74166
383.603	-58.47023
383.817	25.81715
384.031	82.73264
384.246	55.32679
384.46	-77.42941
384.674	-16.33143
384.888	42.67924
385.103	2.63424
385.317	2.63424
385.531	-35.29512
385.745	80.62436
385.959	6.8491
386.174	-20.54576
386.388	-26.86706
386.602	4.74166
386.816	8.95656
387.03	-64.79019
387.244	-24.75999
387.458	21.60186
387.672	15.2791
387.887	46.895
388.101	32.14026
388.315	-10.00976
388.529	53.21881
388.743	-16.33143
388.957	-71.10991
389.171	8.95656
389.385	40.5714
389.599	44.78711
389.813	-3.68787
390.027	-54.2568
390.241	-33.18815
390.455	15.2791
390.669	30.03253
390.883	23.70949
391.097	8.95656
391.311	15.2791
391.525	21.60186
391.738	-18.43861
391.952	2.63424
392.166	27.92483
392.38	-1.58052
392.594	25.81715
392.808	-1.58052
393.022	76.40788
393.236	-5.79519
393.449	32.14026
393.663	-18.43861
393.877	21.60186
394.091	-71.10991
394.305	-16.33143
394.518	-16.33143
394.732	2.63424
394.946	25.81715
395.16	-7.90249
395.373	38.46358
395.587	-12.11701
395.801	-31.08114
396.015	49.00291
396.228	-5.79519
396.442	0.52684
396.656	-31.08114
396.869	15.2791
397.083	13.17157
397.297	42.67924
397.51	-24.75999
397.724	46.895
397.938	-73.21644
398.151	-18.43861
398.365	23.70949
398.578	-71.10991
398.792	-56.36353
399.005	21.60186
399.219	25.81715
399.433	-16.33143
399.646	-71.10991
399.86	-31.08114
400.073	27.92483
400.287	-45.82964
400.5	32.14026
400.714	-54.2568
400.927	-5.79519
401.141	-12.11701
401.354	-24.75999
401.567	-62.68356
401.781	67.97517
401.994	27.92483
402.208	-3.68787
402.421	-52.15005
402.635	-28.97412
402.848	-28.97412
403.061	-85.85504
403.275	17.38667
403.488	-41.61591
403.701	49.00291
403.915	38.46358
404.128	-20.54576
404.341	-43.72279
404.555	13.17157
404.768	-37.40208
404.981	-5.79519
405.195	-3.68787
405.408	11.06405
405.621	15.2791
405.834	-12.11701
406.048	-66.89679
406.261	-3.68787
406.474	-7.90249
406.687	-7.90249
406.9	13.17157
407.114	-7.90249
407.327	51.11085
407.54	38.46358
407.753	-10.00976
407.966	-47.93647
408.179	-79.53586
408.392	-52.15005
408.605	-24.75999
408.819	40.5714
409.032	21.60186
409.245	-14.22423
409.458	-1.58052
409.671	36.35578
409.884	99.59967
410.097	4.74166
410.31	13.17157
410.523	4.74166
410.736	-18.43861
410.949	25.81715
411.162	38.46358
411.375	15.2791
411.588	21.60186
411.801	-7.90249
412.014	17.38667
412.227	30.03253
412.44	8.95656
412.653	-24.75999
412.865	17.38667
413.078	-10.00976
413.291	23.70949
413.504	17.38667
413.717	13.17157
413.93	-28.97412
414.143	-5.79519
414.356	-31.08114
414.568	-24.75999
414.781	-33.18815
414.994	46.895
415.207	4.74166
415.42	-33.18815
415.632	-62.68356
415.845	-18.43861
416.058	-14.22423
416.271	30.03253
416.483	-16.33143
416.696	-39.50901
416.909	-90.0677
417.121	40.5714
417.334	-1.58052
417.547	-28.97412
417.759	23.70949
417.972	57.4348
418.185	19.49425
418.397	4.74166
418.61	30.03253
418.823	30.03253
419.035	-60.57691
419.248	-52.15005
419.46	0.52684
419.673	49.00291
419.885	36.35578
420.098	40.5714
420.311	38.46358
420.523	30.03253
420.736	40.5714
420.948	0.52684
421.161	0.52684
421.373	25.81715
421.586	6.8491
421.798	-87.96139
422.01	80.62436
422.223	30.03253
422.435	-31.08114
422.648	0.52684
422.86	-33.18815
423.073	15.2791
423.285	-26.86706
423.497	63.75895
423.71	15.2791
423.922	-10.00976
424.134	-24.75999
424.347	-41.61591
424.559	-10.00976
424.771	-16.33143
424.984	2.63424
425.196	-18.43861
425.408	34.24801
425.621	-62.68356
425.833	-45.82964
426.045	-3.68787
426.257	-12.11701
426.47	40.5714
426.682	-14.22423
426.894	-12.11701
427.106	-37.40208
427.318	-50.04327
427.531	25.81715
427.743	55.32679
427.955	-33.18815
428.167	-12.11701
428.379	-39.50901
428.591	-75.32294
428.804	-7.90249
429.016	0.52684
429.228	-37.40208
429.44	-7.90249
429.652	8.95656
429.864	21.60186
430.076	-24.75999
430.288	6.8491
430.5	-16.33143
430.712	-5.79519
430.924	40.5714
431.136	13.17157
431.348	51.11085
431.56	-20.54576
431.772	-62.68356
431.984	6.8491
432.196	-37.40208
432.408	4.74166
432.62	-28.97412
432.832	-35.29512
433.044	59.54283
433.256	34.24801
433.468	-12.11701
433.679	-39.50901
433.891	25.81715
434.103	0.52684
434.315	8.95656
434.527	34.24801
434.739	-12.11701
434.95	40.5714
435.162	-1.58052
435.374	55.32679
435.586	-33.18815
435.798	-62.68356
436.009	13.17157
436.221	-18.43861
436.433	-45.82964
436.645	-41.61591
436.856	21.60186
437.068	32.14026
437.28	-3.68787
437.491	-10.00976
437.703	-3.68787
437.915	30.03253
438.126	67.97517
438.338	-64.79019
438.55	-20.54576
438.761	23.70949
438.973	-12.11701
439.184	38.46358
439.396	82.73264
439.608	-18.43861
439.819	-47.93647
440.031	23.70949
440.242	32.14026
440.454	30.03253
440.665	0.52684
440.877	-18.43861
441.088	-28.97412
441.3	11.06405
441.511	15.2791
441.723	-28.97412
441.934	-62.68356
442.146	38.46358
442.357	13.17157
442.569	57.4348
442.78	-16.33143
442.991	86.94927
443.203	15.2791
443.414	25.81715
443.626	30.03253
443.837	23.70949
444.048	-52.15005
444.26	-18.43861
444.471	-24.75999
444.682	11.06405
444.894	-3.68787
445.105	6.8491
445.316	-26.86706
445.528	15.2791
445.739	25.81715
445.95	-71.10991
446.161	72.19148
446.373	72.19148
446.584	46.895
446.795	-58.47023
447.006	86.94927
447.217	6.8491
447.429	-20.54576
447.64	34.24801
447.851	-1.58052
448.062	-31.08114
448.273	-14.22423
448.484	97.49122
448.695	55.32679
448.907	55.32679
449.118	4.74166
449.329	-18.43861
449.54	-12.11701
449.751	-12.11701
449.962	-62.68356
450.173	8.95656
450.384	23.70949
450.595	72.19148
450.806	-3.68787
451.017	13.17157
451.228	4.74166
451.439	4.74166
451.65	84.84094
451.861	-81.64228
452.072	38.46358
452.283	40.5714
452.494	34.24801
452.705	21.60186
452.915	49.00291
453.126	-14.22423
453.337	-12.11701
453.548	95.38278
453.759	-41.61591
453.97	-12.11701
454.181	51.11085
454.391	44.78711
454.602	-10.00976
454.813	70.08331
455.024	30.03253
455.235	32.14026
455.445	-10.00976
455.656	4.74166
455.867	63.75895
456.078	42.67924
456.288	-24.75999
456.499	-24.75999
456.71	4.74166
456.921	-7.90249
457.131	72.19148
457.342	6.8491
457.553	-50.04327
457.763	-37.40208
457.974	30.03253
458.184	101.70815
458.395	8.95656
458.606	-33.18815
458.816	-3.68787
459.027	-62.68356
459.237	0.52684
459.448	-24.75999
459.659	-43.72279
459.869	25.81715
460.08	32.14026
460.29	38.46358
460.501	32.14026
460.711	-58.47023
460.922	13.17157
461.132	21.60186
461.343	-10.00976
461.553	49.00291
461.764	30.03253
461.974	4.74166
462.184	-28.97412
462.395	89.05761
462.605	-7.90249
462.816	11.06405
463.026	55.32679
463.236	-12.11701
463.447	53.21881
463.657	61.65088
463.867	-62.68356
464.078	65.86705
464.288	-24.75999
464.498	30.03253
464.709	30.03253
464.919	93.27437
465.129	40.5714
465.339	21.60186
465.55	-1.58052
465.76	-7.90249
465.97	57.4348
466.18	82.73264
466.391	17.38667
466.601	15.2791
466.811	40.5714
467.021	17.38667
467.231	23.70949
467.441	55.32679
467.651	-10.00976
467.862	-28.97412
468.072	-26.86706
468.282	63.75895
468.492	78.51611
468.702	34.24801
468.912	8.95656
469.122	13.17157
469.332	46.895
469.542	13.17157
469.752	63.75895
469.962	23.70949
470.172	4.74166
470.382	74.29967
470.592	17.38667
470.802	38.46358
471.012	89.05761
471.222	55.32679
471.432	89.05761
471.642	101.70815
471.852	55.32679
472.062	6.8491
472.272	118.57677
472.482	8.95656
472.691	8.95656
472.901	46.895
473.111	40.5714
473.321	181.84631
473.531	42.67924
473.741	91.16598
473.95	13.17157
474.16	97.49122
474.37	-16.33143
474.58	120.68545
474.79	72.19148
474.999	-16.33143
475.209	105.92518
475.419	72.19148
475.628	95.38278
475.838	89.05761
476.048	51.11085
476.258	65.86705
476.467	61.65088
476.677	97.49122
476.886	129.12037
477.096	89.05761
477.306	181.84631
477.515	34.24801
477.725	141.77339
477.935	114.35949
478.144	59.54283
478.354	27.92483
478.563	99.59967
478.773	105.92518
478.982	175.51851
479.192	99.59967
479.401	135.44678
479.611	122.79415
479.82	101.70815
480.03	105.92518
480.239	175.51851
480.449	86.94927
480.658	181.84631
480.868	118.57677
481.077	169.1909
481.287	120.68545
481.496	234.58507
481.705	133.33796
481.915	76.40788
482.124	228.25576
482.333	177.62776
482.543	105.92518
482.752	148.10019
482.961	152.31817
483.171	188.1743
483.38	122.79415
483.589	158.64528
483.799	169.1909
484.008	198.72135
484.217	160.75436
484.426	221.92663
484.636	158.64528
484.845	211.37848
485.054	145.99124
485.263	268.3443
485.472	211.37848
485.682	179.73703
485.891	232.47528
486.1	236.69488
486.309	274.6747
486.518	283.11549
486.727	259.90403
486.936	173.40929
487.146	291.55658
487.355	304.21876
487.564	270.45441
487.773	291.55658
487.982	293.6669
488.191	274.6747
488.4	348.54149
488.609	287.336
488.818	306.32919
489.027	359.09566
489.236	308.43963
489.445	359.09566
489.654	397.09419
489.863	283.11549
490.072	401.31658
490.281	365.42837
490.49	397.09419
490.698	403.4278
490.907	327.43445
491.116	418.2068
491.325	359.09566
491.534	386.5385
491.743	348.54149
491.952	517.45693
492.16	479.44231
492.369	460.4368
492.578	544.91483
492.787	405.53904
492.996	494.22521
493.204	536.46599
493.413	525.90526
493.622	587.16227
493.831	521.68107
494.039	557.58849
494.248	468.88354
494.457	506.89684
494.665	627.30218
494.874	528.01738
495.083	697.02933
495.291	692.80309
495.5	589.27478
495.709	633.64047
495.917	595.61239
496.126	656.88183
496.335	646.31739
496.543	688.57688
496.752	663.22063
496.96	633.64047
497.169	758.31482
497.377	743.52096
497.586	614.62592
497.794	815.38144
498.003	806.92668
498.211	701.25563
498.42	798.47207
498.628	851.31577
498.837	777.33623
499.045	847.08807
499.254	760.42827
499.462	762.54173
499.671	963.3617
499.879	832.29139
500.087	844.97423
500.296	899.93677
500.504	891.48064
500.713	1026.79287
500.921	1003.53411
501.129	910.50712
501.338	1020.4495
501.546	976.04747
501.754	942.21932
501.962	1005.64851
502.171	946.44774
502.379	948.56196
502.587	969.70455
502.795	1162.12957
503.004	995.07656
503.212	1140.98193
503.42	1189.62209
503.628	1166.35914
503.837	1026.79287
504.045	1077.54171
504.253	1138.86719
504.461	1162.12957
504.669	1168.47394
504.877	1276.33291
505.085	1255.18349
505.294	1231.91943
505.502	1195.9666
505.71	1263.64323
505.918	1119.83472
506.126	1344.01253
506.334	1124.06413
506.542	1301.71254
506.75	1153.67046
506.958	1280.56283
507.166	1174.81834
507.374	1297.48258
507.582	1447.64947
507.79	1481.4903
507.998	1312.28747
508.206	1494.18059
508.414	1289.02269
508.622	1525.90622
508.83	1248.83871
509.037	1443.41937
509.245	1305.9425
509.453	1466.68494
509.661	1504.75582
509.869	1602.04669
510.077	1492.06554
510.285	1519.56111
510.492	1373.62287
510.7	1583.01175
510.908	1379.96798
511.116	1568.20671
511.324	1401.11838
511.531	1595.70173
511.739	1583.01175
511.947	1466.68494
512.155	1580.89675
512.362	1654.92065
512.57	1572.43673
512.778	1762.77816
512.985	1695.10381
513.193	1754.31906
513.401	1695.10381
513.608	1879.08385
513.816	1705.67815
514.024	1790.26979
514.231	1733.17107
514.439	1938.28829
514.646	1851.59467
514.854	1779.69617
515.061	1731.05625
515.269	1860.05297
515.477	1830.44859
515.684	1847.3655
515.892	1809.30205
516.099	1976.34591
516.307	1925.60199
516.514	1957.31734
516.722	1864.28209
516.929	1997.48817
517.136	1942.51701
517.344	2018.62979
517.551	1841.02169
517.759	2069.36691
517.966	1938.28829
518.173	2084.16447
518.381	1991.14556
518.588	2141.23733
518.796	2094.73394
519.003	2303.96753
519.21	2041.8848
519.418	2227.89234
519.625	2257.47854
519.832	2274.38415
520.039	2210.98516
520.247	2303.96753
520.454	2356.79032
520.661	2236.34572
520.868	2084.16447
521.076	2553.23383
521.283	2363.12865
521.49	2409.60686
521.697	2274.38415
521.904	2371.5796
522.112	2122.21367
522.319	2430.73166
522.526	2242.68566
522.733	2654.58522
522.94	2261.705
523.147	2536.33925
523.354	2458.1923
523.561	2610.24744
523.768	2565.90427
523.975	2646.14035
524.183	2485.65109
524.39	2525.77976
524.597	2396.93148
524.804	2665.14102
525.011	2472.97803
525.218	2639.80657
525.425	2549.01026
525.632	2578.57429
525.838	2753.79704
526.045	2844.53948
526.252	2675.6965
526.459	2808.6676
526.666	2717.91523
526.873	2688.36266
527.08	2743.24396
527.287	3023.83642
527.494	2764.34978
527.701	2945.8026
527.907	2665.14102
528.114	3044.92307
528.321	2779.12305
528.528	2920.48995
528.735	2829.76919
528.941	2842.42948
529.148	2812.88803
529.355	2857.19917
529.562	2821.32872
529.768	3262.02298
529.975	2802.33685
530.182	3042.81447
530.388	2954.23968
530.595	3106.06554
530.802	2945.8026
531.008	3167.19466
531.215	3004.85712
531.422	3179.84037
531.628	3146.11719
531.835	3232.52444
532.042	3156.65613
532.248	3344.17995
532.455	3283.09135
532.661	3327.32937
532.868	2977.44041
533.074	3441.04908
533.281	3295.73155
533.487	3373.6658
533.694	3097.63288
533.9	3544.19411
534.107	3379.98375
534.313	3510.51891
534.52	3434.73267
534.726	3291.51822
534.933	3554.71665
535.139	3384.19563
535.345	3443.15452
535.552	3670.43375
535.758	3453.68142
535.965	3497.8895
536.171	3270.45053
536.377	3619.946
536.584	3502.09937
536.79	3619.946
536.996	3535.77575
537.203	3735.63082
537.409	3518.93815
537.615	3905.8959
537.821	3750.35017
538.028	3737.73364
538.234	3720.91051
538.44	3889.08539
538.646	3653.60571
538.853	3708.29236
539.059	3674.64057
539.265	3813.42229
539.471	3756.65817
539.677	4052.93253
539.883	3842.84989
540.09	3958.42044
540.296	3920.60405
540.502	4059.23185
540.708	3899.59211
540.914	4243.92833
541.12	3834.4424
541.326	4048.73287
541.532	3876.47667
541.738	4197.76951
541.944	4132.71016
542.15	4086.52677
542.356	4195.67114
542.562	4457.80139
542.768	4279.58944
542.974	4401.20991
543.18	4067.63066
543.386	4313.14717
543.592	4103.3219
543.798	4141.10605
544.004	4262.80851
544.21	4292.17423
544.415	4199.86786
544.621	4577.21959
544.827	4120.11569
545.033	4510.18664
545.239	4195.67114
545.445	4585.59711
545.651	4218.75207
545.856	4648.41712
546.062	4350.89303
546.268	4497.61543
546.474	4604.44522
546.679	4568.84171
546.885	4422.17158
547.091	4654.69801
547.297	4380.24607
547.502	4501.80592
547.708	4464.08835
547.914	4489.23419
548.119	4560.46348
548.325	4686.09945
548.531	4461.99272
548.736	4773.99648
548.942	4493.42486
549.147	4763.53464
549.353	4713.30993
549.559	4694.47231
549.764	4757.25726
549.97	4715.40289
550.175	4675.63287
550.381	4681.91288
550.586	4782.36554
550.792	4872.30998
550.997	4744.7019
551.203	4983.11354
551.408	4832.57228
551.614	4803.28661
551.819	4830.4806
552.025	5039.53578
552.23	4874.40121
552.435	5089.67473
552.641	5129.3586
552.846	5162.77009
553.052	4920.40246
553.257	5041.62517
553.462	5045.80387
553.668	4978.93344
553.873	5150.24147
554.078	5254.62093
554.283	5123.09328
554.489	5340.1685
554.694	5265.05566
554.899	5304.70233
555.105	5231.66245
555.31	5171.12203
555.515	5246.27272
555.72	5496.55592
555.925	5116.82775
556.131	5436.10179
556.336	5208.70115
556.541	5423.59157
556.746	5187.82479
556.951	5523.64963
557.156	5219.13846
557.361	5602.82378
557.567	5304.70233
557.772	5571.57489
557.977	5383.97029
558.182	5679.88168
558.387	5629.90185
558.592	5479.8809
558.797	5404.82466
559.002	5609.07292
559.207	5421.50645
559.412	5454.86554
559.617	5315.13426
559.822	5521.56564
560.027	5444.44147
560.232	5629.90185
560.437	5429.84679
560.642	5675.71722
560.847	5617.40478
561.051	5640.31544
561.256	5634.06736
561.461	5717.35763
561.666	5615.32185
561.871	5623.65342
562.076	5496.55592
562.281	5856.78425
562.485	5721.52116
562.69	5967.0019
562.895	5575.74171
563.1	5821.41737
563.305	5775.63836
563.509	5977.39638
563.714	5892.1443
563.919	6054.29717
564.123	5748.58175
564.328	5779.80056
564.533	5946.21119
564.737	5713.19402
564.942	6008.57626
565.147	6079.23104
565.351	5727.76626
565.556	6124.93435
565.761	5937.89424
565.965	6124.93435
566.17	5989.86896
566.374	6014.8116
566.579	6104.16153
566.784	6228.76322
566.988	5804.77178
567.193	6064.68669
567.397	5969.08084
567.602	6222.53514
567.806	6129.08863
568.011	6245.37039
568.215	6120.77997
568.42	6172.70292
568.624	6137.39691
568.828	6232.91515
569.033	6116.6255
569.237	6419.65539
569.442	6112.47094
569.646	6054.29717
569.85	6261.97607
570.055	6280.65567
570.259	6394.76762
570.463	6297.25816
570.668	6288.9571
570.872	6272.35386
571.076	6374.02524
571.281	6432.09802
571.485	6351.20594
571.689	6390.61933
571.893	6104.16153
572.098	6351.20594
572.302	6270.27835
572.506	6595.84805
572.71	6307.63396
572.914	6546.1165
573.119	6425.87681
573.323	6544.04406
573.527	6477.71384
573.731	6544.04406
573.935	6676.63348
574.139	6718.04834
574.343	6477.71384
574.547	6666.27833
574.751	6585.48841
574.955	6647.63762
575.159	6602.06356
575.364	6676.63348
575.568	6622.78042
575.772	6639.35225
575.976	6602.06356
576.18	6730.47101
576.383	6705.62485
576.587	6776.01373
576.791	6606.20712
576.995	6902.23355
577.199	6761.52407
577.403	6980.81961
577.607	6937.3945
577.811	6991.15746
578.015	6747.03328
578.219	7044.90518
578.422	6711.8367
578.626	7098.63775
578.83	6908.4389
579.034	7080.03973
579.238	6817.40661
579.442	7152.35522
579.645	6974.61663
579.849	7220.51345
580.053	6997.35989
580.257	7131.69644
580.46	6984.95482
580.664	7247.35704
580.868	6891.89084
581.071	7305.16136
581.275	7234.96815
581.479	7296.90465
581.682	7088.30574
581.886	7321.67371
582.09	6972.54893
582.293	7073.83999
582.497	7313.41771
582.7	7505.27956
582.904	7239.09787
583.107	7480.53373
583.311	7152.35522
583.515	7422.78136
583.718	7069.70671
583.922	7461.97232
584.125	7317.54576
584.329	7391.8356
584.532	7251.48649
584.735	7385.64586
584.939	7154.42098
585.142	7684.59457
585.346	7344.37591
585.549	7571.25329
585.753	7713.43483
585.956	7563.00778
586.159	7548.5773
586.363	7709.31505
586.566	7758.74692
586.769	7773.16227
586.973	7505.27956
587.176	7684.59457
587.379	7540.33084
587.582	7729.91313
587.786	7983.09908
587.989	7672.23318
588.192	7583.62093
588.395	7869.92459
588.599	7447.53445
588.802	7841.10657
589.005	7721.67415
589.208	8055.08702
589.411	7659.87104
589.615	7867.86629
589.818	7806.1078
590.021	7752.5686
590.224	7900.79653
590.427	7849.34071
590.63	7966.6412
590.833	7923.43301
591.036	7787.5766
591.239	8096.21184
591.442	7983.09908
591.645	8038.63483
591.848	7978.98474
592.051	7913.14401
592.254	7785.51747
592.457	8244.19488
592.66	7941.95191
592.863	8219.5382
593.066	7941.95191
593.269	8149.66209
593.472	8063.31263
593.675	8281.17458
593.878	8007.78347
594.081	8205.15382
594.284	8079.76288
594.486	8424.92436
594.689	8221.59303
594.892	8266.79434
595.095	8203.09883
595.298	8441.34687
595.5	8168.16094
595.703	8439.29412
595.906	8322.25567
596.109	8287.33724
596.311	8318.14792
596.514	8367.43586
596.717	8252.41314
596.92	8722.39425
597.122	8402.3414
597.325	8353.06137
597.528	8254.46766
597.73	8513.18095
597.933	8396.182
598.136	8621.91408
598.338	8330.47095
598.541	8681.3873
598.743	8740.84497
598.946	8558.32188
599.148	8431.08294
599.351	8787.99009
599.554	8582.94035
599.756	8400.28829
599.959	8580.88892
600.161	8691.63973
600.363	8611.65849
600.566	8738.79496
600.768	8548.06338
600.971	8679.33676
601.173	8769.54315
601.376	8861.76316
601.578	8843.32208
601.78	9035.85769
601.983	8796.18825
602.185	8757.24437
602.388	8513.18095
602.59	8900.68954
602.792	8541.90805
602.995	8964.18719
603.197	9160.71825
603.399	9150.48618
603.601	8831.02722
603.804	8894.5437
604.006	8746.99488
604.208	8878.154
604.41	8966.23521
604.613	8923.22292
604.815	8671.13441
605.017	9279.37923
605.219	8744.94493
605.421	9029.71535
605.623	8919.1261
605.826	9140.25369
606.028	8876.10521
606.23	9220.05583
606.432	9179.13489
606.634	9256.87891
606.836	8927.31966
607.038	9224.14756
607.24	8925.2713
607.442	9203.68827
607.644	8919.1261
607.846	8992.85797
608.048	8785.9405
608.25	8999.00126
608.452	8999.00126
608.654	9211.87219
608.856	9023.57285
609.058	9393.89519
609.26	9293.69657
609.462	9226.19339
609.664	9363.22634
609.866	9293.69657
610.067	8976.47509
610.269	9232.3308
610.471	9074.75558
610.673	9469.52935
610.875	9213.91812
611.077	9383.67265
611.278	9170.94988
611.48	9242.55947
611.682	9314.14848
611.884	9710.59552
612.085	9326.41884
612.287	9412.29473
612.489	9367.31573
612.69	9301.87753
612.892	9132.06739
613.094	9263.01557
613.295	9340.7335
613.497	9522.66449
613.699	9265.06108
613.9	9375.49432
614.102	9215.96404
614.304	9514.49056
614.505	9260.97003
614.707	9536.96827
614.908	8917.07766
615.11	9230.28501
615.311	9385.71719
615.513	9121.83413
615.714	9275.28842
615.916	9567.61659
616.117	9240.51377
616.319	9643.20066
616.52	9518.57756
616.722	9267.10658
616.923	9655.45552
617.124	9459.30982
617.326	9271.19753
617.527	9410.2504
617.729	9099.31944
617.93	9297.78708
618.131	9379.58352
618.333	9340.7335
618.534	9338.6886
618.735	9524.70794
618.937	9418.42762
619.138	9612.56105
619.339	9181.1811
619.54	9604.38989
619.742	9250.74211
619.943	9622.77464
620.144	9545.1415
620.345	9622.77464
620.546	9561.48721
620.748	9726.93115
620.949	9402.07293
621.15	9694.25892
621.351	9514.49056
621.552	9449.08987
621.753	9226.19339
621.954	9228.23921
622.155	9353.00257
622.356	9737.14043
622.558	9539.0116
622.759	9800.42945
622.96	9475.66089
623.161	9520.62104
623.362	9755.51616
623.563	9649.32816
623.764	9461.35376
623.965	9933.08559
624.166	9555.35769
624.366	9704.46941
624.567	9418.42762
624.768	9520.62104
624.969	9420.47188
625.17	9818.80097
625.371	9679.96358
625.572	9794.30534
625.773	9594.1756
625.973	10063.64062
626.174	9914.72154
626.375	9739.18223
626.576	9818.80097
626.777	9794.30534
626.977	9857.58131
627.178	9931.0452
627.379	9771.84911
627.58	9724.88925
627.78	9481.79227
627.981	9882.07139
628.182	9653.41308
628.382	9816.75975
628.583	9841.2534
628.784	9784.09819
628.984	9888.19358
629.185	10245.09762
629.386	9765.72437
629.586	10065.68008
629.787	9975.93046
629.987	9996.33054
630.188	9775.93219
630.388	10063.64062
630.589	9489.96723
630.79	9992.25064
630.99	9829.00684
631.191	10075.87715
631.391	9963.68972
631.591	9818.80097
631.792	9694.25892
631.992	10281.78356
632.193	9941.24701
632.393	10330.69138
632.594	9906.55935
632.794	10124.8182
632.994	9645.24317
633.195	9963.68972
633.395	9873.90827
633.595	10102.38789
633.796	9849.41747
633.996	10033.04706
634.196	10004.49017
634.397	10424.41003
634.597	10090.15246
634.797	10196.17618
634.997	10031.00737
635.198	10306.23843
635.398	9867.78577
635.598	10310.31406
635.798	10177.8286
635.998	10261.40302
636.199	10440.70611
636.399	10526.24699
636.599	10481.44268
636.799	10128.89626
636.999	9949.4082
637.199	10245.09762
637.399	9945.32764
637.599	10073.83776
637.799	9794.30534
637.999	10245.09762
638.199	10073.83776
638.399	10041.20565
638.599	10365.32978
638.799	10367.36721
638.999	10399.96436
639.199	10550.68312
639.399	10249.17405
639.599	10463.11186
639.799	10220.63788
639.999	10499.77246
640.199	10326.61602
640.399	10452.92762
640.599	9990.21067
640.799	10477.36925
640.998	10257.32675
641.198	10569.00903
641.398	10328.65371
641.598	10493.66265
641.798	10226.753
641.997	10601.58593
642.197	10485.51605
642.397	10693.1915
642.597	10285.85951
642.796	10613.80144
642.996	10469.22225
643.196	10511.99174
643.395	10477.36925
643.595	10365.32978
643.795	10589.36996
643.994	10577.15355
644.194	10518.10121
644.394	10799.01634
644.593	10373.47943
644.793	10581.22574
644.992	10426.44709
645.192	10658.58786
645.392	10538.46528
645.591	10961.76201
645.791	10803.08588
645.99	10754.24823
646.19	10359.2174
646.389	10662.65906
646.589	10526.24699
646.788	10860.0546
646.987	10497.73587
647.187	10967.86355
647.386	10676.90787
647.586	10807.15538
647.785	10579.18965
647.984	10862.08903
648.184	10740.00262
648.383	10689.12067
648.582	10762.38831
648.782	10599.54996
648.981	10762.38831
649.18	10799.01634
649.38	10558.8281
649.579	10644.33828
649.778	10786.80742
649.977	11071.57449
650.177	10817.32892
650.376	10772.56315
650.575	10888.53555
650.774	10837.67512
650.973	10674.87237
651.173	10855.98571
651.372	10868.19225
651.571	10766.45828
651.77	10898.70678
651.969	10945.49073
652.168	10794.94675
652.367	10927.18468
652.566	10731.86202
652.765	10851.91677
652.964	10748.14304
653.163	10752.21318
653.362	10544.57426
653.561	10729.82683
653.76	10595.478
653.959	10912.94601
654.158	10990.23501
654.357	11169.15893
654.556	10711.50966
654.755	10860.0546
654.954	10805.12064
655.153	11079.70747
655.352	11100.03917
655.551	11041.07425
655.749	11057.34135
655.948	11016.67228
656.147	10817.32892
656.346	11059.37469
656.545	11152.89657
656.743	11112.23768
656.942	11059.37469
657.141	11063.44133
657.34	10813.25954
657.538	11303.29796
657.737	11087.84028
657.936	11319.5542
658.135	10886.50128
658.333	11063.44133
658.532	10996.33609
658.731	11071.57449
658.929	11039.04081
659.128	10937.35482
659.326	10937.35482
659.525	11104.10538
659.724	11118.33678
659.922	11217.94198
660.121	10778.66791
660.319	11122.4028
660.518	10921.08246
660.716	10839.70968
660.915	11043.10767
661.113	11307.36208
661.312	11110.20462
661.51	11378.47769
661.709	11163.06062
661.907	11152.89657
662.105	11112.23768
662.304	11197.61644
662.502	11063.44133
662.701	11274.84797
662.899	11067.50793
663.097	11179.32256
663.296	10904.80937
663.494	11356.12839
663.692	10894.63832
663.891	10933.2868
664.089	11026.83996
664.287	11161.02783
664.485	11028.87346
664.684	11380.50938
664.882	11100.03917
665.08	11260.62223
665.278	10959.72814
665.476	11079.70747
665.675	11008.53793
665.873	11569.41471
666.071	11238.26648
666.269	11421.14122
666.467	11014.63871
666.665	11518.64182
666.863	10919.04836
667.061	10998.36976
667.259	11047.17449
667.457	11480.05047
667.655	11014.63871
667.853	11429.26712
668.051	11262.65451
668.249	11417.07821
668.447	11258.58994
668.645	11242.33125
668.843	11469.89428
669.041	11398.7942
669.239	11106.13847
669.437	11331.74595
669.635	11264.68678
669.833	11356.12839
670.031	11083.7739
670.229	11295.16959
670.426	11287.04107
670.624	11289.07321
670.822	11100.03917
671.02	10998.36976
671.218	11236.23408
671.415	11043.10767
671.613	11114.27072
671.811	11396.76259
672.009	11386.60441
672.206	11415.0467
672.404	11032.94043
672.602	11461.76916
672.799	11102.07228
672.997	11120.3698
673.195	10878.36404
673.392	11246.39599
673.59	11179.32256
673.788	11209.81189
673.985	11201.68163
674.183	11146.798
674.38	11341.90548
674.578	11272.81576
674.775	11112.23768
674.973	11144.76513
675.17	11246.39599
675.368	11049.20789
675.565	11209.81189
675.763	11252.49301
675.96	11106.13847
676.158	11240.29887
676.355	11095.97292
676.553	11222.00696
676.75	11075.641
676.947	11433.33001
677.145	10978.03256
677.342	11148.83087
677.539	11307.36208
677.737	11299.2338
677.934	11161.02783
678.131	11429.26712
678.329	11063.44133
678.526	11154.9294
678.723	11217.94198
678.92	11291.10535
679.118	11150.86372
679.315	11195.58383
679.512	11132.56766
679.709	11158.99503
679.906	11100.03917
680.104	11392.69935
680.301	11106.13847
680.498	10941.4228
680.695	10921.08246
680.892	11120.3698
681.089	11063.44133
681.286	10914.98014
681.483	10821.39826
681.68	11181.35526
681.877	10845.81328
682.075	11079.70747
682.272	11004.4707
682.469	11230.1368
682.665	10961.76201
682.862	11185.42062
683.059	10827.50217
683.256	10998.36976
683.453	11179.32256
683.65	11104.10538
683.847	10925.15062
684.044	10815.29424
684.241	11014.63871
684.438	11307.36208
684.635	10737.96749
684.831	11026.83996
685.028	10792.91193
685.225	11032.94043
685.422	10839.70968
685.619	11148.83087
685.815	11030.90695
686.012	11043.10767
686.209	10617.87318
686.405	11124.43579
686.602	10843.77876
686.799	10813.25954
686.996	10803.08588
687.192	10713.54495
687.389	10564.93669
687.586	10951.59254
687.782	10933.2868
687.979	11311.42616
688.175	10626.01651
688.372	10975.99878
688.568	10884.46698
688.765	10957.69426
688.962	10640.26686
689.158	10689.12067
689.355	10742.03775
689.551	10845.81328
689.748	11142.73224
689.944	10902.77519
690.14	10921.08246
690.337	10896.67255
690.533	10955.66036
690.73	10774.59808
690.926	10654.51662
691.123	10874.29536
691.319	10613.80144
691.515	10780.7028
691.712	10479.40597
691.908	10835.64056
692.104	10697.26229
692.301	10843.77876
692.497	10770.5282
692.693	10794.94675
692.889	10623.9807
693.086	10882.43268
693.282	10623.9807
693.478	10664.69464
693.674	10823.4329
693.87	10927.18468
694.067	10558.8281
694.263	10731.86202
694.459	10479.40597
694.655	10886.50128
694.851	10408.11313
695.047	10623.9807
695.243	10754.24823
695.439	10495.69926
695.635	10469.22225
695.831	10591.40599
696.027	10664.69464
696.224	10546.61056
696.42	10731.86202
696.615	10699.29766
696.811	10591.40599
697.007	10699.29766
697.203	10699.29766
697.399	10831.57139
697.595	10611.76555
697.791	10695.2269
697.987	10599.54996
698.183	10876.32971
698.379	10479.40597
698.575	10719.65074
698.77	10689.12067
698.966	10888.53555
699.162	10599.54996
699.358	10660.62347
699.554	10709.47435
699.749	10721.68599
699.945	10652.48097
700.141	10644.33828
700.337	10346.99228
700.532	10465.14867
700.728	10387.74083
700.924	10404.03877
701.119	10408.11313
701.315	10349.02983
701.511	10632.12388
701.706	10786.80742
701.902	10281.78356
702.097	10534.39257
702.293	10342.91713
702.489	10493.66265
702.684	10711.50966
702.88	10713.54495
703.075	10355.14241
703.271	10550.68312
703.466	10638.23114
703.662	10511.99174
703.857	10171.7125
704.053	10611.76555
704.248	10550.68312
704.443	10595.478
704.639	10314.38963
704.834	10361.25487
705.03	10230.82968
705.225	10518.10121
705.42	10232.86799
705.616	10454.96449
705.811	10310.31406
706.006	10505.88216
706.202	10110.54457
706.397	10465.14867
706.592	10153.36343
706.787	10267.51733
706.983	10128.89626
707.178	10575.11744
707.373	10391.81539
707.568	10251.21225
707.763	10173.75121
707.959	10371.44204
708.154	10452.92762
708.349	10241.02113
708.544	10595.478
708.739	10569.00903
708.934	10269.5554
709.129	10491.62602
709.324	10434.59518
709.519	10664.69464
709.714	10526.24699
709.909	10495.69926
710.104	10377.55418
710.299	10391.81539
710.494	10346.99228
710.689	10222.67627
710.884	10061.60115
711.079	10271.59346
711.274	10355.14241
711.469	10493.66265
711.664	10402.00158
711.859	10623.9807
712.054	10377.55418
712.249	10457.00135
712.443	10402.00158
712.638	10375.51681
712.833	10218.59948
713.028	10514.02824
713.223	10340.87954
713.417	10171.7125
713.612	10153.36343
713.807	10330.69138
714.002	10112.5837
714.196	10200.25327
714.391	9984.09067
714.586	10039.16602
714.78	9943.28733
714.975	9943.28733
715.17	10077.91652
715.364	10318.46515
715.559	10196.17618
715.754	10220.63788
715.948	10081.99523
716.143	10249.17405
716.337	9867.78577
716.532	10039.16602
716.726	9902.47817
716.921	10255.2886
717.115	9837.17127
717.31	10175.78991
717.504	10202.29179
717.699	10245.09762
717.893	10020.80873
718.088	10181.90594
718.282	10161.51871
718.476	10232.86799
718.671	9920.84302
718.865	9873.90827
719.059	9908.59992
719.254	9926.96437
719.448	9665.66748
719.642	9965.72988
719.837	9780.01522
720.031	9937.16633
720.225	9612.56105
720.419	9767.76596
720.614	9728.97304
720.808	9984.09067
721.002	9669.75216
721.196	9706.51146
721.39	10008.56989
721.585	9800.42945
721.779	9718.76346
721.973	9804.51211
722.167	9346.86811
722.361	9716.7215
722.555	9614.6038
722.749	9780.01522
722.943	9461.35376
723.137	9780.01522
723.331	9189.36576
723.525	9829.00684
723.719	9616.64653
723.913	9616.64653
724.107	9581.91792
724.301	9824.92454
724.495	9777.97372
724.689	9957.56916
724.883	9602.34707
725.077	9708.5535
725.271	9669.75216
725.465	9763.68275
725.659	9590.08977
725.853	9710.59552
726.046	9598.26136
726.24	9763.68275
726.434	9659.54035
726.628	9780.01522
726.822	9857.58131
727.015	9953.48871
727.209	9549.22802
727.403	9794.30534
727.596	9763.68275
727.79	9728.97304
727.984	9449.08987
728.177	9784.09819
728.371	9506.31637
728.565	9377.53893
728.758	9773.89066
728.952	9947.36793
729.146	9637.07301
729.339	9839.21234
729.533	9489.96723
729.726	9700.38526
729.92	9252.78773
730.113	9575.78887
730.307	9449.08987
730.5	9612.56105
730.694	9344.82326
730.887	9451.13389
731.081	9539.0116
731.274	9322.32879
731.468	9440.91363
731.661	9567.61659
731.854	9336.64368
732.048	9498.14193
732.241	9389.80622
732.435	9694.25892
732.628	9473.61706
732.821	9653.41308
733.014	9522.66449
733.208	9669.75216
733.401	9592.13269
733.594	9645.24317
733.788	9712.63753
733.981	9616.64653
734.174	9406.1617
734.367	9579.87492
734.56	9543.09822
734.754	9769.80754
734.947	9471.57321
735.14	9808.59472
735.333	9706.51146
735.526	9816.75975
735.719	9526.75137
735.912	9635.03044
736.105	9641.15812
736.298	9359.13688
736.491	9308.01308
736.684	9418.42762
736.877	9628.90261
737.07	9530.83817
737.263	9322.32879
737.456	9532.88155
737.649	9381.62809
737.842	9632.98784
738.035	9545.1415
738.228	9440.91363
738.421	9461.35376
738.614	9581.91792
738.807	9767.76596
739	9559.44405
739.192	9416.38334
739.385	9379.58352
739.578	9207.78026
739.771	9632.98784
739.964	9326.41884
740.156	9526.75137
740.349	9463.39768
740.542	9759.59949
740.735	9318.23867
740.927	9361.18162
741.12	9467.48548
741.313	9434.78128
741.505	9455.22189
741.698	9414.33904
741.891	9322.32879
742.083	9447.04584
742.276	9565.57348
742.468	9305.96792
742.661	9275.28842
742.854	9447.04584
743.046	9138.20714
743.239	9156.62547
743.431	9252.78773
743.624	9297.78708
743.816	9395.93965
744.009	9252.78773
744.201	9230.28501
744.393	9256.87891
744.586	9312.10337
744.778	9260.97003
744.971	9440.91363
745.163	9359.13688
745.355	9238.46806
745.548	9281.42462
745.74	9248.69648
745.932	9211.87219
746.125	9121.83413
746.317	9301.87753
746.509	9545.1415
746.702	9506.31637
746.894	9168.90359
747.086	9099.31944
747.278	9258.92448
747.471	9172.99616
747.663	9154.57906
747.855	9236.42232
748.047	9189.36576
748.239	9410.2504
748.431	9084.99082
748.623	9375.49432
748.815	9148.43972
749.008	9287.56067
749.2	9064.5199
749.392	9310.05823
749.584	9119.78742
749.776	9336.64368
749.968	9113.64721
750.16	9367.31573
750.352	9213.91812
750.544	9213.91812
750.736	9134.11399
750.928	9289.60598
751.12	9170.94988
751.311	9115.69396
751.503	9166.85728
751.695	9195.50408
751.887	8703.94203
752.079	8939.60947
752.271	8646.52558
752.463	9183.22729
752.654	8978.52301
752.846	9164.81095
753.038	9072.70848
753.23	8884.30027
753.421	9062.47271
753.613	9109.55364
753.805	9041.99988
753.997	9050.18922
754.188	9076.80266
754.38	8773.6426
754.572	8824.87955
754.763	9031.76281
754.955	8921.17452
755.146	8878.154
755.338	9095.22563
755.53	8738.79496
755.721	8908.88374
755.913	8714.19345
756.104	8611.65849
756.296	8863.81207
756.487	8806.43555
756.679	8695.74057
756.87	8654.72882
757.062	8660.88106
757.253	8626.01618
757.445	8533.70069
757.636	8935.51294
757.827	8621.91408
758.019	8728.54465
758.21	8730.59475
758.401	8619.86299
758.593	9031.76281
758.784	8562.42514
758.975	8792.08921
759.167	8548.06338
759.358	8896.59233
759.549	8605.50491
759.74	8502.92036
759.932	8525.49302
760.123	8513.18095
760.314	8541.90805
760.505	8548.06338
760.696	8418.7656
760.888	8387.96921
761.079	8572.68298
761.27	8437.24136
761.461	8410.55365
761.652	8529.59689
761.843	8439.29412
762.034	8607.55612
762.225	8355.11493
762.416	8402.3414
762.607	8155.82855
762.798	8363.32896
762.989	8334.57848
763.18	8589.09455
763.371	8375.64943
763.562	8509.07677
763.753	8192.82357
763.944	8379.7561
764.135	8188.71334
764.326	8431.08294
764.517	8285.28304
764.708	8124.99443
764.899	8094.15579
765.089	8188.71334
765.28	8096.21184
765.471	8205.15382
765.662	8075.65044
765.853	7939.89434
766.043	7911.08615
766.234	8005.72655
766.425	7894.62251
766.615	7843.16514
766.806	7935.77913
766.997	8096.21184
767.187	7931.66384
767.378	8079.76288
767.569	7880.21575
767.759	8112.65952
767.95	7795.81289
768.141	7939.89434
768.331	7736.09215
768.522	8046.86109
768.712	8030.40824
768.903	8096.21184
769.093	7865.80798
769.284	7836.98938
769.474	7841.10657
769.665	7869.92459
769.855	7775.22152
770.046	8024.23809
770.236	7707.25512
770.426	7801.9899
770.617	7960.46915
770.807	7812.28449
770.998	7694.89514
771.188	7970.75579
771.378	7620.71921
771.569	7628.96234
771.759	7488.78268
771.949	7589.80445
772.139	7554.76192
772.33	7560.94634
772.52	7560.94634
772.71	7935.77913
772.9	7441.34647
773.09	7657.81061
773.281	7651.62919
773.471	7869.92459
773.661	7472.28443
773.851	7602.17093
774.041	7552.7004
774.231	7659.87104
774.421	7431.03274
774.611	7563.00778
774.802	7232.90326
774.992	7449.59707
775.182	7402.1514
775.372	7367.07546
775.562	7226.70846
775.752	7391.8356
775.942	7191.60079
776.131	7393.8988
776.321	6991.15746
776.511	7449.59707
776.701	7226.70846
776.891	7156.48671
777.081	7241.1627
777.271	7321.67371
777.461	7158.55242
777.651	7626.90159
777.84	7329.92936
778.03	7282.45458
778.22	6933.25826
778.41	7379.45592
778.599	7113.10163
778.789	7189.53543
778.979	7263.87432
779.169	7276.26136
779.358	7117.23397
779.548	7257.68051
779.738	7150.28944
779.927	6995.29244
780.117	6856.7214
780.307	7201.92724
780.496	6972.54893
780.686	7181.27378
780.875	6848.44529
781.065	7040.77128
781.254	6902.23355
781.444	6862.92825
781.633	6854.65241
781.823	7065.57335
782.012	6842.23796
782.202	6914.64404
782.391	7032.50321
782.581	6900.16505
782.77	7001.49474
782.96	6989.08993
783.149	6651.78016
783.338	6842.23796
783.528	6713.90727
783.717	6786.36281
783.906	6678.70445
784.096	6742.89285
784.285	6794.64166
784.474	6614.49396
784.663	6529.53635
784.853	6438.31902
785.042	6566.8396
785.231	6833.96121
785.42	6519.17301
785.61	6444.53982
785.799	6452.83388
785.988	6531.60895
786.177	6463.20094
786.366	6670.42046
786.555	6510.88192
786.744	6734.61171
786.933	6602.06356
787.122	6668.34941
787.312	6409.28589
787.501	6570.98394
787.69	6512.95473
787.879	6566.8396
788.068	6394.76762
788.257	6394.76762
788.445	6224.61119
788.634	6610.35058
788.823	6510.88192
789.012	6438.31902
789.201	6560.62291
789.39	6336.68309
789.579	6423.80303
789.768	6278.58025
789.957	6100.00668
790.145	6411.35984
790.334	6230.8392
790.523	6409.28589
790.712	6454.90734
790.9	6560.62291
791.089	6282.73106
791.278	6415.50766
791.467	6162.3195
791.655	6311.78412
791.844	6110.39362
792.033	6154.01235
792.221	6160.24275
792.41	6388.54515
792.599	6048.06317
792.787	6079.23104
792.976	6166.47294
793.164	6124.93435
793.353	6170.62628
793.541	6228.76322
793.73	6072.99789
793.918	6388.54515
794.107	5989.86896
794.295	6288.9571
794.484	6162.3195
794.672	6230.8392
794.861	6160.24275
795.049	6247.44619
795.238	5956.60684
795.426	6216.30685
795.614	5975.31753
795.803	6178.93268
795.991	5717.35763
796.179	5952.44865
796.368	5937.89424
796.556	6029.3599
796.744	5706.94841
796.932	6104.16153
797.121	5725.68458
797.309	6066.76453
797.497	5723.60288
797.685	5979.4752
797.874	5873.42512
798.062	5939.97351
798.25	5690.29244
798.438	6066.76453
798.626	5923.33868
798.814	6008.57626
799.002	5754.82594
799.19	5873.42512
799.378	5763.15119
799.566	5788.12468
799.755	5711.11217
799.943	5796.44842
800.131	5804.77178
800.318	5823.49797
800.506	5867.18497
800.694	6054.29717
800.882	5765.23244
801.07	5835.98103
801.258	5811.01406
801.446	5954.52776
801.634	5638.23277
801.822	5825.57854
802.01	5831.8201
802.197	5921.25922
802.385	5734.01116
802.573	5892.1443
802.761	5879.66506
802.949	5863.02475
803.136	5659.05841
803.324	5734.01116
803.512	5496.55592
803.699	5534.06922
803.887	5692.37451
804.075	5852.62379
804.262	5304.70233
804.45	5396.48319
804.638	5638.23277
804.825	5554.90664
805.013	5569.49144
805.201	5829.7396
805.388	5773.55722
805.576	5944.13199
805.763	5731.92955
805.951	5846.38293
806.138	5579.90844
806.326	5529.90145
806.513	5671.55265
806.701	5865.10487
806.888	5654.89347
807.075	6064.68669
807.263	5679.88168
807.45	5954.52776
807.638	5423.59157
807.825	5873.42512
808.012	5725.68458
808.2	5786.04368
808.387	5939.97351
808.574	6066.76453
808.761	5917.10023
808.949	5723.60288
809.136	5686.1282
809.323	5969.08084
809.51	5634.06736
809.698	5956.60684
809.885	5671.55265
810.072	5838.06146
810.259	5619.48768
810.446	5987.79026
810.633	5773.55722
810.82	6041.82896
811.008	5794.36752
811.195	5971.15976
811.382	5806.85256
811.569	6014.8116
811.756	5767.31367
811.943	6000.26214
812.13	5996.10494
812.317	6135.31988
812.504	5823.49797
812.691	6029.3599
812.878	5796.44842
813.064	5921.25922
813.251	5665.30564
813.438	6050.14119
813.625	5788.12468
813.812	5748.58175
813.999	5825.57854
814.186	5871.34509
814.372	5750.66317
814.559	5721.52116
814.746	5417.33614
814.933	5781.88162
815.12	5592.40807
815.306	5631.98462
815.493	5473.62737
815.68	5579.90844
815.866	5496.55592
816.053	5638.23277
816.24	5840.14186
816.426	5954.52776
816.613	5611.15592
816.799	5821.41737
816.986	5654.89347
817.173	5967.0019
817.359	5469.45824
817.546	5804.77178
817.732	5484.04979
817.919	5875.50512
818.105	5852.62379
818.292	5906.70234
818.478	5758.98861
818.665	6039.75084
818.851	5971.15976
819.037	5871.34509
819.224	5702.78456
819.41	5840.14186
819.597	5529.90145
819.783	5856.78425
819.969	5613.23889
820.156	5783.96266
820.342	5679.88168
820.528	5896.30385
820.714	5631.98462
820.901	5640.31544
821.087	5371.45655
821.273	5773.55722
821.459	5613.23889
821.646	5758.98861
821.832	5561.15741
822.018	5709.0303
822.204	5419.42131
822.39	5667.388
822.576	5494.47163
822.762	5317.22057
822.948	5496.55592
823.134	5702.78456
823.32	5642.39809
823.507	5629.90185
823.693	5473.62737
823.879	5486.13421
824.065	5415.25095
824.25	5521.56564
824.436	5421.50645
824.622	5540.3207
824.808	5438.18675
824.994	5506.97705
825.18	5402.73933
825.366	5463.20437
825.552	5375.62789
825.738	5546.57196
825.923	5509.0612
826.109	5446.52633
826.295	5102.20738
826.481	5550.73935
826.667	5081.31916
826.852	5298.44289
827.038	5273.40303
827.224	5221.22585
827.409	5206.61362
827.595	5479.8809
827.781	5219.13846
827.966	5481.96536
828.152	5198.26326
828.338	5214.9636
828.523	5033.26747
828.709	5187.82479
828.894	5020.73023
829.08	5346.42653
829.266	4978.93344
829.451	5177.38574
829.637	5064.60692
829.822	5039.53578
830.008	5039.53578
830.193	5235.83693
830.378	5045.80387
830.564	5321.39314
830.749	5047.89319
830.935	5313.04792
831.12	4807.47055
831.305	5100.11866
831.491	4861.85349
831.676	5037.44636
831.861	5020.73023
832.047	4928.76513
832.232	4861.85349
832.417	5072.96323
832.602	4786.54994
832.788	4805.37859
832.973	4786.54994
833.158	4937.12744
833.343	4857.67074
833.528	5095.94116
833.714	4914.13022
833.899	5150.24147
834.084	4855.57932
834.269	4870.21873
834.454	4694.47231
834.639	4753.07223
834.824	4715.40289
835.009	4773.99648
835.194	4694.47231
835.379	5106.38475
835.564	4694.47231
835.749	4861.85349
835.934	4711.21695
836.119	4614.91562
836.304	4564.65264
836.489	4723.77448
836.674	4332.02097
836.859	4637.94852
837.044	4573.0307
837.228	4631.66709
837.413	4514.37686
837.598	4845.12192
837.783	4510.18664
837.968	4822.11363
838.152	4455.7057
838.337	4671.44608
838.522	4491.32954
838.707	4788.6421
838.891	4411.69102
839.076	4694.47231
839.261	4317.3415
839.445	4773.99648
839.63	4371.85992
839.815	4635.85473
839.999	4468.27954
840.184	4503.90114
840.368	4342.50566
840.553	4625.38545
840.737	4545.80072
840.922	4606.53935
841.106	4172.58765
841.291	4468.27954
841.475	4218.75207
841.66	4623.29153
841.844	4350.89303
842.029	4478.75714
842.213	4348.79622
842.397	4503.90114
842.582	4168.39038
842.766	4432.65159
842.951	4229.24255
843.135	4453.60998
843.319	4214.55573
843.504	4172.58765
843.688	4283.78445
843.872	4510.18664
844.056	4363.47342
844.241	4652.60441
844.425	4313.14717
844.609	4350.89303
844.793	4260.7108
844.977	4392.82463
845.161	4065.53099
845.346	4258.61306
845.53	4149.50161
845.714	4399.11363
845.898	3924.80619
846.082	4178.8834
846.266	3966.82319
846.45	4193.57275
846.634	3912.19951
846.818	3771.37617
847.002	3826.03459
847.186	3952.11816
847.37	3878.57817
847.554	3924.80619
847.738	3666.22685
847.922	3876.47667
848.106	3687.26056
848.29	3960.52116
848.473	3762.966
848.657	3889.08539
848.841	3838.64618
849.025	3823.93259
849.209	3691.46708
849.392	3844.95171
849.576	3830.23853
849.76	3741.93923
849.944	3579.96885
850.127	4073.92955
850.311	3537.88037
850.495	3790.29789
850.678	3502.09937
850.862	3720.91051
851.046	3598.90624
851.229	3483.15436
851.413	3497.8895
851.596	3569.44742
851.78	3624.15373
851.964	3638.88019
852.147	3558.92553
852.331	3518.93815
852.514	3518.93815
852.698	3737.73364
852.881	3478.94416
853.065	3701.98302
853.248	3443.15452
853.431	3731.42511
853.615	3539.98497
853.798	3413.67681
853.982	3419.99376
854.165	3516.83337
854.348	3478.94416
854.532	3546.29866
854.715	3468.41833
854.898	3502.09937
855.081	3106.06554
855.265	3371.55978
855.448	3217.77395
855.631	3274.6642
855.814	3097.63288
855.997	3365.24162
856.181	3226.2029
856.364	3504.20428
856.547	3224.09569
856.73	3403.14822
856.913	3181.94793
857.096	3428.4161
857.279	3316.79719
857.462	3417.88813
857.645	3019.6189
857.828	3346.2862
858.011	3055.46581
858.194	3295.73155
858.377	2812.88803
858.56	3051.24876
858.743	2865.63869
858.926	3181.94793
859.109	3152.4406
859.292	3314.6907
859.475	3061.79127
859.658	3125.0381
859.841	3184.05548
860.023	3299.94482
860.206	3034.37993
860.389	3089.19997
860.572	2785.45425
860.755	3091.30822
860.937	2848.75943
861.12	2996.42148
861.303	2964.78569
861.486	3072.33339
861.668	2781.23347
861.851	2966.89485
862.034	2950.02117
862.216	3009.07485
862.399	2620.80455
862.581	2947.91189
862.764	2654.58522
862.947	2895.17519
863.129	2603.91303
863.312	2764.34978
863.494	2755.90761
863.677	2886.73648
863.859	2601.80153
864.042	2629.25002
864.224	2551.12205
864.406	2770.68126
864.589	2430.73166
864.771	2802.33685
864.954	2354.67753
865.136	2692.58462
865.318	2504.65991
865.501	2591.24388
865.683	2606.02451
865.865	2739.02264
866.048	2532.11549
866.23	2515.21998
866.412	2481.42678
866.594	2639.80657
866.777	2451.85539
866.959	2686.25167
867.141	2204.64483
867.323	2405.38178
867.505	2287.06296
867.687	2669.36325
867.869	2329.32323
868.052	2694.69557
868.234	2508.88397
868.416	2616.58174
868.598	2373.69231
868.78	2510.99599
868.962	2369.46688
869.144	2631.36135
869.326	2384.25572
869.508	2485.65109
869.69	2329.32323
869.872	2532.11549
870.054	2325.09738
870.236	2380.03039
870.417	2293.40225
870.599	2420.16939
870.781	2363.12865
870.963	2456.08
871.145	2236.34572
871.327	2601.80153
871.508	2170.82842
871.69	2422.28187
871.872	2111.64469
872.054	2426.50679
872.235	2270.1578
872.417	2333.54905
872.599	2415.94441
872.78	2489.87535
872.962	2189.85041
873.144	2496.21166
873.325	2236.34572
873.507	2523.66783
873.689	2196.19093
873.87	2627.13867
874.052	2325.09738
874.233	2312.41958
874.415	2236.34572
874.596	2553.23383
874.778	2210.98516
874.959	2346.22626
875.141	2261.705
875.322	2519.44393
875.503	2219.43882
875.685	2466.64135
875.866	2227.89234
876.048	2297.62839
876.229	2090.50617
876.41	2299.74145
876.592	2168.71482
876.773	2210.98516
876.954	2067.25295
877.136	2320.87149
877.317	2134.89618
877.498	2342.00056
877.679	2177.16916
877.86	2314.53257
878.042	2189.85041
878.223	2371.5796
878.404	2301.85449
878.585	2346.22626
878.766	2185.62336
878.947	2468.75359
879.128	2082.05056
879.309	2500.43581
879.49	2354.67753
879.672	2396.93148
879.853	2280.7236
880.034	2348.33909
880.215	2325.09738
880.396	2430.73166
880.576	2035.54261
880.757	2342.00056
880.938	2039.77074
881.119	2316.64555
881.3	2130.66871
881.481	2401.15665
881.662	2168.71482
881.843	2270.1578
882.023	2103.18938
882.204	2413.83191
882.385	2312.41958
882.566	2375.80501
882.747	2122.21367
882.927	2312.41958
883.108	2031.31444
883.289	2303.96753
883.469	2058.79701
883.65	2363.12865
883.831	2067.25295
884.011	2316.64555
884.192	2204.64483
884.373	2365.2414
884.553	2215.21201
884.734	2451.85539
884.914	2308.19358
885.095	2437.06889
885.275	2314.53257
885.456	2348.33909
885.636	2314.53257
885.817	2460.30458
885.997	2194.07743
886.178	2561.68084
886.358	2253.25205
886.538	2348.33909
886.719	2236.34572
886.899	2363.12865
887.08	2331.43614
887.26	2546.89845
887.44	2244.79895
887.621	2568.01597
887.801	2320.87149
887.981	2420.16939
888.161	2384.25572
888.342	2517.33196
888.522	2375.80501
888.702	2375.80501
888.882	2257.47854
889.062	2384.25572
889.242	2194.07743
889.423	2367.35414
889.603	2196.19093
889.783	2325.09738
889.963	1993.25977
890.143	2422.28187
890.323	2242.68566
890.503	2308.19358
890.683	2274.38415
890.863	2333.54905
891.043	2092.62006
891.223	2380.03039
891.403	2265.93142
891.583	2582.79754
891.763	2246.91224
891.943	2413.83191
892.122	2350.45191
892.302	2502.54787
892.482	2179.28272
892.662	2329.32323
892.842	2221.55221
893.022	2388.48102
893.201	2141.23733
893.381	2367.35414
893.561	2090.50617
893.741	2261.705
893.92	2198.30441
894.1	2356.79032
894.28	2018.62979
894.459	2246.91224
894.639	2122.21367
894.819	2263.81821
894.998	2153.91942
895.178	2120.09989
895.357	2039.77074
895.537	2177.16916
895.716	2196.19093
895.896	2160.26036
896.075	2115.87231
896.255	2177.16916
896.434	2117.9861
896.614	2413.83191
896.793	2069.36691
896.973	2314.53257
897.152	1872.74027
897.331	2010.17322
897.511	1950.97438
897.69	1991.14556
897.87	1923.48759
898.049	2079.93663
898.228	2008.05906
898.407	1936.17392
898.587	1925.60199
898.766	2071.48087
898.945	1883.31288
899.124	2079.93663
899.304	1868.51119
899.483	2008.05906
899.662	1775.46669
899.841	2058.79701
900.02	1883.31288
900.199	1982.68866
900.378	1648.57585
900.557	1824.10468
900.737	1712.02272
900.916	1783.92563
901.095	1621.08147
901.274	1881.19837
901.453	1712.02272
901.632	1756.43384
901.811	1593.58674
901.989	1805.07269
902.168	1485.72039
902.347	1868.51119
902.526	1403.23343
902.705	1604.16167
902.884	1451.87957
903.063	1574.55174
903.242	1441.30431
903.42	1445.53442
903.599	1327.09245
903.778	1458.22473
903.957	1399.00334
904.135	1466.68494
904.314	1339.7825
904.493	1506.87086
904.672	1424.3839
904.85	1352.4726
905.029	1358.81767
905.207	1561.86167
905.386	1331.32246
905.565	1365.16275
905.743	1240.37905
905.922	1333.43747
906.1	1238.26414
906.279	1348.24256
906.457	1043.70879
906.636	1217.11521
906.814	1090.22941
906.993	1052.16689
907.171	910.50712
907.35	1185.39243
907.528	1130.40827
907.707	1272.10301
907.885	1098.68797
908.063	1136.75245
908.242	1056.39597
908.42	1170.58874
908.598	1081.77092
908.777	1170.58874
908.955	1162.12957
909.133	1257.29842
909.311	868.22692
909.49	1094.45868
909.668	999.30532
909.846	1100.80262
910.024	1088.11478
910.202	984.50478
910.38	973.93315
910.559	959.13317
910.737	897.82273
910.915	1166.35914
911.093	1045.82331
911.271	1039.47978
911.449	1020.4495
911.627	1113.49065
911.805	889.36662
911.983	1153.67046
912.161	918.96355
912.339	1155.78523
912.517	1111.37596
912.695	1225.57474
912.872	1060.62508
913.05	1215.00033
913.228	1109.26129
913.406	1039.47978
913.584	1111.37596
913.762	1153.67046
913.939	1020.4495
914.117	1185.39243
914.295	1005.64851
914.473	967.59026
914.65	1043.70879
914.828	1240.37905
915.006	1028.90734
915.184	1176.93315
915.361	992.96219
915.539	1086.00015
915.716	1047.93783
915.894	1069.08335
916.072	1037.36528
916.249	990.84783
916.427	946.44774
916.604	1052.16689
916.782	914.73532
916.959	1035.25078
917.137	891.48064
917.314	1047.93783
917.492	876.6827
917.669	976.04747
917.847	855.54351
918.024	959.13317
918.201	840.74658
918.379	844.97423
918.556	870.34086
918.733	904.16489
918.911	781.56332
919.088	980.27611
919.265	747.74772
919.442	950.67619
919.62	817.49515
919.797	984.50478
919.974	836.51897
920.151	866.113
920.328	866.113
920.506	823.83634
920.683	766.76868
920.86	832.29139
921.037	673.78553
921.214	815.38144
921.391	743.52096
921.568	790.01762
921.745	794.24483
921.922	891.48064
922.099	713.93477
922.276	726.61431
922.453	830.17761
922.63	773.10918
922.807	790.01762
922.984	707.59515
923.161	587.16227
923.338	756.20138
923.514	612.51326
923.691	713.93477
923.868	701.25563
924.045	697.02933
924.222	608.28796
924.399	796.35845
924.575	614.62592
924.752	832.29139
924.929	568.15026
925.105	781.56332
925.282	551.2516
925.459	741.40759
925.635	606.17534
925.812	713.93477
925.989	606.17534
926.165	654.76892
926.342	513.23285
926.518	595.61239
926.695	601.95012
926.871	604.06272
927.048	582.93728
927.224	572.37505
927.401	559.70082
927.577	633.64047
927.754	422.42952
927.93	629.41493
928.107	426.6523
928.283	654.76892
928.459	481.5541
928.636	570.26265
928.812	458.32515
928.988	553.36388
929.165	580.82481
929.341	504.78487
929.517	468.88354
929.693	646.31739
929.87	422.42952
930.046	517.45693
930.222	413.98415
930.398	386.5385
930.574	498.44903
930.751	517.45693
930.927	483.66592
931.103	437.20952
931.279	262.01407
931.455	403.4278
931.631	388.64961
931.807	468.88354
931.983	437.20952
932.159	318.99213
932.335	333.76638
932.511	468.88354
932.687	297.88759
932.863	371.76124
933.039	441.43252
933.215	384.42741
933.391	359.09566
933.566	359.09566
933.742	257.79401
933.918	293.6669
934.094	285.22573
934.27	274.6747
934.445	255.68401
934.621	262.01407
934.797	148.10019
934.973	200.83082
935.148	264.12413
935.324	264.12413
935.5	190.28367
935.675	249.35413
935.851	236.69488
936.027	281.00526
936.202	173.40929
936.378	308.43963
936.553	213.48807
936.729	171.30008
936.904	89.05761
937.08	135.44678
937.255	67.97517
937.431	200.83082
937.606	80.62436
937.782	63.75895
937.957	118.57677
938.133	97.49122
938.308	-3.68787
938.483	46.895
938.659	114.35949
938.834	175.51851
939.009	99.59967
939.185	84.84094
939.36	82.73264
939.535	131.22915
939.71	131.22915
939.886	177.62776
940.061	122.79415
940.236	135.44678
940.411	101.70815
940.586	25.81715
940.761	118.57677
940.937	133.33796
941.112	80.62436
941.287	65.86705
941.462	105.92518
941.637	40.5714
941.812	120.68545
941.987	116.46812
942.162	44.78711
942.337	57.4348
942.512	23.70949
942.687	61.65088
942.862	97.49122
943.037	0.52684
943.212	91.16598
943.386	21.60186
943.561	70.08331
943.736	30.03253
943.911	118.57677
944.086	25.81715
944.26	118.57677
944.435	118.57677
944.61	101.70815
944.785	21.60186
944.959	95.38278
945.134	148.10019
945.309	89.05761
945.483	72.19148
945.658	42.67924
945.833	135.44678
946.007	108.03372
946.182	101.70815
946.357	59.54283
946.531	55.32679
946.706	122.79415
946.88	61.65088
947.055	91.16598
947.229	-5.79519
947.404	89.05761
947.578	-3.68787
947.752	116.46812
947.927	44.78711
948.101	23.70949
948.276	84.84094
948.45	-24.75999
948.624	4.74166
948.799	36.35578
948.973	118.57677
949.147	40.5714
949.321	30.03253
949.496	32.14026
949.67	30.03253
949.844	70.08331
950.018	55.32679
950.193	57.4348
950.367	70.08331
950.541	13.17157
950.715	86.94927
950.889	30.03253
951.063	21.60186
951.237	124.90287
951.411	129.12037
951.585	97.49122
951.759	70.08331
951.933	55.32679
952.107	46.895
952.281	40.5714
952.455	13.17157
952.629	15.2791
952.803	65.86705
952.977	30.03253
953.151	51.11085
953.325	74.29967
953.499	72.19148
953.672	57.4348
953.846	67.97517
954.02	-22.65289
954.194	8.95656
954.368	76.40788
954.541	97.49122
954.715	40.5714
954.889	46.895
955.062	118.57677
955.236	122.79415
955.41	97.49122
955.583	95.38278
955.757	97.49122
955.93	122.79415
956.104	105.92518
956.278	30.03253
956.451	133.33796
956.625	21.60186
956.798	46.895
956.972	127.01161
957.145	34.24801
957.319	110.14229
957.492	51.11085
957.665	21.60186
957.839	114.35949
958.012	89.05761
958.185	65.86705
958.359	84.84094
958.532	63.75895
958.705	114.35949
958.879	89.05761
959.052	57.4348
959.225	17.38667
959.398	78.51611
959.572	99.59967
959.745	116.46812
959.918	114.35949
960.091	86.94927
960.264	72.19148
960.438	51.11085
960.611	49.00291
960.784	108.03372
960.957	21.60186
961.13	97.49122
961.303	63.75895
961.476	74.29967
961.649	63.75895
961.822	-18.43861
961.995	72.19148
962.168	99.59967
962.341	13.17157
962.514	76.40788
962.686	46.895
962.859	76.40788
963.032	30.03253
963.205	0.52684
963.378	72.19148
963.551	80.62436
963.723	97.49122
963.896	70.08331
964.069	122.79415
964.242	89.05761
964.414	4.74166
964.587	114.35949
964.76	46.895
964.932	38.46358
965.105	49.00291
965.278	46.895
965.45	76.40788
965.623	25.81715
965.795	70.08331
965.968	97.49122
966.14	46.895
966.313	-62.68356
966.485	40.5714
966.658	63.75895
966.83	57.4348
967.003	74.29967
967.175	108.03372
967.348	-1.58052
967.52	105.92518
967.692	4.74166
967.865	86.94927
968.037	89.05761
968.209	34.24801
968.382	89.05761
968.554	55.32679
968.726	194.50247
968.898	49.00291
969.071	-12.11701
969.243	42.67924
969.415	40.5714
969.587	44.78711
969.759	25.81715
969.932	110.14229
970.104	86.94927
970.276	30.03253
970.448	89.05761
970.62	127.01161
970.792	46.895
970.964	99.59967
971.136	30.03253
971.308	99.59967
971.48	63.75895
971.652	80.62436
971.824	93.27437
971.996	36.35578
972.168	46.895
972.339	177.62776
972.511	93.27437
972.683	82.73264
972.855	-10.00976
973.027	57.4348
973.199	44.78711
973.37	46.895
973.542	-5.79519
973.714	13.17157
973.886	51.11085
974.057	17.38667
974.229	139.6645
974.401	93.27437
974.572	65.86705
974.744	74.29967
974.915	51.11085
975.087	80.62436
975.259	55.32679
975.43	40.5714
975.602	30.03253
975.773	38.46358
975.945	32.14026
976.116	67.97517
976.288	38.46358
976.459	74.29967
976.63	19.49425
976.802	-47.93647
976.973	105.92518
977.145	67.97517
977.316	72.19148
977.487	-37.40208
977.659	46.895
977.83	55.32679
978.001	0.52684
978.172	108.03372
978.344	118.57677
978.515	53.21881
978.686	49.00291
978.857	8.95656
979.028	25.81715
979.2	80.62436
979.371	38.46358
979.542	72.19148
979.713	-7.90249
979.884	42.67924
980.055	32.14026
980.226	40.5714
980.397	65.86705
980.568	-45.82964
980.739	46.895
980.91	-3.68787
981.081	19.49425
981.252	21.60186
981.423	84.84094
981.594	32.14026
981.765	78.51611
981.936	25.81715
982.106	17.38667
982.277	65.86705
982.448	-7.90249
982.619	-10.00976
982.79	-39.50901
982.96	-3.68787
983.131	46.895
983.302	36.35578
983.472	46.895
983.643	46.895
983.814	55.32679
983.984	13.17157
984.155	72.19148
984.326	105.92518
984.496	70.08331
984.667	80.62436
984.837	13.17157
985.008	8.95656
985.178	49.00291
985.349	30.03253
985.519	-45.82964
985.69	19.49425
985.86	59.54283
986.031	25.81715
986.201	34.24801
986.371	23.70949
986.542	57.4348
986.712	57.4348
986.882	4.74166
987.053	42.67924
987.223	23.70949
987.393	59.54283
987.563	59.54283
987.734	-50.04327
987.904	97.49122
988.074	30.03253
988.244	55.32679
988.414	-18.43861
988.585	13.17157
988.755	38.46358
988.925	34.24801
989.095	114.35949
989.265	65.86705
989.435	55.32679
989.605	49.00291
989.775	34.24801
989.945	8.95656
990.115	19.49425
990.285	-18.43861
990.455	6.8491
990.625	27.92483
990.795	89.05761
990.965	2.63424
991.134	21.60186
991.304	38.46358
991.474	-10.00976
991.644	8.95656
991.814	63.75895
991.984	-3.68787
992.153	-28.97412
992.323	61.65088
992.493	27.92483
992.662	-28.97412
992.832	57.4348
993.002	30.03253
993.171	6.8491
993.341	44.78711
993.511	6.8491
993.68	-12.11701
993.85	38.46358
994.019	114.35949
994.189	49.00291
994.358	55.32679
994.528	51.11085
994.697	46.895
994.867	-33.18815
995.036	42.67924
995.206	-54.2568
995.375	38.46358
995.544	-10.00976
995.714	89.05761
995.883	38.46358
996.052	23.70949
996.222	36.35578
996.391	36.35578
996.56	65.86705
996.73	13.17157
996.899	-24.75999
997.068	-7.90249
997.237	59.54283
997.406	0.52684
997.576	-52.15005
997.745	57.4348
997.914	42.67924
998.083	-22.65289
998.252	72.19148
998.421	46.895
998.59	19.49425
998.759	13.17157
998.928	-28.97412
999.097	34.24801
999.266	32.14026
999.435	6.8491
999.604	38.46358
999.773	38.46358
999.942	63.75895
1000.111	-1.58052
1000.28	30.03253
1000.448	-1.58052
1000.617	4.74166
1000.786	-54.2568
1000.955	-45.82964
1001.124	-1.58052
1001.292	133.33796
1001.461	-37.40208
1001.63	72.19148
1001.798	38.46358
1001.967	46.895
1002.136	-41.61591
1002.304	2.63424
1002.473	25.81715
1002.642	42.67924
1002.81	-28.97412
1002.979	-35.29512
1003.147	-10.00976
1003.316	91.16598
1003.484	-26.86706
1003.653	-12.11701
1003.821	46.895
1003.99	-62.68356
1004.158	-45.82964
1004.327	-18.43861
1004.495	63.75895
1004.663	8.95656
1004.832	-12.11701
1005	42.67924
1005.168	4.74166
1005.337	15.2791
1005.505	0.52684
1005.673	76.40788
1005.842	105.92518
1006.01	21.60186
1006.178	-47.93647
1006.346	15.2791
1006.514	-102.70506
1006.683	-43.72279
1006.851	23.70949
1007.019	-7.90249
1007.187	57.4348
1007.355	-5.79519
1007.523	2.63424
1007.691	55.32679
1007.859	4.74166
1008.027	6.8491
1008.195	-7.90249
1008.363	74.29967
1008.531	4.74166
1008.699	17.38667
1008.867	-66.89679
1009.035	-33.18815
1009.203	46.895
1009.37	80.62436
1009.538	21.60186
1009.706	6.8491
1009.874	32.14026
1010.042	19.49425
1010.209	34.24801
1010.377	57.4348
1010.545	30.03253
1010.713	40.5714
1010.88	44.78711
1011.048	53.21881
1011.216	23.70949
1011.383	30.03253
1011.551	-12.11701
1011.718	0.52684
1011.886	2.63424
1012.054	15.2791
1012.221	-35.29512
1012.389	27.92483
1012.556	4.74166
1012.724	-12.11701
1012.891	-56.36353
1013.058	-10.00976
1013.226	4.74166
1013.393	21.60186
1013.561	13.17157
1013.728	17.38667
1013.895	-35.29512
1014.063	-20.54576
1014.23	-41.61591
1014.397	-52.15005
1014.565	38.46358
1014.732	13.17157
1014.899	11.06405
1015.066	65.86705
1015.233	11.06405
1015.401	42.67924
1015.568	-12.11701
1015.735	15.2791
1015.902	44.78711
1016.069	-24.75999
1016.236	49.00291
1016.403	38.46358
1016.57	-79.53586
1016.737	-20.54576
1016.904	-41.61591
1017.071	72.19148
1017.238	-35.29512
1017.405	4.74166
1017.572	-52.15005
1017.739	25.81715
1017.906	-3.68787
1018.073	-24.75999
1018.24	40.5714
1018.407	-16.33143
1018.573	4.74166
1018.74	-28.97412
1018.907	-24.75999
1019.074	-7.90249
1019.241	55.32679
1019.407	-20.54576
1019.574	-3.68787
1019.741	-28.97412
1019.907	-134.2943
1020.074	38.46358
1020.241	13.17157
1020.407	-41.61591
1020.574	-24.75999
1020.74	4.74166
1020.907	-3.68787
1021.073	-20.54576
1021.24	8.95656
1021.406	-54.2568
1021.573	25.81715
1021.739	23.70949
1021.906	-43.72279
1022.072	4.74166
1022.239	-79.53586
1022.405	137.55563
1022.571	30.03253
1022.738	-37.40208
1022.904	21.60186
1023.07	63.75895
1023.237	15.2791
1023.403	46.895
1023.569	21.60186
1023.735	89.05761
1023.902	36.35578
1024.068	8.95656
1024.234	8.95656
1024.4	-24.75999
1024.566	-24.75999
1024.732	21.60186
1024.898	-92.17399
1025.065	-24.75999
1025.231	4.74166
1025.397	4.74166
1025.563	-3.68787
1025.729	44.78711
1025.895	-77.42941
1026.061	17.38667
1026.227	-1.58052
1026.392	-37.40208
1026.558	-20.54576
1026.724	-7.90249
1026.89	63.75895
1027.056	-62.68356
1027.222	-3.68787
1027.388	13.17157
1027.553	-7.90249
1027.719	46.895
1027.885	21.60186
1028.051	-79.53586
1028.216	13.17157
1028.382	63.75895
1028.548	-79.53586
1028.713	4.74166
1028.879	51.11085
1029.045	-60.57691
1029.21	4.74166
1029.376	42.67924
1029.541	8.95656
1029.707	67.97517
1029.873	21.60186
1030.038	2.63424
1030.204	74.29967
1030.369	51.11085
1030.534	49.00291
1030.7	-43.72279
1030.865	17.38667
1031.031	13.17157
1031.196	4.74166
1031.361	74.29967
1031.527	21.60186
1031.692	-3.68787
1031.857	-24.75999
1032.023	40.5714
1032.188	-5.79519
1032.353	4.74166
1032.518	17.38667
1032.684	-35.29512
1032.849	-54.2568
1033.014	46.895
1033.179	4.74166
1033.344	15.2791
1033.509	15.2791
1033.674	-1.58052
1033.839	-14.22423
1034.004	15.2791
1034.17	-3.68787
1034.335	17.38667
1034.5	-45.82964
1034.664	63.75895
1034.829	0.52684
1034.994	-10.00976
1035.159	21.60186
1035.324	13.17157
1035.489	-20.54576
1035.654	-7.90249
1035.819	13.17157
1035.984	2.63424
1036.148	-3.68787
1036.313	13.17157
1036.478	6.8491
1036.643	-7.90249
1036.807	13.17157
1036.972	21.60186
1037.137	-26.86706
1037.301	-18.43861
1037.466	-18.43861
1037.631	-3.68787
1037.795	76.40788
1037.96	17.38667
1038.124	-12.11701
1038.289	-35.29512
1038.454	-16.33143
1038.618	-16.33143
1038.783	40.5714
1038.947	8.95656
1039.111	55.32679
1039.276	21.60186
1039.44	65.86705
1039.605	-35.29512
1039.769	-71.10991
1039.933	-28.97412
1040.098	74.29967
1040.262	-52.15005
1040.426	-41.61591
1040.591	-7.90249
1040.755	-56.36353
1040.919	17.38667
1041.083	-14.22423
1041.248	-18.43861
1041.412	-39.50901
1041.576	13.17157
1041.74	0.52684
1041.904	44.78711
1042.068	-1.58052
1042.232	-14.22423
1042.397	-58.47023
1042.561	21.60186
1042.725	0.52684
1042.889	-3.68787
1043.053	-45.82964
1043.217	15.2791
1043.381	6.8491
1043.544	-3.68787
1043.708	4.74166
1043.872	-10.00976
1044.036	-52.15005
1044.2	19.49425
1044.364	0.52684
1044.528	38.46358
1044.691	23.70949
1044.855	-12.11701
1045.019	30.03253
1045.183	19.49425
1045.346	-16.33143
1045.51	15.2791
1045.674	49.00291
1045.837	15.2791
1046.001	72.19148
1046.165	51.11085
1046.328	-18.43861
1046.492	-5.79519
1046.655	51.11085
1046.819	-12.11701
1046.983	-18.43861
1047.146	4.74166
1047.31	-54.2568
1047.473	-26.86706
1047.636	-75.32294
1047.8	-18.43861
1047.963	-24.75999
1048.127	-20.54576
1048.29	-50.04327
