Data from mixed_try6.1_USB4F045381__30__00314.txt Node

Date: Thu Apr 03 20:34:25 EDT 2025
User: mmckonesweet
Spectrometer: USB4F04538
Trigger mode: 4
Integration Time (sec): 2.700000E-3
Scans to average: 1
Electric dark correction enabled: true
Nonlinearity correction enabled: true
Boxcar width: 0
XAxis mode: Wavelengths
Number of Pixels in Spectrum: 3648
>>>>>Begin Spectral Data<<<<<
345.52	-35.99745
345.736	-35.99745
345.952	-35.99745
346.168	-17.03383
346.384	4.03918
346.6	4.03918
346.816	1.93177
347.032	-6.49763
347.248	-44.42508
347.464	-0.17561
347.68	8.25407
347.896	48.30027
348.112	39.86879
348.328	12.46906
348.544	31.43768
348.76	-27.56942
348.975	-67.59898
349.191	-23.35526
349.407	31.43768
349.623	-63.38577
349.839	48.30027
350.055	-21.24814
350.27	6.14661
350.486	-6.49763
350.702	-2.28298
350.918	39.86879
351.133	-6.49763
351.349	-27.56942
351.565	6.14661
351.781	-21.24814
351.996	8.25407
352.212	-33.89048
352.428	-8.60492
352.644	-27.56942
352.859	-33.89048
353.075	-78.13156
353.291	-35.99745
353.506	-57.06577
353.722	-29.67646
353.938	-17.03383
354.153	25.11459
354.369	27.22227
354.584	-33.89048
354.8	-2.28298
355.016	31.43768
355.231	-33.89048
355.447	-25.46235
355.662	-35.99745
355.878	-10.71218
356.093	12.46906
356.309	14.57659
356.524	-44.42508
356.74	-19.141
356.955	-10.71218
357.171	-8.60492
357.386	-21.24814
357.602	-29.67646
357.817	12.46906
358.033	12.46906
358.248	-2.28298
358.464	25.11459
358.679	-42.31821
358.895	-12.81942
359.11	8.25407
359.325	14.57659
359.541	20.89932
359.756	-8.60492
359.972	23.00695
360.187	27.22227
360.402	-10.71218
360.618	8.25407
360.833	-6.49763
361.048	37.76098
361.264	-48.63874
361.479	-90.7698
361.694	-23.35526
361.909	-4.39031
362.125	58.84015
362.34	23.00695
362.555	-23.35526
362.77	8.25407
362.986	-31.78348
363.201	-67.59898
363.416	39.86879
363.631	31.43768
363.847	33.54542
364.062	-35.99745
364.277	-21.24814
364.492	-29.67646
364.707	16.68414
364.922	-61.27913
365.138	-2.28298
365.353	-25.46235
365.568	-42.31821
365.783	14.57659
365.998	-73.91861
366.213	-52.8523
366.428	14.57659
366.643	8.25407
366.858	8.25407
367.073	16.68414
367.288	23.00695
367.503	-17.03383
367.718	6.14661
367.933	-19.141
368.148	-2.28298
368.363	1.93177
368.578	-27.56942
368.793	-27.56942
369.008	-65.49239
369.223	-44.42508
369.438	-8.60492
369.653	-76.0251
369.868	-27.56942
370.083	14.57659
370.298	-8.60492
370.513	23.00695
370.728	-2.28298
370.943	60.94819
371.157	23.00695
371.372	23.00695
371.587	10.36155
371.802	1.93177
372.017	-42.31821
372.232	-99.19478
372.446	16.68414
372.661	-103.40711
372.876	20.89932
373.091	-33.89048
373.306	-6.49763
373.52	-59.17246
373.735	-61.27913
373.95	69.38059
374.165	58.84015
374.379	-40.21131
374.594	14.57659
374.809	-27.56942
375.023	14.57659
375.238	1.93177
375.453	-23.35526
375.667	33.54542
375.882	-2.28298
376.097	6.14661
376.311	-2.28298
376.526	-25.46235
376.741	-10.71218
376.955	6.14661
377.17	-0.17561
377.384	-14.92664
377.599	-6.49763
377.813	18.79172
378.028	8.25407
378.242	37.76098
378.457	-44.42508
378.672	-25.46235
378.886	-19.141
379.101	33.54542
379.315	-19.141
379.53	58.84015
379.744	-78.13156
379.958	-25.46235
380.173	-33.89048
380.387	-27.56942
380.602	-124.46718
380.816	23.00695
381.031	-2.28298
381.245	-31.78348
381.459	4.03918
381.674	-76.0251
381.888	33.54542
382.103	50.4082
382.317	14.57659
382.531	25.11459
382.746	-10.71218
382.96	27.22227
383.174	-101.30096
383.388	65.16435
383.603	35.65319
383.817	-25.46235
384.031	-19.141
384.246	-19.141
384.46	-27.56942
384.674	-40.21131
384.888	-2.28298
385.103	65.16435
385.317	-73.91861
385.531	-35.99745
385.745	-29.67646
385.959	39.86879
386.174	6.14661
386.388	-76.0251
386.602	10.36155
386.816	14.57659
387.03	14.57659
387.244	-19.141
387.458	14.57659
387.672	4.03918
387.887	-54.95905
388.101	-25.46235
388.315	18.79172
388.529	-35.99745
388.743	-35.99745
388.957	41.97663
389.171	-40.21131
389.385	73.59693
389.599	6.14661
389.813	39.86879
390.027	35.65319
390.241	50.4082
390.455	-25.46235
390.669	14.57659
390.883	-54.95905
391.097	-33.89048
391.311	-42.31821
391.525	-25.46235
391.738	20.89932
391.952	-10.71218
392.166	23.00695
392.38	10.36155
392.594	-4.39031
392.808	60.94819
393.022	-42.31821
393.236	31.43768
393.449	-42.31821
393.663	31.43768
393.877	16.68414
394.091	-6.49763
394.305	-25.46235
394.518	-31.78348
394.732	-2.28298
394.946	14.57659
395.16	46.19237
395.373	1.93177
395.587	-27.56942
395.801	-21.24814
396.015	-27.56942
396.228	-27.56942
396.442	-14.92664
396.656	1.93177
396.869	4.03918
397.083	14.57659
397.297	-23.35526
397.51	20.89932
397.724	-25.46235
397.938	25.11459
398.151	-67.59898
398.365	18.79172
398.578	48.30027
398.792	41.97663
399.005	-52.8523
399.219	56.73213
399.433	-14.92664
399.646	6.14661
399.86	-33.89048
400.073	-25.46235
400.287	-40.21131
400.5	-48.63874
400.714	16.68414
400.927	-14.92664
401.141	-44.42508
401.354	6.14661
401.567	33.54542
401.781	6.14661
401.994	6.14661
402.208	109.43943
402.421	37.76098
402.635	-6.49763
402.848	-48.63874
403.061	-38.10439
403.275	-35.99745
403.488	-33.89048
403.701	-35.99745
403.915	-6.49763
404.128	35.65319
404.341	6.14661
404.555	31.43768
404.768	-25.46235
404.981	25.11459
405.195	-19.141
405.408	98.89685
405.621	14.57659
405.834	58.84015
406.048	141.07043
406.261	10.36155
406.474	-2.28298
406.687	6.14661
406.9	-8.60492
407.114	12.46906
407.327	6.14661
407.54	-73.91861
407.753	-2.28298
407.966	-57.06577
408.179	10.36155
408.392	1.93177
408.605	39.86879
408.819	-2.28298
409.032	-27.56942
409.245	10.36155
409.458	-4.39031
409.671	-25.46235
409.884	-6.49763
410.097	-0.17561
410.31	-6.49763
410.523	-6.49763
410.736	16.68414
410.949	6.14661
411.162	20.89932
411.375	-2.28298
411.588	111.54801
411.801	-25.46235
412.014	14.57659
412.227	-48.63874
412.44	31.43768
412.653	39.86879
412.865	-2.28298
413.078	1.93177
413.291	16.68414
413.504	6.14661
413.717	8.25407
413.93	48.30027
414.143	23.00695
414.356	-10.71218
414.568	-61.27913
414.781	-12.81942
414.994	23.00695
415.207	25.11459
415.42	-86.55716
415.632	-19.141
415.845	-12.81942
416.058	20.89932
416.271	-50.74553
416.483	41.97663
416.696	73.59693
416.909	-14.92664
417.121	33.54542
417.334	31.43768
417.547	48.30027
417.759	60.94819
417.972	39.86879
418.185	-35.99745
418.397	-23.35526
418.61	75.70514
418.823	-40.21131
419.035	-35.99745
419.248	-67.59898
419.46	69.38059
419.673	41.97663
419.885	12.46906
420.098	-59.17246
420.311	-10.71218
420.523	14.57659
420.736	-42.31821
420.948	-19.141
421.161	63.05626
421.373	-25.46235
421.586	44.08449
421.798	-27.56942
422.01	41.97663
422.223	44.08449
422.435	-19.141
422.648	39.86879
422.86	25.11459
423.073	-14.92664
423.285	6.14661
423.497	-19.141
423.71	-44.42508
423.922	-31.78348
424.134	-76.0251
424.347	-4.39031
424.559	25.11459
424.771	-35.99745
424.984	-19.141
425.196	-40.21131
425.408	-8.60492
425.621	90.46319
425.833	-2.28298
426.045	-21.24814
426.257	-61.27913
426.47	48.30027
426.682	16.68414
426.894	-40.21131
427.106	71.48875
427.318	-4.39031
427.531	-27.56942
427.743	71.48875
427.955	-4.39031
428.167	-50.74553
428.379	25.11459
428.591	-52.8523
428.804	-52.8523
429.016	8.25407
429.228	6.14661
429.44	14.57659
429.652	-35.99745
429.864	-33.89048
430.076	33.54542
430.288	23.00695
430.5	-10.71218
430.712	-23.35526
430.924	14.57659
431.136	1.93177
431.348	-63.38577
431.56	37.76098
431.772	23.00695
431.984	-8.60492
432.196	-8.60492
432.408	-2.28298
432.62	52.51615
432.832	-25.46235
433.044	-48.63874
433.256	52.51615
433.468	-38.10439
433.679	54.62413
433.891	48.30027
434.103	82.02988
434.315	-54.95905
434.527	1.93177
434.739	14.57659
434.95	16.68414
435.162	111.54801
435.374	60.94819
435.586	1.93177
435.798	18.79172
436.009	-2.28298
436.221	37.76098
436.433	48.30027
436.645	-42.31821
436.856	6.14661
437.068	33.54542
437.28	-48.63874
437.491	14.57659
437.703	20.89932
437.915	77.81336
438.126	23.00695
438.338	96.7884
438.55	82.02988
438.761	-8.60492
438.973	-63.38577
439.184	-10.71218
439.396	35.65319
439.608	-10.71218
439.819	14.57659
440.031	46.19237
440.242	-2.28298
440.454	12.46906
440.665	1.93177
440.877	94.67998
441.088	6.14661
441.3	23.00695
441.511	58.84015
441.723	14.57659
441.934	-35.99745
442.146	-42.31821
442.357	10.36155
442.569	14.57659
442.78	6.14661
442.991	31.43768
443.203	-17.03383
443.414	18.79172
443.626	115.76524
443.837	-2.28298
444.048	6.14661
444.26	50.4082
444.471	10.36155
444.682	50.4082
444.894	-2.28298
445.105	75.70514
445.316	-78.13156
445.528	-109.72541
445.739	14.57659
445.95	56.73213
446.161	-25.46235
446.373	10.36155
446.584	33.54542
446.795	52.51615
447.006	126.30869
447.217	6.14661
447.429	14.57659
447.64	25.11459
447.851	39.86879
448.062	48.30027
448.273	71.48875
448.484	-2.28298
448.695	65.16435
448.907	92.57157
449.118	73.59693
449.329	60.94819
449.54	27.22227
449.751	-44.42508
449.962	50.4082
450.173	25.11459
450.384	-23.35526
450.595	50.4082
450.806	35.65319
451.017	-2.28298
451.228	-4.39031
451.439	86.24649
451.65	50.4082
451.861	27.22227
452.072	27.22227
452.283	58.84015
452.494	1.93177
452.705	1.93177
452.915	-27.56942
453.126	27.22227
453.337	41.97663
453.548	58.84015
453.759	44.08449
453.97	56.73213
454.181	35.65319
454.391	-33.89048
454.602	10.36155
454.813	23.00695
455.024	67.27246
455.235	65.16435
455.445	-17.03383
455.656	14.57659
455.867	35.65319
456.078	-23.35526
456.288	103.11382
456.499	23.00695
456.71	75.70514
456.921	-103.40711
457.131	82.02988
457.342	77.81336
457.553	35.65319
457.763	20.89932
457.974	48.30027
458.184	124.19996
458.395	16.68414
458.606	50.4082
458.816	109.43943
459.027	94.67998
459.237	25.11459
459.448	-19.141
459.659	90.46319
459.869	39.86879
460.08	73.59693
460.29	25.11459
460.501	92.57157
460.711	69.38059
460.922	79.92161
461.132	145.28826
461.343	67.27246
461.553	31.43768
461.764	73.59693
461.974	-2.28298
462.184	35.65319
462.395	130.52622
462.605	98.89685
462.816	166.37868
463.026	115.76524
463.236	65.16435
463.447	88.35483
463.657	166.37868
463.867	149.50617
464.078	128.41744
464.288	82.02988
464.498	132.63502
464.709	109.43943
464.919	109.43943
465.129	77.81336
465.339	141.07043
465.55	82.02988
465.76	153.72418
465.97	35.65319
466.18	109.43943
466.391	117.87389
466.601	119.98255
466.811	195.90876
467.021	115.76524
467.231	92.57157
467.441	107.33087
467.651	141.07043
467.862	86.24649
468.072	115.76524
468.282	174.81543
468.492	210.67529
468.702	183.25252
468.912	200.12766
469.122	132.63502
469.332	141.07043
469.542	242.32113
469.752	174.81543
469.962	149.50617
470.172	176.92467
470.382	240.21127
470.592	219.11374
470.802	191.68993
471.012	149.50617
471.222	267.64093
471.432	252.87071
471.642	212.78487
471.852	269.75104
472.062	328.84154
472.272	309.84661
472.482	352.0595
472.691	309.84661
472.901	335.1735
473.111	280.30186
473.321	212.78487
473.531	360.50292
473.741	328.84154
473.95	402.72406
474.16	385.8348
474.37	392.16815
474.58	299.2945
474.79	411.16909
474.999	387.9459
475.209	512.52884
475.419	428.0599
475.628	501.96892
475.838	394.2793
476.048	525.20123
476.258	387.9459
476.467	622.37247
476.677	565.33375
476.886	626.59793
477.096	654.06461
477.306	613.9217
477.515	529.42547
477.725	594.90821
477.935	706.89075
478.144	643.50026
478.354	639.27461
478.563	702.6644
478.773	770.29117
478.982	747.04326
479.192	719.57007
479.401	825.2455
479.611	835.81437
479.82	801.99481
480.03	888.66195
480.239	954.19992
480.449	909.80243
480.658	1104.32706
480.868	1070.49307
481.077	1087.4099
481.287	1026.08805
481.496	1104.32706
481.705	1007.05811
481.915	1273.51298
482.124	1205.83591
482.333	1275.62793
482.543	1275.62793
482.752	1267.16813
482.961	1243.9039
483.171	1349.65257
483.38	1332.73246
483.589	1497.70566
483.799	1514.62601
484.008	1506.16584
484.217	1461.74982
484.426	1620.37648
484.636	1529.43128
484.845	1764.188
485.054	1474.44013
485.263	1757.8437
485.472	1721.89199
485.682	1728.23648
485.891	1664.79029
486.1	1597.11172
486.309	1859.34812
486.518	1958.72688
486.727	1743.04018
486.936	2036.95199
487.146	1861.46268
487.355	2039.06605
487.564	1943.92658
487.773	2083.45983
487.982	1943.92658
488.191	2332.84475
488.4	2127.85038
488.609	2347.63481
488.818	2220.84775
489.027	2400.45246
489.236	2491.28343
489.445	2544.08269
489.654	2222.96114
489.863	2693.99192
490.072	2398.33988
490.281	2575.75877
490.49	2499.73179
490.698	2672.88174
490.907	2668.65955
491.116	2926.11516
491.325	2729.87626
491.534	2803.74369
491.743	2791.08188
491.952	2845.94613
492.16	2856.49587
492.369	3048.43736
492.578	2909.2392
492.787	3002.04527
492.996	2913.45828
493.204	2993.60955
493.413	3092.71372
493.622	3335.05269
493.831	3198.10535
494.039	3370.85777
494.248	3286.60258
494.457	3455.08498
494.665	3259.21374
494.874	3436.13633
495.083	3250.78583
495.291	3351.90277
495.5	3286.60258
495.709	3615.03689
495.917	3271.8551
496.126	3425.60869
496.335	3562.43288
496.543	3781.18763
496.752	3562.43288
496.96	3690.766
497.169	3724.41543
497.377	3554.01516
497.586	3734.92987
497.794	3999.73083
498.003	3554.01516
498.211	4008.13197
498.42	3825.33393
498.628	4027.03335
498.837	4090.02587
499.045	3871.57308
499.254	3898.89168
499.462	4094.2247
499.671	4169.78948
499.879	4293.57249
500.087	3997.63049
500.296	4419.37682
500.504	4081.62794
500.713	4308.25368
500.921	4251.62046
501.129	4201.26675
501.338	4077.42886
501.546	4574.427
501.754	4329.22497
501.962	4440.33659
502.171	4511.58339
502.379	4654.00015
502.587	4387.93306
502.795	4633.06298
503.004	4599.55885
503.212	4601.65302
503.42	4674.93507
503.628	4790.03686
503.837	4720.98399
504.045	4704.24019
504.253	4645.62555
504.461	5030.48149
504.669	4750.28216
504.877	4963.60564
505.085	4831.87506
505.294	4923.88695
505.502	4917.61482
505.71	4997.04652
505.918	4856.9736
506.126	5137.01592
506.334	5063.91054
506.542	5199.65501
506.75	5095.2449
506.958	5191.30435
507.166	4988.68685
507.374	5007.49558
507.582	5226.79211
507.79	5111.95442
507.998	5358.24668
508.206	5377.01832
508.414	5256.01226
508.622	5278.96774
508.83	5414.55589
509.037	5543.79364
509.245	5256.01226
509.453	5458.34009
509.661	5356.16083
509.869	5622.95914
510.077	5422.89653
510.285	5572.96384
510.492	5510.45063
510.7	5683.352
510.908	5631.29037
511.116	5658.36426
511.324	5752.05077
511.531	5866.4916
511.739	5625.04198
511.947	5658.36426
512.155	5689.5984
512.362	5964.22994
512.57	5697.92661
512.778	5949.67647
512.985	5670.85855
513.193	6051.52653
513.401	6122.16478
513.608	6039.05813
513.816	6074.38305
514.024	5851.93037
514.231	5935.12184
514.439	6080.61616
514.646	6051.52653
514.854	6122.16478
515.061	6063.99408
515.269	6055.68247
515.477	6369.18502
515.684	6242.60263
515.892	6188.62301
516.099	6570.29322
516.307	6111.7785
516.514	6487.38848
516.722	6452.14272
516.929	6362.96169
517.136	6396.15036
517.344	6634.51896
517.551	6292.41592
517.759	6472.87633
517.966	6410.66853
518.173	6450.06923
518.381	6831.20221
518.588	6636.59039
518.796	6628.30453
519.003	6682.156
519.21	6503.97239
519.418	6882.92671
519.625	6702.86396
519.832	6713.21708
520.039	6547.49811
520.247	6781.53331
520.454	6744.273
520.661	7025.61288
520.868	6874.65174
521.076	6951.18133
521.283	6816.71681
521.49	6938.77323
521.697	6924.29609
521.904	7002.873
522.112	6762.90408
522.319	7238.40959
522.526	6955.31718
522.733	7339.56051
522.94	7250.79826
523.147	7100.01531
523.354	7300.34499
523.561	7312.72969
523.768	7240.47442
523.975	7514.9021
524.183	7254.92764
524.39	7483.97083
524.597	7432.40794
524.804	7599.42289
525.011	7238.40959
525.218	7539.64362
525.425	7712.74821
525.632	7702.44855
525.838	7481.90858
526.045	7669.48611
526.252	7558.19773
526.459	7628.27543
526.666	7578.81138
526.873	7793.0675
527.08	7720.98755
527.287	7900.11054
527.494	7926.86256
527.701	7943.32362
527.907	7863.06352
528.114	7801.30357
528.321	8056.45798
528.528	8089.35827
528.735	8114.0301
528.941	8062.62717
529.148	7762.17924
529.355	7984.47052
529.562	7702.44855
529.768	8151.03243
529.975	7963.89809
530.182	8114.0301
530.388	8021.49575
530.595	8192.13854
530.802	8179.80754
531.008	8641.74022
531.215	8485.81834
531.422	8428.34582
531.628	8399.60391
531.835	8520.70507
532.042	8142.81025
532.248	8734.01154
532.455	8615.07707
532.661	8797.55459
532.868	8155.1434
533.074	8528.91292
533.281	8608.92358
533.487	8801.65354
533.694	8672.50149
533.9	9082.26147
534.107	8701.20825
534.313	8957.3603
534.52	8668.40023
534.726	9108.87138
534.933	8473.50406
535.139	8738.11162
535.345	8844.68814
535.552	9049.50679
535.758	9196.86813
535.965	9041.31742
536.171	8979.88828
536.377	9049.50679
536.584	8961.45645
536.79	9162.08249
536.996	9299.15057
537.203	9045.41214
537.409	9143.66457
537.615	9313.46678
537.821	8928.68523
538.028	9331.87214
538.234	9168.22149
538.44	9237.78615
538.646	9342.09676
538.853	9403.43586
539.059	9327.78218
539.265	9313.46678
539.471	9581.23692
539.677	9370.72351
539.883	9575.10786
540.09	9654.77471
540.296	9464.76029
540.502	9568.97865
540.708	9499.50435
540.914	9965.04983
541.12	9763.00221
541.326	9720.12476
541.532	9926.28423
541.738	9816.07934
541.944	9773.21014
542.15	9785.45916
542.356	9777.29321
542.562	9977.29051
542.768	9683.3673
542.974	10052.76327
543.18	9803.83167
543.386	10175.11035
543.592	9785.45916
543.798	10193.45809
544.004	9932.40546
544.21	10299.44561
544.415	10209.76626
544.621	10566.29415
544.827	10138.41151
545.033	10219.95842
545.239	10490.94714
545.445	10330.01216
545.651	10268.87604
545.856	10468.54332
546.062	10574.43873
546.268	10456.3224
546.474	10242.37997
546.679	10270.91411
546.885	10437.99015
547.091	10550.00436
547.297	10277.02822
547.502	10446.13795
547.708	10507.23985
547.914	10470.58009
548.119	10474.65361
548.325	10625.33791
548.531	10476.69034
548.736	10753.56988
548.942	10645.69541
549.147	10311.67259
549.353	10452.24866
549.559	10796.30328
549.764	10706.7606
549.97	10847.16962
550.175	10836.99694
550.381	11024.1286
550.586	11158.31743
550.792	11371.7053
550.997	11083.09617
551.203	11150.18611
551.408	11123.75813
551.614	11038.363
551.819	11186.77573
552.025	11270.10612
552.23	10975.32085
552.435	11099.36147
552.641	11371.7053
552.846	11392.02214
553.052	11259.9448
553.257	11414.36952
553.462	11422.49555
553.668	11320.90885
553.873	11584.9839
554.078	11599.19877
554.283	11414.36952
554.489	11654.02337
554.694	11479.3734
554.899	11519.99584
555.105	11625.59663
555.31	11698.6904
555.515	11515.93376
555.72	11676.35742
555.925	11491.56053
556.131	11666.20572
556.336	11751.47317
556.541	11741.32309
556.746	11599.19877
556.951	11820.48792
557.156	11747.41316
557.361	11952.40077
557.567	11869.19829
557.772	11952.40077
557.977	11822.51762
558.182	11970.66289
558.387	12023.4165
558.592	12055.8776
558.797	11867.16879
559.002	12137.02172
559.207	11739.29305
559.412	11958.48821
559.617	12106.59411
559.822	12315.49693
560.027	12244.51918
560.232	12090.36535
560.437	11966.6047
560.642	12299.27421
560.847	12250.60333
561.051	12341.8579
561.256	12287.10687
561.461	12167.44763
561.666	12358.07945
561.871	12183.6741
562.076	11980.80823
562.281	12301.30207
562.485	12366.19006
562.69	12283.05104
562.895	12276.96723
563.1	12325.6359
563.305	12323.60812
563.509	12497.97243
563.714	12394.57634
563.919	12420.93384
564.123	12481.75456
564.328	12343.88561
564.533	12341.8579
564.737	12524.32557
564.942	12577.02865
565.147	12753.35125
565.351	12737.13954
565.556	12572.97472
565.761	12706.74159
565.965	12597.29794
566.17	12684.44893
566.374	12852.64008
566.579	12615.53977
566.784	12854.66624
566.988	12534.46111
567.193	13047.12789
567.397	12862.77085
567.602	13136.25275
567.806	12801.98419
568.011	13049.15356
568.215	13095.7426
568.42	13186.88783
568.624	13065.35874
568.828	13087.64034
569.033	12858.71856
569.237	12826.29944
569.442	13199.03983
569.646	12931.65652
569.85	13138.27821
570.055	13024.84522
570.259	13026.87094
570.463	13229.41911
570.668	13219.29279
570.872	13284.09933
571.076	13049.15356
571.281	13466.34489
571.485	13215.24223
571.689	13367.12635
571.893	13336.75142
572.098	13867.18242
572.302	13332.70136
572.506	13691.07257
572.71	13442.04733
572.914	13506.8396
573.119	13523.03707
573.323	13668.80414
573.527	13235.49485
573.731	13612.11906
573.935	13640.46193
574.139	13638.43746
574.343	13326.62624
574.547	13411.67461
574.751	13587.82465
574.955	13759.89982
575.159	13423.82381
575.364	13711.31625
575.568	14023.03208
575.772	13802.409
575.976	13703.21882
576.18	13988.62502
576.383	13812.53004
576.587	13842.89273
576.791	13664.75529
576.995	14059.46232
577.199	13842.89273
577.403	13806.45743
577.607	13978.50516
577.811	14156.60603
578.015	13915.7606
578.219	14101.96332
578.422	14004.81666
578.626	14271.95794
578.83	14170.77241
579.034	14247.67386
579.238	13984.57708
579.442	14336.71424
579.645	14356.95022
579.849	14286.12354
580.053	14543.11408
580.257	14367.06815
580.46	14510.73861
580.664	14460.15125
580.868	14136.36818
581.071	14245.65017
581.275	14435.86901
581.479	14518.8325
581.682	14492.52726
581.886	14541.09062
582.09	14391.35101
582.293	14611.91092
582.497	14514.78556
582.7	14411.58656
582.904	14628.09822
583.107	14520.85598
583.311	14350.87944
583.515	14624.0514
583.718	14727.24404
583.922	14702.96364
584.125	14593.70012
584.329	14921.4834
584.532	14719.15059
584.735	14725.22068
584.939	14682.72988
585.142	14915.41351
585.346	14749.50097
585.549	14998.36843
585.753	15055.02026
585.956	14931.59989
586.159	14818.29451
586.363	15046.92715
586.566	15320.06908
586.769	15071.20646
586.973	14893.15718
587.176	14830.43446
587.379	14814.24785
587.582	15267.46384
587.786	15061.09008
587.989	15386.83755
588.192	15184.50967
588.395	15461.69969
588.599	15403.0239
588.802	15765.20421
589.005	15583.0994
589.208	15516.32928
589.411	15386.83755
589.615	15119.76501
589.818	15546.67924
590.021	15512.28263
590.224	15380.76767
590.427	15603.33293
590.63	15390.88413
590.833	15479.90951
591.036	15680.22106
591.239	15518.35261
591.442	15459.67638
591.645	15643.80022
591.848	15789.48544
592.051	15821.86065
592.254	15405.0472
592.457	15864.35355
592.66	15364.58135
592.863	15722.71242
593.066	15712.59539
593.269	15761.15735
593.472	15637.7301
593.675	16050.51956
593.878	15878.51797
594.081	16060.63762
594.284	15923.03511
594.486	15951.36452
594.689	16086.94474
594.892	16046.47235
595.095	16099.08657
595.298	16034.33075
595.5	16175.98619
595.703	16348.00739
595.906	15961.48223
596.109	16119.32309
596.311	16010.04771
596.514	16180.0336
596.717	16196.22332
596.92	16700.18948
597.122	16457.29847
597.325	16167.89138
597.528	16202.29449
597.73	16505.87418
597.933	16161.82029
598.136	16420.86747
598.338	16277.17357
598.541	16578.74002
598.743	16675.89893
598.946	16643.51204
599.148	16728.52888
599.351	16570.64368
599.554	16809.5012
599.756	16649.58454
599.959	16718.40761
600.161	16744.72303
600.363	16862.13532
600.566	17007.9004
600.768	16884.40411
600.971	16809.5012
601.173	16681.97153
601.376	16876.30633
601.578	16396.5805
601.78	16819.62301
601.983	16728.52888
602.185	17024.09737
602.388	16813.54991
602.59	17068.63993
602.792	16912.74666
602.995	17123.30763
603.197	16849.98883
603.399	17109.13433
603.601	17173.9277
603.804	17058.51651
604.006	17151.65465
604.208	17009.92502
604.41	17344.02442
604.613	17198.22596
604.815	17015.99887
605.017	17020.04811
605.219	16805.45249
605.421	16969.43329
605.623	16922.86912
605.826	17451.35828
606.028	16997.77739
606.23	17094.96116
606.432	17070.66463
606.634	17090.91171
606.836	16995.75279
607.038	17145.58024
607.24	17013.97425
607.442	17074.71402
607.644	17117.23334
607.846	17504.01582
608.048	17589.08254
608.25	17546.54847
608.452	17163.80354
608.654	17718.71907
608.856	17084.83756
609.058	17283.2732
609.26	17275.17324
609.462	17449.33303
609.664	17542.49768
609.866	17449.33303
610.067	17530.34539
610.269	17629.59251
610.471	17194.17623
610.673	17795.69722
610.875	17578.95525
611.077	17741.00172
611.278	17271.12327
611.48	17674.15499
611.682	17380.47646
611.884	17639.7202
612.085	17439.20684
612.287	17874.70623
612.489	17560.72634
612.69	17469.58565
612.892	17370.3508
613.094	17759.23328
613.295	17461.48456
613.497	17850.39521
613.699	17512.11717
613.9	17615.41387
614.102	17759.23328
614.304	17461.48456
614.505	17516.16786
614.707	17532.37076
614.908	17664.02701
615.11	17702.51376
615.311	17585.03162
615.513	17828.11054
615.714	17743.02743
615.916	17781.51667
616.117	17548.57387
616.319	17941.56412
616.52	17485.78797
616.722	17686.30867
616.923	17597.18443
617.124	17631.61804
617.326	17159.7539
617.527	17651.87355
617.729	17506.04115
617.93	17813.92961
618.131	17783.54245
618.333	17911.1737
618.534	17741.00172
618.735	18138.10813
618.937	17765.31053
619.138	18229.2999
619.339	17743.02743
619.54	17716.69339
619.742	17925.3558
619.943	17878.75812
620.144	17854.44701
620.345	17892.93982
620.546	17686.30867
620.748	17783.54245
620.949	17556.6755
621.15	17706.56507
621.351	17433.13116
621.552	18016.53055
621.753	17412.87911
621.954	17753.15606
622.155	17686.30867
622.356	18134.05534
622.558	17540.47229
622.759	17951.69444
622.96	17894.9658
623.161	17745.05315
623.362	17664.02701
623.563	18231.32647
623.764	17714.66772
623.965	18002.34734
624.166	17905.09571
624.366	18008.42584
624.567	17965.87703
624.768	18069.21258
624.969	17927.38183
625.17	17757.20754
625.371	18040.84503
625.572	18182.68985
625.773	17526.29465
625.973	17852.42111
626.174	17996.26888
626.375	18121.89704
626.576	18073.26514
626.777	18286.04522
626.977	17939.53807
627.178	18456.29882
627.379	18125.94979
627.58	18634.68864
627.78	18215.11403
627.981	18048.94997
628.182	17866.6025
628.382	18113.79157
628.583	18675.23597
628.784	18359.00779
628.984	18223.22022
629.185	18434.00218
629.386	17761.25902
629.586	18196.87531
629.787	18038.8188
629.987	18077.31772
630.188	18150.26661
630.388	17896.99177
630.589	18077.31772
630.79	18332.65963
630.99	17838.23988
631.191	18211.06095
631.391	18125.94979
631.591	18194.8488
631.792	17994.24273
631.992	18665.09899
632.193	18421.84058
632.393	18450.21787
632.594	18290.09857
632.794	18050.97622
632.994	18340.76669
633.195	18127.97617
633.395	17965.87703
633.595	18081.37031
633.796	18284.01855
633.996	18334.68639
634.196	18535.35425
634.397	18807.02568
634.597	18292.12525
634.797	18454.27183
634.997	17921.30375
635.198	18164.45166
635.398	18184.71633
635.598	18604.27916
635.798	18146.21377
635.998	18496.83934
636.199	18519.13728
636.399	19123.38987
636.599	18622.52474
636.799	18431.97524
636.999	18531.29999
637.199	18555.62582
637.399	18184.71633
637.599	18440.08304
637.799	18547.51715
637.999	18705.64751
638.199	18729.97737
638.399	18969.25148
638.599	18703.62004
638.799	18780.66641
638.999	18800.94271
639.199	19032.12089
639.399	18571.84335
639.599	18760.39049
639.799	18533.32712
639.999	18742.14251
640.199	18553.59865
640.399	18596.17012
640.599	17927.38183
640.799	19082.82486
640.998	18802.97037
641.198	19005.75582
641.398	18652.93475
641.598	18638.7433
641.798	19003.72777
641.997	19070.65568
642.197	18967.2235
642.397	19180.18363
642.597	18693.48279
642.796	18920.58104
642.996	18813.10869
643.196	19149.75801
643.395	18393.46403
643.595	19123.38987
643.795	18756.33536
643.994	19005.75582
644.194	18969.25148
644.394	19310.01
644.593	19305.95268
644.793	19447.96904
644.992	19267.40887
645.192	19163.95652
645.392	18971.27946
645.591	19196.41101
645.791	19145.70133
645.99	19084.85308
646.19	18924.63683
646.389	19362.75679
646.589	18989.53151
646.788	18975.33544
646.987	18798.91506
647.187	19703.64985
647.386	19271.46604
647.586	19224.80955
647.785	18999.67167
647.984	19024.00849
648.184	19208.58171
648.383	19024.00849
648.582	19009.81194
648.782	19350.58421
648.981	19344.49797
649.18	19157.87142
649.38	19228.86655
649.579	19342.46923
649.778	19241.03765
649.977	19863.99154
650.177	19476.37475
650.376	19305.95268
650.575	19058.48664
650.774	19287.6949
650.973	19496.66505
651.173	19267.40887
651.372	19318.12471
651.571	19245.09471
651.77	19346.52671
651.969	19204.5248
652.168	19320.1534
652.367	19484.49082
652.566	19342.46923
652.765	19557.53842
652.964	19381.01594
653.163	19551.45091
653.362	19458.11385
653.561	19403.33314
653.76	19476.37475
653.959	19484.49082
654.158	19409.41974
654.357	19565.65515
654.556	19273.49463
654.755	19364.78557
654.954	19486.51985
655.153	19559.5676
655.352	19766.56562
655.551	19575.80116
655.749	19437.82434
655.948	19476.37475
656.147	19663.06117
656.346	19492.60695
656.545	19555.50925
656.743	19460.14282
656.942	19843.69367
657.141	19782.8026
657.34	19350.58421
657.538	19312.03868
657.737	19366.81435
657.936	19646.82616
658.135	19608.2691
658.333	19916.76795
658.532	19855.87234
658.731	19602.18128
658.929	19486.51985
659.128	19782.8026
659.326	19691.47307
659.525	19868.05116
659.724	19389.13123
659.922	19799.03985
660.121	19484.49082
660.319	19553.48008
660.518	19516.95575
660.716	19924.88765
660.915	19821.36651
661.113	20328.92769
661.312	19780.77296
661.51	19985.78755
661.709	20178.66219
661.907	20194.906
662.105	19857.90213
662.304	19884.28982
662.502	19411.44861
662.701	19762.50641
662.899	19525.07215
663.097	19829.48542
663.296	19535.21775
663.494	19699.5909
663.692	19618.41555
663.891	19792.95085
664.089	19527.10126
664.287	19577.83038
664.485	19468.25875
664.684	19884.28982
664.882	19484.49082
665.08	19216.6956
665.278	20097.44719
665.476	19770.62484
665.675	19500.72315
665.873	19659.00239
666.071	19667.11996
666.269	20069.02353
666.467	19581.88882
666.665	19933.00742
666.863	19703.64985
667.061	19975.6373
667.259	19918.79787
667.457	20229.42499
667.655	20198.967
667.853	20022.3293
668.051	19711.76779
668.249	19815.27737
668.447	19754.38806
668.645	19693.50252
668.843	19827.45568
669.041	20087.29578
669.239	19439.85327
669.437	19835.57464
669.635	19608.2691
669.833	19888.34953
670.031	19255.23745
670.229	19937.06733
670.426	19734.09246
670.624	19833.5449
670.822	19835.57464
671.02	19953.30713
671.218	19610.29838
671.415	19573.77195
671.613	19750.3289
671.811	19995.9379
672.009	20083.23525
672.206	19914.73803
672.404	19551.45091
672.602	19813.24766
672.799	19924.88765
672.997	19764.53601
673.195	19728.00386
673.392	20069.02353
673.59	19835.57464
673.788	19632.62075
673.985	19299.86671
674.183	19790.92119
674.38	19622.47416
674.578	20044.66104
674.775	19719.88579
674.973	19659.00239
675.17	19689.44362
675.368	19742.21065
675.565	19736.122
675.763	20044.66104
675.96	19478.40376
676.158	19559.5676
676.355	19222.78106
676.553	19902.55863
676.75	19476.37475
676.947	20062.93285
677.145	19831.51515
677.342	19754.38806
677.539	19843.69367
677.737	20038.57052
677.934	19703.64985
678.131	19985.78755
678.329	19529.13038
678.526	19521.01395
678.723	19348.55546
678.92	20032.48003
679.118	19780.77296
679.315	19935.03737
679.512	19691.47307
679.709	20148.20578
679.906	19610.29838
680.104	19614.35696
680.301	19405.362
680.498	19362.75679
680.695	19316.09603
680.892	19460.14282
681.089	19360.72801
681.286	19782.8026
681.483	19435.79541
681.68	19395.21774
681.877	19559.5676
682.075	19356.67048
682.272	19001.69972
682.469	19307.98134
682.665	19381.01594
682.862	19387.1024
683.059	19403.33314
683.256	19212.63865
683.453	19383.04476
683.65	19297.83807
683.847	19200.46789
684.044	19283.63766
684.241	19310.01
684.438	19567.68435
684.635	18977.36344
684.831	19241.03765
685.028	18910.44166
685.225	19186.26887
685.422	18875.96851
685.619	19354.64172
685.815	19007.78388
686.012	19251.18034
686.209	19368.84314
686.405	19216.6956
686.602	18908.4138
686.799	18772.55599
686.996	18742.14251
687.192	18798.91506
687.389	18839.46879
687.586	19094.9942
687.782	19245.09471
687.979	19052.40217
688.175	18839.46879
688.372	18912.46953
688.568	18581.97944
688.765	18652.93475
688.962	18488.73111
689.158	18829.33021
689.355	18950.99979
689.551	19074.71206
689.748	18898.27454
689.944	19119.3333
690.14	18924.63683
690.337	19168.01327
690.533	19214.66712
690.73	18906.38594
690.926	19068.6275
691.123	18900.30238
691.319	19121.36159
691.515	19097.02243
691.712	18729.97737
691.908	18685.37305
692.104	19052.40217
692.301	18687.40048
692.497	18734.0324
692.693	18756.33536
692.889	18506.97471
693.086	18602.2519
693.282	18729.97737
693.478	18685.37305
693.674	18821.21942
693.87	18963.16755
694.067	18896.2467
694.263	18584.00667
694.459	18324.55264
694.655	18721.86735
694.851	18427.92136
695.047	18673.20857
695.243	18675.23597
695.439	18732.00488
695.635	18531.29999
695.831	18434.00218
696.027	18709.70244
696.224	18316.4457
696.42	18571.84335
696.615	18543.46283
696.811	18379.27603
697.007	18656.98948
697.203	18083.39661
697.399	18405.62532
697.595	18211.06095
697.791	18117.8443
697.987	18196.87531
698.183	18361.0346
698.379	17870.65436
698.575	18539.40854
698.77	18251.59236
698.966	18622.52474
699.162	18598.19737
699.358	18476.56889
699.554	18170.53102
699.749	18316.4457
699.945	18192.8223
700.141	18221.19367
700.337	18008.42584
700.532	18318.47243
700.728	18063.13376
700.924	18196.87531
701.119	18121.89704
701.315	18320.49916
701.511	18395.4909
701.706	18756.33536
701.902	18476.56889
702.097	18448.1909
702.293	17846.34342
702.489	18127.97617
702.684	18200.92833
702.88	18365.08822
703.075	18085.42292
703.271	18059.08123
703.466	18028.68773
703.662	18146.21377
703.857	18103.65983
704.053	18225.24678
704.248	17978.03367
704.443	18008.42584
704.639	18142.16094
704.834	18324.55264
705.03	18067.1863
705.225	17994.24273
705.42	17712.64205
705.616	18207.00789
705.811	17641.74575
706.006	18044.89749
706.202	17911.1737
706.397	17761.25902
706.592	17901.04373
706.787	17939.53807
706.983	17909.1477
707.178	18427.92136
707.373	17921.30375
707.568	18160.39877
707.763	17838.23988
707.959	18008.42584
708.154	17589.08254
708.349	17864.57658
708.544	18097.58083
708.739	17647.82242
708.934	17826.08468
709.129	18397.51778
709.324	17785.56824
709.519	18028.68773
709.714	17805.82629
709.909	18247.53915
710.104	17799.74884
710.299	17939.53807
710.494	17765.31053
710.689	17834.18814
710.884	17672.12939
711.079	17793.67142
711.274	17380.47646
711.469	18132.02894
711.664	17777.46511
711.859	17894.9658
712.054	17757.20754
712.249	17757.20754
712.443	17734.92459
712.638	17795.69722
712.833	17647.82242
713.028	17743.02743
713.223	17524.26929
713.417	17491.86389
713.612	17504.01582
713.807	18065.16003
714.002	17704.53941
714.196	18221.19367
714.391	17807.85211
714.586	17718.71907
714.78	17449.33303
714.975	17281.2482
715.17	16981.5807
715.364	17546.54847
715.559	17550.59928
715.754	17574.90436
715.948	17627.56698
716.143	17830.1364
716.337	17836.21401
716.532	18219.16712
716.726	17743.02743
716.921	17637.69466
717.115	17621.49041
717.31	17522.24393
717.504	17639.7202
717.699	17919.27774
717.893	17382.5016
718.088	17643.77131
718.282	17512.11717
718.476	17327.82383
718.671	17299.47326
718.865	17489.83858
719.059	16939.0652
719.254	16995.75279
719.448	16651.60871
719.642	17058.51651
719.837	16702.2137
720.031	16906.67322
720.225	16764.96594
720.419	17096.98589
720.614	16908.69769
720.808	17315.67351
721.002	17028.14664
721.196	17471.61093
721.39	17005.8758
721.585	17275.17324
721.779	17163.80354
721.973	17096.98589
722.167	16858.08648
722.361	17115.20858
722.555	16744.72303
722.749	16825.69613
722.943	16769.01455
723.137	16781.16044
723.331	16698.16525
723.525	16675.89893
723.719	16655.65706
723.913	16841.89122
724.107	16876.30633
724.301	16949.18783
724.495	16671.85053
724.689	16760.91734
724.883	16428.96319
725.077	16760.91734
725.271	16558.49923
725.465	16900.59979
725.659	16688.04416
725.853	16647.56037
726.046	16663.75378
726.24	16827.72051
726.434	16607.0775
726.628	16748.7716
726.822	16710.31064
727.015	16922.86912
727.209	16833.79366
727.403	16898.57532
727.596	16845.94002
727.79	16991.70361
727.984	16588.8605
728.177	16821.64738
728.371	16582.7882
728.565	16503.85017
728.758	16631.36711
728.952	16847.96442
729.146	16669.82634
729.339	16736.62594
729.533	16485.63416
729.726	16605.05338
729.92	16637.43957
730.113	16568.6196
730.307	16639.46372
730.5	16477.53821
730.694	16337.88813
730.887	16196.22332
731.081	16629.34297
731.274	16586.8364
731.468	16325.74509
731.661	16497.77814
731.854	16161.82029
732.048	16457.29847
732.241	16161.82029
732.435	16149.67816
732.628	16299.43538
732.821	16285.26875
733.014	16481.58618
733.208	16455.27451
733.401	16540.2827
733.594	16546.35486
733.788	16592.9087
733.981	16333.84044
734.174	16631.36711
734.367	16447.17869
734.56	16370.26993
734.754	16528.13844
734.947	16688.04416
735.14	16607.0775
735.333	16556.47516
735.526	16321.69742
735.719	16194.1996
735.912	16139.55976
736.105	16145.6308
736.298	16299.43538
736.491	16242.76937
736.684	16469.44229
736.877	16416.81962
737.07	16226.57933
737.263	16256.93574
737.456	16360.15056
737.649	16224.55559
737.842	16518.01829
738.035	16443.13078
738.228	16020.16562
738.421	16550.40297
738.614	16439.08289
738.807	16538.25865
739	15953.38806
739.192	16157.77291
739.385	16283.24495
739.578	16099.08657
739.771	16058.61401
739.964	15989.81199
740.156	16032.30716
740.349	16115.27578
740.542	16022.1892
740.735	15710.57199
740.927	16006.00055
741.12	15904.82348
741.313	16048.49596
741.505	16018.14203
741.698	16226.57933
741.891	16196.22332
742.083	16428.96319
742.276	16186.10473
742.468	15874.47099
742.661	15694.3848
742.854	16084.92111
743.046	15676.17429
743.239	15868.40053
743.431	16113.25212
743.624	15793.53232
743.816	15425.28019
744.009	15923.03511
744.201	15619.51981
744.393	15494.07273
744.586	15510.2593
744.778	15623.56653
744.971	15728.78265
745.163	15797.57921
745.355	15953.38806
745.548	15823.88411
745.74	15742.94655
745.932	15797.57921
746.125	15728.78265
746.317	15716.6422
746.509	15929.10568
746.702	15680.22106
746.894	15773.29794
747.086	15625.5899
747.278	15744.96997
747.471	15823.88411
747.663	15997.90626
747.855	15684.26784
748.047	15864.35355
748.239	16022.1892
748.431	15738.89972
748.623	15506.21266
748.815	15718.66561
749.008	16028.25997
749.2	15619.51981
749.392	15805.67301
749.584	15579.05271
749.776	15680.22106
749.968	15629.63663
750.16	15789.48544
750.352	15154.16061
750.544	15370.65121
750.736	15534.53924
750.928	15734.85289
751.12	15117.74173
751.311	15291.74316
751.503	15289.71988
751.695	15401.00061
751.887	15322.09236
752.079	15326.13892
752.271	15271.51039
752.463	15222.95182
752.654	15494.07273
752.846	15423.25689
753.038	15222.95182
753.23	15508.23598
753.421	14965.99586
753.613	15241.16128
753.805	15621.54317
753.997	15030.74093
754.188	15174.39332
754.38	15301.85955
754.572	15208.78892
754.763	15348.39505
754.955	15332.20877
755.146	15467.76963
755.338	14933.62319
755.53	15046.92715
755.721	15144.04426
755.913	15071.20646
756.104	14998.36843
756.296	15010.50813
756.487	14976.1123
756.679	14909.34361
756.87	14674.63635
757.062	14739.3842
757.253	14984.20544
757.445	15125.83482
757.636	14998.36843
757.827	15032.76421
758.019	15380.76767
758.21	15008.48485
758.401	15131.90463
758.593	14996.34515
758.784	14798.0612
758.975	14332.66702
759.167	14702.96364
759.358	14753.54767
759.549	14887.08727
759.74	14696.89352
759.932	14672.61296
760.123	14630.12163
760.314	14787.94452
760.505	14951.83283
760.696	14595.72355
760.888	14545.13753
761.079	14638.21525
761.27	14652.37905
761.461	14796.03787
761.652	14798.0612
761.843	14646.30886
762.034	14727.24404
762.225	14577.51267
762.416	14239.5791
762.607	13988.62502
762.798	14411.58656
762.989	14458.12774
763.18	14338.73785
763.371	14075.6533
763.562	14316.47809
763.753	13990.64898
763.944	14437.89254
764.135	14152.55848
764.326	14429.79842
764.517	14164.70112
764.708	14314.45447
764.899	14106.01099
765.089	14282.07624
765.28	14195.05739
765.471	14188.98617
765.662	13978.50516
765.853	13913.73654
766.043	13990.64898
766.234	14170.77241
766.425	14101.96332
766.615	14247.67386
766.806	14116.1301
766.997	14069.5817
767.187	13638.43746
767.378	13927.9049
767.569	13648.55977
767.759	13496.71606
767.95	13516.96305
768.141	13620.21709
768.331	13707.26754
768.522	13693.09695
768.712	13316.50095
768.903	13662.73086
769.093	13510.88899
769.284	13612.11906
769.474	13816.57844
769.665	13810.50584
769.855	13765.97264
770.046	13770.02118
770.236	13719.41364
770.426	13555.43131
770.617	13440.02251
770.807	13547.33284
770.998	13474.44395
771.188	13460.27055
771.378	13484.56769
771.569	13591.87375
771.759	13223.34333
771.949	13207.14107
772.139	13247.6462
772.33	13170.68492
772.52	13381.30101
772.71	13405.59996
772.9	13109.92137
773.09	13273.9736
773.281	13144.35456
773.471	13012.69078
773.661	13241.57054
773.851	13043.07654
774.041	13030.92237
774.231	13030.92237
774.421	12943.81218
774.611	12907.34463
774.802	12810.08936
774.992	12925.57861
775.182	12878.97979
775.372	12810.08936
775.562	12404.71398
775.752	12672.28899
775.942	12722.95399
776.131	12775.64175
776.321	12696.60865
776.511	12761.45696
776.701	12688.50219
776.891	12850.61391
777.081	12907.34463
777.271	12422.9613
777.461	12441.20808
777.651	12670.26232
777.84	12597.29794
778.03	12493.918
778.22	12491.89077
778.41	12631.75432
778.599	12443.23546
778.789	12479.7273
778.979	12544.59649
779.169	12380.38337
779.358	12070.07871
779.548	12173.53262
779.738	12106.59411
779.927	12400.65894
780.117	12134.99326
780.307	12214.09746
780.496	12193.81541
780.686	12370.24532
780.875	12376.32817
781.065	12587.16337
781.254	12183.6741
781.444	12356.05178
781.633	12100.50838
781.823	12335.7747
782.012	12068.05
782.202	12408.76898
782.391	11946.31325
782.581	12181.64582
782.77	12080.22212
782.96	12380.38337
783.149	11913.84524
783.338	11631.68822
783.528	11881.37513
783.717	11741.32309
783.906	11668.23607
784.096	11706.81121
784.285	11542.33656
784.474	11704.78102
784.663	11733.20288
784.853	11645.90162
785.042	11593.10674
785.231	11645.90162
785.42	11538.2747
785.61	11528.11987
785.799	11404.21177
785.988	11584.9839
786.177	11133.92295
786.366	11353.4193
786.555	11511.87165
786.744	11522.02686
786.933	11361.54651
787.122	11459.06075
787.312	11747.41316
787.501	11337.1644
787.69	11302.6206
787.879	11698.6904
788.068	11142.05461
788.257	11347.32378
788.445	10904.13131
788.634	11556.5528
788.823	11434.6843
789.012	11404.21177
789.201	11131.89001
789.39	11201.00411
789.579	11121.72513
789.768	11318.87687
789.957	11201.00411
790.145	11223.36195
790.334	11286.36368
790.523	11339.19629
790.712	11471.24845
790.9	11278.23498
791.089	10979.38841
791.278	11215.23197
791.467	11007.86006
791.655	11119.69213
791.844	10936.67682
792.033	10932.60879
792.221	10739.32425
792.41	10898.0287
792.599	10657.90933
792.787	11251.81557
792.976	10871.58288
793.164	11066.83017
793.353	10818.68537
793.541	11223.36195
793.73	10576.47485
793.918	11140.02171
794.107	10906.16549
794.295	10664.01612
794.484	10641.62401
794.672	10670.1228
794.861	10535.75015
795.049	10745.42959
795.238	10348.35065
795.426	10700.65457
795.614	10527.6046
795.803	10515.3859
795.991	10319.82364
796.179	10417.61976
796.368	10266.83796
796.556	10299.44561
796.744	10425.76807
796.932	10820.72004
797.121	10230.15023
797.309	10552.04063
797.497	10168.99419
797.685	10323.89909
797.874	10440.02712
798.062	10238.30344
798.25	10009.92979
798.438	10354.46324
798.626	10007.88994
798.814	10437.99015
799.002	10185.30368
799.19	10401.32251
799.378	10091.51198
799.566	10325.93679
799.755	10301.48347
799.943	10152.68381
800.131	10450.21177
800.318	10364.65063
800.506	10036.4465
800.694	10226.07355
800.882	10034.40684
801.07	10266.83796
801.258	10252.57104
801.446	10311.67259
801.634	10254.60921
801.822	10684.3713
802.01	10653.83807
802.197	10458.35925
802.385	10303.52132
802.573	10272.95216
802.761	10380.94977
802.949	10743.39449
803.136	10415.58265
803.324	10442.06408
803.512	10440.02712
803.699	10317.7859
803.887	10011.96962
804.075	10299.44561
804.262	10052.76327
804.45	10283.14222
804.638	10083.35478
804.825	10604.97917
805.013	10285.18019
805.201	10684.3713
805.388	10321.86137
805.576	10523.53175
805.763	10230.15023
805.951	10305.55916
806.138	10215.88159
806.326	10464.46973
806.513	10005.85008
806.701	9981.37063
806.888	10095.59049
807.075	10168.99419
807.263	9995.65056
807.45	10197.53521
807.638	9940.5669
807.825	9885.47263
808.012	9969.13012
808.2	9881.39114
808.387	9946.68783
808.574	10148.60608
808.761	10148.60608
808.949	10327.97448
809.136	9809.95557
809.323	10330.01216
809.51	10207.72778
809.698	9928.32465
809.885	10020.12881
810.072	9997.69049
810.259	9983.41066
810.446	10038.48615
810.633	10154.72266
810.82	10391.1363
811.008	10423.73101
811.195	10645.69541
811.382	10274.9902
811.569	10211.80472
811.756	10168.99419
811.943	10297.40773
812.13	10181.22639
812.317	10372.8003
812.504	10323.89909
812.691	10319.82364
812.878	10505.20331
813.064	10486.87383
813.251	10350.38819
813.438	10806.47714
813.625	10454.28554
813.812	10195.49666
813.999	10268.87604
814.186	10364.65063
814.372	10097.62973
814.559	10323.89909
814.746	9975.25044
814.933	10258.68551
815.12	10270.91411
815.306	10166.95544
815.493	9983.41066
815.68	10168.99419
815.866	9775.25168
816.053	10317.7859
816.24	10001.77032
816.426	10221.99681
816.613	9881.39114
816.799	10417.61976
816.986	10073.15797
817.173	10107.8257
817.359	10107.8257
817.546	10164.91668
817.732	10124.13852
817.919	10260.72365
818.105	9936.48621
818.292	10281.10423
818.478	10195.49666
818.665	9969.13012
818.851	10203.6508
819.037	10217.92001
819.224	10026.24805
819.41	10107.8257
819.597	9981.37063
819.783	9975.25044
819.969	10042.5654
820.156	9867.10548
820.342	10154.72266
820.528	10303.52132
820.714	10026.24805
820.901	10183.26504
821.087	10054.80281
821.273	10307.59698
821.459	9977.29051
821.646	10079.2761
821.832	9987.49068
822.018	10065.00026
822.204	9773.21014
822.39	9944.64754
822.576	9760.96058
822.762	9558.76299
822.948	9848.73714
823.134	10034.40684
823.32	9765.04383
823.507	9983.41066
823.693	9779.33472
823.879	10293.33194
824.065	9860.98284
824.25	9689.49389
824.436	9720.12476
824.622	9871.18717
824.808	9748.71047
824.994	10067.03971
825.18	9662.94433
825.366	9916.08188
825.552	9558.76299
825.738	9834.44982
825.923	9640.47728
826.109	10024.20832
826.295	9624.13642
826.481	9918.12238
826.667	9628.22173
826.852	9754.8356
827.038	9442.27635
827.224	9809.95557
827.409	9268.47024
827.595	9378.90199
827.781	9299.15057
827.966	9421.83472
828.152	9413.65761
828.338	9448.40853
828.523	9248.0146
828.709	9434.09989
828.894	9519.93988
829.08	9474.97961
829.266	9256.19706
829.451	9509.72232
829.637	9319.60205
829.822	9521.98334
830.008	9076.1203
830.193	9264.37925
830.378	9135.47838
830.564	9536.28715
830.749	9051.55409
830.935	9293.01481
831.12	8734.01154
831.305	8961.45645
831.491	8697.1075
831.676	8891.81216
831.861	8635.58747
832.047	8822.1472
832.232	8502.23631
832.417	8731.96148
832.602	8947.1196
832.788	9160.03612
832.973	8983.98405
833.158	9082.26147
833.343	8756.56108
833.528	9061.79031
833.714	8856.98228
833.899	9100.68402
834.084	8869.27577
834.269	8852.8843
834.454	8504.28847
834.639	8754.51122
834.824	8811.90059
835.009	8805.75241
835.194	8770.90964
835.379	8904.10382
835.564	8455.03135
835.749	8742.21163
835.934	8520.70507
836.119	8971.69653
836.304	8524.80903
836.489	8608.92358
836.674	8656.096
836.859	8631.48554
837.044	8789.35647
837.228	8848.78626
837.413	8541.22412
837.598	8617.12819
837.783	8422.18715
837.968	8514.54899
838.152	8358.53748
838.337	8418.08128
838.522	8124.30917
838.707	8483.76601
838.891	8253.78282
839.076	8270.21829
839.261	8146.92138
839.445	8397.55077
839.63	8202.41382
839.815	8354.43041
839.999	8292.81502
840.184	8294.86915
840.368	8064.68353
840.553	8206.5238
840.737	8037.94929
840.922	8009.15474
841.106	7963.89809
841.291	8009.15474
841.475	7863.06352
841.66	7912.45806
841.844	7737.46524
842.029	7963.89809
842.213	8130.47638
842.397	8181.86276
842.582	7562.32063
842.766	8274.32697
842.951	7725.1071
843.135	7968.01274
843.319	7850.71303
843.504	7801.30357
843.688	7891.87845
843.872	7968.01274
844.056	7784.83109
844.241	7731.28626
844.425	7889.82037
844.609	7856.88837
844.793	7774.53511
844.977	7883.64602
845.161	7463.3473
845.346	7850.71303
845.53	7685.96801
845.714	7529.33503
845.898	7389.08463
846.082	7374.64139
846.266	7368.45111
846.45	7135.13972
846.634	7364.32414
846.818	7640.63952
847.002	7531.39679
847.186	7506.65423
847.37	6936.70514
847.554	7397.33743
847.738	7182.65075
847.922	7199.17357
848.106	7223.95514
848.29	7265.2507
848.473	7252.86296
848.657	7422.09373
848.841	7331.30527
849.025	7354.00635
849.209	7211.56476
849.392	7473.65934
849.576	7186.78159
849.76	7285.89517
849.944	7166.12651
850.127	7457.15981
850.311	7038.0153
850.495	7166.12651
850.678	6835.34069
850.862	7029.74711
851.046	6942.90935
851.229	6911.88622
851.413	6870.51412
851.596	7015.27691
851.78	6702.86396
851.964	6769.11403
852.147	6735.99193
852.331	6707.00528
852.514	6620.01831
852.698	6781.53331
852.881	6495.68062
853.065	6942.90935
853.248	6694.58105
853.431	6769.11403
853.615	6754.62383
853.798	6762.90408
853.982	6441.77505
854.165	6675.94316
854.348	6213.53865
854.532	6665.58797
854.715	6715.28763
854.898	6901.54405
855.081	6688.36863
855.265	6798.09107
855.448	6367.1106
855.631	6591.01363
855.814	6331.84188
855.997	6392.0021
856.181	6232.22317
856.364	6309.01736
856.547	6447.99572
856.73	6439.70144
856.913	6373.33379
857.096	6549.57051
857.279	6412.74246
857.462	6414.81637
857.645	6122.16478
857.828	6464.58317
858.011	6306.94226
858.194	6559.93216
858.377	6194.85224
858.56	6497.7536
858.743	6032.82361
858.926	6317.31751
859.109	6354.66359
859.292	6304.86714
859.475	6074.38305
859.658	6479.09596
859.841	6184.47008
860.023	6255.05722
860.206	6217.69093
860.389	6242.60263
860.572	6097.23673
860.755	6142.93556
860.937	6026.58889
861.12	6105.54646
861.303	6041.13626
861.486	5799.91653
861.668	5924.72497
861.851	5718.74548
862.034	5752.05077
862.216	5799.91653
862.399	5837.36798
862.581	5824.88502
862.764	5660.4467
862.947	5801.99737
863.129	5683.352
863.312	5691.68049
863.494	5583.38065
863.677	5593.79686
863.859	5675.02313
864.042	5614.62753
864.224	5614.62753
864.406	5922.64553
864.589	5597.96319
864.771	5645.86911
864.954	5516.7029
865.136	5472.93253
865.318	5283.14116
865.501	5497.94544
865.683	5316.52514
865.865	5393.70262
866.048	5351.98905
866.23	5581.29733
866.412	5299.8339
866.594	5514.61883
866.777	5185.0411
866.959	5372.84701
867.141	5256.01226
867.323	5143.28077
867.505	5103.59985
867.687	5470.84796
867.869	5151.63358
868.052	5283.14116
868.234	4946.88299
868.416	5251.83823
868.598	5201.74262
868.78	5015.85442
868.962	5099.42242
869.144	5107.77718
869.326	5137.01592
869.508	5278.96774
869.69	5251.83823
869.872	5329.04259
870.054	5080.62285
870.236	5414.55589
870.417	5032.57098
870.599	5172.51398
870.781	5055.55384
870.963	5222.61743
871.145	4965.69587
871.327	4965.69587
871.508	4637.25059
871.69	4905.06994
871.872	4700.05402
872.054	5084.80069
872.235	4882.06885
872.417	5003.31602
872.599	4888.34215
872.78	5456.25537
872.962	5251.83823
873.144	5226.79211
873.325	4951.06379
873.507	5157.89795
873.689	4754.46725
873.87	5086.88958
874.052	4879.97771
874.233	5114.04301
874.415	4848.60778
874.596	5020.0337
874.778	4838.15
874.959	4909.25166
875.141	4796.31317
875.322	4890.43321
875.503	4917.61482
875.685	4915.52407
875.866	4664.46789
876.048	4936.43059
876.229	4710.51929
876.41	5063.91054
876.592	5036.74989
876.773	4974.05655
876.954	4773.29904
877.136	5047.19676
877.317	4829.78336
877.498	4942.7021
877.679	4806.77323
877.86	4971.96641
878.042	4595.37043
878.223	5082.71178
878.404	4932.24947
878.585	4905.06994
878.766	4963.60564
878.947	5197.56738
879.128	4930.15888
879.309	5214.26779
879.49	5072.26688
879.672	5310.2661
879.853	5015.85442
880.034	4965.69587
880.215	4865.33905
880.396	5249.75118
880.576	4948.97341
880.757	5082.71178
880.938	4894.61525
881.119	5132.83924
881.3	4892.52424
881.481	5147.45723
881.662	5015.85442
881.843	5141.19251
882.023	4915.52407
882.204	5114.04301
882.385	5055.55384
882.566	5084.80069
882.747	4735.63363
882.927	4971.96641
883.108	4762.83716
883.289	5055.55384
883.469	4693.77459
883.65	5043.01808
883.831	5164.1621
884.011	5084.80069
884.192	4708.42628
884.373	4911.34249
884.553	4873.70414
884.734	4850.69927
884.914	4971.96641
885.095	5180.86549
885.275	4729.35535
885.456	5082.71178
885.636	4932.24947
885.817	5203.83021
885.997	4938.52112
886.178	5091.06729
886.358	4953.15416
886.538	5032.57098
886.719	5047.19676
886.899	5226.79211
887.08	4741.91171
887.26	4865.33905
887.44	4771.20671
887.621	5157.89795
887.801	4902.97905
887.981	5289.40111
888.161	4896.70623
888.342	5034.66044
888.522	4842.33318
888.702	5034.66044
888.882	4777.48363
889.062	5030.48149
889.242	4925.97762
889.423	5172.51398
889.603	5007.49558
889.783	5239.31559
889.963	4737.72635
890.143	5182.95331
890.323	4754.46725
890.503	4930.15888
890.683	4633.06298
890.863	4867.43036
891.043	4677.02844
891.223	4867.43036
891.403	4605.84131
891.583	4955.2445
891.763	4563.95446
891.943	4951.06379
892.122	4733.54089
892.302	5203.83021
892.482	4915.52407
892.662	4997.04652
892.842	4829.78336
893.022	4792.12899
893.201	4729.35535
893.381	4974.05655
893.561	4480.15411
893.741	4827.69165
893.92	4750.28216
894.1	4649.81289
894.28	4524.15371
894.459	4787.94471
894.639	4410.99229
894.819	4656.09374
894.998	4641.43811
895.178	4907.16081
895.357	4557.67066
895.537	4804.68127
895.716	4499.01227
895.896	4710.51929
896.075	4513.6785
896.255	4622.59355
896.434	4406.7999
896.614	4561.85988
896.793	4381.64372
896.973	4540.91289
897.152	4501.10751
897.331	4436.14481
897.511	4362.77453
897.69	4624.68748
897.87	4270.49994
898.049	4377.45072
898.228	4184.47946
898.407	4425.66498
898.587	4220.15083
898.766	4486.44037
898.945	3938.81276
899.124	4121.51512
899.304	4041.73327
899.483	4218.05268
899.662	4092.1253
899.841	4287.28024
900.02	4096.32409
900.199	4169.78948
900.378	3972.42485
900.557	4048.03292
900.737	4033.33344
900.916	4148.80199
901.095	4171.88811
901.274	3949.31709
901.453	3781.18763
901.632	4020.73308
901.811	3877.87767
901.989	3791.69944
902.168	3539.28344
902.347	3936.71183
902.526	3680.24954
902.705	3650.80092
902.884	3598.20488
903.063	3556.11962
903.242	3486.66281
903.42	3629.76392
903.599	3520.34133
903.778	3360.32739
903.957	3535.07421
904.135	3741.2383
904.314	3459.29559
904.493	3568.74598
904.672	3431.92533
904.85	3495.08287
905.029	3204.42756
905.207	3343.47787
905.386	3166.49211
905.565	3387.70548
905.743	3103.25469
905.922	3295.02933
906.1	2964.08263
906.279	3330.84
906.457	2831.17591
906.636	3246.57178
906.814	2668.65955
906.993	2875.4845
907.171	2799.52314
907.35	2664.43731
907.528	2778.41958
907.707	2769.97777
907.885	2753.09351
908.063	2852.27602
908.242	2592.65158
908.42	2805.85395
908.598	2704.54653
908.777	2636.99152
908.955	2664.43731
909.133	2736.2084
909.311	2586.31687
909.49	2780.53
909.668	2670.77065
909.846	2983.06456
910.024	2569.42377
910.202	2820.62534
910.38	2641.21409
910.559	2689.76999
910.737	2556.75344
910.915	2871.2649
911.093	2613.76651
911.271	2915.5678
911.449	2693.99192
911.627	2723.544
911.805	2364.53715
911.983	2831.17591
912.161	2824.84561
912.339	2921.89626
912.517	2628.54623
912.695	2991.50058
912.872	2763.64628
913.05	2926.11516
913.228	2712.98998
913.406	2628.54623
913.584	2622.21214
913.762	2592.65158
913.939	2577.87041
914.117	2795.30254
914.295	2649.65907
914.473	2816.40501
914.65	2710.87914
914.828	2723.544
915.006	2510.29198
915.184	2748.87231
915.361	2571.53545
915.539	2812.18462
915.716	2546.19451
915.894	2617.98935
916.072	2647.54784
916.249	2577.87041
916.427	2413.12774
916.604	2744.65106
916.782	2398.33988
916.959	2672.88174
917.137	2611.65507
917.314	2858.60577
917.492	2347.63481
917.669	2518.73994
917.847	2157.44217
918.024	2341.29627
918.201	2231.4146
918.379	2541.97086
918.556	2432.13994
918.733	2427.91508
918.911	2119.39529
919.088	2406.79014
919.265	2172.23748
919.442	2271.56659
919.62	2136.30533
919.797	2313.82825
919.974	2051.75031
920.151	2451.15128
920.328	2072.89017
920.506	2119.39529
920.683	2043.29417
920.86	2233.52794
921.037	2178.5782
921.214	2161.66944
921.391	2288.4717
921.568	2394.11468
921.745	2159.55581
921.922	2299.03709
922.099	2034.83791
922.276	2246.20781
922.453	2022.15333
922.63	2292.69789
922.807	2062.32033
922.984	2113.0539
923.161	2020.03921
923.338	2269.45341
923.514	2015.81095
923.691	2053.86433
923.868	1872.03543
924.045	2045.40821
924.222	1798.02372
924.399	2026.38155
924.575	1798.02372
924.752	2058.09234
924.929	1840.31682
925.105	1933.35475
925.282	1774.76177
925.459	1960.84119
925.635	1859.34812
925.812	2022.15333
925.989	1594.99673
926.165	1975.64116
926.342	1726.12166
926.518	1984.09815
926.695	1563.27168
926.871	1726.12166
927.048	1637.29615
927.224	1709.20292
927.401	1400.41337
927.577	1647.87087
927.754	1389.83816
927.93	1694.39885
928.107	1540.00643
928.283	1707.08806
928.459	1633.06625
928.636	1540.00643
928.812	1311.58247
928.988	1656.3306
929.165	1413.10364
929.341	1497.70566
929.517	1421.56384
929.693	1544.23649
929.87	1366.57277
930.046	1444.8294
930.222	1457.51971
930.398	1472.32508
930.574	1279.85784
930.751	1442.71435
930.927	1273.51298
931.103	1514.62601
931.279	1188.91714
931.455	1248.13374
931.631	977.45701
931.807	1231.21446
931.983	990.14304
932.159	1362.34271
932.335	1034.54595
932.511	1226.98467
932.687	1108.5564
932.863	1231.21446
933.039	888.66195
933.215	1091.63916
933.391	892.88998
933.566	990.14304
933.742	918.25884
933.918	833.70058
934.094	793.54029
934.27	922.48709
934.445	795.65391
934.621	808.3358
934.797	753.38348
934.973	768.17767
935.148	694.21183
935.324	795.65391
935.5	654.06461
935.675	787.19951
935.851	658.29044
936.027	597.02077
936.202	455.50964
936.378	603.35852
936.553	556.88439
936.729	514.64087
936.904	472.40309
937.08	485.0738
937.255	419.61437
937.431	472.40309
937.606	480.85017
937.782	489.29749
937.957	419.61437
938.133	411.16909
938.308	339.39489
938.483	396.39047
938.659	356.28118
938.834	368.94661
939.009	231.77202
939.185	259.20069
939.36	195.90876
939.535	280.30186
939.71	286.63257
939.886	219.11374
940.061	202.23715
940.236	263.42077
940.411	189.58055
940.586	246.5409
940.761	227.55252
940.937	164.26954
941.112	179.03394
941.287	191.68993
941.462	179.03394
941.637	176.92467
941.812	170.59702
941.987	143.17933
942.162	94.67998
942.337	90.46319
942.512	153.72418
942.687	198.0182
942.862	217.0041
943.037	58.84015
943.212	111.54801
943.386	157.94226
943.561	111.54801
943.736	191.68993
943.911	126.30869
944.086	210.67529
944.26	160.05133
944.435	132.63502
944.61	149.50617
944.785	126.30869
944.959	124.19996
945.134	141.07043
945.309	132.63502
945.483	221.22341
945.658	122.09124
945.833	124.19996
946.007	48.30027
946.182	94.67998
946.357	217.0041
946.531	86.24649
946.706	27.22227
946.88	151.61516
947.055	132.63502
947.229	124.19996
947.404	90.46319
947.578	176.92467
947.752	98.89685
947.927	113.65661
948.101	168.48784
948.276	254.98069
948.45	191.68993
948.624	105.22233
948.799	181.14322
948.973	157.94226
949.147	128.41744
949.321	185.36184
949.496	174.81543
949.67	124.19996
949.844	174.81543
950.018	126.30869
950.193	198.0182
950.367	187.47118
950.541	183.25252
950.715	65.16435
950.889	98.89685
951.063	90.46319
951.237	168.48784
951.411	98.89685
951.585	200.12766
951.759	202.23715
951.933	94.67998
952.107	143.17933
952.281	160.05133
952.455	126.30869
952.629	195.90876
952.803	101.00532
952.977	132.63502
953.151	145.28826
953.325	208.56572
953.499	183.25252
953.672	103.11382
953.846	155.83321
954.02	141.07043
954.194	217.0041
954.368	208.56572
954.541	225.4428
954.715	128.41744
954.889	155.83321
955.062	107.33087
955.236	92.57157
955.41	174.81543
955.583	183.25252
955.757	128.41744
955.93	138.96154
956.104	200.12766
956.278	98.89685
956.451	98.89685
956.625	136.85268
956.798	111.54801
956.972	174.81543
957.145	126.30869
957.319	195.90876
957.492	157.94226
957.665	147.39721
957.839	138.96154
958.012	145.28826
958.185	103.11382
958.359	183.25252
958.532	149.50617
958.705	187.47118
958.879	122.09124
959.052	160.05133
959.225	151.61516
959.398	115.76524
959.572	94.67998
959.745	115.76524
959.918	141.07043
960.091	179.03394
960.264	138.96154
960.438	246.5409
960.611	113.65661
960.784	86.24649
960.957	94.67998
961.13	174.81543
961.303	124.19996
961.476	200.12766
961.649	126.30869
961.822	111.54801
961.995	107.33087
962.168	107.33087
962.341	132.63502
962.514	25.11459
962.686	141.07043
962.859	124.19996
963.032	128.41744
963.205	124.19996
963.378	65.16435
963.551	134.74384
963.723	141.07043
963.896	65.16435
964.069	153.72418
964.242	187.47118
964.414	151.61516
964.587	94.67998
964.76	202.23715
964.932	132.63502
965.105	115.76524
965.278	92.57157
965.45	73.59693
965.623	166.37868
965.795	67.27246
965.968	124.19996
966.14	134.74384
966.313	25.11459
966.485	134.74384
966.658	138.96154
966.83	92.57157
967.003	82.02988
967.175	117.87389
967.348	98.89685
967.52	98.89685
967.692	69.38059
967.865	90.46319
968.037	84.13817
968.209	210.67529
968.382	92.57157
968.554	84.13817
968.726	217.0041
968.898	84.13817
969.071	162.16043
969.243	119.98255
969.415	147.39721
969.587	41.97663
969.759	153.72418
969.932	115.76524
970.104	96.7884
970.276	71.48875
970.448	124.19996
970.62	25.11459
970.792	31.43768
970.964	90.46319
971.136	107.33087
971.308	82.02988
971.48	105.22233
971.652	86.24649
971.824	96.7884
971.996	35.65319
972.168	73.59693
972.339	46.19237
972.511	119.98255
972.683	88.35483
972.855	96.7884
973.027	86.24649
973.199	82.02988
973.37	90.46319
973.542	124.19996
973.714	141.07043
973.886	124.19996
974.057	107.33087
974.229	134.74384
974.401	73.59693
974.572	107.33087
974.744	101.00532
974.915	65.16435
975.087	128.41744
975.259	79.92161
975.43	37.76098
975.602	109.43943
975.773	39.86879
975.945	84.13817
976.116	69.38059
976.288	73.59693
976.459	141.07043
976.63	132.63502
976.802	105.22233
976.973	124.19996
977.145	-2.28298
977.316	143.17933
977.487	41.97663
977.659	31.43768
977.83	35.65319
978.001	48.30027
978.172	77.81336
978.344	115.76524
978.515	117.87389
978.686	96.7884
978.857	126.30869
979.028	58.84015
979.2	60.94819
979.371	54.62413
979.542	73.59693
979.713	109.43943
979.884	75.70514
980.055	4.03918
980.226	69.38059
980.397	82.02988
980.568	73.59693
980.739	-0.17561
980.91	-25.46235
981.081	107.33087
981.252	50.4082
981.423	52.51615
981.594	73.59693
981.765	126.30869
981.936	18.79172
982.106	67.27246
982.277	-29.67646
982.448	111.54801
982.619	-21.24814
982.79	23.00695
982.96	77.81336
983.131	-61.27913
983.302	-10.71218
983.472	39.86879
983.643	98.89685
983.814	41.97663
983.984	41.97663
984.155	143.17933
984.326	31.43768
984.496	98.89685
984.667	12.46906
984.837	82.02988
985.008	48.30027
985.178	48.30027
985.349	25.11459
985.519	35.65319
985.69	90.46319
985.86	14.57659
986.031	65.16435
986.201	90.46319
986.371	23.00695
986.542	73.59693
986.712	-50.74553
986.882	65.16435
987.053	27.22227
987.223	56.73213
987.393	35.65319
987.563	23.00695
987.734	90.46319
987.904	71.48875
988.074	23.00695
988.244	60.94819
988.414	-2.28298
988.585	65.16435
988.755	44.08449
988.925	56.73213
989.095	48.30027
989.265	-19.141
989.435	90.46319
989.605	77.81336
989.775	-31.78348
989.945	69.38059
990.115	56.73213
990.285	44.08449
990.455	-0.17561
990.625	107.33087
990.795	14.57659
990.965	-10.71218
991.134	23.00695
991.304	23.00695
991.474	50.4082
991.644	27.22227
991.814	65.16435
991.984	6.14661
992.153	6.14661
992.323	41.97663
992.493	50.4082
992.662	-10.71218
992.832	94.67998
993.002	-0.17561
993.171	41.97663
993.341	60.94819
993.511	124.19996
993.68	48.30027
993.85	79.92161
994.019	1.93177
994.189	10.36155
994.358	65.16435
994.528	82.02988
994.697	-33.89048
994.867	33.54542
995.036	-2.28298
995.206	56.73213
995.375	44.08449
995.544	23.00695
995.714	52.51615
995.883	-52.8523
996.052	6.14661
996.222	10.36155
996.391	-6.49763
996.56	23.00695
996.73	6.14661
996.899	-33.89048
997.068	-31.78348
997.237	48.30027
997.406	-50.74553
997.576	67.27246
997.745	-44.42508
997.914	60.94819
998.083	8.25407
998.252	39.86879
998.421	1.93177
998.59	23.00695
998.759	54.62413
998.928	-40.21131
999.097	-31.78348
999.266	25.11459
999.435	14.57659
999.604	84.13817
999.773	18.79172
999.942	31.43768
1000.111	41.97663
1000.28	56.73213
1000.448	-19.141
1000.617	31.43768
1000.786	56.73213
1000.955	16.68414
1001.124	-23.35526
1001.292	-19.141
1001.461	39.86879
1001.63	16.68414
1001.798	-19.141
1001.967	-12.81942
1002.136	-27.56942
1002.304	27.22227
1002.473	35.65319
1002.642	-25.46235
1002.81	25.11459
1002.979	48.30027
1003.147	4.03918
1003.316	23.00695
1003.484	41.97663
1003.653	-23.35526
1003.821	8.25407
1003.99	8.25407
1004.158	23.00695
1004.327	-10.71218
1004.495	-10.71218
1004.663	8.25407
1004.832	14.57659
1005	-44.42508
1005.168	10.36155
1005.337	41.97663
1005.505	58.84015
1005.673	41.97663
1005.842	14.57659
1006.01	14.57659
1006.178	20.89932
1006.346	-10.71218
1006.514	25.11459
1006.683	52.51615
1006.851	-73.91861
1007.019	37.76098
1007.187	65.16435
1007.355	39.86879
1007.523	14.57659
1007.691	33.54542
1007.859	-29.67646
1008.027	-6.49763
1008.195	73.59693
1008.363	-23.35526
1008.531	6.14661
1008.699	-6.49763
1008.867	-48.63874
1009.035	-42.31821
1009.203	82.02988
1009.37	-14.92664
1009.538	-52.8523
1009.706	39.86879
1009.874	18.79172
1010.042	-71.81209
1010.209	-14.92664
1010.377	4.03918
1010.545	-25.46235
1010.713	33.54542
1010.88	98.89685
1011.048	14.57659
1011.216	10.36155
1011.383	14.57659
1011.551	58.84015
1011.718	10.36155
1011.886	-8.60492
1012.054	31.43768
1012.221	41.97663
1012.389	-10.71218
1012.556	-23.35526
1012.724	-31.78348
1012.891	31.43768
1013.058	25.11459
1013.226	16.68414
1013.393	-23.35526
1013.561	-48.63874
1013.728	31.43768
1013.895	-69.70555
1014.063	6.14661
1014.23	8.25407
1014.397	14.57659
1014.565	-78.13156
1014.732	23.00695
1014.899	31.43768
1015.066	-6.49763
1015.233	-2.28298
1015.401	-80.238
1015.568	52.51615
1015.735	33.54542
1015.902	46.19237
1016.069	23.00695
1016.236	1.93177
1016.403	67.27246
1016.57	12.46906
1016.737	-4.39031
1016.904	-73.91861
1017.071	-21.24814
1017.238	-65.49239
1017.405	37.76098
1017.572	-59.17246
1017.739	-0.17561
1017.906	-40.21131
1018.073	25.11459
1018.24	41.97663
1018.407	41.97663
1018.573	6.14661
1018.74	-27.56942
1018.907	27.22227
1019.074	-23.35526
1019.241	44.08449
1019.407	23.00695
1019.574	-31.78348
1019.741	-52.8523
1019.907	23.00695
1020.074	-48.63874
1020.241	65.16435
1020.407	-21.24814
1020.574	-6.49763
1020.74	1.93177
1020.907	18.79172
1021.073	-2.28298
1021.24	-19.141
1021.406	6.14661
1021.573	-19.141
1021.739	48.30027
1021.906	73.59693
1022.072	-14.92664
1022.239	8.25407
1022.405	-48.63874
1022.571	-23.35526
1022.738	-48.63874
1022.904	18.79172
1023.07	16.68414
1023.237	14.57659
1023.403	-35.99745
1023.569	-33.89048
1023.735	-27.56942
1023.902	-52.8523
1024.068	46.19237
1024.234	31.43768
1024.4	-2.28298
1024.566	10.36155
1024.732	-76.0251
1024.898	65.16435
1025.065	10.36155
1025.231	39.86879
1025.397	33.54542
1025.563	1.93177
1025.729	-33.89048
1025.895	-0.17561
1026.061	48.30027
1026.227	-2.28298
1026.392	-50.74553
1026.558	8.25407
1026.724	65.16435
1026.89	-35.99745
1027.056	-59.17246
1027.222	10.36155
1027.388	50.4082
1027.553	16.68414
1027.719	-10.71218
1027.885	18.79172
1028.051	6.14661
1028.216	-82.34441
1028.382	-19.141
1028.548	-35.99745
1028.713	31.43768
1028.879	12.46906
1029.045	67.27246
1029.21	-14.92664
1029.376	50.4082
1029.541	4.03918
1029.707	-12.81942
1029.873	20.89932
1030.038	-10.71218
1030.204	39.86879
1030.369	6.14661
1030.534	-0.17561
1030.7	27.22227
1030.865	-40.21131
1031.031	27.22227
1031.196	23.00695
1031.361	-23.35526
1031.527	-29.67646
1031.692	-0.17561
1031.857	6.14661
1032.023	-76.0251
1032.188	-63.38577
1032.353	-50.74553
1032.518	-17.03383
1032.684	-76.0251
1032.849	-10.71218
1033.014	14.57659
1033.179	-31.78348
1033.344	23.00695
1033.509	60.94819
1033.674	-8.60492
1033.839	8.25407
1034.004	16.68414
1034.17	-48.63874
1034.335	41.97663
1034.5	-31.78348
1034.664	14.57659
1034.829	-10.71218
1034.994	35.65319
1035.159	16.68414
1035.324	48.30027
1035.489	-2.28298
1035.654	-48.63874
1035.819	-76.0251
1035.984	14.57659
1036.148	20.89932
1036.313	18.79172
1036.478	-17.03383
1036.643	-19.141
1036.807	31.43768
1036.972	31.43768
1037.137	-69.70555
1037.301	31.43768
1037.466	-27.56942
1037.631	1.93177
1037.795	48.30027
1037.96	39.86879
1038.124	54.62413
1038.289	-8.60492
1038.454	25.11459
1038.618	-42.31821
1038.783	6.14661
1038.947	60.94819
1039.111	-31.78348
1039.276	31.43768
1039.44	-44.42508
1039.605	23.00695
1039.769	-8.60492
1039.933	52.51615
1040.098	18.79172
1040.262	14.57659
1040.426	25.11459
1040.591	8.25407
1040.755	-0.17561
1040.919	-42.31821
1041.083	23.00695
1041.248	-31.78348
1041.412	18.79172
1041.576	-19.141
1041.74	6.14661
1041.904	-2.28298
1042.068	-10.71218
1042.232	52.51615
1042.397	6.14661
1042.561	73.59693
1042.725	27.22227
1042.889	-2.28298
1043.053	-59.17246
1043.217	14.57659
1043.381	-6.49763
1043.544	-33.89048
1043.708	-71.81209
1043.872	69.38059
1044.036	-48.63874
1044.2	-10.71218
1044.364	23.00695
1044.528	6.14661
1044.691	-19.141
1044.855	31.43768
1045.019	-19.141
1045.183	-31.78348
1045.346	-27.56942
1045.51	-57.06577
1045.674	10.36155
1045.837	-33.89048
1046.001	46.19237
1046.165	16.68414
1046.328	8.25407
1046.492	-19.141
1046.655	-17.03383
1046.819	-8.60492
1046.983	-42.31821
1047.146	-23.35526
1047.31	23.00695
1047.473	6.14661
1047.636	-73.91861
1047.8	-101.30096
1047.963	27.22227
1048.127	-21.24814
1048.29	-25.46235
