Data from mixed_try6.1_USB4F045381__22__00306.txt Node

Date: Thu Apr 03 20:33:33 EDT 2025
User: mmckonesweet
Spectrometer: USB4F04538
Trigger mode: 4
Integration Time (sec): 2.700000E-3
Scans to average: 1
Electric dark correction enabled: true
Nonlinearity correction enabled: true
Boxcar width: 0
XAxis mode: Wavelengths
Number of Pixels in Spectrum: 3648
>>>>>Begin Spectral Data<<<<<
345.52	-25.63794
345.736	-25.63794
345.952	-25.63794
346.168	52.34049
346.384	-2.45859
346.6	-31.95906
346.816	50.23254
347.032	-99.37029
347.248	5.97099
347.464	-17.20943
347.68	1.75615
347.896	-34.06606
348.112	75.52945
348.328	56.55646
348.544	58.66448
348.76	-38.27997
348.975	-27.74501
349.191	90.28749
349.407	14.40096
349.623	-19.31659
349.839	-6.67324
350.055	24.93896
350.27	24.93896
350.486	-38.27997
350.702	41.80097
350.918	14.40096
351.133	39.69314
351.349	39.69314
351.565	50.23254
351.781	-21.42373
351.996	-10.88778
352.212	-19.31659
352.428	67.09678
352.644	41.80097
352.859	-67.77453
353.075	18.61609
353.291	64.98867
353.506	37.58533
353.722	-34.06606
353.938	-19.31659
354.153	-78.3071
354.369	46.01671
354.584	22.83131
354.8	5.97099
355.016	14.40096
355.231	10.18593
355.447	48.12461
355.662	-25.63794
355.878	-61.45468
356.093	-76.20064
356.309	-19.31659
356.524	22.83131
356.74	5.97099
356.955	60.77252
357.171	1.75615
357.386	52.34049
357.602	10.18593
357.817	75.52945
358.033	22.83131
358.248	54.44846
358.464	22.83131
358.679	-17.20943
358.895	-27.74501
359.11	22.83131
359.325	-21.42373
359.541	14.40096
359.756	-8.78052
359.972	-10.88778
360.187	18.61609
360.402	-44.60065
360.618	33.36978
360.833	71.31307
361.048	33.36978
361.264	-15.10224
361.479	27.04663
361.694	8.07845
361.909	-48.81431
362.125	90.28749
362.34	31.26204
362.555	60.77252
362.77	37.58533
362.986	58.66448
363.201	-8.78052
363.416	77.63768
363.631	1.75615
363.847	54.44846
364.062	-65.66794
364.277	-34.06606
364.492	-10.88778
364.707	8.07845
364.922	33.36978
365.138	48.12461
365.353	5.97099
365.568	-10.88778
365.783	10.18593
365.998	3.86356
366.213	27.04663
366.428	-46.70749
366.643	27.04663
366.858	-74.09415
367.073	64.98867
367.288	31.26204
367.503	43.90883
367.718	-6.67324
367.933	31.26204
368.148	-59.34802
368.363	41.80097
368.578	-0.35123
368.793	64.98867
369.008	-19.31659
369.223	14.40096
369.438	5.97099
369.653	22.83131
369.868	3.86356
370.083	41.80097
370.298	31.26204
370.513	56.55646
370.728	-42.49378
370.943	22.83131
371.157	-6.67324
371.372	-63.56133
371.587	-27.74501
371.802	24.93896
372.017	-27.74501
372.232	39.69314
372.446	-27.74501
372.661	-48.81431
372.876	-2.45859
373.091	41.80097
373.306	10.18593
373.52	-19.31659
373.735	73.42125
373.95	64.98867
374.165	-48.81431
374.379	67.09678
374.594	-8.78052
374.809	33.36978
375.023	31.26204
375.238	5.97099
375.453	-0.35123
375.667	22.83131
375.882	5.97099
376.097	-23.53085
376.311	-48.81431
376.526	8.07845
376.741	5.97099
376.955	64.98867
377.17	39.69314
377.384	58.66448
377.599	14.40096
377.813	64.98867
378.028	58.66448
378.242	8.07845
378.457	1.75615
378.672	8.07845
378.886	18.61609
379.101	33.36978
379.315	119.80683
379.53	-40.38689
379.744	-34.06606
379.958	-31.95906
380.173	56.55646
380.387	5.97099
380.602	-19.31659
380.816	-10.88778
381.031	43.90883
381.245	5.97099
381.459	75.52945
381.674	56.55646
381.888	41.80097
382.103	60.77252
382.317	33.36978
382.531	98.72115
382.746	20.72369
382.96	5.97099
383.174	-50.9211
383.388	43.90883
383.603	31.26204
383.817	20.72369
384.031	-17.20943
384.246	-34.06606
384.46	5.97099
384.674	56.55646
384.888	1.75615
385.103	31.26204
385.317	5.97099
385.531	5.97099
385.745	31.26204
385.959	-36.17303
386.174	-40.38689
386.388	41.80097
386.602	-10.88778
386.816	-36.17303
387.03	41.80097
387.244	-44.60065
387.458	-2.45859
387.672	22.83131
387.887	-44.60065
388.101	39.69314
388.315	5.97099
388.529	-10.88778
388.743	14.40096
388.957	-36.17303
389.171	-2.45859
389.385	-2.45859
389.599	24.93896
389.813	58.66448
390.027	14.40096
390.241	-34.06606
390.455	48.12461
390.669	52.34049
390.883	-42.49378
391.097	-53.02787
391.311	-19.31659
391.525	-27.74501
391.738	-4.56592
391.952	-15.10224
392.166	-57.24133
392.38	-6.67324
392.594	62.88058
392.808	-8.78052
393.022	-19.31659
393.236	22.83131
393.449	16.50851
393.663	48.12461
393.877	39.69314
394.091	8.07845
394.305	-25.63794
394.518	-27.74501
394.732	-2.45859
394.946	8.07845
395.16	12.29343
395.373	56.55646
395.587	-25.63794
395.801	-21.42373
396.015	-27.74501
396.228	31.26204
396.442	-53.02787
396.656	31.26204
396.869	10.18593
397.083	-10.88778
397.297	-15.10224
397.51	56.55646
397.724	27.04663
397.938	-21.42373
398.151	58.66448
398.365	-21.42373
398.578	41.80097
398.792	-40.38689
399.005	20.72369
399.219	-34.06606
399.433	-10.88778
399.646	-65.66794
399.86	35.47754
400.073	56.55646
400.287	8.07845
400.5	-25.63794
400.714	-17.20943
400.927	81.85419
401.141	8.07845
401.354	-2.45859
401.567	14.40096
401.781	1.75615
401.994	-17.20943
402.208	-65.66794
402.421	-2.45859
402.635	-2.45859
402.848	14.40096
403.061	-2.45859
403.275	-2.45859
403.488	22.83131
403.701	48.12461
403.915	77.63768
404.128	33.36978
404.341	39.69314
404.555	22.83131
404.768	69.20492
404.981	43.90883
405.195	14.40096
405.408	-61.45468
405.621	37.58533
405.834	14.40096
406.048	-0.35123
406.261	31.26204
406.474	22.83131
406.687	-19.31659
406.9	-8.78052
407.114	-15.10224
407.327	-0.35123
407.54	88.17913
407.753	12.29343
407.966	73.42125
408.179	16.50851
408.392	18.61609
408.605	-0.35123
408.819	35.47754
409.032	48.12461
409.245	48.12461
409.458	5.97099
409.671	-15.10224
409.884	-2.45859
410.097	52.34049
410.31	3.86356
410.523	1.75615
410.736	22.83131
410.949	8.07845
411.162	33.36978
411.375	14.40096
411.588	-69.8811
411.801	-40.38689
412.014	3.86356
412.227	27.04663
412.44	-36.17303
412.653	-2.45859
412.865	50.23254
413.078	3.86356
413.291	5.97099
413.504	27.04663
413.717	1.75615
413.93	-21.42373
414.143	24.93896
414.356	-34.06606
414.568	14.40096
414.781	52.34049
414.994	5.97099
415.207	56.55646
415.42	67.09678
415.632	33.36978
415.845	-6.67324
416.058	50.23254
416.271	60.77252
416.483	5.97099
416.696	5.97099
416.909	92.39587
417.121	-10.88778
417.334	43.90883
417.547	-0.35123
417.759	-61.45468
417.972	-44.60065
418.185	27.04663
418.397	92.39587
418.61	-10.88778
418.823	33.36978
419.035	-2.45859
419.248	-34.06606
419.46	-19.31659
419.673	-40.38689
419.885	5.97099
420.098	24.93896
420.311	-42.49378
420.523	-38.27997
420.736	18.61609
420.948	31.26204
421.161	69.20492
421.373	-10.88778
421.586	-10.88778
421.798	98.72115
422.01	-25.63794
422.223	-21.42373
422.435	18.61609
422.648	5.97099
422.86	-71.98763
423.073	27.04663
423.285	24.93896
423.497	18.61609
423.71	-19.31659
423.922	22.83131
424.134	14.40096
424.347	33.36978
424.559	16.50851
424.771	48.12461
424.984	12.29343
425.196	16.50851
425.408	29.15432
425.621	64.98867
425.833	-10.88778
426.045	-8.78052
426.257	73.42125
426.47	31.26204
426.682	90.28749
426.894	52.34049
427.106	8.07845
427.318	58.66448
427.531	24.93896
427.743	39.69314
427.955	73.42125
428.167	33.36978
428.379	39.69314
428.591	-8.78052
428.804	50.23254
429.016	-27.74501
429.228	-2.45859
429.44	14.40096
429.652	35.47754
429.864	41.80097
430.076	22.83131
430.288	10.18593
430.5	50.23254
430.712	5.97099
430.924	31.26204
431.136	60.77252
431.348	-31.95906
431.56	14.40096
431.772	5.97099
431.984	35.47754
432.196	-12.99502
432.408	54.44846
432.62	73.42125
432.832	39.69314
433.044	-27.74501
433.256	-4.56592
433.468	24.93896
433.679	54.44846
433.891	43.90883
434.103	24.93896
434.315	-8.78052
434.527	-48.81431
434.739	-38.27997
434.95	14.40096
435.162	33.36978
435.374	79.74592
435.586	18.61609
435.798	12.29343
436.009	16.50851
436.221	60.77252
436.433	24.93896
436.645	10.18593
436.856	54.44846
437.068	-10.88778
437.28	98.72115
437.491	69.20492
437.703	1.75615
437.915	-6.67324
438.126	3.86356
438.338	24.93896
438.55	54.44846
438.761	5.97099
438.973	94.50427
439.184	86.0708
439.396	90.28749
439.608	64.98867
439.819	52.34049
440.031	-12.99502
440.242	-48.81431
440.454	73.42125
440.665	-12.99502
440.877	-0.35123
441.088	-34.06606
441.3	71.31307
441.511	75.52945
441.723	-42.49378
441.934	8.07845
442.146	8.07845
442.357	1.75615
442.569	151.43941
442.78	-19.31659
442.991	46.01671
443.203	39.69314
443.414	16.50851
443.626	-93.05161
443.837	-55.13461
444.048	24.93896
444.26	64.98867
444.471	14.40096
444.682	14.40096
444.894	1.75615
445.105	18.61609
445.316	33.36978
445.528	-63.56133
445.739	8.07845
445.95	-34.06606
446.161	109.26371
446.373	48.12461
446.584	22.83131
446.795	39.69314
447.006	64.98867
447.217	22.83131
447.429	-27.74501
447.64	22.83131
447.851	-17.20943
448.062	39.69314
448.273	22.83131
448.484	5.97099
448.695	50.23254
448.907	48.12461
449.118	27.04663
449.329	22.83131
449.54	31.26204
449.751	48.12461
449.962	31.26204
450.173	22.83131
450.384	37.58533
450.595	14.40096
450.806	98.72115
451.017	14.40096
451.228	1.75615
451.439	73.42125
451.65	37.58533
451.861	-61.45468
452.072	5.97099
452.283	22.83131
452.494	-42.49378
452.705	41.80097
452.915	113.4809
453.126	48.12461
453.337	56.55646
453.548	-19.31659
453.759	-31.95906
453.97	81.85419
454.181	50.23254
454.391	56.55646
454.602	18.61609
454.813	37.58533
455.024	12.29343
455.235	8.07845
455.445	-6.67324
455.656	-71.98763
455.867	-2.45859
456.078	-8.78052
456.288	39.69314
456.499	77.63768
456.71	29.15432
456.921	64.98867
457.131	37.58533
457.342	60.77252
457.553	-2.45859
457.763	1.75615
457.974	-15.10224
458.184	48.12461
458.395	43.90883
458.606	107.15516
458.816	20.72369
459.027	-42.49378
459.237	37.58533
459.448	-8.78052
459.659	-17.20943
459.869	117.69816
460.08	22.83131
460.29	107.15516
460.501	8.07845
460.711	43.90883
460.922	86.0708
461.132	-42.49378
461.343	10.18593
461.553	14.40096
461.764	18.61609
461.974	31.26204
462.184	60.77252
462.395	5.97099
462.605	-2.45859
462.816	90.28749
463.026	16.50851
463.236	48.12461
463.447	86.0708
463.657	-2.45859
463.867	-23.53085
464.078	83.96248
464.288	31.26204
464.498	109.26371
464.709	35.47754
464.919	27.04663
465.129	54.44846
465.339	22.83131
465.55	35.47754
465.76	27.04663
465.97	58.66448
466.18	43.90883
466.391	-0.35123
466.601	27.04663
466.811	105.04662
467.021	16.50851
467.231	35.47754
467.441	75.52945
467.651	132.45929
467.862	79.74592
468.072	-44.60065
468.282	81.85419
468.492	92.39587
468.702	33.36978
468.912	75.52945
469.122	96.6127
469.332	54.44846
469.542	48.12461
469.752	79.74592
469.962	39.69314
470.172	27.04663
470.382	64.98867
470.592	62.88058
470.802	153.54842
471.012	73.42125
471.222	8.07845
471.432	1.75615
471.642	111.37229
471.852	56.55646
472.062	56.55646
472.272	100.82962
472.482	27.04663
472.691	67.09678
472.901	67.09678
473.111	124.02423
473.321	22.83131
473.531	100.82962
473.741	166.20292
473.95	31.26204
474.16	147.22146
474.37	96.6127
474.58	31.26204
474.79	124.02423
474.999	73.42125
475.209	102.93811
475.419	41.80097
475.628	145.11251
475.838	195.73297
476.048	-31.95906
476.258	124.02423
476.467	140.89469
476.677	166.20292
476.886	73.42125
477.096	231.59621
477.306	109.26371
477.515	202.06136
477.725	136.67694
477.935	145.11251
478.144	102.93811
478.354	195.73297
478.563	254.80485
478.773	136.67694
478.982	227.37671
479.192	140.89469
479.401	218.93794
479.611	212.60907
479.82	136.67694
480.03	199.95188
480.239	212.60907
480.449	81.85419
480.658	221.0476
480.868	157.7665
481.077	208.38993
481.287	170.42125
481.496	259.02486
481.705	168.31207
481.915	183.07674
482.124	278.01581
482.333	242.1453
482.543	235.81579
482.752	259.02486
482.961	313.8917
483.171	265.355
483.38	221.0476
483.589	284.34646
483.799	330.77629
484.008	244.25518
484.217	250.58493
484.426	299.11864
484.636	292.78759
484.845	372.99264
485.054	343.44047
485.263	406.7706
485.472	269.5752
485.682	303.33942
485.891	362.43791
486.1	379.32569
486.309	305.44984
486.518	385.65888
486.727	391.99222
486.936	451.11047
487.146	417.32708
487.355	421.54978
487.564	427.88395
487.773	461.6686
487.982	432.10681
488.191	491.23337
488.4	370.88166
488.609	588.39456
488.818	448.99889
489.027	563.04536
489.236	497.56906
489.445	579.94462
489.654	514.46487
489.863	584.16957
490.072	478.56239
490.281	573.6073
490.49	571.49488
490.698	527.13733
490.907	607.4077
491.116	757.43422
491.325	565.15772
491.534	708.82785
491.743	634.87293
491.952	691.92262
492.16	725.73377
492.369	755.32078
492.578	759.54766
492.787	748.98054
492.996	793.36416
493.204	835.63822
493.413	818.72815
493.622	875.80189
493.831	846.2073
494.039	994.19557
494.248	911.74035
494.457	886.37178
494.665	934.99584
494.874	880.02982
495.083	755.32078
495.291	977.28082
495.5	977.28082
495.709	1011.11074
495.917	894.82784
496.126	947.68104
496.335	825.06936
496.543	975.1665
496.752	1078.77523
496.96	994.19557
497.169	1038.59873
497.377	994.19557
497.586	1044.94226
497.794	1137.98605
498.003	1078.77523
498.211	1051.28583
498.42	1055.51491
498.628	1218.34889
498.837	1112.60953
499.045	1106.2655
499.254	1222.57865
499.462	1294.48636
499.671	1201.42996
499.879	1404.4672
500.087	1260.64707
500.296	1343.13127
500.504	1256.4172
500.713	1366.39652
500.921	1366.39652
501.129	1247.95749
501.338	1311.40622
501.546	1499.64446
501.754	1300.83129
501.962	1404.4672
502.171	1434.07789
502.379	1467.91872
502.587	1383.31679
502.795	1376.97168
503.004	1383.31679
503.212	1647.69462
503.42	1535.60012
503.628	1647.69462
503.837	1419.27253
504.045	1626.54513
504.253	1647.69462
504.461	1675.1886
504.669	1757.66746
504.877	1795.73279
505.085	1577.9005
505.294	1615.9703
505.502	1778.81503
505.71	1692.10773
505.918	1613.85532
506.126	1884.54634
506.334	1785.15922
506.542	1920.49217
506.75	1838.02599
506.958	1977.57923
507.166	1759.78224
507.374	1969.12216
507.582	1945.86473
507.79	1950.09341
507.998	1893.00432
508.206	2106.53629
508.414	1789.38866
508.622	2051.57414
508.83	1873.97375
509.037	2110.76394
509.245	1768.24129
509.453	1990.26464
509.661	2055.80217
509.869	2246.03171
510.077	2049.46012
510.285	2100.19475
510.492	2227.01177
510.7	2222.78502
510.908	2043.118
511.116	2279.84312
511.324	2220.67163
511.531	2127.67423
511.739	2144.58402
511.947	2220.67163
512.155	2296.74795
512.362	2256.59802
512.57	2172.06135
512.778	2336.89446
512.985	2239.69181
513.193	2372.81202
513.401	2271.39049
513.608	2524.89979
513.816	2309.42617
514.024	2408.72664
514.231	2178.40207
514.439	2605.14473
514.646	2467.87349
514.854	2425.6266
515.061	2317.87812
515.269	2645.26067
515.477	2389.71339
515.684	2425.6266
515.892	2571.35947
516.099	2592.47562
516.307	2508.00397
516.514	2550.24214
516.722	2539.68303
516.929	2824.66976
517.136	2643.14941
517.344	2854.21012
517.551	2717.03573
517.759	2854.21012
517.966	2634.70427
518.173	2898.51545
518.381	2984.99784
518.588	2997.6517
518.796	2771.91237
519.003	2972.34344
519.21	2558.68921
519.418	2982.88881
519.625	2866.86943
519.832	3044.04449
520.039	2852.10019
520.247	3060.91274
520.454	2921.72047
520.661	3159.99338
520.868	2921.72047
521.076	3031.39264
521.283	2854.21012
521.49	3105.18715
521.697	3235.86075
521.904	3235.86075
522.112	2921.72047
522.319	3216.89591
522.526	2972.34344
522.733	3345.4086
522.94	3166.31647
523.147	3191.60737
523.354	3334.87716
523.561	3296.96043
523.768	3071.4549
523.975	3353.83343
524.183	3143.13108
524.39	3423.32764
524.597	3345.4086
524.804	3562.25752
525.011	3387.52999
525.218	3339.08979
525.425	3469.64637
525.632	3488.59243
525.838	3457.01485
526.045	3595.92545
526.252	3438.06635
526.459	3446.48809
526.666	3663.24692
526.873	3612.75763
527.08	3486.48738
527.287	3604.34169
527.494	3532.79418
527.701	3789.42192
527.907	3715.82828
528.114	3823.05675
528.321	3713.72526
528.528	3942.83948
528.735	3747.37133
528.941	3774.7051
529.148	3717.93129
529.355	3772.60262
529.562	3751.57674
529.768	4024.75827
529.975	3806.23997
530.182	3888.20981
530.388	3774.7051
530.595	4022.65818
530.802	3919.72859
531.008	4171.71323
531.215	4094.04975
531.422	3947.0412
531.628	3976.45094
531.835	4091.95034
532.042	3997.45546
532.248	4075.15432
532.455	4100.34786
532.661	4257.739
532.868	4219.97598
533.074	4419.20214
533.281	4280.81299
533.487	4142.33042
533.694	4396.14385
533.9	4463.21517
534.107	4205.28851
534.313	4446.44944
534.52	4486.26575
534.726	4563.77991
534.933	4129.73653
535.139	4557.49611
535.345	4310.17614
535.552	4421.29822
535.758	4549.11739
535.965	4578.44133
536.171	4335.34118
536.377	4536.54866
536.584	4605.6668
536.79	4599.38433
536.996	4565.87446
537.203	4716.62377
537.409	4578.44133
537.615	4647.54476
537.821	4515.59899
538.028	4722.90246
538.234	4708.25186
538.44	4904.8957
538.646	4771.03235
538.853	4856.79932
539.059	4708.25186
539.265	4909.07742
539.471	4754.29287
539.677	5076.27083
539.883	4950.8896
540.09	5021.94917
540.296	4827.51734
540.502	5105.51447
540.708	4927.89404
540.914	5072.0928
541.12	4921.62204
541.326	5034.48632
541.532	5051.20124
541.738	5230.79276
541.944	5001.05206
542.15	5143.10675
542.356	5138.9302
542.562	5270.44672
542.768	5095.07084
542.974	5289.22722
543.18	5124.31155
543.386	5474.84335
543.592	5312.17861
543.798	5230.79276
544.004	5166.07611
544.21	5420.63765
544.415	5372.6732
544.621	5622.78557
544.827	5293.40041
545.033	5545.70374
545.239	5314.26495
545.445	5909.99507
545.651	5493.60316
545.856	5562.37281
546.062	5451.91211
546.268	5604.0389
546.474	5272.53353
546.679	5435.23305
546.885	5539.45245
547.091	5718.572
547.297	5401.87043
547.502	5722.7355
547.708	5481.09684
547.914	5551.95482
548.119	5697.75311
548.325	5664.43798
548.531	5504.02446
548.736	5660.27316
548.942	5537.36864
549.147	5847.59645
549.353	5851.75702
549.559	5660.27316
549.764	5787.2576
549.97	5791.41954
550.175	5562.37281
550.381	5808.06634
550.586	5587.3736
550.792	6105.37334
550.997	5810.14709
551.203	5724.81721
551.408	5833.03372
551.614	5957.81963
551.819	5982.76662
552.025	6317.1446
552.23	6138.60851
552.435	6138.60851
552.641	6076.28764
552.846	6254.88425
553.052	5895.43729
553.257	6304.69421
553.462	6188.44998
553.668	6352.41612
553.873	6105.37334
554.078	6389.75509
554.283	6437.45501
554.489	6319.21958
554.694	6398.05161
554.899	6395.97752
555.105	6105.37334
555.31	6331.66898
555.515	6279.79091
555.72	6524.52748
555.925	6248.65705
556.131	6597.05664
556.336	6499.65381
556.541	6536.96306
556.746	6393.9034
556.951	6628.13191
557.156	6354.49071
557.361	6570.12054
557.567	6603.27211
557.772	6760.66155
557.977	6549.39781
558.182	6839.30666
558.387	6696.47925
558.592	6661.27314
558.797	6615.70242
559.002	6681.98342
559.207	6673.69958
559.412	6466.48372
559.617	6754.45132
559.822	6655.05961
560.027	6594.98477
560.232	6594.98477
560.437	6532.81796
560.642	6785.50041
560.847	6928.26018
561.051	6866.20401
561.256	6762.73158
561.461	7044.04396
561.666	6704.76207
561.871	7039.91004
562.076	6760.66155
562.281	7099.84312
562.485	6756.52142
562.69	6957.21275
562.895	6951.009
563.1	6917.9189
563.305	6979.9581
563.509	7223.78306
563.714	7039.91004
563.919	7095.71041
564.123	6816.54435
564.328	7058.51198
564.533	6984.09332
564.737	7147.36289
564.942	7004.76809
565.147	7163.88874
565.351	7023.37346
565.556	7184.54406
565.761	7232.04289
565.965	7343.51603
566.17	6946.87305
566.374	7137.03351
566.579	7341.45229
566.784	7238.23752
566.988	7366.21568
567.193	7203.13195
567.397	7046.11089
567.602	7271.27223
567.806	7116.37307
568.011	7547.71831
568.215	7316.68575
568.42	7599.25114
568.624	7335.26095
568.828	7438.4243
569.033	7351.77075
569.237	7603.37319
569.442	7430.17324
569.646	7308.42954
569.85	7273.33671
570.055	7562.14885
570.259	7489.98563
570.463	7745.53194
570.668	7483.79898
570.872	7784.65949
571.076	7580.70086
571.281	7834.07299
571.485	7615.73883
571.689	7656.95209
571.893	7646.64957
572.098	7743.47239
572.302	7829.95565
572.506	7838.19024
572.71	7762.00762
572.914	8000.75557
573.119	7726.9952
573.323	7951.38219
573.527	7743.47239
573.731	7969.89859
573.935	8037.77791
574.139	7949.32471
574.343	7595.129
574.547	7986.35622
574.751	7926.69108
574.955	7891.70694
575.159	7813.48549
575.364	8039.83451
575.568	7910.2287
575.772	7994.58454
575.976	8006.92642
576.18	7908.17081
576.383	8041.89109
576.587	8008.98333
576.791	7869.06697
576.995	8072.73741
577.199	7858.77524
577.403	8200.18756
577.607	8152.91663
577.811	8111.8029
578.015	8177.58104
578.219	8198.13252
578.422	8064.51217
578.626	8298.80617
578.83	8212.51737
579.034	8185.80187
579.238	8187.85703
579.442	8202.24257
579.645	8346.0449
579.849	8274.15577
580.053	8228.95602
580.257	8561.5703
580.46	8545.15672
580.664	8639.51841
580.868	8270.0471
581.071	8469.22811
581.275	8557.46702
581.479	8676.4318
581.682	8598.49646
581.886	8356.31283
582.09	8664.128
582.293	8600.54774
582.497	8563.62192
582.7	8641.56931
582.904	8684.63395
583.107	8582.08559
583.311	8821.97643
583.515	9002.24349
583.718	8528.74192
583.922	8985.86125
584.125	8797.3838
584.329	9028.86223
584.532	8758.44011
584.735	8965.38187
584.939	8750.2406
585.142	8770.73883
585.346	8694.88624
585.549	8885.49536
585.753	8668.22934
585.956	9104.60716
586.159	8707.18837
586.363	9256.02659
586.566	8981.76552
586.769	9043.19418
586.973	8977.66971
587.176	8985.86125
587.379	8862.95836
587.582	9090.27886
587.786	8973.57383
587.989	9141.4475
588.192	9206.92777
588.395	8930.56287
588.599	8969.47789
588.802	9325.56675
589.005	9247.84413
589.208	9182.37471
589.411	9356.24014
589.615	9290.79908
589.818	9335.79163
590.021	9323.52173
590.224	9080.04384
590.427	9409.39859
590.63	9288.75377
590.833	9429.84122
591.036	9274.43615
591.239	9480.9407
591.442	9360.32965
591.645	9583.10967
591.848	9605.58154
592.051	9746.49859
592.254	9626.00886
592.457	9695.45016
592.66	9378.73161
592.863	9442.10601
593.066	9517.72611
593.269	9834.27973
593.472	9564.72218
593.675	9707.70265
593.878	9717.91265
594.081	9487.07196
594.284	9425.75282
594.486	9756.70713
594.689	9807.74418
594.892	9930.19503
595.095	9670.94351
595.298	9973.04034
595.5	9777.12308
595.703	10017.91905
595.906	9770.99846
596.109	9895.50602
596.311	9997.5205
596.514	10079.10615
596.717	10005.68009
596.92	10091.34204
597.122	9826.11521
597.325	9950.59836
597.528	9803.66156
597.73	9956.71907
597.933	9891.42468
598.136	10064.8303
598.338	9960.79947
598.541	10054.63285
598.743	10130.08568
598.946	10242.21011
599.148	10211.63484
599.351	10386.89195
599.554	10046.47462
599.756	10272.78232
599.959	10223.86532
600.161	10209.59638
600.363	10044.43503
600.566	10297.23791
600.768	9934.27581
600.971	10132.12468
601.173	10140.28054
601.376	10350.2184
601.578	10456.15266
601.78	10592.59366
601.983	9962.83965
602.185	10307.42716
602.388	10195.32678
602.59	10150.47505
602.792	10315.57833
602.995	10203.48092
603.197	10307.42716
603.399	10783.9247
603.601	10535.58045
603.804	10368.55571
604.006	10445.9682
604.208	10272.78232
604.41	10236.0953
604.613	10156.59159
604.815	10384.85464
605.017	10474.48388
605.219	10458.18952
605.421	10121.92955
605.623	10289.08626
605.826	10531.5077
606.028	10366.51828
606.23	10745.26
606.432	10667.91762
606.634	10997.52239
606.836	10494.85067
607.038	10390.96653
607.24	10488.74077
607.442	10718.80272
607.644	10372.63052
607.846	10547.79839
608.048	10600.73761
608.25	10659.7753
608.452	10517.25268
608.654	10796.13372
608.856	10665.88206
609.058	10889.72221
609.26	10761.54039
609.462	10562.05209
609.664	10555.94344
609.866	11028.02617
610.067	10747.29509
610.269	10891.75647
610.471	10657.73969
610.673	10830.72364
610.875	11011.7578
611.077	11093.09263
611.278	10796.13372
611.48	10629.23986
611.682	10665.88206
611.884	11015.82496
612.085	10865.31019
612.287	10877.51641
612.489	10749.33017
612.69	10674.02424
612.892	10822.58514
613.094	10889.72221
613.295	10735.08436
613.497	10967.01612
613.699	10851.06907
613.9	10981.25269
614.102	11034.12663
614.304	10981.25269
614.505	10985.32019
614.707	10944.64325
614.908	10586.48557
615.11	11034.12663
615.311	10828.68903
615.513	10981.25269
615.714	11054.46077
615.916	11074.79382
616.117	10903.9618
616.319	10979.21893
616.52	10804.27283
616.722	10912.09845
616.923	10889.72221
617.124	11265.87227
617.326	10863.27578
617.527	10822.58514
617.729	11068.69402
617.93	11070.72729
618.131	11097.15892
618.333	10993.45504
618.534	11385.75788
618.735	11072.76056
618.937	10936.50732
619.138	10812.41175
619.339	10800.20329
619.54	10967.01612
619.742	11219.12761
619.943	11235.38724
620.144	11105.29135
620.345	11532.01258
620.546	11084.95993
620.748	11536.0745
620.949	11410.13715
621.15	11237.41965
621.351	11021.92561
621.552	11269.93676
621.753	10962.94843
621.954	11105.29135
622.155	10938.54132
622.356	11178.47561
622.558	11056.49412
622.759	11237.41965
622.96	10942.60928
623.161	11200.83472
623.362	11174.41017
623.563	11225.22505
623.764	11076.82706
623.965	11639.64101
624.166	11436.54644
624.366	11540.13639
624.567	11109.35751
624.768	11190.67165
624.969	11009.7242
625.17	11410.13715
625.371	11125.6217
625.572	11615.27458
625.773	11276.03343
625.973	11373.56772
626.174	11239.45204
626.375	11399.9793
626.576	11357.31361
626.777	11393.88446
626.977	11178.47561
627.178	11702.58164
627.379	11404.04247
627.58	11300.41918
627.78	11426.38921
627.981	11540.13639
628.182	11363.40897
628.382	11513.73346
628.583	11467.01665
628.784	11611.21337
628.984	11286.19434
629.185	11509.67133
629.386	11206.93244
629.586	11497.48471
629.787	11363.40897
629.987	11475.14168
630.188	11267.90452
630.388	11562.4761
630.589	11404.04247
630.79	11810.17017
630.99	11276.03343
631.191	11406.07404
631.391	11657.91499
631.591	11542.16732
631.792	11343.09074
631.992	11777.69318
632.193	11594.96821
632.393	11538.10545
632.594	11580.7532
632.794	11399.9793
632.994	11511.7024
633.195	11596.99888
633.395	11213.03007
633.595	11440.60926
633.796	11765.51374
633.996	11763.4838
634.196	11617.30516
634.397	12041.50705
634.597	11698.52121
634.797	11994.84229
634.997	11402.01089
635.198	11830.46718
635.398	11491.39127
635.598	11844.67458
635.798	11765.51374
635.998	11546.22915
636.199	11877.14709
636.399	11998.90026
636.599	11836.55611
636.799	11836.55611
636.999	11666.03652
637.199	11491.39127
637.399	11970.4938
637.599	11972.52288
637.799	11690.40025
637.999	12246.37824
638.199	11929.9104
638.399	12108.45362
638.599	11779.72306
638.799	11990.78429
638.999	12031.36289
639.199	12065.85223
639.399	11696.49098
639.599	12217.98478
639.799	11927.88114
639.999	12175.3919
640.199	12248.40629
640.399	12071.93835
640.599	11716.79285
640.799	12380.2144
640.998	12061.79478
641.198	12155.10844
641.398	11911.64681
641.598	12116.56779
641.798	11869.02917
641.997	11858.88157
642.197	11893.38255
642.397	12260.57444
642.597	12015.13183
642.796	12355.88281
642.996	11980.63915
643.196	12098.31074
643.395	11795.96176
643.595	12088.16766
643.795	12045.56465
643.994	12094.25353
644.194	11901.50008
644.394	12378.18681
644.593	12122.65333
644.793	12404.54502
644.992	12157.13682
645.192	12406.57252
645.392	12069.90965
645.591	12146.99484
645.791	12179.44851
645.99	12333.57798
646.19	12290.99369
646.389	12363.99345
646.589	12272.74233
646.788	12136.85268
646.987	12132.79576
647.187	12266.65842
647.386	12337.63346
647.586	12288.96579
647.785	12489.69461
647.984	12668.06674
648.184	12420.76489
648.383	12503.88508
648.582	12343.71664
648.782	12666.04005
648.981	12250.43433
649.18	12544.42757
649.38	12416.70996
649.579	12428.87466
649.778	12422.79234
649.977	12755.20882
650.177	12183.50508
650.376	12368.04873
650.575	12341.68892
650.774	12441.03913
650.973	12684.28004
651.173	12704.54613
651.372	12546.45463
651.571	12645.77283
651.77	12260.57444
651.969	12477.53109
652.168	12317.35575
652.367	12607.26345
652.566	12672.1201
652.765	12692.38655
652.964	12400.48998
653.163	12293.02158
653.362	12473.47653
653.561	12495.77628
653.76	12116.56779
653.959	12445.09389
654.158	12615.37087
654.357	12998.34155
654.556	12769.39372
654.755	12694.41316
654.954	12629.55862
655.153	12777.49926
655.352	12540.37344
655.551	12745.07657
655.749	12591.04831
655.948	12911.22783
656.147	12305.18879
656.346	12866.65427
656.545	12611.31717
656.743	12747.10303
656.942	12370.07636
657.141	12761.2881
657.34	12396.43492
657.538	12864.62814
657.737	12820.05185
657.936	12984.16089
658.135	12767.36732
658.333	12919.33183
658.532	13125.9566
658.731	12850.44506
658.929	12566.72486
659.128	12809.9205
659.326	12763.31451
659.525	12953.77293
659.724	12722.78512
659.922	12761.2881
660.121	12655.90652
660.319	12428.87466
660.518	12520.10239
660.716	12844.36652
660.915	12917.30584
661.113	13014.54772
661.312	12854.4974
661.51	12830.18306
661.709	13077.34361
661.907	13158.36376
662.105	12917.30584
662.304	13174.56689
662.502	12901.0977
662.701	12959.85061
662.899	12674.14677
663.097	12870.70652
663.296	12947.6952
663.494	13042.90774
663.692	12714.67896
663.891	12777.49926
664.089	12688.33331
664.287	12884.88922
664.485	12822.0781
664.684	13255.57825
664.882	12907.17579
665.08	12722.78512
665.278	12941.61742
665.476	13174.56689
665.675	12976.05755
665.873	13241.40177
666.071	12813.97306
666.269	13004.4189
666.467	12528.21088
666.665	13036.83067
666.863	12747.10303
667.061	13111.77809
667.259	12963.90238
667.457	13393.28182
667.655	13004.4189
667.853	13095.5738
668.051	12801.81533
668.249	12801.81533
668.447	12828.15683
668.645	12972.00585
668.843	13113.80361
669.041	13079.36921
669.239	12852.47123
669.437	13012.52196
669.635	12935.5396
669.833	12980.10923
670.031	12771.42012
670.229	13081.3948
670.426	12866.65427
670.624	12799.78902
670.822	12726.83816
671.02	12990.23835
671.218	12420.76489
671.415	12809.9205
671.613	12955.79883
671.811	12761.2881
672.009	12686.30668
672.206	13028.72785
672.404	13077.34361
672.602	12769.39372
672.799	12801.81533
672.997	13281.90543
673.195	12943.64335
673.392	13223.17456
673.59	12805.86793
673.788	12923.38381
673.985	12580.91365
674.183	12848.41888
674.38	12913.25384
674.578	13055.06174
674.775	13119.88013
674.973	13032.77927
675.17	12915.27984
675.368	12967.95412
675.565	13030.75356
675.763	13053.03608
675.96	12931.48769
676.158	12990.23835
676.355	12706.57271
676.553	13132.03303
676.75	12672.1201
676.947	12793.71006
677.145	12899.07166
677.342	13014.54772
677.539	12836.26172
677.737	13411.50587
677.934	13053.03608
678.131	12972.00585
678.329	13247.47743
678.526	13095.5738
678.723	12915.27984
678.92	13154.31293
679.118	13014.54772
679.315	12730.89118
679.512	12990.23835
679.709	12961.8765
679.906	12617.39771
680.104	12795.73639
680.301	12659.95995
680.498	12465.36734
680.695	12327.49469
680.892	12615.37087
681.089	12325.46692
681.286	12548.48168
681.483	12501.85789
681.68	12700.49296
681.877	12775.47288
682.075	12868.6804
682.272	12623.47819
682.469	12939.59148
682.665	12720.75859
682.862	12963.90238
683.059	12771.42012
683.256	12753.18238
683.453	12765.34092
683.65	12698.46637
683.847	12655.90652
684.044	12955.79883
684.241	12947.6952
684.438	12785.6047
684.635	12363.99345
684.831	12690.35993
685.028	12554.5628
685.225	12967.95412
685.422	12453.20335
685.619	12838.28792
685.815	12489.69461
686.012	12629.55862
686.209	12459.28537
686.405	12609.29031
686.602	12355.88281
686.799	12357.91048
686.996	12149.02325
687.192	12473.47653
687.389	12201.7593
687.586	12461.3127
687.782	12511.99379
687.979	12747.10303
688.175	12572.8058
688.372	12591.04831
688.568	12536.31928
688.765	12538.34636
688.962	12307.21664
689.158	12187.56163
689.355	12416.70996
689.551	12335.60572
689.748	12246.37824
689.944	12639.69255
690.14	12457.25804
690.337	12601.18282
690.533	12536.31928
690.73	12307.21664
690.926	12436.98433
691.123	12114.53926
691.319	12303.16094
691.515	12199.73108
691.712	12108.45362
691.908	12351.82744
692.104	12595.10213
692.301	12603.2097
692.497	12503.88508
692.693	12203.78751
692.889	12177.42021
693.086	12274.77029
693.282	12366.02109
693.478	12082.08173
693.674	11998.90026
693.87	12325.46692
694.067	12290.99369
694.263	12118.59631
694.459	12130.76729
694.655	12736.97067
694.851	12299.10522
695.047	12361.9658
695.243	12530.23799
695.439	12530.23799
695.635	12153.08005
695.831	12268.68639
696.027	12128.73881
696.224	12078.0244
696.42	12189.58989
696.615	12481.58562
696.811	12244.35018
697.007	12451.176
697.203	12410.62752
697.399	12501.85789
697.595	12412.65501
697.791	12258.54643
697.987	12078.0244
698.183	12349.79975
698.379	12201.7593
698.575	12595.10213
698.77	12187.56163
698.966	12297.07735
699.162	12211.90028
699.358	12420.76489
699.554	11974.55196
699.749	12331.55022
699.945	12187.56163
700.141	11956.28998
700.337	12116.56779
700.532	12136.85268
700.728	11668.06688
700.924	11856.85202
701.119	11903.52944
701.315	11950.2025
701.511	11992.8133
701.706	12331.55022
701.902	12349.79975
702.097	12252.46237
702.293	11990.78429
702.489	11917.73475
702.684	12011.07399
702.88	12363.99345
703.075	12078.0244
703.271	11901.50008
703.466	11952.23167
703.662	12384.26957
703.857	12041.50705
704.053	12126.71033
704.248	12033.39174
704.443	12321.41135
704.639	12108.45362
704.834	11862.94063
705.03	11672.12757
705.225	12144.96642
705.42	11824.37816
705.616	12080.05307
705.811	11832.49683
706.006	12061.79478
706.202	11935.99812
706.397	11887.29432
706.592	11733.03371
706.787	11580.7532
706.983	11601.06021
707.178	11629.48849
707.373	11619.33574
707.568	12059.76604
707.763	11856.85202
707.959	11929.9104
708.154	11905.5588
708.349	11779.72306
708.544	11968.46471
708.739	11994.84229
708.934	11838.58574
709.129	11923.82261
709.324	11690.40025
709.519	12307.21664
709.714	11856.85202
709.909	12051.65101
710.104	11793.93195
710.299	11737.09383
710.494	11503.57806
710.689	12041.50705
710.884	11664.00615
711.079	12069.90965
711.274	11822.34848
711.469	11808.14042
711.664	11668.06688
711.859	12138.88113
712.054	11832.49683
712.249	12027.30517
712.443	11716.79285
712.638	11698.52121
712.833	11560.44526
713.028	11800.02135
713.223	11574.66091
713.417	11698.52121
713.612	11536.0745
713.807	11856.85202
714.002	11631.51901
714.196	11609.18276
714.391	11536.0745
714.586	11440.60926
714.78	11536.0745
714.975	11393.88446
715.17	11483.26655
715.364	11822.34848
715.559	11854.82247
715.754	11716.79285
715.948	11743.18396
716.143	11830.46718
716.337	11706.64203
716.532	11653.85417
716.726	11816.25936
716.921	11795.96176
717.115	11536.0745
717.31	11578.72245
717.504	11536.0745
717.699	11901.50008
717.893	11692.4305
718.088	11927.88114
718.282	11749.274
718.476	12019.18964
718.671	11511.7024
718.865	11556.38356
719.059	11298.38709
719.254	11259.77545
719.448	11330.89932
719.642	11489.3601
719.837	11121.55572
720.031	11263.84
720.225	11178.47561
720.419	11434.51501
720.614	11162.21363
720.808	11714.7627
721.002	11086.99312
721.196	11339.02697
721.39	11044.29383
721.585	11147.98384
721.779	11351.21815
721.973	11371.53599
722.167	10938.54132
722.361	11213.03007
722.555	11040.22698
722.749	11091.05947
722.943	11133.75354
723.137	11097.15892
723.331	11304.48333
723.525	11103.25826
723.719	10975.15137
723.913	11227.2575
724.107	10920.23492
724.301	11052.4274
724.495	10826.65441
724.689	11210.99754
724.883	10842.93104
725.077	11221.1601
725.271	10987.35392
725.465	11076.82706
725.659	10975.15137
725.853	11137.81939
726.046	11013.79138
726.24	11184.57367
726.434	10875.48206
726.628	11296.35499
726.822	11131.72059
727.015	11341.05886
727.209	10999.55606
727.403	11196.76952
727.596	11139.8523
727.79	11196.76952
727.984	11072.76056
728.177	11381.69453
728.371	11365.44074
728.565	11025.99266
728.758	11267.90452
728.952	11107.32444
729.146	11086.99312
729.339	11267.90452
729.533	10747.29509
729.726	10865.31019
729.92	10759.50539
730.113	11044.29383
730.307	11166.27919
730.5	11103.25826
730.694	10844.96556
730.887	10804.27283
731.081	10863.27578
731.274	11080.89352
731.468	10769.68031
731.661	10735.08436
731.854	11064.62743
732.048	11282.13
732.241	10722.8732
732.435	10806.30757
732.628	10942.60928
732.821	10993.45504
733.014	11032.09315
733.208	11341.05886
733.401	11021.92561
733.594	11170.3447
733.788	11164.24641
733.981	11257.74315
734.174	11158.14803
734.367	11263.84
734.56	11093.09263
734.754	10865.31019
734.947	10950.74508
735.14	11080.89352
735.333	11097.15892
735.526	11219.12761
735.719	10885.65366
735.912	11341.05886
736.105	11137.81939
736.298	11044.29383
736.491	10922.26901
736.684	11046.32724
736.877	11023.95914
737.07	11030.05967
737.263	11135.78647
737.456	11178.47561
737.649	10889.72221
737.842	10908.03015
738.035	10849.03458
738.228	10602.77356
738.421	10657.73969
738.614	10836.82739
738.807	10751.36524
739	10661.8109
739.192	10763.57539
739.385	10842.93104
739.578	10733.0492
739.771	10889.72221
739.964	10737.11951
740.156	10755.43533
740.349	10621.09661
740.542	10977.18516
740.735	10954.8129
740.927	10999.55606
741.12	10853.10355
741.313	10928.37121
741.505	10783.9247
741.698	10665.88206
741.891	10840.8965
742.083	10814.44645
742.276	10773.75019
742.468	11005.65698
742.661	10604.80951
742.854	10741.18978
743.046	10454.1158
743.239	10614.98904
743.431	10787.99442
743.624	10264.63003
743.816	10537.6168
744.009	10562.05209
744.201	10454.1158
744.393	10619.06076
744.586	10649.59713
744.778	10761.54039
744.971	10541.68948
745.163	10474.48388
745.355	10431.70942
745.548	10676.05975
745.74	10309.46497
745.932	10219.78855
746.125	10429.6724
746.317	10313.54055
746.509	10576.30517
746.702	10847.00008
746.894	10584.44952
747.086	10537.6168
747.278	10395.04105
747.471	10661.8109
747.663	10592.59366
747.855	10716.76746
748.047	10751.36524
748.239	10696.41421
748.431	10511.14319
748.623	10633.31141
748.815	10452.07892
749.008	10822.58514
749.2	10737.11951
749.392	10731.01402
749.584	10684.20168
749.776	10700.48496
749.968	10694.37882
750.16	10918.20082
750.352	10498.92388
750.544	10716.76746
750.736	10669.95317
750.928	10767.64535
751.12	10340.03054
751.311	10352.25593
751.503	10450.04203
751.695	10494.85067
751.887	10315.57833
752.079	10323.72928
752.271	10185.13379
752.463	10462.26318
752.654	10441.89433
752.846	10429.6724
753.038	10393.0038
753.23	10454.1158
753.421	10445.9682
753.613	10437.8204
753.805	10219.78855
753.997	10307.42716
754.188	10254.43936
754.38	10327.80467
754.572	10293.16211
754.763	10205.51942
754.955	10026.07807
755.146	10030.1575
755.338	10089.30276
755.53	9885.30257
755.721	10272.78232
755.913	10105.6166
756.104	9936.31618
756.296	10091.34204
756.487	9828.15637
756.679	10058.71187
756.87	9707.70265
757.062	9746.49859
757.253	10107.65577
757.445	9905.70911
757.636	10170.86303
757.827	10019.95883
758.019	10081.1455
758.21	9932.23543
758.401	9854.68998
758.593	10015.87926
758.784	9928.15462
758.975	10085.22416
759.167	10168.82429
759.358	9850.60805
759.549	9877.13953
759.74	10042.39543
759.932	10050.55376
760.123	9940.39688
760.314	9785.28904
760.505	9691.36587
760.696	9583.10967
760.888	9664.8165
761.079	9511.59556
761.27	9738.33148
761.461	9819.99167
761.652	10026.07807
761.843	9783.24757
762.034	9936.31618
762.225	9670.94351
762.416	9519.76959
762.607	9574.93761
762.798	9532.03015
762.989	9709.74468
763.18	9619.88083
763.371	9444.15009
763.562	9446.19415
763.753	9123.02803
763.944	9632.13676
764.135	9470.72161
764.326	9593.32439
764.517	9298.98014
764.708	9534.07352
764.899	9153.72638
765.089	9231.47839
765.28	9131.21463
765.471	9384.8653
765.662	9166.00464
765.853	9296.9349
766.043	9133.26124
766.234	9196.69762
766.425	9221.24926
766.615	9282.61775
766.806	9491.15939
766.997	9317.38655
767.187	8940.80428
767.378	8996.10028
767.569	8965.38187
767.759	9090.27886
767.95	9352.15057
768.141	9229.4326
768.331	9196.69762
768.522	9196.69762
768.712	9049.33618
768.903	9049.33618
769.093	8934.65949
769.284	9008.38654
769.474	9131.21463
769.665	8922.36942
769.855	8967.42989
770.046	8869.10503
770.236	8926.46618
770.426	8887.54407
770.617	9016.57703
770.807	8805.58163
770.998	8975.62178
771.188	9229.4326
771.378	9125.07471
771.569	8856.81153
771.759	8717.43963
771.949	8473.33302
772.139	8619.00837
772.33	8440.49156
772.52	8787.13609
772.71	8643.6202
772.9	8653.87433
773.09	8817.87784
773.281	8563.62192
773.471	8744.09078
773.661	8561.5703
773.851	8748.19068
774.041	8686.68445
774.231	9053.43076
774.421	8428.17474
774.611	8471.28058
774.802	8309.07634
774.992	8682.58344
775.182	8770.73883
775.372	8520.53407
775.562	8319.34602
775.752	8670.27998
775.942	8083.01851
776.131	8475.38545
776.321	8313.18427
776.511	8565.67351
776.701	8623.11053
776.891	8514.37798
777.081	8270.0471
777.271	8405.59212
777.461	8333.72275
777.651	8614.90614
777.84	8463.07059
778.03	8120.02629
778.22	8126.19362
778.41	8374.79387
778.599	8553.36366
778.789	8280.31864
778.979	8411.75125
779.169	8210.46245
779.358	7961.66929
779.548	8290.58969
779.738	8327.56141
779.927	8467.17562
780.117	8243.33879
780.307	8120.02629
780.496	8039.83451
780.686	8294.69797
780.875	8148.80562
781.065	8091.24302
781.254	8066.56851
781.444	8058.34303
781.633	7988.41333
781.823	7883.47451
782.012	7994.58454
782.202	7992.52749
782.391	7908.17081
782.581	7873.18351
782.77	7628.1037
782.96	8208.40751
783.149	7772.30424
783.338	7821.72074
783.528	7685.79633
783.717	8008.98333
783.906	7712.57655
784.096	7784.65949
784.285	7687.85647
784.474	7652.83115
784.663	7704.33686
784.853	7576.57834
785.042	7638.40717
785.231	7710.51666
785.42	7576.57834
785.61	7403.35487
785.799	7473.48747
785.988	7656.95209
786.177	7269.20772
786.366	7630.16444
786.555	7298.10878
786.744	7648.71012
786.933	7522.97779
787.122	7628.1037
787.312	7607.49515
787.501	7586.88448
787.69	7368.27915
787.879	7630.16444
788.068	7613.67794
788.257	7704.33686
788.445	7432.23604
788.634	7698.15687
788.823	7399.22864
789.012	7576.57834
789.201	7438.4243
789.39	7351.77075
789.579	7302.23715
789.768	7370.3426
789.957	7236.17266
790.145	7353.83438
790.334	7027.50774
790.523	7322.87768
790.712	7547.71831
790.9	7442.54971
791.089	7504.42038
791.278	7646.64957
791.467	7306.36543
791.655	7390.97592
791.844	7190.74022
792.033	7075.04551
792.221	7116.37307
792.41	7343.51603
792.599	7046.11089
792.787	7188.67486
792.976	7192.80557
793.164	7124.63751
793.353	7050.24467
793.541	7141.16532
793.73	7132.9016
793.918	7281.59442
794.107	7052.31153
794.295	7159.75741
794.484	7116.37307
794.672	7099.84312
794.861	7165.95437
795.049	7054.37837
795.238	6725.46753
795.426	7314.62173
795.614	6802.05782
795.803	7168.01998
795.991	7044.04396
796.179	6831.02977
796.368	6899.30317
796.556	6744.10048
796.744	6605.34389
796.932	6893.09752
797.121	6797.9186
797.309	7085.37824
797.497	6802.05782
797.685	6673.69958
797.874	6808.26647
798.062	6888.96031
798.25	6609.48737
798.438	6917.9189
798.626	6665.41538
798.814	6799.98822
799.002	6756.52142
799.19	6659.20199
799.378	6785.50041
799.566	6754.45132
799.755	6789.6399
799.943	6735.8194
800.131	6690.26689
800.318	6901.37168
800.506	6456.11684
800.694	6748.24089
800.882	6648.84587
801.07	6878.61687
801.258	6677.84155
801.446	6888.96031
801.634	6628.13191
801.822	6640.56056
802.01	6582.55307
802.197	7151.49448
802.385	6621.91727
802.573	6735.8194
802.761	6607.41564
802.949	6698.54999
803.136	6445.74939
803.324	6781.36083
803.512	6555.61487
803.699	6503.79965
803.887	6350.34151
804.075	6628.13191
804.262	6491.36184
804.45	6512.09106
804.638	6207.13704
804.825	6748.24089
805.013	6655.05961
805.201	6768.94153
805.388	6684.05432
805.576	6760.66155
805.763	6387.6809
805.951	6514.16385
806.138	6607.41564
806.326	6721.32662
806.513	6628.13191
806.701	6872.41054
806.888	6528.67276
807.075	7037.84305
807.263	6806.19694
807.45	6797.9186
807.638	6505.87254
807.825	6642.63192
808.012	6576.33691
808.2	6655.05961
808.387	6706.83272
808.574	6917.9189
808.761	6760.66155
808.949	6771.01147
809.136	6704.76207
809.323	6868.27287
809.51	6748.24089
809.698	6580.48104
809.885	6545.25299
810.072	6839.30666
810.259	6681.98342
810.446	6735.8194
810.633	6412.56963
810.82	6787.57016
811.008	6640.56056
811.195	7072.97889
811.382	6812.40546
811.569	7050.24467
811.756	6590.84097
811.943	6773.08139
812.13	6555.61487
812.317	6789.6399
812.504	6955.14486
812.691	7091.5776
812.878	6802.05782
813.064	6905.50862
813.251	6934.46467
813.438	7143.2312
813.625	6847.58317
813.812	6855.85933
813.999	6746.1707
814.186	6878.61687
814.372	6729.60835
814.559	6744.10048
814.746	6229.97421
814.933	6561.83173
815.12	6659.20199
815.306	6495.50787
815.493	6323.36947
815.68	6512.09106
815.866	6406.34776
816.053	6903.44016
816.24	6758.5915
816.426	6930.32837
816.613	6729.60835
816.799	6686.1252
816.986	6661.27314
817.173	6777.22115
817.359	6603.27211
817.546	6735.8194
817.732	6373.16093
817.919	6648.84587
818.105	6597.05664
818.292	6733.74907
818.478	6588.76903
818.665	6679.91249
818.851	6706.83272
819.037	6713.04453
819.224	6822.75253
819.41	6652.98838
819.597	6454.0434
819.783	6795.84896
819.969	6688.19606
820.156	6804.12739
820.342	6657.13081
820.528	6704.76207
820.714	6545.25299
820.901	6507.9454
821.087	6279.79091
821.273	6483.0695
821.459	6265.26243
821.646	6472.70356
821.832	6400.12569
822.018	6545.25299
822.204	6362.78882
822.39	6422.93895
822.576	6304.69421
822.762	6483.0695
822.948	6184.29704
823.134	6495.50787
823.32	6229.97421
823.507	6588.76903
823.693	6422.93895
823.879	6124.06886
824.065	6142.76248
824.25	6514.16385
824.436	6111.60539
824.622	6416.71743
824.808	6321.29454
824.994	6437.45501
825.18	6163.53093
825.366	6373.16093
825.552	6198.83191
825.738	6441.60225
825.923	6315.06959
826.109	6499.65381
826.295	6097.06361
826.481	6198.83191
826.667	6024.3374
826.852	6163.53093
827.038	6215.44179
827.224	6325.44439
827.409	6055.50931
827.595	6225.82221
827.781	6142.76248
827.966	6090.83107
828.152	6005.63172
828.338	5864.23816
828.523	5758.12139
828.709	6065.89877
828.894	5645.69556
829.08	5961.9777
829.266	5818.46983
829.451	5905.83582
829.637	5556.12209
829.822	6148.99326
830.008	5658.19072
830.193	5860.07787
830.378	5689.42489
830.564	6036.8068
830.749	5833.03372
830.935	5766.4465
831.12	5631.1168
831.305	5833.03372
831.491	5751.87732
831.676	6026.4157
831.861	5664.43798
832.047	5776.85234
832.232	5506.10864
832.417	5768.52771
832.602	5524.86527
832.788	5631.1168
832.973	5599.87272
833.158	5889.19789
833.343	5685.26064
833.528	5805.98557
833.714	5658.19072
833.899	5820.55045
834.084	5597.78959
834.269	5793.50047
834.454	5781.01452
834.639	5797.66227
834.824	5574.87363
835.009	5768.52771
835.194	5583.20704
835.379	5645.69556
835.564	5541.53623
835.749	5783.09557
835.934	5355.98701
836.119	5539.45245
836.304	5391.44338
836.489	5629.03403
836.674	5416.46732
836.859	5522.7813
837.044	5253.75134
837.228	5499.85601
837.413	5347.64335
837.598	5447.74249
837.783	5491.51883
837.968	5643.61295
838.152	5280.88057
838.337	5368.50179
838.522	5126.4
838.707	5524.86527
838.891	5255.83834
839.076	5416.46732
839.261	5234.96726
839.445	5493.60316
839.63	5214.09383
839.815	5322.61011
839.999	5222.44348
840.184	5333.04104
840.368	5038.66519
840.553	5556.12209
840.737	5295.48697
840.922	5301.74651
841.106	4923.71273
841.291	5303.83298
841.475	5005.23167
841.66	5272.53353
841.844	5101.33709
842.029	5207.83135
842.213	5072.0928
842.397	5170.25205
842.582	4827.51734
842.766	5015.68028
842.951	5044.93332
843.135	5176.51579
843.319	5021.94917
843.504	5080.44877
843.688	4886.07682
843.872	5234.96726
844.056	5076.27083
844.241	5314.26495
844.425	4817.0584
844.609	4869.34737
844.793	4829.60906
844.977	4909.07742
845.161	4628.70078
845.346	4825.4256
845.53	4614.04311
845.714	4750.10778
845.898	4666.38692
846.082	4900.71389
846.266	4553.30679
846.45	4597.29013
846.634	4419.20214
846.818	4653.82568
847.002	4320.66195
847.186	4722.90246
847.37	4513.50391
847.554	4639.16988
847.738	4494.64712
847.922	4461.11953
848.106	4391.95115
848.29	4605.6668
848.473	4611.94906
848.657	4643.35737
848.841	4505.12333
849.025	4781.49378
849.209	4375.17948
849.392	4593.10167
849.576	4628.70078
849.76	4628.70078
849.944	4360.50312
850.127	4511.4088
850.311	4240.95629
850.495	4662.19993
850.678	4169.61459
850.862	4532.3589
851.046	4247.24997
851.229	4511.4088
851.413	4209.48503
851.596	4429.68231
851.78	4276.61791
851.964	4699.87959
852.147	4261.93446
852.331	4293.39771
852.514	4159.1211
852.698	4253.54345
852.881	4192.69841
853.065	4268.2275
853.248	4226.2703
853.431	4100.34786
853.615	4079.35345
853.798	4070.9551
853.982	3997.45546
854.165	4240.95629
854.348	3942.83948
854.532	4228.36836
854.715	4108.74504
854.898	4230.4664
855.081	3957.54514
855.265	4039.45835
855.448	3965.94792
855.631	4024.75827
855.814	4033.15844
855.997	4285.00798
856.181	4049.95778
856.364	4085.65199
856.547	3917.62748
856.73	4136.03357
856.913	3734.75463
857.096	4077.25389
857.279	3656.93636
857.462	3911.32402
857.645	3730.54891
857.828	3661.14342
858.011	3701.10671
858.194	3808.34213
858.377	3661.14342
858.56	3726.34312
858.743	3644.31471
858.926	3806.23997
859.109	3738.96028
859.292	3890.3112
859.475	3589.61308
859.658	3751.57674
859.841	3661.14342
860.023	3696.90037
860.206	3387.52999
860.389	3612.75763
860.572	3564.3619
860.755	3591.71722
860.937	3484.38232
861.12	3852.48308
861.303	3469.64637
861.486	3656.93636
861.668	3404.37658
861.851	3667.45387
862.034	3322.23887
862.216	3612.75763
862.399	3322.23887
862.581	3570.67495
862.764	3404.37658
862.947	3398.05924
863.129	3345.4086
863.312	3406.48232
863.494	3117.8357
863.677	3362.25799
863.859	3254.82424
864.042	3385.42408
864.224	2980.77976
864.406	3389.63587
864.589	3086.21326
864.771	3286.42702
864.954	2930.15822
865.136	3105.18715
865.318	2953.36083
865.501	3311.70649
865.683	3056.69577
865.865	3229.53929
866.048	2999.76062
866.23	3105.18715
866.412	2881.63798
866.594	2949.1423
866.777	3054.58726
866.959	3271.67953
867.141	2797.23699
867.323	3031.39264
867.505	2812.00877
867.687	3115.72765
867.869	2961.79769
868.052	3191.60737
868.234	3088.32153
868.416	3022.95777
868.598	3031.39264
868.78	3109.4034
868.962	2807.78833
869.144	3098.86266
869.326	2807.78833
869.508	3094.64626
869.69	2970.23432
869.872	3159.99338
870.054	2913.28249
870.236	2862.64972
870.417	2712.81408
870.599	3012.41384
870.781	3063.02121
870.963	3048.26164
871.145	2835.22021
871.327	2871.08909
871.508	2584.02931
871.69	2906.95385
871.872	2788.79567
872.054	3022.95777
872.235	2831.00007
872.417	2887.96714
872.599	2854.21012
872.78	2930.15822
872.962	2797.23699
873.144	2982.88881
873.325	2698.03789
873.507	3157.88565
873.689	2995.54276
873.87	2932.26763
874.052	2702.25972
874.233	2862.64972
874.415	2704.37062
874.596	2904.84427
874.778	2729.70037
874.959	2887.96714
875.141	2719.14653
875.322	2906.95385
875.503	2752.91763
875.685	2892.18651
875.866	2575.5828
876.048	2742.36453
876.229	2499.55578
876.41	2740.25387
876.592	2556.57746
876.773	2913.28249
876.954	2721.25733
877.136	2970.23432
877.317	2727.58963
877.498	2940.70508
877.679	2668.48362
877.86	3065.12965
878.042	2742.36453
878.223	2925.93938
878.404	2613.59056
878.585	2917.50151
878.766	2786.6853
878.947	3037.71863
879.128	2871.08909
879.309	2881.63798
879.49	2795.12668
879.672	2925.93938
879.853	2736.03251
880.034	2913.28249
880.215	2527.01171
880.396	2809.89856
880.576	2729.70037
880.757	2883.74771
880.938	2685.37209
881.119	2883.74771
881.3	2685.37209
881.481	2930.15822
881.662	2795.12668
881.843	2740.25387
882.023	2719.14653
882.204	2898.51545
882.385	2877.41846
882.566	2923.82993
882.747	2727.58963
882.927	2790.90602
883.108	2613.59056
883.289	2746.58581
883.469	2668.48362
883.65	2862.64972
883.831	2704.37062
884.011	2812.00877
884.192	2704.37062
884.373	3126.26775
884.553	2676.92796
884.734	3050.3702
884.914	2693.81601
885.095	3132.59162
885.275	2782.46453
885.456	3016.63146
885.636	2852.10019
885.817	3035.60999
885.997	2769.8019
886.178	2970.23432
886.358	2691.70505
886.538	2955.47006
886.719	2598.81023
886.899	2883.74771
887.08	2820.44949
887.26	3067.23808
887.44	2717.03573
887.621	2989.21585
887.801	2837.33025
887.981	2951.25157
888.161	2856.32004
888.342	2858.42995
888.522	2955.47006
888.702	2871.08909
888.882	2862.64972
889.062	2765.58091
889.242	2799.34729
889.423	2780.35413
889.603	2461.53674
889.783	2849.99024
889.963	2670.59473
890.143	2831.00007
890.323	2617.8134
890.503	2885.85743
890.683	2598.81023
890.863	2913.28249
891.043	2588.25249
891.223	2873.19889
891.403	2793.01636
891.583	2928.04881
891.763	2660.03909
891.943	3008.19616
892.122	2784.57493
892.302	2991.32484
892.482	2839.44029
892.662	2875.30869
892.842	2641.03815
893.022	2820.44949
893.201	2706.48151
893.381	2860.53984
893.561	2558.68921
893.741	2769.8019
893.92	2704.37062
894.1	2932.26763
894.28	2647.37191
894.459	2822.55963
894.639	2524.89979
894.819	2738.14319
894.998	2643.14941
895.178	2803.56784
895.357	2706.48151
895.537	2626.25894
895.716	2695.92696
895.896	2744.47517
896.075	2577.69444
896.255	2708.59238
896.434	2474.21015
896.614	2923.82993
896.793	2516.45197
896.973	2613.59056
897.152	2434.07632
897.331	2520.6759
897.511	2465.76125
897.69	2408.72664
897.87	2328.44285
898.049	2347.45874
898.228	2140.35662
898.407	2448.86293
898.587	2254.48478
898.766	2636.81558
898.945	2341.1202
899.124	2440.4135
899.304	2326.32992
899.483	2560.80095
899.662	2224.8984
899.841	2586.1409
900.02	2176.2885
900.199	2600.92174
900.378	2178.40207
900.557	2319.99109
900.737	2212.21799
900.916	2146.69771
901.095	2057.91618
901.274	2305.20013
901.453	2081.16976
901.632	2169.94776
901.811	2060.03017
901.989	2093.85316
902.168	1882.43183
902.347	2102.30861
902.526	1857.05733
902.705	2005.06399
902.884	1654.03943
903.063	1952.20774
903.242	1747.09354
903.42	1895.11881
903.599	1768.24129
903.778	2049.46012
903.957	1783.04449
904.135	1899.34776
904.314	1626.54513
904.493	1988.15042
904.672	1789.38866
904.85	1895.11881
905.029	1766.12654
905.207	1867.63013
905.386	1645.57968
905.565	1675.1886
905.743	1548.29029
905.922	1569.44047
906.1	1357.93641
906.279	1537.71515
906.457	1417.15749
906.636	1620.20024
906.814	1438.30799
906.993	1442.53809
907.171	1188.74091
907.35	1467.91872
907.528	1338.90124
907.707	1563.09543
907.885	1450.9983
908.063	1573.67049
908.242	1343.13127
908.42	1476.37892
908.598	1235.26802
908.777	1510.21968
908.955	1429.84778
909.133	1444.65315
909.311	1140.10079
909.49	1360.05143
909.668	1142.21553
909.846	1326.2112
910.024	1214.11914
910.202	1235.26802
910.38	1326.2112
910.559	1298.71631
910.737	1190.85574
910.915	1434.07789
911.093	1408.6973
911.271	1434.07789
911.449	1271.22178
911.627	1307.17624
911.805	1224.69354
911.983	1417.15749
912.161	1279.6816
912.339	1374.85664
912.517	1326.2112
912.695	1489.06922
912.872	1508.10463
913.05	1400.23711
913.228	1357.93641
913.406	1387.54686
913.584	1438.30799
913.762	1425.61768
913.939	1313.52121
914.117	1444.65315
914.295	1184.51125
914.473	1457.34346
914.65	1332.55621
914.828	1398.12207
915.006	1218.34889
915.184	1383.31679
915.361	1180.28161
915.539	1442.53809
915.716	1125.29771
915.894	1283.91152
916.072	1279.6816
916.249	1341.01625
916.427	1150.67455
916.604	1324.09619
916.782	1226.80843
916.959	1273.33673
917.137	1087.23368
917.314	1292.37139
917.492	1241.61274
917.669	1277.56664
917.847	1146.44503
918.024	1192.97058
918.201	1070.31686
918.379	1171.82237
918.556	1032.25526
918.733	1059.74401
918.911	1000.53871
919.088	1047.05678
919.265	941.33841
919.442	1201.42996
919.62	909.62625
919.797	1068.20228
919.974	896.94188
920.151	1131.64186
920.328	928.65334
920.506	1214.11914
920.683	1044.94226
920.86	1055.51491
921.037	922.31091
921.214	1137.98605
921.391	1030.14078
921.568	1097.80687
921.745	1080.88983
921.922	1137.98605
922.099	983.6238
922.276	1004.76751
922.453	918.08266
922.63	1089.34831
922.807	930.7675
922.984	886.37178
923.161	877.91585
923.338	1044.94226
923.514	806.04598
923.691	873.68793
923.868	710.94105
924.045	861.00439
924.222	778.56913
924.399	871.57399
924.575	833.52443
924.752	1011.11074
924.929	820.84188
925.105	850.435
925.282	689.80952
925.459	765.88806
925.635	700.37515
925.812	801.81867
925.989	782.79623
926.165	757.43422
926.342	736.30033
926.518	812.38703
926.695	639.09854
926.871	886.37178
927.048	630.64738
927.224	791.25055
927.401	689.80952
927.577	757.43422
927.754	613.74564
927.93	681.35723
928.107	698.262
928.283	691.92262
928.459	706.71465
928.636	774.34207
928.812	753.20736
928.988	681.35723
929.165	656.00144
929.341	679.24418
929.517	596.84472
929.693	738.41367
929.87	529.24946
930.046	748.98054
930.222	588.39456
930.398	605.29508
930.574	468.00366
930.751	484.89782
930.927	459.55694
931.103	588.39456
931.279	472.22711
931.455	537.6981
931.631	470.11538
931.807	605.29508
931.983	440.55273
932.159	592.61962
932.335	406.7706
932.511	453.22206
932.687	474.33885
932.863	461.6686
933.039	444.77578
933.215	440.55273
933.391	432.10681
933.566	421.54978
933.742	415.21575
933.918	360.32701
934.094	362.43791
934.27	472.22711
934.445	303.33942
934.621	275.90563
934.797	326.55503
934.973	301.22902
935.148	334.99761
935.324	360.32701
935.5	246.36508
935.675	389.88109
935.851	339.219
936.027	292.78759
936.202	199.95188
936.378	225.26699
936.553	206.28038
936.729	261.13489
936.904	288.56699
937.08	286.45672
937.255	199.95188
937.431	149.33043
937.606	153.54842
937.782	183.07674
937.957	174.63967
938.133	191.51415
938.308	115.58952
938.483	164.09378
938.659	267.46509
938.834	117.69816
939.009	174.63967
939.185	128.24171
939.36	86.0708
939.535	191.51415
939.71	149.33043
939.886	132.45929
940.061	96.6127
940.236	90.28749
940.411	81.85419
940.586	50.23254
940.761	31.26204
940.937	109.26371
941.112	56.55646
941.287	115.58952
941.462	14.40096
941.637	24.93896
941.812	27.04663
941.987	73.42125
942.162	155.65745
942.337	90.28749
942.512	126.13296
942.687	98.72115
942.862	159.87558
943.037	-15.10224
943.212	75.52945
943.386	8.07845
943.561	117.69816
943.736	83.96248
943.911	67.09678
944.086	90.28749
944.26	86.0708
944.435	50.23254
944.61	134.5681
944.785	-10.88778
944.959	115.58952
945.134	69.20492
945.309	33.36978
945.483	43.90883
945.658	132.45929
945.833	69.20492
946.007	43.90883
946.182	90.28749
946.357	117.69816
946.531	115.58952
946.706	52.34049
946.88	64.98867
947.055	41.80097
947.229	41.80097
947.404	77.63768
947.578	86.0708
947.752	98.72115
947.927	31.26204
948.101	81.85419
948.276	132.45929
948.45	81.85419
948.624	109.26371
948.799	39.69314
948.973	126.13296
949.147	22.83131
949.321	58.66448
949.496	115.58952
949.67	75.52945
949.844	115.58952
950.018	115.58952
950.193	111.37229
950.367	29.15432
950.541	90.28749
950.715	56.55646
950.889	92.39587
951.063	90.28749
951.237	41.80097
951.411	81.85419
951.585	126.13296
951.759	48.12461
951.933	39.69314
952.107	67.09678
952.281	132.45929
952.455	96.6127
952.629	128.24171
952.803	39.69314
952.977	75.52945
953.151	86.0708
953.325	140.89469
953.499	111.37229
953.672	94.50427
953.846	56.55646
954.02	92.39587
954.194	92.39587
954.368	100.82962
954.541	81.85419
954.715	83.96248
954.889	50.23254
955.062	107.15516
955.236	113.4809
955.41	69.20492
955.583	136.67694
955.757	109.26371
955.93	48.12461
956.104	107.15516
956.278	64.98867
956.451	145.11251
956.625	3.86356
956.798	132.45929
956.972	60.77252
957.145	52.34049
957.319	109.26371
957.492	73.42125
957.665	75.52945
957.839	43.90883
958.012	39.69314
958.185	31.26204
958.359	69.20492
958.532	151.43941
958.705	115.58952
958.879	73.42125
959.052	109.26371
959.225	83.96248
959.398	73.42125
959.572	128.24171
959.745	27.04663
959.918	92.39587
960.091	105.04662
960.264	86.0708
960.438	67.09678
960.611	-8.78052
960.784	77.63768
960.957	117.69816
961.13	94.50427
961.303	128.24171
961.476	60.77252
961.649	58.66448
961.822	124.02423
961.995	58.66448
962.168	153.54842
962.341	18.61609
962.514	81.85419
962.686	94.50427
962.859	117.69816
963.032	10.18593
963.205	98.72115
963.378	86.0708
963.551	185.18606
963.723	119.80683
963.896	94.50427
964.069	86.0708
964.242	69.20492
964.414	56.55646
964.587	73.42125
964.76	100.82962
964.932	58.66448
965.105	14.40096
965.278	75.52945
965.45	102.93811
965.623	102.93811
965.795	132.45929
965.968	124.02423
966.14	143.00359
966.313	31.26204
966.485	166.20292
966.658	107.15516
966.83	79.74592
967.003	71.31307
967.175	81.85419
967.348	58.66448
967.52	174.63967
967.692	100.82962
967.865	1.75615
968.037	58.66448
968.209	71.31307
968.382	81.85419
968.554	90.28749
968.726	8.07845
968.898	56.55646
969.071	58.66448
969.243	92.39587
969.415	81.85419
969.587	111.37229
969.759	92.39587
969.932	1.75615
970.104	52.34049
970.276	83.96248
970.448	79.74592
970.62	79.74592
970.792	27.04663
970.964	111.37229
971.136	12.29343
971.308	60.77252
971.48	29.15432
971.652	31.26204
971.824	69.20492
971.996	69.20492
972.168	98.72115
972.339	60.77252
972.511	117.69816
972.683	92.39587
972.855	79.74592
973.027	124.02423
973.199	-23.53085
973.37	31.26204
973.542	64.98867
973.714	79.74592
973.886	67.09678
974.057	22.83131
974.229	-23.53085
974.401	20.72369
974.572	73.42125
974.744	90.28749
974.915	64.98867
975.087	35.47754
975.259	60.77252
975.43	69.20492
975.602	37.58533
975.773	92.39587
975.945	67.09678
976.116	88.17913
976.288	41.80097
976.459	41.80097
976.63	27.04663
976.802	48.12461
976.973	31.26204
977.145	50.23254
977.316	109.26371
977.487	56.55646
977.659	64.98867
977.83	64.98867
978.001	18.61609
978.172	39.69314
978.344	12.29343
978.515	39.69314
978.686	90.28749
978.857	41.80097
979.028	102.93811
979.2	41.80097
979.371	-15.10224
979.542	22.83131
979.713	33.36978
979.884	24.93896
980.055	94.50427
980.226	75.52945
980.397	92.39587
980.568	5.97099
980.739	90.28749
980.91	52.34049
981.081	10.18593
981.252	33.36978
981.423	43.90883
981.594	27.04663
981.765	46.01671
981.936	67.09678
982.106	5.97099
982.277	31.26204
982.448	5.97099
982.619	41.80097
982.79	46.01671
982.96	52.34049
983.131	90.28749
983.302	121.91552
983.472	16.50851
983.643	50.23254
983.814	1.75615
983.984	56.55646
984.155	64.98867
984.326	-27.74501
984.496	100.82962
984.667	73.42125
984.837	24.93896
985.008	64.98867
985.178	-10.88778
985.349	-2.45859
985.519	-0.35123
985.69	109.26371
985.86	-2.45859
986.031	14.40096
986.201	-59.34802
986.371	-2.45859
986.542	1.75615
986.712	12.29343
986.882	41.80097
987.053	117.69816
987.223	60.77252
987.393	16.50851
987.563	-12.99502
987.734	24.93896
987.904	-2.45859
988.074	-19.31659
988.244	22.83131
988.414	16.50851
988.585	94.50427
988.755	90.28749
988.925	48.12461
989.095	77.63768
989.265	14.40096
989.435	54.44846
989.605	98.72115
989.775	35.47754
989.945	48.12461
990.115	18.61609
990.285	46.01671
990.455	46.01671
990.625	22.83131
990.795	69.20492
990.965	102.93811
991.134	81.85419
991.304	50.23254
991.474	46.01671
991.644	16.50851
991.814	81.85419
991.984	-2.45859
992.153	48.12461
992.323	22.83131
992.493	60.77252
992.662	50.23254
992.832	35.47754
993.002	27.04663
993.171	58.66448
993.341	83.96248
993.511	-67.77453
993.68	22.83131
993.85	24.93896
994.019	81.85419
994.189	31.26204
994.358	-67.77453
994.528	-40.38689
994.697	41.80097
994.867	12.29343
995.036	75.52945
995.206	-27.74501
995.375	-17.20943
995.544	27.04663
995.714	35.47754
995.883	98.72115
996.052	-2.45859
996.222	90.28749
996.391	-36.17303
996.56	56.55646
996.73	-44.60065
996.899	98.72115
997.068	-0.35123
997.237	-59.34802
997.406	-2.45859
997.576	-2.45859
997.745	16.50851
997.914	22.83131
998.083	-12.99502
998.252	90.28749
998.421	31.26204
998.59	58.66448
998.759	35.47754
998.928	52.34049
999.097	-63.56133
999.266	-2.45859
999.435	43.90883
999.604	-2.45859
999.773	-31.95906
999.942	41.80097
1000.111	22.83131
1000.28	12.29343
1000.448	12.29343
1000.617	10.18593
1000.786	41.80097
1000.955	52.34049
1001.124	14.40096
1001.292	75.52945
1001.461	-42.49378
1001.63	98.72115
1001.798	-4.56592
1001.967	83.96248
1002.136	3.86356
1002.304	-6.67324
1002.473	-10.88778
1002.642	-34.06606
1002.81	-6.67324
1002.979	35.47754
1003.147	71.31307
1003.316	-48.81431
1003.484	14.40096
1003.653	-2.45859
1003.821	107.15516
1003.99	31.26204
1004.158	-19.31659
1004.327	-34.06606
1004.495	64.98867
1004.663	-40.38689
1004.832	33.36978
1005	3.86356
1005.168	-46.70749
1005.337	56.55646
1005.505	39.69314
1005.673	-6.67324
1005.842	-15.10224
1006.01	52.34049
1006.178	-6.67324
1006.346	-57.24133
1006.514	-15.10224
1006.683	24.93896
1006.851	-27.74501
1007.019	20.72369
1007.187	73.42125
1007.355	-50.9211
1007.523	-78.3071
1007.691	14.40096
1007.859	12.29343
1008.027	-2.45859
1008.195	3.86356
1008.363	50.23254
1008.531	-48.81431
1008.699	58.66448
1008.867	39.69314
1009.035	-31.95906
1009.203	35.47754
1009.37	98.72115
1009.538	31.26204
1009.706	48.12461
1009.874	35.47754
1010.042	-25.63794
1010.209	8.07845
1010.377	119.80683
1010.545	-2.45859
1010.713	-42.49378
1010.88	14.40096
1011.048	-8.78052
1011.216	-10.88778
1011.383	-10.88778
1011.551	12.29343
1011.718	67.09678
1011.886	-55.13461
1012.054	33.36978
1012.221	-23.53085
1012.389	-61.45468
1012.556	100.82962
1012.724	111.37229
1012.891	5.97099
1013.058	1.75615
1013.226	22.83131
1013.393	-25.63794
1013.561	12.29343
1013.728	3.86356
1013.895	46.01671
1014.063	67.09678
1014.23	56.55646
1014.397	81.85419
1014.565	-27.74501
1014.732	50.23254
1014.899	107.15516
1015.066	35.47754
1015.233	8.07845
1015.401	48.12461
1015.568	117.69816
1015.735	-10.88778
1015.902	46.01671
1016.069	-19.31659
1016.236	24.93896
1016.403	-10.88778
1016.57	-12.99502
1016.737	22.83131
1016.904	39.69314
1017.071	48.12461
1017.238	-48.81431
1017.405	16.50851
1017.572	-36.17303
1017.739	39.69314
1017.906	-53.02787
1018.073	-31.95906
1018.24	8.07845
1018.407	48.12461
1018.573	73.42125
1018.74	-2.45859
1018.907	5.97099
1019.074	-8.78052
1019.241	-50.9211
1019.407	22.83131
1019.574	-80.41353
1019.741	48.12461
1019.907	64.98867
1020.074	24.93896
1020.241	-27.74501
1020.407	43.90883
1020.574	14.40096
1020.74	-10.88778
1020.907	-40.38689
1021.073	-12.99502
1021.24	-114.11298
1021.406	48.12461
1021.573	-10.88778
1021.739	24.93896
1021.906	5.97099
1022.072	77.63768
1022.239	-8.78052
1022.405	107.15516
1022.571	-48.81431
1022.738	33.36978
1022.904	24.93896
1023.07	16.50851
1023.237	39.69314
1023.403	22.83131
1023.569	8.07845
1023.735	52.34049
1023.902	14.40096
1024.068	-57.24133
1024.234	98.72115
1024.4	31.26204
1024.566	-31.95906
1024.732	39.69314
1024.898	14.40096
1025.065	14.40096
1025.231	-12.99502
1025.397	-19.31659
1025.563	35.47754
1025.729	56.55646
1025.895	46.01671
1026.061	39.69314
1026.227	33.36978
1026.392	-50.9211
1026.558	-2.45859
1026.724	-15.10224
1026.89	29.15432
1027.056	37.58533
1027.222	16.50851
1027.388	31.26204
1027.553	12.29343
1027.719	31.26204
1027.885	-27.74501
1028.051	50.23254
1028.216	-48.81431
1028.382	10.18593
1028.548	22.83131
1028.713	-19.31659
1028.879	-8.78052
1029.045	81.85419
1029.21	14.40096
1029.376	86.0708
1029.541	41.80097
1029.707	5.97099
1029.873	10.18593
1030.038	41.80097
1030.204	56.55646
1030.369	-57.24133
1030.534	35.47754
1030.7	-55.13461
1030.865	-19.31659
1031.031	-19.31659
1031.196	-6.67324
1031.361	14.40096
1031.527	5.97099
1031.692	-46.70749
1031.857	18.61609
1032.023	-59.34802
1032.188	-23.53085
1032.353	14.40096
1032.518	16.50851
1032.684	29.15432
1032.849	77.63768
1033.014	-8.78052
1033.179	-10.88778
1033.344	-8.78052
1033.509	-19.31659
1033.674	64.98867
1033.839	18.61609
1034.004	64.98867
1034.17	31.26204
1034.335	5.97099
1034.5	24.93896
1034.664	60.77252
1034.829	-0.35123
1034.994	-17.20943
1035.159	39.69314
1035.324	-17.20943
1035.489	24.93896
1035.654	71.31307
1035.819	-42.49378
1035.984	75.52945
1036.148	1.75615
1036.313	-12.99502
1036.478	35.47754
1036.643	48.12461
1036.807	58.66448
1036.972	1.75615
1037.137	52.34049
1037.301	29.15432
1037.466	-2.45859
1037.631	-10.88778
1037.795	-27.74501
1037.96	3.86356
1038.124	39.69314
1038.289	-23.53085
1038.454	-19.31659
1038.618	1.75615
1038.783	52.34049
1038.947	35.47754
1039.111	56.55646
1039.276	20.72369
1039.44	3.86356
1039.605	14.40096
1039.769	-27.74501
1039.933	-8.78052
1040.098	-15.10224
1040.262	39.69314
1040.426	39.69314
1040.591	-8.78052
1040.755	14.40096
1040.919	-2.45859
1041.083	-25.63794
1041.248	-65.66794
1041.412	-34.06606
1041.576	56.55646
1041.74	35.47754
1041.904	-27.74501
1042.068	33.36978
1042.232	-17.20943
1042.397	31.26204
1042.561	-8.78052
1042.725	14.40096
1042.889	31.26204
1043.053	33.36978
1043.217	24.93896
1043.381	-40.38689
1043.544	-19.31659
1043.708	-34.06606
1043.872	-10.88778
1044.036	-15.10224
1044.2	52.34049
1044.364	-36.17303
1044.528	-44.60065
1044.691	41.80097
1044.855	39.69314
1045.019	-42.49378
1045.183	-10.88778
1045.346	-6.67324
1045.51	-2.45859
1045.674	64.98867
1045.837	-17.20943
1046.001	16.50851
1046.165	18.61609
1046.328	37.58533
1046.492	39.69314
1046.655	46.01671
1046.819	5.97099
1046.983	-21.42373
1047.146	86.0708
1047.31	35.47754
1047.473	-25.63794
1047.636	8.07845
1047.8	39.69314
1047.963	-48.81431
1048.127	18.61609
1048.29	-19.31659
