Data from mixed_try6.1_USB4F045381__13__00297.txt Node

Date: Thu Apr 03 20:32:20 EDT 2025
User: mmckonesweet
Spectrometer: USB4F04538
Trigger mode: 4
Integration Time (sec): 2.700000E-3
Scans to average: 1
Electric dark correction enabled: true
Nonlinearity correction enabled: true
Boxcar width: 0
XAxis mode: Wavelengths
Number of Pixels in Spectrum: 3648
>>>>>Begin Spectral Data<<<<<
345.52	7.72721
345.736	7.72721
345.952	7.72721
346.168	1.40492
346.384	-47.05863
346.6	22.48004
346.816	-0.70246
347.032	-38.63112
347.248	18.26482
347.464	-87.08375
347.68	-15.45344
347.896	-15.45344
348.112	43.55752
348.328	26.69535
348.544	5.61975
348.76	58.31314
348.975	-17.56062
349.191	-13.34623
349.407	24.58768
349.623	54.09713
349.839	-15.45344
350.055	-53.37899
350.27	26.69535
350.486	-70.23219
350.702	-15.45344
350.918	3.51233
351.133	-51.27223
351.349	-28.09618
351.565	-38.63112
351.781	-23.88203
351.996	16.15725
352.212	-49.16544
352.428	43.55752
352.644	-21.77492
352.859	-32.31023
353.075	-4.91714
353.291	14.04971
353.506	5.61975
353.722	1.40492
353.938	35.12624
354.153	14.04971
354.369	-15.45344
354.584	-38.63112
354.8	-13.34623
355.016	-44.95179
355.231	-30.20322
355.447	-23.88203
355.662	28.80304
355.878	-72.33872
356.093	-9.13173
356.309	60.42118
356.524	20.37242
356.74	-38.63112
356.955	-23.88203
357.171	-15.45344
357.386	-53.37899
357.602	-32.31023
357.817	-17.56062
358.033	-19.66778
358.248	1.40492
358.464	5.61975
358.679	-55.48573
358.895	-17.56062
359.11	-21.77492
359.325	-13.34623
359.541	3.51233
359.756	20.37242
359.972	24.58768
360.187	-40.73804
360.402	-74.44523
360.618	-13.34623
360.833	-42.84492
361.048	-28.09618
361.264	-25.98912
361.479	-15.45344
361.694	45.6654
361.909	-40.73804
362.125	18.26482
362.34	1.40492
362.555	-7.02445
362.77	-19.66778
362.986	18.26482
363.201	-141.83973
363.416	-30.20322
363.631	-2.80981
363.847	-70.23219
364.062	39.34183
364.277	-2.80981
364.492	-2.80981
364.707	-53.37899
364.922	5.61975
365.138	-66.01904
365.353	3.51233
365.568	14.04971
365.783	9.83468
365.998	54.09713
366.213	-78.65817
366.428	22.48004
366.643	-28.09618
366.858	20.37242
367.073	-30.20322
367.288	-19.66778
367.503	-36.52418
367.718	-57.59244
367.933	-30.20322
368.148	28.80304
368.363	35.12624
368.578	-40.73804
368.793	92.04447
369.008	22.48004
369.223	14.04971
369.438	1.40492
369.653	47.77329
369.868	37.23403
370.083	-28.09618
370.298	1.40492
370.513	-87.08375
370.728	28.80304
370.943	-23.88203
371.157	-44.95179
371.372	51.98916
371.587	-15.45344
371.802	-44.95179
372.017	7.72721
372.232	-9.13173
372.446	-28.09618
372.661	-2.80981
372.876	-44.95179
373.091	-15.45344
373.306	-15.45344
373.52	-66.01904
373.735	-23.88203
373.95	26.69535
374.165	-15.45344
374.379	28.80304
374.594	30.91075
374.809	26.69535
375.023	30.91075
375.238	3.51233
375.453	1.40492
375.667	11.94218
375.882	20.37242
376.097	28.80304
376.311	1.40492
376.526	-21.77492
376.741	-23.88203
376.955	47.77329
377.17	-15.45344
377.384	-28.09618
377.599	41.44967
377.813	-28.09618
378.028	45.6654
378.242	-25.98912
378.457	-36.52418
378.672	-38.63112
378.886	1.40492
379.101	-38.63112
379.315	-2.80981
379.53	37.23403
379.744	-2.80981
379.958	-7.02445
380.173	-19.66778
380.387	5.61975
380.602	-47.05863
380.816	-15.45344
381.031	-38.63112
381.245	3.51233
381.459	1.40492
381.674	22.48004
381.888	-44.95179
382.103	28.80304
382.317	-66.01904
382.531	-13.34623
382.746	-103.93364
382.96	-30.20322
383.174	-32.31023
383.388	26.69535
383.603	9.83468
383.817	20.37242
384.031	18.26482
384.246	-57.59244
384.46	5.61975
384.674	-7.02445
384.888	-2.80981
385.103	30.91075
385.317	18.26482
385.531	43.55752
385.745	-40.73804
385.959	-61.80579
386.174	54.09713
386.388	28.80304
386.602	9.83468
386.816	3.51233
387.03	26.69535
387.244	51.98916
387.458	26.69535
387.672	-74.44523
387.887	-11.23899
388.101	1.40492
388.315	7.72721
388.529	-7.02445
388.743	-72.33872
388.957	-55.48573
389.171	14.04971
389.385	-32.31023
389.599	9.83468
389.813	1.40492
390.027	73.06989
390.241	28.80304
390.455	35.12624
390.669	1.40492
390.883	18.26482
391.097	-23.88203
391.311	-9.13173
391.525	33.01848
391.738	-40.73804
391.952	37.23403
392.166	45.6654
392.38	26.69535
392.594	-2.80981
392.808	16.15725
393.022	-66.01904
393.236	22.48004
393.449	11.94218
393.663	18.26482
393.877	-28.09618
394.091	-57.59244
394.305	-82.87101
394.518	51.98916
394.732	22.48004
394.946	-11.23899
395.16	-40.73804
395.373	35.12624
395.587	-40.73804
395.801	-74.44523
396.015	-42.84492
396.228	3.51233
396.442	-19.66778
396.656	30.91075
396.869	26.69535
397.083	-15.45344
397.297	-61.80579
397.51	18.26482
397.724	16.15725
397.938	-17.56062
398.151	-19.66778
398.365	28.80304
398.578	1.40492
398.792	35.12624
399.005	68.85356
399.219	30.91075
399.433	73.06989
399.646	26.69535
399.86	-11.23899
400.073	-38.63112
400.287	1.40492
400.5	22.48004
400.714	56.20513
400.927	11.94218
401.141	-7.02445
401.354	3.51233
401.567	-40.73804
401.781	9.83468
401.994	-42.84492
402.208	26.69535
402.421	9.83468
402.635	-21.77492
402.848	37.23403
403.061	22.48004
403.275	-38.63112
403.488	-19.66778
403.701	-0.70246
403.915	-19.66778
404.128	-28.09618
404.341	28.80304
404.555	24.58768
404.768	18.26482
404.981	9.83468
405.195	18.26482
405.408	-95.5089
405.621	-28.09618
405.834	-13.34623
406.048	-34.41722
406.261	-17.56062
406.474	-49.16544
406.687	-40.73804
406.9	-40.73804
407.114	-28.09618
407.327	-13.34623
407.54	-44.95179
407.753	-32.31023
407.966	20.37242
408.179	26.69535
408.392	-4.91714
408.605	94.15287
408.819	28.80304
409.032	30.91075
409.245	-53.37899
409.458	-30.20322
409.671	7.72721
409.884	-23.88203
410.097	-13.34623
410.31	26.69535
410.523	20.37242
410.736	20.37242
410.949	-23.88203
411.162	-13.34623
411.375	26.69535
411.588	-23.88203
411.801	-15.45344
412.014	11.94218
412.227	-30.20322
412.44	47.77329
412.653	54.09713
412.865	-44.95179
413.078	26.69535
413.291	9.83468
413.504	22.48004
413.717	35.12624
413.93	11.94218
414.143	14.04971
414.356	-0.70246
414.568	33.01848
414.781	-23.88203
414.994	-44.95179
415.207	5.61975
415.42	-40.73804
415.632	3.51233
415.845	37.23403
416.058	-97.61513
416.271	22.48004
416.483	-9.13173
416.696	-25.98912
416.909	85.71941
417.121	-13.34623
417.334	28.80304
417.547	43.55752
417.759	18.26482
417.972	3.51233
418.185	11.94218
418.397	45.6654
418.61	-42.84492
418.823	22.48004
419.035	-40.73804
419.248	102.58669
419.46	-15.45344
419.673	62.52924
419.885	30.91075
420.098	18.26482
420.311	-21.77492
420.523	14.04971
420.736	7.72721
420.948	-15.45344
421.161	-38.63112
421.373	-76.55171
421.586	7.72721
421.798	-57.59244
422.01	47.77329
422.223	-23.88203
422.435	-49.16544
422.648	51.98916
422.86	9.83468
423.073	20.37242
423.285	3.51233
423.497	5.61975
423.71	51.98916
423.922	-38.63112
424.134	-23.88203
424.347	64.63732
424.559	9.83468
424.771	-21.77492
424.984	-25.98912
425.196	-7.02445
425.408	5.61975
425.621	14.04971
425.833	56.20513
426.045	-19.66778
426.257	30.91075
426.47	56.20513
426.682	5.61975
426.894	51.98916
427.106	26.69535
427.318	-11.23899
427.531	3.51233
427.743	-44.95179
427.955	51.98916
428.167	18.26482
428.379	-87.08375
428.591	20.37242
428.804	-59.69913
429.016	-44.95179
429.228	-28.09618
429.44	11.94218
429.652	-11.23899
429.864	39.34183
430.076	-7.02445
430.288	-2.80981
430.5	-44.95179
430.712	-19.66778
430.924	33.01848
431.136	-40.73804
431.348	35.12624
431.56	30.91075
431.772	-7.02445
431.984	-32.31023
432.196	-19.66778
432.408	26.69535
432.62	-28.09618
432.832	45.6654
433.044	-2.80981
433.256	-25.98912
433.468	3.51233
433.679	-38.63112
433.891	60.42118
434.103	51.98916
434.315	-15.45344
434.527	68.85356
434.739	54.09713
434.95	-2.80981
435.162	-23.88203
435.374	-38.63112
435.586	35.12624
435.798	-53.37899
436.009	-72.33872
436.221	-68.12563
436.433	-7.02445
436.645	-63.91243
436.856	70.96171
437.068	37.23403
437.28	-13.34623
437.491	-15.45344
437.703	54.09713
437.915	-44.95179
438.126	-36.52418
438.338	-4.91714
438.55	-38.63112
438.761	60.42118
438.973	-40.73804
439.184	-63.91243
439.396	51.98916
439.608	9.83468
439.819	9.83468
440.031	-49.16544
440.242	-40.73804
440.454	39.34183
440.665	-57.59244
440.877	5.61975
441.088	-21.77492
441.3	51.98916
441.511	43.55752
441.723	9.83468
441.934	28.80304
442.146	-49.16544
442.357	-78.65817
442.569	37.23403
442.78	28.80304
442.991	37.23403
443.203	-0.70246
443.414	14.04971
443.626	-28.09618
443.837	-91.29638
444.048	5.61975
444.26	-108.14586
444.471	-19.66778
444.682	22.48004
444.894	39.34183
445.105	43.55752
445.316	5.61975
445.528	26.69535
445.739	49.88122
445.95	-66.01904
446.161	-36.52418
446.373	18.26482
446.584	30.91075
446.795	3.51233
447.006	-78.65817
447.217	-49.16544
447.429	-2.80981
447.64	1.40492
447.851	-42.84492
448.062	47.77329
448.273	-25.98912
448.484	56.20513
448.695	26.69535
448.907	-0.70246
449.118	-49.16544
449.329	-44.95179
449.54	26.69535
449.751	26.69535
449.962	-7.02445
450.173	-9.13173
450.384	-40.73804
450.595	-7.02445
450.806	35.12624
451.017	-4.91714
451.228	-114.46398
451.439	35.12624
451.65	35.12624
451.861	-66.01904
452.072	35.12624
452.283	7.72721
452.494	-4.91714
452.705	-15.45344
452.915	-28.09618
453.126	-7.02445
453.337	26.69535
453.548	39.34183
453.759	3.51233
453.97	9.83468
454.181	20.37242
454.391	-32.31023
454.602	-11.23899
454.813	14.04971
455.024	-40.73804
455.235	26.69535
455.445	-4.91714
455.656	-32.31023
455.867	-108.14586
456.078	-7.02445
456.288	37.23403
456.499	9.83468
456.71	43.55752
456.921	-47.05863
457.131	35.12624
457.342	1.40492
457.553	-19.66778
457.763	-38.63112
457.974	9.83468
458.184	20.37242
458.395	9.83468
458.606	-40.73804
458.816	60.42118
459.027	68.85356
459.237	60.42118
459.448	3.51233
459.659	111.02086
459.869	18.26482
460.08	43.55752
460.29	11.94218
460.501	-32.31023
460.711	-13.34623
460.922	-11.23899
461.132	26.69535
461.343	-7.02445
461.553	-17.56062
461.764	30.91075
461.974	64.63732
462.184	-17.56062
462.395	-61.80579
462.605	51.98916
462.816	-13.34623
463.026	62.52924
463.236	20.37242
463.447	-55.48573
463.657	70.96171
463.867	-57.59244
464.078	30.91075
464.288	-32.31023
464.498	35.12624
464.709	-47.05863
464.919	98.36974
465.129	45.6654
465.339	47.77329
465.55	47.77329
465.76	14.04971
465.97	1.40492
466.18	16.15725
466.391	51.98916
466.601	-53.37899
466.811	-78.65817
467.021	28.80304
467.231	9.83468
467.441	-23.88203
467.651	43.55752
467.862	51.98916
468.072	56.20513
468.282	22.48004
468.492	51.98916
468.702	37.23403
468.912	22.48004
469.122	92.04447
469.332	5.61975
469.542	-44.95179
469.752	-4.91714
469.962	35.12624
470.172	-7.02445
470.382	106.80373
470.592	35.12624
470.802	56.20513
471.012	-2.80981
471.222	-23.88203
471.432	-53.37899
471.642	125.7815
471.852	-28.09618
472.062	1.40492
472.272	-34.41722
472.482	54.09713
472.691	43.55752
472.901	16.15725
473.111	-4.91714
473.321	75.17808
473.531	62.52924
473.741	81.50281
473.95	26.69535
474.16	9.83468
474.37	47.77329
474.58	37.23403
474.79	39.34183
474.999	100.4782
475.209	51.98916
475.419	64.63732
475.628	1.40492
475.838	-51.27223
476.048	3.51233
476.258	70.96171
476.467	77.2863
476.677	43.55752
476.886	22.48004
477.096	37.23403
477.306	58.31314
477.515	51.98916
477.725	3.51233
477.935	-32.31023
478.144	66.74543
478.354	30.91075
478.563	73.06989
478.773	28.80304
478.982	7.72721
479.192	60.42118
479.401	-15.45344
479.611	98.36974
479.82	-25.98912
480.03	75.17808
480.239	102.58669
480.449	1.40492
480.658	68.85356
480.868	60.42118
481.077	70.96171
481.287	-15.45344
481.496	58.31314
481.705	20.37242
481.915	28.80304
482.124	77.2863
482.333	62.52924
482.543	-7.02445
482.752	68.85356
482.961	60.42118
483.171	68.85356
483.38	70.96171
483.589	81.50281
483.799	51.98916
484.008	68.85356
484.217	77.2863
484.426	89.9361
484.636	54.09713
484.845	64.63732
485.054	5.61975
485.263	35.12624
485.472	85.71941
485.682	73.06989
485.891	68.85356
486.1	5.61975
486.309	39.34183
486.518	106.80373
486.727	28.80304
486.936	92.04447
487.146	87.82774
487.355	87.82774
487.564	104.6952
487.773	123.67278
487.982	54.09713
488.191	165.85139
488.4	178.50662
488.609	104.6952
488.818	146.86997
489.027	174.28813
489.236	136.32547
489.445	26.69535
489.654	161.63315
489.863	161.63315
490.072	115.23808
490.281	157.41499
490.49	157.41499
490.698	85.71941
490.907	144.76102
491.116	197.49084
491.325	220.69599
491.534	102.58669
491.743	161.63315
491.952	172.17891
492.16	170.06972
492.369	174.28813
492.578	153.19692
492.787	153.19692
492.996	108.91229
493.204	102.58669
493.413	197.49084
493.622	235.46415
493.831	205.9288
494.039	239.6838
494.248	102.58669
494.457	153.19692
494.665	256.56318
494.874	180.61589
495.083	197.49084
495.291	197.49084
495.5	262.89326
495.709	203.81928
495.917	210.14789
496.126	233.35436
496.335	237.57397
496.543	205.9288
496.752	246.01343
496.96	248.12334
497.169	300.87729
497.377	307.20854
497.586	222.80567
497.794	254.45319
498.003	189.0532
498.211	351.5318
498.42	212.25747
498.628	347.3102
498.837	313.53995
499.045	372.64081
499.254	271.33363
499.462	309.31899
499.671	326.20327
499.879	288.21528
500.087	321.98209
500.296	370.52983
500.504	324.09267
500.713	307.20854
500.921	296.65654
501.129	406.41873
501.338	203.81928
501.546	469.76342
501.754	351.5318
501.962	357.86432
502.171	296.65654
502.379	421.19789
502.587	457.09336
502.795	402.19626
503.004	324.09267
503.212	370.52983
503.42	391.64037
503.628	406.41873
503.837	435.97783
504.045	444.42385
504.253	414.86386
504.461	492.99327
504.669	482.43403
504.877	425.42065
505.085	518.33696
505.294	480.32222
505.502	425.42065
505.71	518.33696
505.918	457.09336
506.126	465.54001
506.334	431.75491
506.542	450.75854
506.75	465.54001
506.958	486.65768
507.166	484.54585
507.374	566.91803
507.582	435.97783
507.79	566.91803
507.998	609.16823
508.206	503.55289
508.414	579.59254
508.622	509.88883
508.83	541.57047
509.037	566.91803
509.245	406.41873
509.453	528.89743
509.661	626.06974
509.869	681.00505
510.077	590.155
510.285	638.7464
510.492	592.26753
510.7	704.24928
510.908	503.55289
511.116	579.59254
511.324	678.89201
511.531	719.04176
511.739	638.7464
511.947	697.90981
512.155	676.77897
512.362	719.04176
512.57	588.04248
512.778	731.72145
512.985	676.77897
513.193	719.04176
513.401	674.66595
513.608	702.13611
513.816	628.18249
514.024	826.83082
514.231	704.24928
514.439	731.72145
514.646	702.13611
514.854	824.71707
515.061	693.68355
515.269	803.58005
515.477	765.53582
515.684	752.85512
515.892	752.85512
516.099	816.26215
516.307	788.78469
516.514	905.04575
516.722	799.35276
516.929	1099.56908
517.136	719.04176
517.344	917.73031
517.551	881.79147
517.759	860.65207
517.966	809.92106
518.173	974.81412
518.381	934.64348
518.588	898.70358
518.796	915.6162
519.003	1023.44497
519.21	1031.90285
519.418	850.08269
519.625	915.6162
519.832	1036.13182
520.039	968.47122
520.247	1175.69951
520.454	998.07193
520.661	1192.6181
520.868	995.95755
521.076	1133.40413
521.283	1076.30819
521.49	1171.4699
521.697	1067.84985
521.904	1014.98719
522.112	1000.18632
522.319	1251.83485
522.526	1014.98719
522.733	1251.83485
522.94	1294.13387
523.147	1146.09257
523.354	1165.12552
523.561	1279.3291
523.768	1253.94978
523.975	1137.63359
524.183	1260.29458
524.39	1283.55902
524.597	1302.59378
524.804	1368.15904
525.011	1171.4699
525.218	1372.38911
525.425	1302.59378
525.632	1304.70876
525.838	1228.57084
526.045	1334.31872
526.252	1368.15904
526.459	1476.02642
526.666	1361.81396
526.873	1539.47768
527.08	1327.9737
527.287	1465.45116
527.494	1327.9737
527.701	1448.53074
527.907	1344.89378
528.114	1609.27288
528.321	1535.24762
528.528	1636.76741
528.735	1412.57488
528.941	1670.6063
529.148	1363.92898
529.355	1592.35299
529.562	1518.32733
529.768	1683.29571
529.975	1467.56621
530.182	1725.59295
530.388	1660.03172
530.595	1750.97066
530.802	1509.86717
531.008	1827.10042
531.215	1607.1579
531.422	1761.54455
531.628	1708.6742
531.835	1660.03172
532.042	1579.663
532.248	1753.08544
532.455	1683.29571
532.661	1932.82616
532.868	1636.76741
533.074	1937.05491
533.281	1803.83912
533.487	1818.64183
533.694	1784.80677
533.9	1970.88406
534.107	1913.7965
534.313	2059.67784
534.52	1913.7965
534.726	1856.70491
534.933	1803.83912
535.139	2044.8797
535.345	1987.79805
535.552	2063.90582
535.758	1860.93404
535.965	2275.26463
536.171	2030.08122
536.377	2055.44984
536.584	2057.56384
536.79	2080.81744
536.996	2059.67784
537.203	2046.99374
537.409	2066.0198
537.615	2159.0274
537.821	2114.63926
538.028	2156.91376
538.234	2049.10778
538.44	2237.22627
538.646	2173.82267
538.853	2277.37779
539.059	2298.50883
539.265	2416.82462
539.471	2325.97777
539.677	2461.18469
539.883	2285.83032
540.09	2452.73552
540.296	2336.54231
540.502	2387.24864
540.708	2287.94343
540.914	2486.53114
541.12	2427.38697
541.326	2647.02003
541.532	2347.1066
541.738	2560.449
541.944	2285.83032
542.15	2575.23086
542.356	2344.99377
542.562	2621.6843
542.768	2490.7554
542.974	2554.11374
543.18	2433.72425
543.386	2535.10732
543.592	2545.66656
543.798	2625.90704
544.004	2454.84783
544.21	2735.68072
544.415	2798.99557
544.621	2750.45527
544.827	2668.13177
545.033	2796.88527
545.239	2689.24224
545.445	2942.46286
545.651	2657.57606
545.856	2942.46286
546.062	2853.85847
546.268	2858.0783
546.474	2592.12369
546.679	2784.22319
546.885	2735.68072
547.091	2845.41864
547.297	2674.46505
547.502	2942.46286
547.708	2647.02003
547.914	2855.96839
548.119	2997.30021
548.325	2995.19127
548.531	2727.23783
548.736	2976.21012
548.942	2805.32638
549.147	3012.06237
549.353	3085.86188
549.559	3153.31884
549.764	2967.77366
549.97	3138.56403
550.175	3157.53436
550.381	3355.58857
550.586	2845.41864
550.792	3250.25908
550.997	3068.9951
551.203	3372.43729
551.408	3265.00777
551.614	3243.93796
551.819	3068.9951
552.025	3298.71595
552.23	3296.60932
552.435	3401.91985
552.641	3473.50587
552.846	3481.92639
553.052	3323.99422
553.257	3307.14232
553.462	3347.16379
553.668	3538.75729
553.873	3364.01307
554.078	3498.76656
554.283	3406.13136
554.489	3460.87455
554.694	3254.47307
554.899	3547.17554
555.105	3465.08506
555.31	3633.44553
555.515	3505.08133
555.72	3479.82129
555.925	3498.76656
556.131	3587.15822
556.336	3561.90678
556.541	3578.74137
556.746	3429.29341
556.951	3654.4822
557.156	3530.33874
557.361	3711.27171
557.567	3759.63689
557.772	3620.82262
557.977	3435.60996
558.182	3955.09426
558.387	3650.27502
558.592	3824.80843
558.797	3633.44553
559.002	3850.03103
559.207	3732.30131
559.412	3707.06556
559.617	3801.6852
559.822	3938.28753
560.027	3578.74137
560.232	3845.82746
560.437	3854.23452
560.642	3974.00028
560.847	3931.98467
561.051	3784.86682
561.256	3717.58079
561.461	3969.79909
561.666	4053.80744
561.871	4099.99797
562.076	4047.50796
562.281	4118.89119
562.485	3831.11435
562.69	3957.19501
562.895	3896.26504
563.1	3969.79909
563.305	4005.50665
563.509	4064.30617
563.714	4058.007
563.919	4179.7578
564.123	3908.87263
564.328	4120.99033
564.533	4013.90757
564.737	4131.48573
564.942	4154.57376
565.147	4230.11673
565.351	4368.5403
565.556	4372.73349
565.761	4112.59364
565.965	4200.74217
566.17	4190.25025
566.374	4330.79773
566.579	4223.82253
566.784	4412.56442
566.988	4152.47495
567.193	4523.62996
567.397	4192.34867
567.602	4582.28105
567.806	4097.89862
568.011	4385.31253
568.215	4456.5789
568.42	4479.63025
568.624	4328.70071
568.828	4441.90848
569.033	4406.27585
569.237	4779.05283
569.442	4385.31253
569.646	4349.66989
569.85	4552.95768
570.055	4802.06628
570.259	4508.96447
570.463	4682.78509
570.668	4364.34703
570.872	4636.72714
571.076	4286.75587
571.281	4733.0177
571.485	4649.28948
571.689	4760.2216
571.893	4571.80892
572.098	4831.35214
572.302	4649.28948
572.506	4935.90796
572.71	4540.38919
572.914	4841.81029
573.119	4699.53074
573.323	4764.40648
573.527	4540.38919
573.731	4804.15827
573.935	4818.8016
574.139	4937.99849
574.343	4758.12913
574.547	4812.52602
574.751	4594.84687
574.955	5027.86959
575.159	4795.79015
575.364	4958.90255
575.568	4601.12948
575.772	5000.70376
575.976	4741.38854
576.18	4925.45495
576.383	4875.27255
576.587	5128.14036
576.791	4749.75902
576.995	5103.07767
577.199	4862.72489
577.403	5326.43485
577.607	5228.35759
577.811	5153.19969
578.015	4969.35371
578.219	5188.69469
578.422	5042.49574
578.626	5151.11154
578.83	5027.86959
579.034	5232.53214
579.238	4848.08491
579.442	5384.83927
579.645	5203.30831
579.849	5234.61938
580.053	5253.4035
580.257	5370.23989
580.46	5284.70616
580.664	5359.81106
580.868	5359.81106
581.071	5311.83088
581.275	5155.28782
581.479	5374.41126
581.682	5316.00356
581.886	5395.2667
582.09	5389.01031
582.293	5480.74943
582.497	5111.43227
582.7	5543.27271
582.904	5261.75139
583.107	5505.76128
583.311	5593.27607
583.515	5634.93516
583.718	5420.29012
583.922	5601.60864
584.125	5372.32559
584.329	5609.94084
584.532	5526.6019
584.735	5697.40611
584.939	5393.18126
585.142	5759.85582
585.346	5605.77479
585.549	5743.20464
585.753	5591.19286
585.956	5703.65204
586.159	5639.10055
586.363	5739.04161
586.566	5614.10679
586.769	5634.93516
586.973	5639.10055
587.176	5493.25578
587.379	5434.88556
587.582	5897.17042
587.786	5711.97961
587.989	5853.49056
588.192	5932.52268
588.395	6090.48481
588.599	5955.39404
588.802	5953.31495
589.005	5951.23583
589.208	6306.42348
589.411	5753.61181
589.615	6067.63029
589.818	6028.14759
590.021	6240.00782
590.224	6192.25675
590.427	5936.68132
590.63	6142.41632
590.833	5984.49893
591.036	5999.04963
591.239	6308.49858
591.442	6005.2853
591.645	6200.56218
591.848	6053.08502
592.051	6129.9541
592.254	6196.40951
592.457	6046.85098
592.66	6175.64478
592.863	6449.55086
593.066	6242.08368
593.269	6414.29789
593.472	6183.95095
593.675	6493.08936
593.878	6316.79876
594.081	6399.78001
594.284	6296.04761
594.486	6575.99156
594.689	6466.13816
594.892	6443.33023
595.095	6393.55771
595.298	6443.33023
595.5	6461.99148
595.703	6598.78318
595.906	6540.76266
596.109	6673.35442
596.311	6401.85406
596.514	6847.23833
596.717	6549.05241
596.92	6843.1001
597.122	6503.45417
597.325	6745.82566
597.528	6387.3352
597.73	6791.36466
597.933	6571.84733
598.136	6888.61553
598.338	6424.66711
598.541	6700.27559
598.743	6731.33366
598.946	6888.61553
599.148	6727.19288
599.351	7027.16322
599.554	7076.76767
599.756	6998.22133
599.959	7072.63446
600.161	6774.8063
600.363	6764.45659
600.566	7018.89456
600.768	6582.20774
600.971	6940.32429
601.173	6855.51449
601.376	6958.93598
601.578	6948.59638
601.78	7138.75511
601.983	6938.25621
602.185	7023.02894
602.388	6807.92155
602.59	7227.56886
602.792	6932.05184
602.995	7087.1003
603.197	6989.9514
603.399	7206.91815
603.601	6946.52839
603.804	7105.69764
604.006	7095.36601
604.208	7151.15019
604.41	6708.55825
604.613	7169.74131
604.815	7122.22709
605.017	7499.95259
605.219	7107.7639
605.421	7217.24378
605.623	7334.91698
605.826	7363.80827
606.028	7235.82852
606.23	7306.02141
606.432	7008.55822
606.634	7458.7067
606.836	7076.76767
607.038	7400.94791
607.24	7328.72544
607.442	7384.44228
607.644	7409.20021
607.846	7242.02303
608.048	7116.02871
608.25	7153.21596
608.452	7326.66154
608.654	7619.51706
608.856	7487.57973
609.058	7567.98948
609.26	7178.00345
609.462	7483.45527
609.664	7574.1735
609.866	7598.90763
610.067	7310.14961
610.269	7636.00308
610.471	7666.91069
610.673	7559.74383
610.875	7815.20119
611.077	7640.12437
611.278	7499.95259
611.48	7666.91069
611.682	7442.20593
611.884	7784.3163
612.085	7444.2686
612.287	7574.1735
612.489	7308.08552
612.69	7625.69948
612.892	7326.66154
613.094	7551.49784
613.295	7380.31565
613.497	7384.44228
613.699	7584.47976
613.9	7594.78549
614.102	7763.72376
614.304	7866.66561
614.505	7623.63869
614.707	7691.63335
614.908	7452.51907
615.11	7403.01102
615.311	7646.30614
615.513	7524.69599
615.714	7673.09164
615.916	7734.89069
616.117	7473.14375
616.319	7837.84714
616.52	7570.05084
616.722	7673.09164
616.923	7648.36669
617.124	7866.66561
617.326	7565.9281
617.527	7693.69343
617.729	7561.80528
617.93	7788.43456
618.131	7666.91069
618.333	7745.18869
618.534	7771.96103
618.735	7792.55273
618.937	7588.60212
619.138	7765.78311
619.339	7796.67082
619.54	7930.46353
619.742	7710.17334
619.943	7944.86677
620.144	7965.44109
620.345	8031.2652
620.546	7584.47976
620.748	8020.98155
620.949	7662.78995
621.15	8020.98155
621.351	7749.30774
621.552	8055.94387
621.753	7784.3163
621.954	8092.95642
622.155	7761.66439
622.356	8060.0567
622.558	7881.07332
622.759	7944.86677
622.96	7887.24775
623.161	8092.95642
623.362	7835.78852
623.563	8179.29374
623.764	7951.03928
623.965	8027.1518
624.166	7856.37376
624.366	7961.32639
624.567	7932.5212
624.768	8296.40973
624.969	7565.9281
625.17	8103.23653
625.371	7996.29874
625.572	8117.62783
625.773	8136.12949
625.973	8027.1518
626.174	8037.43514
626.375	8115.57199
626.576	7872.84047
626.777	8376.505
626.977	8125.85099
627.178	8462.7285
627.379	8177.2385
627.58	8123.79523
627.78	8127.90673
627.981	8212.17489
628.182	8023.03832
628.382	8388.82472
628.583	8053.88742
628.784	8080.61963
628.984	7990.12758
629.185	8499.67108
629.386	8010.6974
629.586	8388.82472
629.787	8273.81339
629.987	8495.56666
630.188	8173.12795
630.388	8218.33954
630.589	8146.40749
630.79	8263.54153
630.99	8259.43266
631.191	8271.75905
631.391	8175.18323
631.591	8296.40973
631.792	8290.24733
631.992	8298.46383
632.193	8409.35605
632.393	8550.97
632.594	8263.54153
632.794	8319.00371
632.994	8290.24733
633.195	8528.39993
633.395	8390.87794
633.595	8544.81475
633.796	8341.59532
633.996	8633.02377
634.196	8286.13896
634.397	8620.71761
634.597	8360.07761
634.797	8790.89364
634.997	8633.02377
635.198	8764.24792
635.398	8251.21466
635.598	8405.24994
635.798	8458.62339
635.998	8682.24169
636.199	8637.12567
636.399	8864.66579
636.599	8341.59532
636.799	8579.69224
636.999	8286.13896
637.199	8571.48626
637.399	8362.1311
637.599	8702.74601
637.799	8528.39993
637.999	8741.69914
638.199	8454.5182
638.399	8671.98884
638.599	8665.8369
638.799	8682.24169
638.999	8667.88757
639.199	8774.49664
639.399	8626.87078
639.599	8930.22148
639.799	8690.44364
639.999	8946.60755
640.199	8612.51314
640.399	9151.33887
640.599	8366.23803
640.799	8891.29999
640.998	8811.38825
641.198	8829.83186
641.398	8665.8369
641.598	8913.83427
641.798	8696.59491
641.997	8704.79634
642.197	8725.29863
642.397	8989.61561
642.597	8866.71468
642.796	8889.25132
642.996	8553.02171
643.196	8678.1406
643.395	8667.88757
643.595	8950.7039
643.795	8776.54633
643.994	9161.5709
644.194	8971.18454
644.394	9120.64022
644.593	9053.08955
644.793	9435.633
644.992	9151.33887
645.192	9065.37289
645.392	9118.5935
645.591	9077.65561
645.791	9184.07986
645.99	9087.89073
646.19	8848.274
646.389	9120.64022
646.589	9065.37289
646.788	9306.82007
646.987	8989.61561
647.187	9267.95887
647.386	8909.73729
647.586	9169.75621
647.785	8956.84828
647.984	8983.47208
648.184	8991.66342
648.383	9372.25699
648.582	9126.78026
648.782	9355.89935
648.981	9139.05987
649.18	9243.41185
649.38	9488.77506
649.579	9449.94155
649.778	9241.36615
649.977	9339.54064
650.177	9325.22591
650.376	9364.0783
650.575	9167.70991
650.774	9370.21234
650.973	9003.94991
651.173	9243.41185
651.372	8995.75899
651.571	9380.43542
651.77	9224.99999
651.969	9529.64619
652.168	9541.90629
652.367	9421.32366
652.566	9169.75621
652.765	9400.88036
652.964	9241.36615
653.163	9347.72013
653.362	9282.27685
653.561	9355.89935
653.76	9315.00061
653.959	9421.32366
654.158	9300.68449
654.357	9454.02956
654.556	9257.73124
654.755	9531.68958
654.954	9220.90828
655.153	9265.91338
655.352	9069.4672
655.551	9511.25498
655.749	9578.68317
655.948	9570.51097
656.147	9486.73134
656.346	9654.2641
656.545	9192.26443
656.743	9607.28387
656.942	9488.77506
657.141	9515.34202
657.34	9372.25699
657.538	9774.7413
657.737	9840.06278
657.936	9915.57175
658.135	9515.34202
658.333	9801.28001
658.532	9807.40396
658.731	9717.57232
658.929	9421.32366
659.128	9472.42482
659.326	9441.76533
659.525	9962.49963
659.724	9740.03298
659.922	9805.36266
660.121	9580.72617
660.319	9505.12428
660.518	9466.29321
660.716	9680.81451
660.915	9419.2794
661.113	9893.12525
661.312	9733.90753
661.51	9791.07311
661.709	9578.68317
661.907	9782.90733
662.105	9684.89896
662.304	9764.53343
662.502	9678.77226
662.701	9793.11452
662.899	9601.15541
663.097	9556.20902
663.296	9748.20004
663.494	9740.03298
663.692	9445.85347
663.891	9611.36944
664.089	9570.51097
664.287	9870.67697
664.485	9451.98556
664.684	9915.57175
664.882	9560.29537
665.08	9893.12525
665.278	9644.05171
665.476	9807.40396
665.675	9711.44636
665.873	9764.53343
666.071	9764.53343
666.269	9872.71779
666.467	9887.00317
666.665	10266.32844
666.863	9588.89806
667.061	9984.94068
667.259	9580.72617
667.457	10015.5393
667.655	9887.00317
667.853	9813.52778
668.051	9682.85674
668.249	10168.4845
668.447	9709.40435
668.645	9929.85496
668.843	9795.15592
669.041	10033.89692
669.239	9782.90733
669.437	9731.86568
669.635	9615.45494
669.833	9592.9839
670.031	9858.43169
670.229	9991.06066
670.426	9682.85674
670.624	9899.2472
670.822	9625.66842
671.02	9993.10062
671.218	9784.9488
671.415	9850.26788
671.613	9776.78283
671.811	10119.55063
672.009	10011.45967
672.206	10144.01857
672.404	9693.06767
672.602	9938.01648
672.799	9684.89896
672.997	9907.40959
673.195	9633.83893
673.392	9923.73367
673.59	9960.45944
673.788	9838.02172
673.985	9829.85731
674.183	9950.25831
674.38	10031.85724
674.578	10207.21816
674.775	9750.24177
674.973	9933.93575
675.17	9944.13746
675.368	10033.89692
675.565	9789.03169
675.763	9919.65274
675.96	9952.29857
676.158	9999.22043
676.355	9821.69267
676.553	10037.97624
676.75	9721.65621
676.947	10013.49949
677.145	9960.45944
677.342	10288.7466
677.539	9903.32842
677.737	9891.08457
677.934	9799.23866
678.131	10058.37196
678.329	9797.19729
678.526	10023.69838
678.723	9966.57995
678.92	9958.41925
679.118	9868.63612
679.315	9805.36266
679.512	9991.06066
679.709	9897.20656
679.906	9650.17919
680.104	9854.34982
680.301	9658.34895
680.498	9931.89536
680.695	9919.65274
680.892	10082.84495
681.089	9954.33881
681.286	10205.17967
681.483	9805.36266
681.68	9899.2472
681.877	9801.28001
682.075	9678.77226
682.272	9631.79632
682.469	10250.0233
682.665	9917.61225
682.862	10207.21816
683.059	9833.93955
683.256	10027.77784
683.453	9766.57503
683.65	9968.62009
683.847	9797.19729
684.044	9905.36902
684.241	9776.78283
684.438	10172.56196
684.635	9797.19729
684.831	10054.29293
685.028	9838.02172
685.225	9882.92171
685.422	9727.78194
685.619	10068.56928
685.815	9715.53035
686.012	10005.34012
686.209	9693.06767
686.405	9929.85496
686.602	9701.23613
686.799	9682.85674
686.996	9813.52778
687.192	9897.20656
687.389	9668.5608
687.586	9576.64014
687.782	9635.88151
687.979	9997.18051
688.175	9648.13671
688.372	9866.59527
688.568	9770.6582
688.765	9776.78283
688.962	9613.4122
689.158	9533.73296
689.355	9642.00918
689.551	9821.69267
689.748	9754.32517
689.944	9648.13671
690.14	9388.61359
690.337	9774.7413
690.533	9652.22165
690.73	9646.09422
690.926	9699.19404
691.123	9623.62576
691.319	9454.02956
691.515	9670.60312
691.712	9513.29851
691.908	9686.94116
692.104	9511.25498
692.301	9846.18589
692.497	9543.94959
692.693	9756.36686
692.889	9503.08069
693.086	9445.85347
693.282	9705.32027
693.478	9872.71779
693.674	9693.06767
693.87	9811.48653
694.067	9558.2522
694.263	9590.94099
694.459	9470.38096
694.655	9733.90753
694.851	9570.51097
695.047	9750.24177
695.243	9684.89896
695.439	9633.83893
695.635	9380.43542
695.831	9476.51248
696.027	9521.47248
696.224	9731.86568
696.42	9607.28387
696.615	9752.28348
696.811	9592.9839
697.007	9494.90614
697.203	9323.18089
697.399	9525.55937
697.595	9359.98886
697.791	9619.54038
697.987	9333.40586
698.183	9603.19825
698.379	9576.64014
698.575	9993.10062
698.77	9691.02551
698.966	9829.85731
699.162	9543.94959
699.358	10076.72689
699.554	9556.20902
699.749	9682.85674
699.945	9411.10221
700.141	9543.94959
700.337	9380.43542
700.532	9570.51097
700.728	9243.41185
700.924	9486.73134
701.119	9341.58554
701.315	9290.45819
701.511	9257.73124
701.706	9676.73
701.902	9650.17919
702.097	9754.32517
702.293	9588.89806
702.489	10074.68751
702.684	9870.67697
702.88	9976.7805
703.075	9441.76533
703.271	9556.20902
703.466	9535.77631
703.662	9774.7413
703.857	9878.84018
704.053	9670.60312
704.248	9670.60312
704.443	9854.34982
704.639	9413.14653
704.834	9774.7413
705.03	9276.14068
705.225	9666.51846
705.42	9339.54064
705.616	9719.61427
705.811	9353.85457
706.006	9619.54038
706.202	9435.633
706.397	9539.86298
706.592	9564.38166
706.787	9531.68958
706.983	9253.64007
707.178	9654.2641
707.373	9564.38166
707.568	9652.22165
707.763	9253.64007
707.959	9535.77631
708.154	9517.38552
708.349	9376.34624
708.544	9388.61359
708.739	9466.29321
708.934	9372.25699
709.129	9345.67528
709.324	9190.21831
709.519	9764.53343
709.714	9482.64384
709.909	9670.60312
710.104	9184.07986
710.299	9366.123
710.494	9433.58886
710.689	9216.81651
710.884	9302.7297
711.079	9592.9839
711.274	9468.3371
711.469	9623.62576
711.664	9296.59402
711.859	9541.90629
712.054	9265.91338
712.249	9333.40586
712.443	9177.94126
712.638	9425.41212
712.833	9143.15294
713.028	9523.51593
713.223	9298.63927
713.417	9259.7768
713.612	9439.72124
713.807	9474.46865
714.002	9247.50318
714.196	9339.54064
714.391	9173.84877
714.586	9337.49573
714.78	9392.70258
714.975	9380.43542
715.17	9186.12603
715.364	9660.39135
715.559	9525.55937
715.754	9707.36232
715.948	9449.94155
716.143	9644.05171
716.337	9159.52453
716.532	9505.12428
716.726	9188.17218
716.921	9633.83893
717.115	9175.89502
717.31	9306.82007
717.504	9079.70267
717.699	9456.07354
717.893	9245.45752
718.088	9415.19084
718.282	9300.68449
718.476	9494.90614
718.671	9216.81651
718.865	9470.38096
719.059	9085.84374
719.254	9224.99999
719.448	8977.32839
719.642	9349.76496
719.837	9008.04526
720.031	9331.3609
720.225	8835.9794
720.419	9161.5709
720.614	8930.22148
720.808	9100.1723
721.002	8881.05643
721.196	9069.4672
721.39	9038.75819
721.585	9224.99999
721.779	9077.65561
721.973	9118.5935
722.167	8776.54633
722.361	9018.28334
722.555	8850.32303
722.749	8948.65573
722.943	8741.69914
723.137	8909.73729
723.331	8897.44592
723.525	9040.80558
723.719	8721.19832
723.913	9098.12542
724.107	8786.7945
724.301	9143.15294
724.495	8692.49408
724.689	9085.84374
724.883	8881.05643
725.077	9182.03368
725.271	8825.7334
725.465	8954.80017
725.659	8915.88273
725.853	8891.29999
726.046	8766.2977
726.24	8999.85448
726.434	8731.44896
726.628	9046.94764
726.822	8686.3427
727.015	9145.19945
727.209	8538.65934
727.403	9083.79673
727.596	8856.47003
727.79	8905.64024
727.984	8934.31811
728.177	9145.19945
728.371	8786.7945
728.565	8838.02854
728.758	8717.09793
728.952	8811.38825
729.146	8790.89364
729.339	9012.14055
729.533	8969.13656
729.726	8938.41466
729.92	8790.89364
730.113	8856.47003
730.307	8639.17659
730.5	8913.83427
730.694	8954.80017
730.887	8999.85448
731.081	8954.80017
731.274	8969.13656
731.468	8602.25712
731.661	8897.44592
731.854	8946.60755
732.048	9057.18406
732.241	8930.22148
732.435	8889.25132
732.628	8823.68415
732.821	8969.13656
733.014	9061.27851
733.208	9098.12542
733.401	8852.37205
733.594	8852.37205
733.788	8948.65573
733.981	8696.59491
734.174	8678.1406
734.367	8692.49408
734.56	8743.74912
734.754	9028.52099
734.947	8876.95887
735.14	8962.9925
735.333	8962.9925
735.526	8962.9925
735.719	8739.64914
735.912	9028.52099
736.105	8862.61687
736.298	9020.33091
736.491	8749.89895
736.684	8864.66579
736.877	8762.19812
737.07	8893.34865
737.263	8790.89364
737.456	8985.51994
737.649	9085.84374
737.842	8928.17314
738.035	9032.61592
738.228	8817.53628
738.421	9063.32571
738.614	9032.61592
738.807	8913.83427
739	8872.86125
739.192	9024.42598
739.385	9081.74971
739.578	8917.93118
739.771	9012.14055
739.964	8655.58331
740.156	8924.07641
740.349	8553.02171
740.542	8868.76355
740.735	8774.49664
740.927	8858.519
741.12	8706.84665
741.313	8774.49664
741.505	8784.7449
741.698	8587.89791
741.891	8751.94886
742.083	8897.44592
742.276	8852.37205
742.468	9079.70267
742.661	8891.29999
742.854	9163.61725
743.046	8637.12567
743.239	8725.29863
743.431	8840.07767
743.624	8630.97279
743.816	8725.29863
744.009	8612.51314
744.201	8534.55563
744.393	8587.89791
744.586	8594.05197
744.778	8764.24792
744.971	8676.09003
745.163	8770.39721
745.355	8749.89895
745.548	8388.82472
745.74	8450.41294
745.932	8704.79634
746.125	8511.9839
746.317	8704.79634
746.509	8487.35758
746.702	8706.84665
746.894	8665.8369
747.086	8743.74912
747.278	8598.15458
747.471	8844.17587
747.663	8645.32925
747.855	8403.19686
748.047	8394.98432
748.239	8628.92179
748.431	8477.0958
748.623	8655.58331
748.815	8446.30759
749.008	8616.61541
749.2	8450.41294
749.392	8503.77543
749.584	8651.48174
749.776	8733.49903
749.968	8423.72684
750.16	8665.8369
750.352	8530.45185
750.544	8417.56804
750.736	8557.12508
750.928	8897.44592
751.12	8511.9839
751.311	8573.53778
751.503	8524.29604
751.695	8520.19207
751.887	8218.33954
752.079	8616.61541
752.271	8497.61888
752.463	8571.48626
752.654	8380.61165
752.846	8312.84195
753.038	8259.43266
753.23	8388.82472
753.421	8403.19686
753.613	8710.94722
753.805	8374.45164
753.997	8674.03944
754.188	8376.505
754.38	8444.25489
754.572	8125.85099
754.763	8275.8677
754.955	8175.18323
755.146	8224.50401
755.338	8154.62953
755.53	8220.39438
755.721	8245.05096
755.913	8421.67393
756.104	8405.24994
756.296	8251.21466
756.487	8362.1311
756.679	8440.14944
756.87	8142.29635
757.062	8409.35605
757.253	8282.03051
757.445	8321.05759
757.636	8277.92199
757.827	8544.81475
758.019	8401.14375
758.21	8495.56666
758.401	8193.67986
758.593	8185.45934
758.784	7889.30585
758.975	8004.52667
759.167	8304.626
759.358	8438.09668
759.549	8329.27291
759.74	8388.82472
759.932	8006.5836
760.123	8076.50721
760.314	8088.84424
760.505	8251.21466
760.696	8148.46303
760.888	8185.45934
761.079	7988.07048
761.27	8002.46972
761.461	7944.86677
761.652	7732.83102
761.843	7631.8817
762.034	7885.18963
762.225	7706.05349
762.416	8259.43266
762.607	7802.8478
762.798	7804.90675
762.989	7916.05928
763.18	7833.72988
763.371	7854.31533
763.562	7841.96431
763.753	7786.37544
763.944	7977.7847
764.135	7829.61254
764.326	8175.18323
764.517	7907.82782
764.708	7930.46353
764.899	7528.81958
765.089	7623.63869
765.28	7658.66912
765.471	7885.18963
765.662	7710.17334
765.853	7526.7578
766.043	7652.48773
766.234	7460.7692
766.425	7466.95657
766.615	7757.54559
766.806	7557.68237
766.997	7502.01466
767.187	7431.89224
767.378	7446.33125
767.569	7417.45216
767.759	7553.55937
767.95	7442.20593
768.141	7716.35296
768.331	7429.82943
768.522	7691.63335
768.712	7378.2523
768.903	7351.42681
769.093	7458.7067
769.284	7631.8817
769.474	7328.72544
769.665	7483.45527
769.855	7532.9431
770.046	7446.33125
770.236	7384.44228
770.426	7213.1136
770.617	7382.37897
770.807	7452.51907
770.998	7347.29949
771.188	7431.89224
771.378	7351.42681
771.569	7353.49044
771.759	7136.68918
771.949	6934.11998
772.139	7159.41313
772.33	7016.82734
772.52	7062.30104
772.71	7303.95728
772.9	7167.67572
773.09	7093.29962
773.281	7056.10072
773.471	7087.1003
773.661	7031.29742
773.851	6946.52839
774.041	6826.54631
774.231	7144.95275
774.421	7031.29742
774.611	6946.52839
774.802	7029.23033
774.992	7275.0571
775.182	7062.30104
775.372	7124.29317
775.562	7002.35615
775.752	7014.76009
775.942	6847.23833
776.131	6929.98367
776.321	6718.91105
776.511	7130.49128
776.701	7078.83424
776.891	7091.2332
777.081	7144.95275
777.271	7186.26524
777.461	7018.89456
777.651	7062.30104
777.84	6855.51449
778.03	7149.0844
778.22	6820.33826
778.41	7035.43153
778.599	6783.08566
778.789	7070.56782
778.979	6979.61349
779.169	6766.52658
779.358	6776.87618
779.548	6832.75415
779.738	6743.75545
779.927	6764.45659
780.117	6749.96603
780.307	6830.6849
780.496	6559.41409
780.686	6486.8702
780.875	6650.57193
781.065	6768.59654
781.254	6743.75545
781.444	6665.0702
781.633	6503.45417
781.823	6629.85816
782.012	6366.59199
782.202	6565.63081
782.391	6503.45417
782.581	6449.55086
782.77	6650.57193
782.96	6727.19288
783.149	6457.8447
783.338	6546.98001
783.528	6453.69782
783.717	6656.78561
783.906	6418.44565
784.096	6551.12479
784.285	6526.25469
784.474	6532.47253
784.663	6354.14494
784.853	6374.88955
785.042	6302.2732
785.231	6615.35715
785.42	6337.54758
785.61	6383.18675
785.799	6349.99574
785.988	6300.19803
786.177	6190.18034
786.366	6385.26098
786.555	6254.5383
786.744	6449.55086
786.933	6333.398
787.122	6399.78001
787.312	6208.86723
787.501	6192.25675
787.69	6208.86723
787.879	6524.18203
788.068	6053.08502
788.257	6312.64872
788.445	6213.01961
788.634	6447.47734
788.823	6242.08368
789.012	6117.49103
789.201	5851.41031
789.39	6175.64478
789.579	5965.78918
789.768	6192.25675
789.957	5865.97158
790.145	6208.86723
790.334	6044.77292
790.523	6061.39674
790.712	6067.63029
790.9	6217.1719
791.089	6080.09674
791.278	6488.94328
791.467	6146.5702
791.655	6169.4149
791.844	6092.56235
792.033	5920.04619
792.221	6034.38226
792.41	5978.26255
792.599	5643.26585
792.787	6073.86362
792.976	5893.01088
793.164	5720.3068
793.353	5911.72806
793.541	5938.76061
793.73	5782.74873
793.918	5957.47312
794.107	5851.41031
794.295	5880.5317
794.484	5863.89147
794.672	5705.73397
794.861	5609.94084
795.049	5734.87849
795.238	5786.91077
795.426	5934.60201
795.614	5595.35925
795.803	5668.25564
795.991	5714.06144
796.179	5736.96006
796.368	5603.69172
796.556	5530.76975
796.744	5520.34996
796.932	5439.05547
797.121	5576.60979
797.309	5895.09066
797.497	5551.60754
797.685	5734.87849
797.874	5584.94312
798.062	5680.74927
798.25	5313.91723
798.438	5605.77479
798.626	5426.54545
798.814	5678.66706
799.002	5584.94312
799.19	5445.31016
799.378	5643.26585
799.566	5651.59616
799.755	5593.27607
799.943	5505.76128
800.131	5305.57168
800.318	5328.52104
800.506	5326.43485
800.694	5555.77482
800.882	5363.98266
801.07	5612.02383
801.258	5505.76128
801.446	5722.38854
801.634	5645.34846
801.822	5401.52287
802.01	5307.6581
802.197	5689.07788
802.385	5222.09559
802.573	5591.19286
802.761	5545.35645
802.949	5537.02133
803.136	5376.49691
803.324	5541.18894
803.512	5405.69354
803.699	5522.43397
803.887	5411.94936
804.075	5734.87849
804.262	5234.61938
804.45	5597.4424
804.638	5268.01207
804.825	5639.10055
805.013	5351.46757
805.201	5705.73397
805.388	5505.76128
805.576	5747.36758
805.763	5678.66706
805.951	5551.60754
806.138	5505.76128
806.326	5576.60979
806.513	5493.25578
806.701	5576.60979
806.888	5587.02639
807.075	5728.63362
807.263	5603.69172
807.45	5753.61181
807.638	5318.08987
807.825	5630.76968
808.012	5378.58254
808.2	5489.08709
808.387	5705.73397
808.574	5551.60754
808.761	5520.34996
808.949	5541.18894
809.136	5501.59287
809.323	5693.24204
809.51	5818.12305
809.698	5630.76968
809.885	5484.9183
810.072	5774.42436
810.259	5397.35211
810.446	5670.33797
810.633	5493.25578
810.82	5778.58659
811.008	5632.85243
811.195	5788.99175
811.382	5503.67709
811.569	5514.09781
811.756	5601.60864
811.943	5870.13173
812.13	5764.01838
812.317	5701.57009
812.504	5801.47716
812.691	5872.21177
812.878	5716.14325
813.064	5834.76744
813.251	5568.27608
813.438	5951.23583
813.625	5628.6869
813.812	5593.27607
813.999	5489.08709
814.186	5645.34846
814.372	5461.98831
814.559	5509.92959
814.746	5163.6401
814.933	5359.81106
815.12	5376.49691
815.306	5639.10055
815.493	5559.942
815.68	5697.40611
815.866	5464.07297
816.053	5778.58659
816.24	5703.65204
816.426	5720.3068
816.613	5643.26585
816.799	6038.5386
816.986	5624.52127
817.173	5857.65099
817.359	5541.18894
817.546	5734.87849
817.732	5537.02133
817.919	5676.58482
818.105	5689.07788
818.292	5630.76968
818.478	5528.68584
818.665	5753.61181
818.851	5543.27271
819.037	5807.71955
819.224	5451.56464
819.41	5509.92959
819.597	5353.55348
819.783	5801.47716
819.969	5501.59287
820.156	5722.38854
820.342	5549.52387
820.528	5662.00851
820.714	5534.93749
820.901	5684.91362
821.087	5468.24223
821.273	5626.6041
821.459	5555.77482
821.646	5480.74943
821.832	5597.4424
822.018	5720.3068
822.204	5461.98831
822.39	5553.69119
822.576	5378.58254
822.762	5428.63051
822.948	5330.60721
823.134	5543.27271
823.32	5568.27608
823.507	5409.86411
823.693	5380.66814
823.879	5318.08987
824.065	5146.93517
824.25	5299.31227
824.436	5224.18294
824.622	5165.72811
824.808	5186.60693
824.994	5355.63936
825.18	5226.27028
825.366	5199.13311
825.552	5270.09891
825.738	5599.52553
825.923	5071.74462
826.109	5192.87013
826.295	5082.18955
826.481	5245.05524
826.667	5178.25568
826.852	5224.18294
827.038	5069.65557
827.224	5472.41139
827.409	5065.47739
827.595	5226.27028
827.781	5142.75871
827.966	5405.69354
828.152	5042.49574
828.338	5192.87013
828.523	4845.99339
828.709	5305.57168
828.894	4998.61391
829.08	5199.13311
829.266	4902.45632
829.451	5176.16781
829.637	4812.52602
829.822	5128.14036
830.008	5092.6339
830.193	5297.22575
830.378	4908.72895
830.564	5224.18294
830.749	4960.99283
830.935	5201.22072
831.12	4915.00137
831.305	4910.81978
831.491	4919.18287
831.676	5004.88337
831.861	4854.35932
832.047	4925.45495
832.232	4810.43412
832.417	4852.26787
832.602	4695.34446
832.788	4682.78509
832.973	4534.10464
833.158	4864.81622
833.343	4808.34219
833.528	4837.6271
833.714	4923.36428
833.899	5067.56649
834.084	4643.00841
834.269	4950.5412
834.454	4724.6465
834.639	5034.13808
834.824	4632.53952
835.009	4935.90796
835.194	4808.34219
835.379	5107.25502
835.564	4592.75262
835.749	4904.54722
835.934	4532.00975
836.119	4678.59845
836.304	4546.67354
836.489	4586.46975
836.674	4446.10014
836.859	4649.28948
837.044	4676.5051
837.228	4592.75262
837.413	4601.12948
837.598	4825.07697
837.783	4624.164
837.968	4802.06628
838.152	4567.61991
838.337	4643.00841
838.522	4425.14097
838.707	4548.76827
838.891	4351.76669
839.076	4416.75669
839.261	4355.96022
839.445	4651.38312
839.63	4519.43993
839.815	4657.66392
839.999	4372.73349
840.184	4372.73349
840.368	4355.96022
840.553	4456.5789
840.737	4372.73349
840.922	4515.24981
841.106	4118.89119
841.291	4353.86347
841.475	4181.85633
841.66	4209.13533
841.844	4146.17841
842.029	4431.42895
842.213	4204.93879
842.397	4135.68374
842.582	4079.00352
842.766	4074.80438
842.951	4020.20804
843.135	4448.19594
843.319	4171.36345
843.504	4318.21531
843.688	4137.78272
843.872	4175.56067
844.056	4320.31243
844.241	4630.44567
844.425	4364.34703
844.609	4383.21608
844.793	4011.80737
844.977	4165.06748
845.161	3778.5596
845.346	4028.60839
845.53	3913.075
845.714	4282.56092
845.898	3904.67018
846.082	4228.01869
846.266	3946.69106
846.45	4196.54546
846.634	4064.30617
846.818	4202.84049
847.002	3814.29817
847.186	3980.30193
847.37	3782.76443
847.554	3938.28753
847.738	3833.21628
847.922	3847.92926
848.106	3709.16864
848.29	3852.13279
848.473	3719.68378
848.657	3875.25078
848.841	3683.93035
849.025	4009.70715
849.209	3789.07153
849.392	4045.40809
849.576	3730.19843
849.76	3793.27617
849.944	3711.27171
850.127	3923.58057
850.311	3608.19903
850.495	3738.60981
850.678	3528.23405
850.862	3580.84561
851.046	3606.09503
851.229	3610.30301
851.413	3364.01307
851.596	3856.33624
851.78	3633.44553
851.964	3805.8896
852.147	3420.8711
852.331	3822.70641
852.514	3349.27002
852.698	3664.99983
852.881	3498.76656
853.065	3700.75619
853.248	3612.40697
853.431	3690.24018
853.615	3511.39593
853.798	3713.37475
853.982	3397.70827
854.165	3431.39895
854.348	3206.00808
854.532	3439.82091
854.715	3203.90071
854.898	3340.84503
855.081	3157.53436
855.265	3422.9767
855.448	3248.15206
855.631	3439.82091
855.814	3229.18809
855.997	3521.91989
856.181	3239.72379
856.364	3340.84503
856.547	3153.31884
856.73	3490.34662
856.913	3052.12732
857.096	3467.19029
857.279	3315.56841
857.462	3102.72765
857.645	2993.08231
857.828	3338.73874
858.011	3115.37631
858.194	3332.41977
858.377	2978.31919
858.56	3146.99545
858.743	3241.83089
858.926	3456.66396
859.109	3288.18261
859.292	3283.96916
859.475	3102.72765
859.658	3220.75923
859.841	2948.79076
860.023	3096.4031
860.206	2817.98764
860.389	3079.53695
860.572	2839.08862
860.755	3081.64528
860.937	2864.40794
861.12	3094.29489
861.303	2988.86435
861.486	2929.80666
861.668	2843.30864
861.851	3106.94393
862.034	2877.06683
862.216	3014.17119
862.399	2653.35369
862.581	3022.60632
862.764	2860.18819
862.947	2912.9309
863.129	2883.39609
863.312	2938.24418
863.494	2604.79282
863.677	2801.10586
863.859	2651.24248
864.042	2773.67109
864.224	2693.46418
864.406	2841.19864
864.589	2632.24107
864.771	2807.43663
864.954	2623.79568
865.136	2826.4282
865.318	2452.73552
865.501	2676.57611
865.683	2727.23783
865.865	2710.35143
866.048	2513.98799
866.23	2564.67244
866.412	2461.18469
866.594	2695.57513
866.777	2353.44506
866.959	2640.68627
867.141	2334.42942
867.323	2573.1192
867.505	2454.84783
867.687	2516.09997
867.869	2414.71212
868.052	2435.83666
868.234	2418.93711
868.416	2668.13177
868.598	2368.23445
868.78	2562.56073
868.962	2456.96013
869.144	2682.90924
869.326	2486.53114
869.508	2615.35008
869.69	2581.56576
869.872	2590.01213
870.054	2364.00896
870.236	2423.16206
870.417	2433.72425
870.599	2532.99544
870.781	2408.37455
870.963	2579.45414
871.145	2412.59961
871.327	2600.56982
871.508	2173.82267
871.69	2490.7554
871.872	2180.16337
872.054	2421.04959
872.235	2165.36828
872.417	2344.99377
872.599	2355.55786
872.78	2539.33105
872.962	2209.75232
873.144	2298.50883
873.325	2241.4529
873.507	2461.18469
873.689	2304.84796
873.87	2516.09997
874.052	2266.81192
874.233	2425.27452
874.415	2402.03689
874.596	2361.8962
874.778	2277.37779
874.959	2385.136
875.141	2123.09441
875.322	2385.136
875.503	2125.20818
875.685	2304.84796
875.866	2144.23174
876.048	2237.22627
876.229	2030.08122
876.41	2066.0198
876.592	2013.16827
876.773	2300.62188
876.954	2173.82267
877.136	2425.27452
877.317	2142.11804
877.498	2391.47391
877.679	2156.91376
877.86	2325.97777
878.042	2271.03829
878.223	2408.37455
878.404	2309.074
878.585	2454.84783
878.766	2146.34543
878.947	2655.46488
879.128	2423.16206
879.309	2448.51087
879.49	2317.52596
879.672	2528.77164
879.853	2258.35906
880.034	2410.48708
880.215	2298.50883
880.396	2469.63369
880.576	2220.3194
880.757	2216.0926
880.938	2192.84455
881.119	2556.2255
881.3	2469.63369
881.481	2418.93711
881.662	2110.41163
881.843	2266.81192
882.023	2199.18503
882.204	2473.85812
882.385	2292.16962
882.566	2332.31652
882.747	2063.90582
882.927	2268.92511
883.108	1945.51234
883.289	2175.93624
883.469	2085.04527
883.65	2285.83032
883.831	2165.36828
884.011	2304.84796
884.192	2258.35906
884.373	2440.06144
884.553	2093.50084
884.734	2524.5478
884.914	2334.42942
885.095	2437.94905
885.275	2173.82267
885.456	2463.29696
885.636	2351.33225
885.817	2296.39577
885.997	2190.73104
886.178	2370.34718
886.358	2256.24582
886.538	2456.96013
886.719	2342.88092
886.899	2564.67244
887.08	2182.27692
887.26	2602.68133
887.44	2319.63893
887.621	2630.12974
887.801	2300.62188
887.981	2456.96013
888.161	2256.24582
888.342	2364.00896
888.522	2167.48189
888.702	2416.82462
888.882	2319.63893
889.062	2516.09997
889.242	2036.42347
889.423	2275.26463
889.603	2226.65954
889.783	2340.76806
889.963	2266.81192
890.143	2490.7554
890.323	2148.45911
890.503	2372.4599
890.683	2277.37779
890.863	2218.206
891.043	2167.48189
891.223	2359.78343
891.403	2173.82267
891.583	2429.49941
891.763	2279.49093
891.943	2397.81173
892.122	2226.65954
892.302	2370.34718
892.482	2275.26463
892.662	2427.38697
892.842	2072.36168
893.022	2387.24864
893.201	2078.70351
893.381	2182.27692
893.561	2123.09441
893.741	2389.36128
893.92	2074.47563
894.1	2241.4529
894.28	2093.50084
894.459	2304.84796
894.639	1989.91227
894.819	2175.93624
894.998	2192.84455
895.178	2271.03829
895.357	2095.61472
895.537	2344.99377
895.716	2114.63926
895.896	2300.62188
896.075	2085.04527
896.255	2241.4529
896.434	2068.13377
896.614	2317.52596
896.793	2055.44984
896.973	2216.0926
897.152	1951.85535
897.331	2309.074
897.511	2114.63926
897.69	2266.81192
897.87	2116.75305
898.049	1985.68382
898.228	1863.0486
898.407	1903.22427
898.587	1797.49504
898.766	1979.3411
898.945	1860.93404
899.124	1977.22685
899.304	1934.94053
899.483	2167.48189
899.662	1835.55894
899.841	2175.93624
900.02	1871.50679
900.199	1905.33873
900.378	1820.75648
900.557	1829.21506
900.737	1767.88883
900.916	1793.26563
901.095	1810.18317
901.274	1759.42978
901.453	1581.778
901.632	1710.78906
901.811	1657.91679
901.989	1818.64183
902.168	1592.35299
902.347	1793.26563
902.526	1501.40699
902.705	1770.00359
902.884	1575.43299
903.063	1594.46798
903.242	1547.93778
903.42	1552.16783
903.599	1431.61033
903.778	1592.35299
903.957	1522.55741
904.135	1607.1579
904.314	1393.53948
904.493	1514.09725
904.672	1533.13258
904.85	1444.30064
905.029	1374.50414
905.207	1581.778
905.386	1302.59378
905.565	1366.04401
905.743	1188.38843
905.922	1330.0887
906.1	1262.40951
906.279	1357.58391
906.457	1175.69951
906.636	1319.5137
906.814	991.72881
906.993	1194.73294
907.171	1150.32209
907.35	1082.65201
907.528	1141.86307
907.707	1338.54874
907.885	957.89985
908.063	1277.21415
908.242	1154.55162
908.42	1327.9737
908.598	1133.40413
908.777	1262.40951
908.955	1095.33978
909.133	1262.40951
909.311	1000.18632
909.49	1082.65201
909.668	968.47122
909.846	1069.96443
910.024	926.18683
910.202	1171.4699
910.38	1010.75834
910.559	1086.88125
910.737	993.84318
910.915	1211.65179
911.093	991.72881
911.271	1239.14535
911.449	879.67749
911.627	1127.05997
911.805	964.24265
911.983	1110.1424
912.161	966.35693
912.339	1175.69951
912.517	972.69981
912.695	1319.5137
912.872	1116.48645
913.05	1211.65179
913.228	1099.56908
913.406	1213.76666
913.584	1086.88125
913.762	1281.44406
913.939	1124.94526
914.117	1226.45595
914.295	1067.84985
914.473	1167.24031
914.65	1116.48645
914.828	1175.69951
915.006	998.07193
915.184	1082.65201
915.361	998.07193
915.539	1127.05997
915.716	1076.30819
915.894	1095.33978
916.072	1076.30819
916.249	1059.39158
916.427	1023.44497
916.604	1067.84985
916.782	934.64348
916.959	1146.09257
917.137	898.70358
917.314	1048.81888
917.492	936.75766
917.669	981.15708
917.847	898.70358
918.024	1050.93341
918.201	831.05835
918.379	989.61445
918.556	795.1255
918.733	854.31041
918.911	873.33561
919.088	873.33561
919.265	748.6283
919.442	883.90545
919.62	773.98982
919.797	1040.36082
919.974	854.31041
920.151	1025.55943
920.328	788.78469
920.506	896.58954
920.683	822.60332
920.86	771.8763
921.037	773.98982
921.214	845.85499
921.391	642.97205
921.568	896.58954
921.745	733.83477
921.922	858.53818
922.099	788.78469
922.276	839.51352
922.453	666.21399
922.63	805.69371
922.807	750.74171
922.984	748.6283
923.161	735.9481
923.338	769.7628
923.514	725.38156
923.691	875.44956
923.868	695.79667
924.045	719.04176
924.222	670.43995
924.399	659.87514
924.575	613.39353
924.752	727.49485
924.929	655.64929
925.105	746.51491
925.282	683.11811
925.459	681.00505
925.635	693.68355
925.812	738.06144
925.989	600.71778
926.165	693.68355
926.342	617.61889
926.518	596.49263
926.695	550.01944
926.871	617.61889
927.048	575.36765
927.224	550.01944
927.401	476.09866
927.577	539.45826
927.754	509.88883
927.93	689.45734
928.107	566.91803
928.283	617.61889
928.459	478.21043
928.636	626.06974
928.812	484.54585
928.988	609.16823
929.165	495.10517
929.341	537.34607
929.517	370.52983
929.693	630.29525
929.87	457.09336
930.046	569.03042
930.222	372.64081
930.398	594.38007
930.574	448.64696
930.751	461.31665
930.927	400.08505
931.103	522.5611
931.279	425.42065
931.455	395.86267
931.631	395.86267
931.807	423.30926
931.983	368.41887
932.159	423.30926
932.335	338.86722
932.511	452.87013
932.687	338.86722
932.863	313.53995
933.039	300.87729
933.215	402.19626
933.391	317.76099
933.566	315.65046
933.742	309.31899
933.918	355.75346
934.094	313.53995
934.27	326.20327
934.445	258.67319
934.621	321.98209
934.797	277.66411
934.973	224.91537
935.148	189.0532
935.324	248.12334
935.5	277.66411
935.675	305.0981
935.851	220.69599
936.027	216.47669
936.202	260.78321
936.378	220.69599
936.553	330.42451
936.729	311.42946
936.904	222.80567
937.08	199.6003
937.255	89.9361
937.431	174.28813
937.606	119.45538
937.782	102.58669
937.957	159.52406
938.133	85.71941
938.308	111.02086
938.483	123.67278
938.659	75.17808
938.834	-7.02445
939.009	125.7815
939.185	47.77329
939.36	129.99903
939.535	68.85356
939.71	155.30595
939.886	43.55752
940.061	62.52924
940.236	81.50281
940.411	73.06989
940.586	92.04447
940.761	54.09713
940.937	18.26482
941.112	68.85356
941.287	92.04447
941.462	68.85356
941.637	35.12624
941.812	24.58768
941.987	51.98916
942.162	94.15287
942.337	138.43433
942.512	45.6654
942.687	51.98916
942.862	85.71941
943.037	81.50281
943.212	94.15287
943.386	85.71941
943.561	77.2863
943.736	-4.91714
943.911	18.26482
944.086	60.42118
944.26	47.77329
944.435	119.45538
944.61	43.55752
944.785	77.2863
944.959	33.01848
945.134	-4.91714
945.309	89.9361
945.483	115.23808
945.658	35.12624
945.833	85.71941
946.007	54.09713
946.182	106.80373
946.357	144.76102
946.531	79.39455
946.706	117.34672
946.88	62.52924
947.055	58.31314
947.229	3.51233
947.404	45.6654
947.578	43.55752
947.752	-7.02445
947.927	35.12624
948.101	35.12624
948.276	87.82774
948.45	54.09713
948.624	37.23403
948.799	26.69535
948.973	-7.02445
949.147	85.71941
949.321	70.96171
949.496	20.37242
949.67	85.71941
949.844	77.2863
950.018	28.80304
950.193	37.23403
950.367	62.52924
950.541	3.51233
950.715	77.2863
950.889	94.15287
951.063	121.56407
951.237	77.2863
951.411	35.12624
951.585	77.2863
951.759	35.12624
951.933	146.86997
952.107	79.39455
952.281	9.83468
952.455	-38.63112
952.629	26.69535
952.803	106.80373
952.977	1.40492
953.151	60.42118
953.325	89.9361
953.499	64.63732
953.672	96.26129
953.846	51.98916
954.02	68.85356
954.194	68.85356
954.368	47.77329
954.541	66.74543
954.715	64.63732
954.889	119.45538
955.062	35.12624
955.236	39.34183
955.41	79.39455
955.583	113.12946
955.757	136.32547
955.93	83.6111
956.104	39.34183
956.278	37.23403
956.451	77.2863
956.625	-34.41722
956.798	161.63315
956.972	132.10782
957.145	68.85356
957.319	43.55752
957.492	62.52924
957.665	85.71941
957.839	98.36974
958.012	106.80373
958.185	115.23808
958.359	70.96171
958.532	51.98916
958.705	79.39455
958.879	22.48004
959.052	11.94218
959.225	77.2863
959.398	165.85139
959.572	85.71941
959.745	28.80304
959.918	39.34183
960.091	89.9361
960.264	18.26482
960.438	115.23808
960.611	77.2863
960.784	79.39455
960.957	77.2863
961.13	70.96171
961.303	35.12624
961.476	66.74543
961.649	102.58669
961.822	60.42118
961.995	33.01848
962.168	68.85356
962.341	68.85356
962.514	81.50281
962.686	-13.34623
962.859	111.02086
963.032	26.69535
963.205	14.04971
963.378	51.98916
963.551	102.58669
963.723	47.77329
963.896	28.80304
964.069	62.52924
964.242	163.74226
964.414	51.98916
964.587	138.43433
964.76	98.36974
964.932	58.31314
965.105	45.6654
965.278	5.61975
965.45	28.80304
965.623	24.58768
965.795	77.2863
965.968	45.6654
966.14	94.15287
966.313	64.63732
966.485	68.85356
966.658	43.55752
966.83	9.83468
967.003	-38.63112
967.175	98.36974
967.348	81.50281
967.52	56.20513
967.692	102.58669
967.865	-66.01904
968.037	77.2863
968.209	121.56407
968.382	51.98916
968.554	43.55752
968.726	51.98916
968.898	35.12624
969.071	35.12624
969.243	64.63732
969.415	170.06972
969.587	51.98916
969.759	60.42118
969.932	-9.13173
970.104	60.42118
970.276	106.80373
970.448	9.83468
970.62	70.96171
970.792	73.06989
970.964	37.23403
971.136	28.80304
971.308	77.2863
971.48	62.52924
971.652	37.23403
971.824	157.41499
971.996	51.98916
972.168	85.71941
972.339	20.37242
972.511	98.36974
972.683	-28.09618
972.855	73.06989
973.027	-13.34623
973.199	43.55752
973.37	77.2863
973.542	45.6654
973.714	20.37242
973.886	-23.88203
974.057	5.61975
974.229	-32.31023
974.401	39.34183
974.572	43.55752
974.744	45.6654
974.915	35.12624
975.087	54.09713
975.259	9.83468
975.43	-7.02445
975.602	37.23403
975.773	41.44967
975.945	9.83468
976.116	79.39455
976.288	77.2863
976.459	51.98916
976.63	30.91075
976.802	119.45538
976.973	77.2863
977.145	26.69535
977.316	26.69535
977.487	26.69535
977.659	51.98916
977.83	54.09713
978.001	43.55752
978.172	-49.16544
978.344	77.2863
978.515	83.6111
978.686	-11.23899
978.857	-2.80981
979.028	108.91229
979.2	45.6654
979.371	11.94218
979.542	51.98916
979.713	51.98916
979.884	5.61975
980.055	56.20513
980.226	24.58768
980.397	54.09713
980.568	-49.16544
980.739	43.55752
980.91	1.40492
981.081	37.23403
981.252	11.94218
981.423	51.98916
981.594	43.55752
981.765	81.50281
981.936	43.55752
982.106	39.34183
982.277	79.39455
982.448	89.9361
982.619	11.94218
982.79	75.17808
982.96	43.55752
983.131	43.55752
983.302	56.20513
983.472	28.80304
983.643	-36.52418
983.814	-2.80981
983.984	18.26482
984.155	85.71941
984.326	81.50281
984.496	-19.66778
984.667	106.80373
984.837	-74.44523
985.008	-13.34623
985.178	39.34183
985.349	45.6654
985.519	62.52924
985.69	22.48004
985.86	22.48004
986.031	79.39455
986.201	11.94218
986.371	140.5432
986.542	43.55752
986.712	43.55752
986.882	16.15725
987.053	45.6654
987.223	5.61975
987.393	-7.02445
987.563	11.94218
987.734	26.69535
987.904	43.55752
988.074	35.12624
988.244	70.96171
988.414	22.48004
988.585	-19.66778
988.755	11.94218
988.925	43.55752
989.095	20.37242
989.265	-25.98912
989.435	30.91075
989.605	-13.34623
989.775	28.80304
989.945	28.80304
990.115	56.20513
990.285	22.48004
990.455	-15.45344
990.625	56.20513
990.795	-89.19007
990.965	54.09713
991.134	35.12624
991.304	7.72721
991.474	14.04971
991.644	37.23403
991.814	77.2863
991.984	1.40492
992.153	85.71941
992.323	28.80304
992.493	28.80304
992.662	-13.34623
992.832	30.91075
993.002	20.37242
993.171	-21.77492
993.341	3.51233
993.511	94.15287
993.68	33.01848
993.85	54.09713
994.019	9.83468
994.189	37.23403
994.358	28.80304
994.528	-19.66778
994.697	7.72721
994.867	9.83468
995.036	33.01848
995.206	3.51233
995.375	1.40492
995.544	9.83468
995.714	14.04971
995.883	-0.70246
996.052	39.34183
996.222	3.51233
996.391	94.15287
996.56	37.23403
996.73	20.37242
996.899	-21.77492
997.068	26.69535
997.237	18.26482
997.406	26.69535
997.576	43.55752
997.745	54.09713
997.914	-36.52418
998.083	119.45538
998.252	-11.23899
998.421	11.94218
998.59	39.34183
998.759	11.94218
998.928	87.82774
999.097	18.26482
999.266	-4.91714
999.435	9.83468
999.604	-49.16544
999.773	30.91075
999.942	-78.65817
1000.111	-7.02445
1000.28	51.98916
1000.448	-4.91714
1000.617	-44.95179
1000.786	26.69535
1000.955	30.91075
1001.124	43.55752
1001.292	-9.13173
1001.461	-57.59244
1001.63	11.94218
1001.798	51.98916
1001.967	-32.31023
1002.136	-7.02445
1002.304	26.69535
1002.473	3.51233
1002.642	66.74543
1002.81	-32.31023
1002.979	9.83468
1003.147	77.2863
1003.316	5.61975
1003.484	-44.95179
1003.653	5.61975
1003.821	-42.84492
1003.99	20.37242
1004.158	37.23403
1004.327	-34.41722
1004.495	1.40492
1004.663	35.12624
1004.832	-13.34623
1005	35.12624
1005.168	-72.33872
1005.337	51.98916
1005.505	9.83468
1005.673	-19.66778
1005.842	5.61975
1006.01	5.61975
1006.178	-4.91714
1006.346	73.06989
1006.514	-53.37899
1006.683	5.61975
1006.851	39.34183
1007.019	45.6654
1007.187	51.98916
1007.355	-40.73804
1007.523	-7.02445
1007.691	68.85356
1007.859	11.94218
1008.027	-66.01904
1008.195	-21.77492
1008.363	20.37242
1008.531	-36.52418
1008.699	3.51233
1008.867	-21.77492
1009.035	11.94218
1009.203	-51.27223
1009.37	37.23403
1009.538	43.55752
1009.706	14.04971
1009.874	51.98916
1010.042	28.80304
1010.209	11.94218
1010.377	9.83468
1010.545	9.83468
1010.713	-40.73804
1010.88	18.26482
1011.048	-47.05863
1011.216	-44.95179
1011.383	-11.23899
1011.551	-15.45344
1011.718	35.12624
1011.886	60.42118
1012.054	51.98916
1012.221	-32.31023
1012.389	-21.77492
1012.556	28.80304
1012.724	-61.80579
1012.891	-4.91714
1013.058	20.37242
1013.226	113.12946
1013.393	3.51233
1013.561	28.80304
1013.728	-13.34623
1013.895	58.31314
1014.063	54.09713
1014.23	43.55752
1014.397	-32.31023
1014.565	-32.31023
1014.732	-21.77492
1014.899	-11.23899
1015.066	-66.01904
1015.233	-30.20322
1015.401	1.40492
1015.568	18.26482
1015.735	35.12624
1015.902	-38.63112
1016.069	-57.59244
1016.236	51.98916
1016.403	26.69535
1016.57	43.55752
1016.737	5.61975
1016.904	39.34183
1017.071	-30.20322
1017.238	11.94218
1017.405	-4.91714
1017.572	-66.01904
1017.739	43.55752
1017.906	28.80304
1018.073	11.94218
1018.24	60.42118
1018.407	-23.88203
1018.573	-78.65817
1018.74	18.26482
1018.907	-23.88203
1019.074	-30.20322
1019.241	66.74543
1019.407	-15.45344
1019.574	39.34183
1019.741	9.83468
1019.907	3.51233
1020.074	-11.23899
1020.241	85.71941
1020.407	-74.44523
1020.574	14.04971
1020.74	22.48004
1020.907	60.42118
1021.073	35.12624
1021.24	14.04971
1021.406	-25.98912
1021.573	-2.80981
1021.739	-57.59244
1021.906	-66.01904
1022.072	-32.31023
1022.239	22.48004
1022.405	-32.31023
1022.571	-11.23899
1022.738	20.37242
1022.904	-53.37899
1023.07	73.06989
1023.237	-42.84492
1023.403	3.51233
1023.569	58.31314
1023.735	39.34183
1023.902	-11.23899
1024.068	-38.63112
1024.234	-15.45344
1024.4	-47.05863
1024.566	-36.52418
1024.732	68.85356
1024.898	-21.77492
1025.065	-30.20322
1025.231	-72.33872
1025.397	24.58768
1025.563	-11.23899
1025.729	-99.72133
1025.895	37.23403
1026.061	-15.45344
1026.227	20.37242
1026.392	81.50281
1026.558	43.55752
1026.724	56.20513
1026.89	-36.52418
1027.056	49.88122
1027.222	-23.88203
1027.388	5.61975
1027.553	26.69535
1027.719	-38.63112
1027.885	54.09713
1028.051	14.04971
1028.216	-57.59244
1028.382	-25.98912
1028.548	-15.45344
1028.713	-32.31023
1028.879	-49.16544
1029.045	35.12624
1029.21	-51.27223
1029.376	-15.45344
1029.541	-4.91714
1029.707	11.94218
1029.873	26.69535
1030.038	-63.91243
1030.204	1.40492
1030.369	100.4782
1030.534	-15.45344
1030.7	18.26482
1030.865	-11.23899
1031.031	62.52924
1031.196	-44.95179
1031.361	18.26482
1031.527	-7.02445
1031.692	37.23403
1031.857	-15.45344
1032.023	-47.05863
1032.188	-49.16544
1032.353	-23.88203
1032.518	24.58768
1032.684	22.48004
1032.849	-2.80981
1033.014	-34.41722
1033.179	51.98916
1033.344	-4.91714
1033.509	26.69535
1033.674	-25.98912
1033.839	77.2863
1034.004	9.83468
1034.17	7.72721
1034.335	-11.23899
1034.5	-57.59244
1034.664	-17.56062
1034.829	51.98916
1034.994	39.34183
1035.159	-7.02445
1035.324	-7.02445
1035.489	41.44967
1035.654	18.26482
1035.819	11.94218
1035.984	58.31314
1036.148	1.40492
1036.313	1.40492
1036.478	-11.23899
1036.643	45.6654
1036.807	43.55752
1036.972	60.42118
1037.137	30.91075
1037.301	-23.88203
1037.466	-32.31023
1037.631	-57.59244
1037.795	-15.45344
1037.96	-17.56062
1038.124	-4.91714
1038.289	11.94218
1038.454	3.51233
1038.618	39.34183
1038.783	-53.37899
1038.947	-19.66778
1039.111	-2.80981
1039.276	1.40492
1039.44	-2.80981
1039.605	11.94218
1039.769	-32.31023
1039.933	9.83468
1040.098	-34.41722
1040.262	-2.80981
1040.426	-15.45344
1040.591	20.37242
1040.755	39.34183
1040.919	-47.05863
1041.083	9.83468
1041.248	-57.59244
1041.412	39.34183
1041.576	-30.20322
1041.74	18.26482
1041.904	20.37242
1042.068	-78.65817
1042.232	39.34183
1042.397	-49.16544
1042.561	9.83468
1042.725	-25.98912
1042.889	-103.93364
1043.053	26.69535
1043.217	11.94218
1043.381	60.42118
1043.544	-44.95179
1043.708	-9.13173
1043.872	28.80304
1044.036	18.26482
1044.2	3.51233
1044.364	14.04971
1044.528	60.42118
1044.691	-11.23899
1044.855	43.55752
1045.019	18.26482
1045.183	-21.77492
1045.346	-13.34623
1045.51	-61.80579
1045.674	-53.37899
1045.837	-15.45344
1046.001	62.52924
1046.165	9.83468
1046.328	-59.69913
1046.492	14.04971
1046.655	-2.80981
1046.819	9.83468
1046.983	26.69535
1047.146	-15.45344
1047.31	11.94218
1047.473	81.50281
1047.636	-28.09618
1047.8	-28.09618
1047.963	-21.77492
1048.127	-53.37899
1048.29	35.12624
