Data from mixed_try6.1_USB4F045381__18__00302.txt Node

Date: Thu Apr 03 20:32:51 EDT 2025
User: mmckonesweet
Spectrometer: USB4F04538
Trigger mode: 4
Integration Time (sec): 2.700000E-3
Scans to average: 1
Electric dark correction enabled: true
Nonlinearity correction enabled: true
Boxcar width: 0
XAxis mode: Wavelengths
Number of Pixels in Spectrum: 3648
>>>>>Begin Spectral Data<<<<<
345.52	24.06077
345.736	24.06077
345.952	24.06077
346.168	55.67812
346.384	-3.33665
346.6	-32.83698
346.816	-9.65855
347.032	-7.55127
347.248	7.20034
347.464	-7.55127
347.68	15.63036
347.896	-3.33665
348.112	45.13842
348.328	-41.26476
348.544	-45.4785
348.76	102.05957
348.975	-22.3017
349.191	-22.3017
349.407	17.73793
349.623	26.16843
349.839	-3.33665
350.055	9.30781
350.27	40.92271
350.486	-49.69214
350.702	-37.05092
350.918	-37.05092
351.133	-70.75882
351.349	-24.40881
351.565	-62.33245
351.781	-7.55127
351.996	13.52282
352.212	-11.7658
352.428	-7.55127
352.644	-53.90568
352.859	43.03055
353.075	13.52282
353.291	-24.40881
353.506	17.73793
353.722	-28.62294
353.938	-24.40881
354.153	62.00222
354.369	-62.33245
354.584	0.87808
354.8	-37.05092
355.016	-20.19457
355.231	-37.05092
355.447	-41.26476
355.662	-34.94396
355.878	74.65103
356.093	-53.90568
356.309	7.20034
356.524	24.06077
356.74	-9.65855
356.955	-53.90568
357.171	-24.40881
357.386	15.63036
357.602	-85.50398
357.817	21.95313
358.033	21.95313
358.248	-15.98024
358.464	-3.33665
358.679	15.63036
358.895	30.38382
359.11	-28.62294
359.325	0.87808
359.541	47.24632
359.756	-37.05092
359.972	2.98547
360.187	66.2184
360.402	-87.61033
360.618	-3.33665
360.833	-7.55127
361.048	13.52282
361.264	-45.4785
361.479	53.57014
361.694	15.63036
361.909	-32.83698
362.125	-11.7658
362.34	21.95313
362.555	9.30781
362.77	-68.65227
362.986	17.73793
363.201	40.92271
363.416	-30.72997
363.631	17.73793
363.847	-37.05092
364.062	-37.05092
364.277	-32.83698
364.492	5.09289
364.707	-7.55127
364.922	21.95313
365.138	-34.94396
365.353	-28.62294
365.568	7.20034
365.783	13.52282
365.998	17.73793
366.213	-62.33245
366.428	13.52282
366.643	32.49155
366.858	49.35423
367.073	-37.05092
367.288	9.30781
367.503	-39.15785
367.718	-11.7658
367.933	24.06077
368.148	7.20034
368.363	-43.37164
368.578	-3.33665
368.793	9.30781
369.008	-24.40881
369.223	-58.11912
369.438	-87.61033
369.653	-68.65227
369.868	15.63036
370.083	7.20034
370.298	0.87808
370.513	-30.72997
370.728	21.95313
370.943	-41.26476
371.157	-26.51589
371.372	-13.87303
371.587	38.81488
371.802	51.46218
372.017	30.38382
372.232	-20.19457
372.446	7.20034
372.661	-32.83698
372.876	-56.01241
373.091	-1.2293
373.306	55.67812
373.52	-3.33665
373.735	-37.05092
373.95	-26.51589
374.165	-22.3017
374.379	7.20034
374.594	-60.2258
374.809	74.65103
375.023	-1.2293
375.238	-13.87303
375.453	-28.62294
375.667	5.09289
375.882	-30.72997
376.097	-79.18478
376.311	-22.3017
376.526	-45.4785
376.741	7.20034
376.955	-24.40881
377.17	21.95313
377.384	21.95313
377.599	13.52282
377.813	-1.2293
378.028	-11.7658
378.242	74.65103
378.457	13.52282
378.672	-15.98024
378.886	-1.2293
379.101	55.67812
379.315	-41.26476
379.53	-7.55127
379.744	66.2184
379.958	5.09289
380.173	64.1103
380.387	-30.72997
380.602	49.35423
380.816	40.92271
381.031	-15.98024
381.245	55.67812
381.459	26.16843
381.674	-66.54569
381.888	15.63036
382.103	-11.7658
382.317	-28.62294
382.531	80.97574
382.746	-43.37164
382.96	9.30781
383.174	-3.33665
383.388	-68.65227
383.603	32.49155
383.817	-20.19457
384.031	40.92271
384.246	-15.98024
384.46	0.87808
384.674	-37.05092
384.888	28.27611
385.103	-41.26476
385.317	36.70708
385.531	-9.65855
385.745	-70.75882
385.959	72.54284
386.174	-22.3017
386.388	5.09289
386.602	21.95313
386.816	-87.61033
387.03	-37.05092
387.244	-18.08741
387.458	-18.08741
387.672	-32.83698
387.887	21.95313
388.101	5.09289
388.315	-41.26476
388.529	7.20034
388.743	43.03055
388.957	-18.08741
389.171	-43.37164
389.385	-1.2293
389.599	-24.40881
389.813	-15.98024
390.027	-11.7658
390.241	24.06077
390.455	-45.4785
390.669	-26.51589
390.883	80.97574
391.097	-28.62294
391.311	28.27611
391.525	19.84552
391.738	26.16843
391.952	-3.33665
392.166	-37.05092
392.38	5.09289
392.594	11.4153
392.808	-20.19457
393.022	-11.7658
393.236	51.46218
393.449	-41.26476
393.663	-68.65227
393.877	-39.15785
394.091	-49.69214
394.305	-28.62294
394.518	38.81488
394.732	34.5993
394.946	55.67812
395.16	5.09289
395.373	24.06077
395.587	-34.94396
395.801	28.27611
396.015	-20.19457
396.228	11.4153
396.442	-45.4785
396.656	26.16843
396.869	55.67812
397.083	55.67812
397.297	-20.19457
397.51	21.95313
397.724	-11.7658
397.938	15.63036
398.151	-7.55127
398.365	-7.55127
398.578	-20.19457
398.792	-7.55127
399.005	9.30781
399.219	-18.08741
399.433	7.20034
399.646	21.95313
399.86	47.24632
400.073	64.1103
400.287	19.84552
400.5	2.98547
400.714	9.30781
400.927	49.35423
401.141	99.95108
401.354	26.16843
401.567	21.95313
401.781	30.38382
401.994	-26.51589
402.208	-11.7658
402.421	-51.79892
402.635	-3.33665
402.848	-41.26476
403.061	5.09289
403.275	-22.3017
403.488	5.09289
403.701	21.95313
403.915	7.20034
404.128	17.73793
404.341	21.95313
404.555	30.38382
404.768	-34.94396
404.981	-62.33245
405.195	26.16843
405.408	26.16843
405.621	-43.37164
405.834	-20.19457
406.048	15.63036
406.261	26.16843
406.474	-7.55127
406.687	-28.62294
406.9	-3.33665
407.114	-11.7658
407.327	-58.11912
407.54	34.5993
407.753	47.24632
407.966	64.1103
408.179	-32.83698
408.392	-32.83698
408.605	30.38382
408.819	-45.4785
409.032	64.1103
409.245	-24.40881
409.458	-9.65855
409.671	-32.83698
409.884	24.06077
410.097	38.81488
410.31	5.09289
410.523	47.24632
410.736	-60.2258
410.949	-15.98024
411.162	7.20034
411.375	-28.62294
411.588	-15.98024
411.801	49.35423
412.014	-7.55127
412.227	45.13842
412.44	-11.7658
412.653	13.52282
412.865	-9.65855
413.078	-108.67238
413.291	43.03055
413.504	13.52282
413.717	-11.7658
413.93	21.95313
414.143	49.35423
414.356	38.81488
414.568	-15.98024
414.781	26.16843
414.994	-37.05092
415.207	-45.4785
415.42	49.35423
415.632	-66.54569
415.845	34.5993
416.058	30.38382
416.271	-18.08741
416.483	-20.19457
416.696	13.52282
416.909	49.35423
417.121	34.5993
417.334	-30.72997
417.547	-43.37164
417.759	2.98547
417.972	-53.90568
418.185	26.16843
418.397	-22.3017
418.61	5.09289
418.823	45.13842
419.035	-49.69214
419.248	-20.19457
419.46	-9.65855
419.673	-5.44397
419.885	-62.33245
420.098	2.98547
420.311	-15.98024
420.523	11.4153
420.736	11.4153
420.948	11.4153
421.161	-22.3017
421.373	-20.19457
421.586	-11.7658
421.798	17.73793
422.01	-70.75882
422.223	32.49155
422.435	43.03055
422.648	-53.90568
422.86	-20.19457
423.073	15.63036
423.285	19.84552
423.497	13.52282
423.71	30.38382
423.922	-85.50398
424.134	26.16843
424.347	74.65103
424.559	-28.62294
424.771	30.38382
424.984	-9.65855
425.196	21.95313
425.408	0.87808
425.621	9.30781
425.833	9.30781
426.045	-37.05092
426.257	-11.7658
426.47	-11.7658
426.682	53.57014
426.894	7.20034
427.106	-56.01241
427.318	30.38382
427.531	-3.33665
427.743	-11.7658
427.955	43.03055
428.167	49.35423
428.379	32.49155
428.591	34.5993
428.804	26.16843
429.016	-1.2293
429.228	-49.69214
429.44	30.38382
429.652	-22.3017
429.864	-3.33665
430.076	-9.65855
430.288	55.67812
430.5	-7.55127
430.712	-15.98024
430.924	-32.83698
431.136	30.38382
431.348	-22.3017
431.56	68.32652
431.772	-9.65855
431.984	21.95313
432.196	66.2184
432.408	-37.05092
432.62	91.51738
432.832	32.49155
433.044	-58.11912
433.256	28.27611
433.468	55.67812
433.679	-7.55127
433.891	11.4153
434.103	-60.2258
434.315	19.84552
434.527	0.87808
434.739	72.54284
434.95	-32.83698
435.162	-9.65855
435.374	5.09289
435.586	-68.65227
435.798	11.4153
436.009	-11.7658
436.221	-62.33245
436.433	-3.33665
436.645	24.06077
436.856	40.92271
437.068	21.95313
437.28	34.5993
437.491	26.16843
437.703	21.95313
437.915	5.09289
438.126	85.19233
438.338	38.81488
438.55	13.52282
438.761	7.20034
438.973	-43.37164
439.184	24.06077
439.396	68.32652
439.608	30.38382
439.819	43.03055
440.031	7.20034
440.242	49.35423
440.454	-68.65227
440.665	21.95313
440.877	-11.7658
441.088	19.84552
441.3	9.30781
441.511	-37.05092
441.723	19.84552
441.934	-37.05092
442.146	-9.65855
442.357	34.5993
442.569	24.06077
442.78	-43.37164
442.991	49.35423
443.203	34.5993
443.414	-1.2293
443.626	17.73793
443.837	-62.33245
444.048	-45.4785
444.26	51.46218
444.471	-3.33665
444.682	-60.2258
444.894	43.03055
445.105	-11.7658
445.316	97.84262
445.528	15.63036
445.739	-70.75882
445.95	51.46218
446.161	28.27611
446.373	-3.33665
446.584	-7.55127
446.795	13.52282
447.006	-5.44397
447.217	43.03055
447.429	-9.65855
447.64	21.95313
447.851	32.49155
448.062	34.5993
448.273	-30.72997
448.484	57.78613
448.695	-22.3017
448.907	-7.55127
449.118	-7.55127
449.329	2.98547
449.54	68.32652
449.751	-18.08741
449.962	0.87808
450.173	-30.72997
450.384	7.20034
450.595	-45.4785
450.806	17.73793
451.017	5.09289
451.228	43.03055
451.439	40.92271
451.65	-13.87303
451.861	57.78613
452.072	51.46218
452.283	28.27611
452.494	5.09289
452.705	9.30781
452.915	2.98547
453.126	-7.55127
453.337	-3.33665
453.548	-28.62294
453.759	66.2184
453.97	-15.98024
454.181	24.06077
454.391	9.30781
454.602	-20.19457
454.813	-28.62294
455.024	80.97574
455.235	55.67812
455.445	49.35423
455.656	62.00222
455.867	-45.4785
456.078	-20.19457
456.288	55.67812
456.499	21.95313
456.71	19.84552
456.921	-34.94396
457.131	-3.33665
457.342	49.35423
457.553	38.81488
457.763	125.25432
457.974	40.92271
458.184	0.87808
458.395	28.27611
458.606	-20.19457
458.816	102.05957
459.027	21.95313
459.237	9.30781
459.448	26.16843
459.659	-18.08741
459.869	-22.3017
460.08	-45.4785
460.29	-20.19457
460.501	21.95313
460.711	5.09289
460.922	-51.79892
461.132	43.03055
461.343	5.09289
461.553	64.1103
461.764	-1.2293
461.974	116.81956
462.184	62.00222
462.395	38.81488
462.605	38.81488
462.816	72.54284
463.026	38.81488
463.236	26.16843
463.447	89.40901
463.657	32.49155
463.867	17.73793
464.078	21.95313
464.288	21.95313
464.498	89.40901
464.709	-34.94396
464.919	68.32652
465.129	-3.33665
465.339	49.35423
465.55	91.51738
465.76	57.78613
465.97	-53.90568
466.18	19.84552
466.391	91.51738
466.601	55.67812
466.811	13.52282
467.021	-28.62294
467.231	9.30781
467.441	72.54284
467.651	76.75925
467.862	-1.2293
468.072	-3.33665
468.282	72.54284
468.492	64.1103
468.702	13.52282
468.912	-20.19457
469.122	5.09289
469.332	95.73419
469.542	140.01598
469.752	21.95313
469.962	2.98547
470.172	24.06077
470.382	38.81488
470.592	116.81956
470.802	-26.51589
471.012	-15.98024
471.222	80.97574
471.432	15.63036
471.642	85.19233
471.852	5.09289
472.062	55.67812
472.272	114.71092
472.482	72.54284
472.691	17.73793
472.901	40.92271
473.111	89.40901
473.321	70.43467
473.531	30.38382
473.741	110.49372
473.95	47.24632
474.16	72.54284
474.37	30.38382
474.58	64.1103
474.79	118.92822
474.999	76.75925
475.209	13.52282
475.419	32.49155
475.628	66.2184
475.838	93.62577
476.048	76.75925
476.258	123.1456
476.467	66.2184
476.677	66.2184
476.886	66.2184
477.096	76.75925
477.306	70.43467
477.515	13.52282
477.725	131.58062
477.935	135.79826
478.144	118.92822
478.354	99.95108
478.563	99.95108
478.773	121.0369
478.982	104.16807
479.192	131.58062
479.401	161.10588
479.611	150.56067
479.82	93.62577
480.03	106.2766
480.239	135.79826
480.449	95.73419
480.658	190.63523
480.868	161.10588
481.077	144.23379
481.287	167.43326
481.496	190.63523
481.705	123.1456
481.915	199.07293
482.124	186.41651
482.333	102.05957
482.543	161.10588
482.752	192.74463
482.961	146.34273
483.171	201.1824
483.38	131.58062
483.589	123.1456
483.799	224.38794
484.008	188.52586
484.217	215.94929
484.426	177.9793
484.636	207.51095
484.845	241.26619
485.054	218.05892
485.263	310.90184
485.472	150.56067
485.682	270.8061
485.891	251.81573
486.1	230.71714
486.309	253.9257
486.518	245.48595
486.727	285.57744
486.936	234.9367
487.146	304.5705
487.355	294.01862
487.564	334.11816
487.773	279.24676
487.982	249.70578
488.191	300.34969
488.4	365.78019
488.609	344.67174
488.818	372.11307
489.027	376.33506
489.236	329.89685
489.445	325.67561
489.654	395.33488
489.863	410.11344
490.072	393.22373
490.281	503.0249
490.49	465.01208
490.698	477.68249
490.907	403.77968
491.116	348.89329
491.325	359.44748
491.534	420.67004
491.743	384.77926
491.952	452.34223
492.16	435.44996
492.369	439.67293
492.578	435.44996
492.787	536.81802
492.996	566.38994
493.204	452.34223
493.413	534.70585
493.622	676.25072
493.831	452.34223
494.039	557.94055
494.248	519.921
494.457	608.64007
494.665	511.47284
494.874	665.68575
495.083	655.12107
495.291	680.47679
495.5	686.81598
495.709	680.47679
495.917	665.68575
496.126	646.66954
496.335	650.89528
496.543	743.87318
496.752	731.19313
496.96	712.17376
497.169	665.68575
497.377	860.12359
497.586	710.06055
497.794	836.87127
498.003	775.57496
498.211	798.82435
498.42	688.92907
498.628	834.75747
498.837	735.41977
499.045	874.92107
499.254	731.19313
499.462	851.66808
499.671	986.97151
499.879	917.20178
500.087	883.37696
500.296	862.23749
500.504	1029.25975
500.713	951.02856
500.921	953.1428
501.129	936.22911
501.338	910.85947
501.546	1082.12336
501.754	940.45749
501.962	1092.69648
502.171	984.85717
502.379	1060.9775
502.587	1166.71161
502.795	1060.9775
503.004	1022.91636
503.212	1156.1377
503.42	1099.04041
503.628	1251.30612
503.837	936.22911
504.045	1213.23794
504.253	1156.1377
504.461	1266.11066
504.669	1027.14528
504.877	1221.69745
505.085	1128.646
505.294	1177.28562
505.502	1299.95005
505.71	1382.43552
505.918	1145.56388
506.126	1384.55056
506.334	1223.81234
506.542	1323.21494
506.75	1325.32995
506.958	1445.88693
507.166	1511.45345
507.374	1299.95005
507.582	1378.20545
507.79	1367.63028
507.998	1234.38681
508.206	1632.00877
508.414	1295.7201
508.622	1486.0729
508.83	1431.08156
509.037	1479.72775
509.245	1390.89568
509.453	1553.7541
509.661	1532.60383
509.869	1627.77886
510.077	1481.8428
510.285	1682.76698
510.492	1572.78923
510.7	1560.09916
510.908	1513.56849
511.116	1562.21417
511.324	1551.63908
511.531	1729.2939
511.739	1627.77886
511.947	1695.45629
512.155	1741.98278
512.362	1854.06169
512.57	1729.2939
512.778	1663.73283
512.985	1763.13062
513.193	1832.91566
513.401	1712.3752
513.608	1864.63452
513.816	1720.83457
514.024	1710.26034
514.231	1799.08107
514.439	1851.94711
514.646	1792.73696
514.854	1875.20722
515.061	1748.32717
515.269	2046.46523
515.477	1775.81915
515.684	2175.40785
515.892	2038.00902
516.099	2021.09627
516.307	1851.94711
516.514	2031.66679
516.722	1849.83252
516.929	2012.63973
517.136	1938.64068
517.344	2219.79105
517.551	2025.3245
517.759	2145.81701
517.966	2025.3245
518.173	2059.14934
518.381	2095.08625
518.588	2126.7935
518.796	2135.24847
519.003	2266.28362
519.21	2042.23714
519.418	2262.0572
519.625	2086.6307
519.832	2376.15713
520.039	2204.99707
520.247	2443.75809
520.454	2312.77175
520.661	2545.1386
520.868	2249.37773
521.076	2665.49287
521.283	2397.28358
521.49	2452.20744
521.697	2399.39617
521.904	2566.25623
522.112	2414.18399
522.319	2526.13175
522.526	2319.11069
522.733	2460.65662
522.94	2517.68395
523.147	2726.71015
523.354	2397.28358
523.561	2697.15834
523.768	2631.71324
523.975	2616.93365
524.183	2581.03786
524.39	2811.12952
524.597	2631.71324
524.804	2754.1488
525.011	2711.93456
525.218	2811.12952
525.425	2600.04195
525.632	2880.75892
525.838	2680.27045
526.045	2884.97838
526.252	2794.24738
526.459	2963.02805
526.666	2847.00112
526.873	3133.82125
527.08	2956.70045
527.287	2998.8819
527.494	2878.64916
527.701	2994.66403
527.907	2806.90907
528.114	3121.17342
528.321	2889.19779
528.528	3205.48124
528.735	2963.02805
528.941	3207.5886
529.148	2931.38871
529.355	3275.01534
529.562	3085.3348
529.768	3317.14827
529.975	3055.81723
530.182	3291.86933
530.388	3140.14494
530.595	3371.91079
530.802	3081.1182
531.008	3454.03231
531.215	3338.21216
531.422	3477.18988
531.628	3291.86933
531.835	3443.50542
532.042	3262.37414
532.248	3498.24032
532.455	3475.08474
532.661	3378.22878
532.868	3306.61568
533.074	3603.46501
533.281	3359.27433
533.487	3443.50542
533.694	3538.23114
533.9	3706.53978
534.107	3578.21531
534.313	3754.90597
534.52	3494.03038
534.726	3698.12723
534.933	3487.71533
535.139	3887.33422
535.345	3704.43667
535.552	3914.65087
535.758	3748.59792
535.965	3801.15965
536.171	3801.15965
536.377	4116.26723
536.584	3611.88098
536.79	3883.13136
536.996	3849.50559
537.203	3830.58886
537.409	3767.52155
537.615	3923.05531
537.821	3847.40381
538.028	4118.3664
538.234	3910.44853
538.44	4246.37586
538.646	4051.18268
538.853	4107.87035
539.059	3897.84103
539.265	4011.28232
539.471	4208.61076
539.677	3931.45942
539.883	3969.27393
540.09	4082.6777
540.296	3908.34733
540.502	4286.23151
540.708	4078.47864
540.914	4433.00092
541.12	4095.2744
541.326	4407.84801
541.532	4160.34537
541.738	4552.43401
541.944	4263.15813
542.15	4621.54658
542.356	4093.175
542.562	4491.67876
542.768	4275.74393
542.974	4441.38452
543.18	4363.82287
543.386	4682.26177
543.592	4481.20184
543.798	4565.00173
544.004	4420.42486
544.21	4797.3592
544.415	4420.42486
544.621	4795.26713
544.827	4460.24634
545.033	4874.74975
545.239	4567.09628
545.445	4906.11538
545.651	4565.00173
545.856	4862.20205
546.062	4816.1868
546.268	4866.38471
546.474	4680.16845
546.679	4820.37046
546.885	4694.82117
547.091	4761.79094
547.297	4747.14328
547.502	4964.65076
547.708	4696.91433
547.914	4699.00746
548.119	4801.54327
548.325	4962.56052
548.531	4705.28672
548.736	5075.40041
548.942	4820.37046
549.147	4855.92789
549.353	4904.0245
549.559	4996.00158
549.764	4858.0193
549.97	5083.75624
550.175	4977.19171
550.381	5259.14272
550.586	4791.08293
550.792	5242.44633
550.997	5037.7946
551.203	5330.08567
551.408	5225.74845
551.614	5100.46679
551.819	5254.96876
552.025	5321.74084
552.23	5321.74084
552.435	5373.88985
552.641	5309.2229
552.846	5315.48198
553.052	5309.2229
553.257	5405.17221
553.462	5225.74845
553.668	5426.02418
553.873	5229.92306
554.078	5432.27931
554.283	5340.51617
554.489	5680.22872
554.694	5298.79064
554.899	5644.82781
555.105	5348.86015
555.31	5796.79523
555.515	5436.44929
555.72	5671.8997
555.925	5596.92161
556.131	5609.42009
556.336	5605.25402
556.541	5846.72965
556.746	5605.25402
556.951	5574.00555
557.156	5707.2954
557.361	5682.31091
557.567	5638.57988
557.772	5734.35809
557.977	5544.83552
558.182	5751.01007
558.387	5803.03778
558.592	6021.39312
558.797	5792.63342
559.002	5915.36729
559.207	5959.03241
559.412	6033.86272
559.617	5634.41448
559.822	5988.13671
560.027	5690.63945
560.232	6146.05097
560.437	5834.24732
560.642	6173.04902
560.847	6054.64349
561.051	6098.27547
561.256	5852.9705
561.461	6038.01906
561.666	6139.82009
561.871	6353.6263
562.076	6212.50057
562.281	6339.10364
562.485	6146.05097
562.69	6046.33147
562.895	6164.74235
563.1	6237.41298
563.305	6056.72144
563.509	6056.72144
563.714	6031.78451
563.919	6283.07696
564.123	6046.33147
564.328	6270.62427
564.533	6029.70628
564.737	6170.97239
564.942	6289.30299
565.147	6297.60403
565.351	6320.42997
565.556	6299.67923
565.761	6359.84994
565.965	6488.42501
566.17	6511.22739
566.374	6579.61769
566.579	6357.77542
566.784	6598.26522
566.988	6546.4619
567.193	6517.44573
567.397	6444.88541
567.602	6641.76886
567.806	6529.88179
568.011	6531.95438
568.215	6664.55242
568.42	6708.04059
568.624	6527.80917
568.828	6621.05411
569.033	6569.25714
569.237	6697.68718
569.442	6784.638
569.646	6596.19337
569.85	6660.41016
570.055	6782.56821
570.259	6629.34028
570.463	6726.67528
570.668	6602.40886
570.872	6734.95677
571.076	6770.149
571.281	6857.06624
571.485	6730.81607
571.689	6941.87533
571.893	6805.33463
572.098	6879.82364
572.302	6759.79903
572.506	6985.29941
572.71	6811.54318
572.914	7150.63374
573.119	6811.54318
573.323	6950.14735
573.527	6842.58282
573.731	7103.11478
573.935	6937.73919
574.139	7280.73426
574.343	6948.07938
574.547	7053.51719
574.751	7148.56795
574.955	7194.01034
575.159	6886.02972
575.364	7136.1727
575.568	6991.50204
575.772	7377.73646
575.976	7067.98449
576.18	7043.18274
576.383	7123.77665
576.587	7423.12518
576.791	7208.46703
576.995	7266.28297
577.199	7101.04847
577.403	7247.70117
577.607	7270.41202
577.811	7309.63359
578.015	7365.35589
578.219	7437.56483
578.422	7452.00343
578.626	7460.25358
578.83	7466.44097
579.034	7377.73646
579.238	7381.86314
579.442	7528.30414
579.645	7418.99936
579.849	7571.59685
580.053	7693.17841
580.257	7404.55834
580.46	7548.92089
580.664	7575.71947
580.868	7414.87347
581.071	7507.68524
581.275	7423.12518
581.479	7649.91209
581.682	7736.43542
581.886	7695.23848
582.09	7418.99936
582.293	7857.91757
582.497	7686.99808
582.7	7651.9726
582.904	7639.60921
583.107	7802.33306
583.311	7672.57657
583.515	7754.9713
583.718	7796.15607
583.922	8088.33021
584.125	7989.6133
584.329	7907.31335
584.532	7901.13953
584.735	8145.8936
584.939	8034.86435
585.142	8041.03419
585.346	8057.48619
585.549	8075.99315
585.753	8006.06937
585.956	8191.11098
586.159	8145.8936
586.363	8310.2745
586.566	7973.15593
586.769	8271.24547
586.973	7977.2704
587.176	8246.5919
587.379	8055.42976
587.582	8369.83152
587.786	8269.19111
587.989	8195.22118
588.192	8092.4424
588.395	8279.46269
588.599	8006.06937
588.802	8419.10776
589.005	8367.7781
589.208	8384.20491
589.411	8131.50423
589.615	8252.75556
589.818	8392.41784
590.021	8591.4878
590.224	8470.42538
590.427	8597.64176
590.63	8071.88063
590.833	8730.93643
591.036	8605.84678
591.239	8663.27355
591.442	8573.0249
591.645	8739.13663
591.848	8509.41879
592.051	8657.12138
592.254	8630.46004
592.457	8771.9345
592.66	8260.97349
592.863	8577.1279
593.066	8521.73107
593.269	8909.22516
593.472	8716.58538
593.675	8948.14369
593.878	8603.79555
594.081	8843.6636
594.284	8868.25134
594.486	9038.24634
594.689	9087.37898
594.892	9091.47292
595.095	8878.49546
595.298	9097.61369
595.5	8835.46711
595.703	9038.24634
595.906	8974.76847
596.109	9126.26859
596.311	8964.52853
596.514	9244.94611
596.717	9064.8611
596.92	9206.07527
597.122	9085.33199
597.325	9208.12126
597.528	9050.53044
597.73	9255.17426
597.933	9034.1515
598.136	9332.89462
598.338	8968.62456
598.541	9412.63545
598.743	9312.44422
598.946	9490.30785
599.148	9216.30503
599.351	9087.37898
599.554	9191.7529
599.756	9504.61338
599.959	9582.25842
600.161	9396.28039
600.363	9408.54678
600.566	9375.83509
600.768	9461.69441
600.971	9492.35154
601.173	9567.95711
601.376	9780.35547
601.578	9612.90151
601.78	9851.79862
601.983	9373.79047
602.185	9414.67976
602.388	9279.72013
602.59	9862.00329
602.792	9649.66857
602.995	9663.96551
603.197	9482.1329
603.399	9633.32828
603.601	9584.3014
603.804	9394.23593
604.006	9578.17241
604.208	9543.43876
604.41	9459.65047
604.613	9784.43843
604.815	9533.22212
605.017	9572.04327
605.219	9565.914
605.421	9490.30785
605.623	9531.17874
605.826	9964.02975
606.028	9686.43061
606.23	9813.01747
606.432	9680.30395
606.634	9696.6414
606.836	9447.38651
607.038	9927.30444
607.24	9625.15776
607.442	9978.31055
607.644	9892.61508
607.846	9870.16676
608.048	9794.64557
608.25	9788.52133
608.452	9745.64786
608.654	10037.46632
608.856	9761.9814
609.058	10269.89508
609.26	9868.12591
609.462	9894.65575
609.664	9672.13485
609.866	9927.30444
610.067	9984.43067
610.269	10434.93468
610.471	10029.30762
610.673	9988.51068
610.875	10110.88442
611.077	10017.06914
611.278	9874.2484
611.48	9984.43067
611.682	9800.76967
611.884	10153.70324
612.085	9984.43067
612.287	10174.091
612.489	10106.80612
612.69	10112.92355
612.892	9747.68961
613.094	10155.74208
613.295	9859.96238
613.497	10047.66438
613.699	9874.2484
613.9	10096.61011
614.102	10151.66439
614.304	10082.33511
614.505	10019.10892
614.707	10076.21705
614.908	9998.71046
615.11	10292.31298
615.311	10216.9008
615.513	10282.12323
615.714	10269.89508
615.916	10194.47738
616.117	9992.59063
616.319	10233.20771
616.52	10086.41376
616.722	10310.65369
616.923	10249.51375
617.124	10170.01356
617.326	10322.88023
617.527	10316.76702
617.729	10208.74702
617.93	10324.91794
618.131	10047.66438
618.333	10090.49234
618.534	9982.39064
618.735	10339.18154
618.937	10333.06865
619.138	10473.63523
619.339	10178.16838
619.54	10373.819
619.742	10487.89216
619.943	10469.56171
620.144	10286.19917
620.345	10538.80467
620.546	10290.27505
620.748	10375.85638
620.949	10269.89508
621.15	10518.44062
621.351	10165.93606
621.552	10333.06865
621.753	10306.57807
621.954	10654.85589
622.155	10145.54775
622.356	10392.15494
622.558	10430.86066
622.759	10498.0753
622.96	10526.58639
623.161	10579.529
623.362	10414.56409
623.563	10485.8555
623.764	10467.52493
623.965	10791.21625
624.166	10414.56409
624.366	10634.49894
624.567	10500.11189
624.768	10575.45679
624.969	10646.71326
625.17	10840.04877
625.371	10770.86736
625.572	10616.17663
625.773	10522.51353
625.973	10585.63722
626.174	10530.6592
626.375	10799.35547
626.576	10583.60116
626.777	10772.9023
626.977	10634.49894
627.178	10913.28503
627.379	10465.48813
627.58	10642.64187
627.78	10691.49533
627.981	10583.60116
628.182	10573.42067
628.382	10707.77826
628.583	10512.33116
628.784	10575.45679
628.984	10434.93468
629.185	10831.91048
629.386	10457.34083
629.586	10909.21674
629.787	10728.13084
629.987	10958.03324
630.188	10892.94312
630.388	10821.73736
630.589	10856.32479
630.79	10823.77201
630.99	10667.06947
631.191	10974.30396
631.391	10886.84032
631.591	10705.74293
631.792	10628.39161
631.992	10907.18258
632.193	10758.65746
632.393	10844.11785
632.594	10925.48963
632.794	10862.4281
632.994	11271.12223
633.195	11342.24412
633.395	11027.17888
633.595	11094.27864
633.796	10744.41204
633.996	11080.04634
634.196	10711.84887
634.397	11323.95682
634.597	10974.30396
634.797	11120.70863
634.997	10740.34181
635.198	10941.76179
635.398	10660.96274
635.598	10984.4728
635.798	10890.90886
635.998	10901.08002
636.199	11090.21232
636.399	11173.5632
636.599	10988.54025
636.799	11100.37803
636.999	11033.27935
637.199	11078.01312
637.399	11033.27935
637.599	11212.18318
637.799	10919.38738
637.999	11456.01377
638.199	11043.44658
638.399	11128.84057
638.599	10960.06712
638.799	11352.40338
638.999	11159.33383
639.199	11372.72116
639.399	11183.72672
639.599	11110.54346
639.799	11039.37972
639.999	11311.76483
640.199	11153.23537
640.399	11256.89636
640.599	10825.80665
640.799	11206.08554
640.998	11153.23537
641.198	11561.62992
641.398	11222.34571
641.598	11393.03795
641.798	11193.88998
641.997	11620.52024
642.197	11451.95109
642.397	11730.15776
642.597	11535.22827
642.796	11724.06747
642.996	11427.57424
643.196	11437.73143
643.395	11366.62593
643.595	11598.18344
643.795	11208.1181
643.994	11545.38294
644.194	11496.6384
644.394	11636.76449
644.593	11510.85612
644.793	11547.41384
644.992	11636.76449
645.192	11870.21304
645.392	11872.24253
645.591	11748.42817
645.791	11569.75318
645.99	11691.58457
646.19	11401.16439
646.389	11514.91824
646.589	11429.60569
646.788	11657.06899
646.987	11332.08461
647.187	11616.45909
647.386	11429.60569
647.586	11864.12452
647.785	11535.22827
647.984	11943.26946
648.184	11762.63799
648.383	11860.06547
648.582	11596.15277
648.782	11793.08619
648.981	11565.69157
649.18	11782.93701
649.38	11358.49882
649.579	11886.44872
649.778	12008.19966
649.977	11933.12337
650.177	11833.68079
650.376	11661.12978
650.575	11918.9185
650.774	11961.53191
650.973	11709.85648
651.173	11563.66075
651.372	11671.2816
651.571	11965.59014
651.77	11618.48967
651.969	12038.63289
652.168	11900.65451
652.367	11821.50277
652.566	11784.96686
652.765	12148.17808
652.964	11847.8881
653.163	12131.95057
653.362	11780.90715
653.561	11665.19053
653.76	11892.53697
653.959	12099.49408
654.158	11831.65114
654.357	11876.30148
654.556	11904.71323
654.755	12111.66549
654.954	11941.24026
655.153	11908.77192
655.352	12075.15044
655.551	12138.03594
655.749	12156.29166
655.948	12241.47709
656.147	11953.41535
656.346	12519.25774
656.545	12075.15044
656.743	12138.03594
656.942	11920.94779
657.141	12065.00693
657.34	12000.08383
657.538	12241.47709
657.737	12036.60406
657.936	12389.50746
658.135	12048.77691
658.333	12310.42738
658.532	12075.15044
658.731	12403.70022
658.929	12054.86322
659.128	12257.70142
659.326	12196.85776
659.525	12267.8414
659.724	12075.15044
659.922	12172.51846
660.121	12233.36474
660.319	12294.20452
660.518	12123.83663
660.716	12342.87176
660.915	12186.71651
661.113	12286.09292
661.312	12316.51083
661.51	12237.42093
661.709	12176.57508
661.907	12379.36957
662.105	12241.47709
662.304	12541.5559
662.502	12275.95326
662.701	12200.91421
662.899	11975.73559
663.097	12170.49013
663.296	12290.14873
663.494	12302.316
663.692	12123.83663
663.891	12077.17912
664.089	11975.73559
664.287	12466.54994
664.485	12267.8414
664.684	12265.81342
664.882	12075.15044
665.08	12322.59423
665.278	12115.72257
665.476	12565.88028
665.675	12411.81022
665.873	12164.40512
666.071	12202.94242
666.269	12640.87483
666.467	12326.64979
666.665	12312.4552
666.863	12249.58931
667.061	12397.61765
667.259	12123.83663
667.457	12273.92531
667.655	12446.27653
667.853	12573.9882
668.051	12383.42475
668.249	12610.47265
668.447	12393.56257
668.645	12304.34386
668.843	12620.60686
669.041	12651.00859
669.239	12241.47709
669.437	12734.0998
669.635	12312.4552
669.833	12296.2324
670.031	12385.45232
670.229	12456.41332
670.426	12300.28814
670.624	12340.84404
670.822	12330.70532
671.02	12464.52263
671.218	12363.14859
671.415	12456.41332
671.613	12188.74478
671.811	12432.08475
672.009	12168.4618
672.206	12663.1689
672.404	12444.24915
672.602	12265.81342
672.799	12178.60338
672.997	12342.87176
673.195	12188.74478
673.392	12302.316
673.59	12277.9812
673.788	12411.81022
673.985	11892.53697
674.183	12184.68824
674.38	12387.4799
674.578	12490.87716
674.775	12213.08338
674.973	12348.95488
675.17	12223.22415
675.368	12430.05733
675.565	12430.05733
675.763	12496.95882
675.96	12146.14967
676.158	12695.59535
676.355	12411.81022
676.553	12721.94073
676.75	12249.58931
676.947	12511.14913
677.145	12233.36474
677.342	12590.20376
677.539	12261.75744
677.737	12553.7182
677.934	12446.27653
678.131	12484.79544
678.329	12273.92531
678.526	12284.065
678.723	12373.28676
678.92	12671.27566
679.118	12350.98257
679.315	12233.36474
679.512	12432.08475
679.709	12626.68732
679.906	12202.94242
680.104	12614.52635
680.301	12304.34386
680.498	12273.92531
680.695	12056.89198
680.892	12417.89265
681.089	12417.89265
681.286	12306.3717
681.483	12127.89361
681.68	12225.25228
681.877	12377.34197
682.075	12428.0299
682.272	12211.0552
682.469	12421.94757
682.665	12381.39716
682.862	12490.87716
683.059	12176.57508
683.256	12405.72773
683.453	12462.49531
683.65	12277.9812
683.847	12353.01026
684.044	12340.84404
684.241	12277.9812
684.438	12588.17684
684.635	12162.37676
684.831	12624.6605
685.028	12348.95488
685.225	12273.92531
685.422	12131.95057
685.619	12267.8414
685.815	12239.44901
686.012	12056.89198
686.209	11821.50277
686.405	12152.23488
686.602	12040.66171
686.799	12046.74812
686.996	12095.43689
687.192	12089.35103
687.389	11851.94726
687.586	11906.74258
687.782	12265.81342
687.979	12549.66412
688.175	12058.92073
688.372	12170.49013
688.568	11945.29865
688.765	12148.17808
688.962	12014.28645
689.158	12257.70142
689.355	12121.80812
689.551	12160.3484
689.748	12040.66171
689.944	12115.72257
690.14	11935.1526
690.337	12306.3717
690.533	12091.37966
690.73	11780.90715
690.926	12028.48868
691.123	11825.56214
691.319	11951.38619
691.515	12152.23488
691.712	11876.30148
691.908	12048.77691
692.104	11858.03593
692.301	11884.41929
692.497	11811.35418
692.693	11888.47815
692.889	11600.21411
693.086	11632.70348
693.282	11742.33811
693.478	11872.24253
693.674	11827.59182
693.87	12166.43346
694.067	12008.19966
694.263	11856.00638
694.459	11843.82891
694.655	12022.40205
694.851	11750.45817
695.047	11947.32784
695.243	11925.00635
695.439	12089.35103
695.635	11880.3604
695.831	12038.63289
696.027	11797.14581
696.224	11925.00635
696.42	11985.88083
696.615	11908.77192
696.811	11866.15403
697.007	12060.94947
697.203	11817.44336
697.399	12022.40205
697.595	11711.88665
697.791	11843.82891
697.987	11478.35779
698.183	11709.85648
698.379	11616.45909
698.575	11860.06547
698.77	11490.54495
698.966	11795.116
699.162	11786.99671
699.358	11831.65114
699.554	11575.84553
699.749	11981.82276
699.945	11977.76465
700.141	11760.60804
700.337	11604.27541
700.532	11754.51815
700.728	11553.5065
700.924	11531.16634
701.119	11624.58136
701.315	11500.70065
701.511	11555.53737
701.706	11965.59014
701.902	11750.45817
702.097	11868.18354
702.293	11644.8864
702.489	11535.22827
702.684	11626.6119
702.88	11752.48816
703.075	11553.5065
703.271	11837.74007
703.466	11608.33667
703.662	12081.23645
703.857	11888.47815
704.053	11784.96686
704.248	11661.12978
704.443	11862.095
704.639	11583.96854
704.834	11726.09758
705.03	11502.73176
705.225	11470.23283
705.42	11451.95109
705.616	11795.116
705.811	11835.71043
706.006	11768.72779
706.202	11738.27803
706.397	11701.73572
706.592	11551.47562
706.787	11640.82546
706.983	11514.91824
707.178	11738.27803
707.373	11393.03795
707.568	11415.38528
707.763	11449.91974
707.959	11657.06899
708.154	11697.67528
708.349	11557.56823
708.544	11681.43319
708.739	11585.99927
708.934	11486.4826
709.129	11559.59908
709.324	11330.05268
709.519	11671.2816
709.714	11494.60726
709.909	11569.75318
710.104	11189.82471
710.299	11488.51378
710.494	11216.24823
710.689	11535.22827
710.884	11210.15065
711.079	11423.51129
711.274	11500.70065
711.469	11555.53737
711.664	11098.34491
711.859	11429.60569
712.054	11683.46349
712.249	11344.27599
712.443	11177.62864
712.638	11514.91824
712.833	11332.08461
713.028	11346.30786
713.223	11378.8163
713.417	11531.16634
713.612	11193.88998
713.807	11630.67296
714.002	11500.70065
714.196	11179.66135
714.391	11171.53047
714.586	11362.5624
714.78	11399.1328
714.975	11472.26408
715.17	11271.12223
715.364	11679.40289
715.559	11618.48967
715.754	11644.8864
715.948	11354.43521
716.143	11575.84553
716.337	11297.54038
716.532	11319.89286
716.726	11161.36663
716.921	11486.4826
717.115	11181.69404
717.31	11462.10771
717.504	11271.12223
717.699	11350.37155
717.893	11116.6426
718.088	11407.25912
718.282	11082.07956
718.476	11323.95682
718.671	11035.31281
718.865	11110.54346
719.059	11250.7994
719.254	11088.17915
719.448	10992.60766
719.642	11494.60726
719.837	11090.21232
720.031	11039.37972
720.225	11136.97234
720.419	11242.66998
720.614	10744.41204
720.808	11110.54346
721.002	10966.16869
721.196	11051.58016
721.39	11017.0112
721.585	11246.73471
721.779	10884.80603
721.973	10992.60766
722.167	10605.99713
722.361	11039.37972
722.555	10913.28503
722.749	10949.89761
722.943	10571.38454
723.137	10842.08331
723.331	10760.69248
723.525	10943.79576
723.719	10683.35357
723.913	10774.93723
724.107	10632.46317
724.301	10943.79576
724.495	10750.51729
724.689	10996.67503
724.883	10925.48963
725.077	11055.64689
725.271	10821.73736
725.465	11118.67562
725.659	10518.44062
725.853	10925.48963
726.046	10764.76247
726.24	11193.88998
726.434	10658.92713
726.628	10807.4945
726.822	10569.34839
727.015	10998.7087
727.209	10746.44714
727.403	10827.84127
727.596	10852.25585
727.79	10978.37153
727.984	10685.38903
728.177	11092.24548
728.371	10803.42501
728.565	10658.92713
728.758	10803.42501
728.952	10935.65982
729.146	10835.97965
729.339	10785.1117
729.533	10848.18687
729.726	10595.81733
729.92	10781.04195
730.113	10864.46252
730.307	10811.56395
730.5	10870.56569
730.694	10689.45991
730.887	11161.36663
731.081	10996.67503
731.274	10958.03324
731.468	10697.60152
731.661	10935.65982
731.854	10597.85332
732.048	10803.42501
732.241	10838.01422
732.435	10986.50653
732.628	10872.60006
732.821	10854.29033
733.014	10846.15236
733.208	10925.48963
733.401	11104.44423
733.594	10917.35328
733.788	10872.60006
733.981	10740.34181
734.174	11065.81352
734.367	10917.35328
734.56	10730.16603
734.754	10579.529
734.947	10738.30668
735.14	10976.33775
735.333	10685.38903
735.526	10840.04877
735.719	10779.00706
735.912	11179.66135
736.105	10681.3181
736.298	10628.39161
736.491	10212.82394
736.684	10400.3039
736.877	10567.31223
737.07	10654.85589
737.263	10738.30668
737.456	10658.92713
737.649	10722.02519
737.842	11035.31281
738.035	10683.35357
738.228	10719.98995
738.421	10691.49533
738.614	11000.74236
738.807	10665.03391
739	10662.99833
739.192	10829.87588
739.385	11004.80963
739.578	10595.81733
739.771	10713.88416
739.964	10673.1761
740.156	10872.60006
740.349	10455.30397
740.542	10707.77826
740.735	10469.56171
740.927	10599.88929
741.12	10388.08037
741.313	10512.33116
741.505	10512.33116
741.698	10620.24834
741.891	10404.37831
742.083	10581.56509
742.276	10756.62244
742.468	10567.31223
742.661	10691.49533
742.854	10567.31223
743.046	10569.34839
743.239	10412.52696
743.431	10455.30397
743.624	10418.63831
743.816	10469.56171
744.009	10375.85638
744.201	10408.45266
744.393	10449.19332
744.586	10220.97761
744.778	10414.56409
744.971	10314.72926
745.163	10408.45266
745.355	10445.11948
745.548	10326.95564
745.74	10176.1297
745.932	10459.37767
746.125	10357.51949
746.317	10591.74532
746.509	10172.05228
746.702	10494.00208
746.894	10159.81971
747.086	10210.78549
747.278	10302.5024
747.471	10618.21249
747.663	10231.1694
747.855	10538.80467
748.047	10294.35089
748.239	10375.85638
748.431	10276.00921
748.623	10184.28436
748.815	10025.22819
749.008	10673.1761
749.2	10312.69148
749.392	10365.66935
749.584	10004.83015
749.776	10502.14847
749.968	10300.46454
750.16	10290.27505
750.352	10422.71248
750.544	10365.66935
750.736	10259.70458
750.928	10544.91364
751.12	10398.26668
751.311	10414.56409
751.503	10445.11948
751.695	10310.65369
751.887	10296.38879
752.079	10341.21914
752.271	10108.84528
752.463	10192.4388
752.654	10021.14869
752.846	10200.59302
753.038	9845.67563
753.23	9955.86898
753.421	9884.45226
753.613	10184.28436
753.805	10220.97761
753.997	10259.70458
754.188	9990.55066
754.38	9919.14262
754.572	10055.82257
754.763	10106.80612
754.955	9645.58359
755.146	9719.10379
755.338	9770.1478
755.53	9829.34703
755.721	9808.93493
755.913	10008.90987
756.104	9823.22356
756.296	9966.06991
756.487	9655.79592
756.679	9825.26473
756.87	9557.74141
757.062	9690.51497
757.253	9743.6061
757.445	9698.68351
757.636	9866.08505
757.827	9968.11005
758.019	9649.66857
758.21	9817.09995
758.401	9676.21943
758.593	9539.35215
758.784	9369.70118
758.975	9770.1478
759.167	9768.10623
759.358	10180.20706
759.549	9674.17715
759.74	9700.72561
759.932	9643.54108
760.123	9774.23092
760.314	9680.30395
760.505	9941.58707
760.696	9588.38732
760.888	9868.12591
761.079	9723.18766
761.27	9913.0211
761.461	9606.77317
761.652	9800.76967
761.843	9328.80467
762.034	9514.83115
762.225	9302.2184
762.416	9633.32828
762.607	9351.29857
762.798	9300.17319
762.989	9220.39681
763.18	9506.65697
763.371	9320.62458
763.562	9392.19146
763.753	9351.29857
763.944	9384.0134
764.135	9312.44422
764.326	9623.11509
764.517	9273.58389
764.708	9300.17319
764.899	9163.10567
765.089	9189.70678
765.28	9240.85472
765.471	8911.27367
765.662	9206.07527
765.853	9034.1515
766.043	8814.97462
766.234	9134.45509
766.425	8888.73914
766.615	9187.66064
766.806	9167.19833
766.997	9259.26541
767.187	8896.93376
767.378	8870.3002
767.569	8821.12256
767.759	9071.00255
767.95	9138.54823
768.141	8964.52853
768.331	9232.67176
768.522	8968.62456
768.712	9097.61369
768.903	8976.81641
769.093	8993.19927
769.284	8960.43242
769.474	8794.48033
769.665	9003.43798
769.855	9116.03509
770.046	9021.86657
770.236	9132.40849
770.426	9028.00911
770.617	9081.23795
770.807	8691.98147
770.998	8763.73547
771.188	8925.61269
771.378	8720.68577
771.569	8722.73594
771.759	8573.0249
771.949	8720.68577
772.139	8573.0249
772.33	8634.56199
772.52	8451.95242
772.71	8782.18288
772.9	8540.19821
773.09	8667.3749
773.281	8679.67852
773.471	8681.72906
773.661	8671.47618
773.851	8821.12256
774.041	8523.78305
774.231	8573.0249
774.421	8447.84711
774.611	8495.0536
774.802	8769.88477
774.992	8361.61773
775.182	8642.76566
775.372	8597.64176
775.562	8209.60623
775.752	8534.04267
775.942	8273.2998
776.131	8285.62541
776.321	8293.84208
776.511	8172.61413
776.701	8193.16609
776.891	8304.11249
777.081	8254.81007
777.271	8400.63047
777.461	8605.84678
777.651	8503.26239
777.84	8312.32846
778.03	8168.5035
778.22	8310.2745
778.41	8252.75556
778.599	8375.99166
778.789	8369.83152
778.979	8219.88067
779.169	8281.51695
779.358	8036.92098
779.548	8285.62541
779.738	8094.49847
779.927	8273.2998
780.117	8131.50423
780.307	8154.11566
780.496	7792.03796
780.686	8164.39279
780.875	7853.80072
781.065	8279.46269
781.254	8051.31684
781.444	8203.44133
781.633	7833.21522
781.823	7897.02354
782.012	7812.62763
782.202	7987.5562
782.391	7882.61695
782.581	7845.56677
782.77	8032.8077
782.96	7899.08154
783.149	7561.28992
783.338	7874.38415
783.528	7664.33524
783.717	8028.69433
783.906	8022.52413
784.096	8055.42976
784.285	7804.39202
784.474	7831.15655
784.663	7520.05684
784.853	7775.56473
785.042	7610.75832
785.231	7524.18053
785.42	7408.68445
785.61	7594.27022
785.799	7429.31373
785.988	7616.941
786.177	7429.31373
786.366	7544.79771
786.555	7600.45341
786.744	7643.73043
786.933	7429.31373
787.122	7664.33524
787.312	7635.48791
787.501	7470.56578
787.69	7404.55834
787.879	7717.89784
788.068	7435.50209
788.257	7439.62756
788.445	7241.50683
788.634	7485.00195
788.823	7274.54098
789.012	7365.35589
789.201	7136.1727
789.39	7330.27334
789.579	6977.02893
789.768	7235.3123
789.957	7191.94501
790.145	7276.60543
790.334	7096.91579
790.523	7338.52863
790.712	7295.18446
790.9	7414.87347
791.089	7577.78075
791.278	7429.31373
791.467	7231.1825
791.655	7315.82575
791.844	7282.79864
792.033	7086.58368
792.221	6964.62252
792.41	7332.3372
792.599	7063.85109
792.787	7243.57163
792.976	6948.07938
793.164	7359.16531
793.353	7003.90669
793.541	7412.81048
793.73	6991.50204
793.918	7016.31053
794.107	6850.85919
794.295	7043.18274
794.484	7098.98214
794.672	7148.56795
794.861	7018.37776
795.049	7189.87966
795.238	6927.39843
795.426	7082.45069
795.614	6867.41085
795.803	6946.01139
795.991	6871.54854
796.179	6705.96995
796.368	6809.47368
796.556	6757.72897
796.744	6834.30608
796.932	6792.91693
797.121	6610.69587
797.309	6935.67108
797.497	6728.74568
797.685	6983.23182
797.874	6819.82092
798.062	7074.18442
798.25	6705.96995
798.438	6867.41085
798.626	6662.4813
798.814	6509.15456
799.002	6687.3332
799.19	6865.34197
799.378	6635.55467
799.566	6643.8402
799.755	6563.04054
799.943	6718.39342
800.131	6473.91295
800.318	6701.82861
800.506	6372.29661
800.694	6863.27307
800.882	6560.96829
801.07	6763.93909
801.258	6515.37297
801.446	6608.62415
801.634	6558.89602
801.822	6658.339
802.01	6693.54566
802.197	6469.76644
802.385	6388.89085
802.573	6668.69459
802.761	6587.90571
802.949	6892.23561
803.136	6534.02696
803.324	6436.59099
803.512	6701.82861
803.699	6691.47486
803.887	6618.98251
804.075	6685.26234
804.262	6482.2057
804.45	6527.80917
804.638	6486.35193
804.825	6954.28323
805.013	6548.53431
805.201	6902.57829
805.388	6641.76886
805.576	6714.25236
805.763	6461.47313
805.951	6538.17203
806.138	6484.27883
806.326	6556.82372
806.513	6281.00157
806.701	6662.4813
806.888	6946.01139
807.075	6763.93909
807.263	6621.05411
807.45	6714.25236
807.638	6625.19724
807.825	6737.02708
808.012	6571.3293
808.2	6573.40143
808.387	6403.40959
808.574	6788.77751
808.761	6596.19337
808.949	6871.54854
809.136	6486.35193
809.323	6639.69749
809.51	6687.3332
809.698	6902.57829
809.885	6492.57111
810.072	6618.98251
810.259	6536.09951
810.446	6714.25236
810.633	6513.30019
810.82	6801.19549
811.008	6666.62352
811.195	6797.05625
811.382	6625.19724
811.569	6826.02898
811.756	6830.16758
811.943	7001.8393
812.13	6881.89236
812.317	7001.8393
812.504	6807.40417
812.691	6766.00908
812.878	6598.26522
813.064	6788.77751
813.251	6643.8402
813.438	6790.84723
813.625	6720.46392
813.812	6625.19724
813.999	6616.91088
814.186	6730.81607
814.372	6461.47313
814.559	6629.34028
814.746	6357.77542
814.933	6496.71711
815.12	6575.47354
815.306	6575.47354
815.493	6560.96829
815.68	6737.02708
815.866	6548.53431
816.053	6784.638
816.24	6614.83923
816.426	6879.82364
816.613	6786.70777
816.799	6929.46662
816.986	6854.99724
817.173	6970.82582
817.359	6573.40143
817.546	6515.37297
817.732	6469.76644
817.919	6554.75141
818.105	6544.38947
818.292	6598.26522
818.478	6444.88541
818.665	6761.86907
818.851	6658.339
819.037	6817.75151
819.224	6457.32634
819.41	6589.97766
819.597	6558.89602
819.783	6575.47354
819.969	6384.74243
820.156	6701.82861
820.342	6656.26781
820.528	6567.18496
820.714	6440.73825
820.901	6602.40886
821.087	6393.03918
821.273	6784.638
821.459	6515.37297
821.646	6743.23789
821.832	6521.59118
822.018	6722.5344
822.204	6150.20478
822.39	6413.77942
822.576	6438.66463
822.762	6486.35193
822.948	6523.66386
823.134	6567.18496
823.32	6374.37097
823.507	6274.77526
823.693	6170.97239
823.879	6268.54874
824.065	6062.95515
824.25	6137.74308
824.436	6040.0972
824.622	6337.02888
824.808	6092.04297
824.994	6023.47144
825.18	5934.08218
825.366	6179.27878
825.552	6237.41298
825.738	6440.73825
825.923	6316.28001
826.109	6281.00157
826.295	6025.54974
826.481	6295.5288
826.667	6060.87727
826.852	6274.77526
827.038	6195.89042
827.224	6200.0431
827.409	5973.58514
827.595	6229.10922
827.781	6106.58515
827.966	6044.2534
828.152	5988.13671
828.338	6266.47318
828.523	5992.29409
828.709	6121.12618
828.894	6094.12049
829.08	6231.18519
829.266	5952.79517
829.451	5977.74285
829.637	5857.13095
829.822	6164.74235
830.008	5954.87427
830.193	6187.58479
830.378	5840.48859
830.564	6000.60857
830.749	5884.17155
830.935	6062.95515
831.12	5730.19486
831.305	6071.26642
831.491	6031.78451
831.676	6056.72144
831.861	5621.91771
832.047	5852.9705
832.232	5411.42805
832.417	5748.92866
832.602	5565.67172
832.788	5601.08787
832.973	5505.24023
833.158	5763.49807
833.343	5571.92213
833.528	6075.42192
833.714	5638.57988
833.899	5934.08218
834.084	5471.89025
834.269	5469.80567
834.454	5392.6599
834.639	5728.11321
834.824	5574.00555
835.009	5640.66255
835.194	5611.50308
835.379	5667.73506
835.564	5263.31658
835.749	5421.85397
835.934	5540.66799
836.119	5317.56829
836.304	5459.38245
836.489	5609.42009
836.674	5384.31789
836.859	5607.33707
837.044	5263.31658
837.228	5380.14674
837.413	5098.37805
837.598	5617.75193
837.783	5363.46122
837.968	5557.33752
838.152	5296.70412
838.337	5209.04907
838.522	5221.57374
838.707	5413.51328
838.891	5428.10925
839.076	5451.04345
839.261	5213.22405
839.445	5403.08688
839.63	5300.87714
839.815	5401.00153
839.999	4985.55188
840.184	5196.52356
840.368	5250.79471
840.553	5419.76884
840.737	5165.20611
840.922	5194.43589
841.106	5075.40041
841.291	5471.89025
841.475	4910.29708
841.66	5110.91012
841.844	5079.57837
842.029	5163.11809
842.213	4954.19933
842.397	5319.65458
842.582	4780.62202
842.766	5064.95511
842.951	4929.11357
843.135	4991.82177
843.319	4797.3592
843.504	4830.82921
843.688	4832.9209
843.872	5029.43674
844.056	4973.01148
844.241	5125.52982
844.425	4933.29476
844.609	5261.22966
844.793	4835.01256
844.977	5146.41312
845.161	4916.56945
845.346	5006.4507
845.53	4983.46187
845.714	5031.52624
845.898	4832.9209
846.082	4870.56727
846.266	4703.19366
846.45	4958.37997
846.634	4853.83646
846.818	4868.476
847.002	4646.67239
847.186	4740.86538
847.37	4606.88837
847.554	4655.04695
847.738	4489.58342
847.922	4728.30895
848.106	4644.5787
848.29	4734.58726
848.473	4479.10639
848.657	4680.16845
848.841	4535.6758
849.025	4782.71424
849.209	4567.09628
849.392	4598.51175
849.576	4569.1908
849.76	4502.15513
849.944	4267.35348
850.127	4696.91433
850.311	4204.41422
850.495	4313.4967
850.678	4282.03654
850.862	4510.53583
851.046	3971.37455
851.229	4326.07941
851.413	4120.46555
851.596	4380.59548
851.78	4309.30229
851.964	4678.07512
852.147	4336.56441
852.331	4384.78842
852.514	4393.17403
852.698	4462.34199
852.881	4101.57247
853.065	4435.09685
853.248	4191.82407
853.431	4313.4967
853.615	4166.64149
853.798	4212.80723
853.982	4055.38229
854.165	4095.2744
854.348	3895.73971
854.532	4128.86193
854.715	3971.37455
854.898	4133.05999
855.081	3906.24611
855.265	4126.76287
855.448	3973.47514
855.631	3933.5604
855.814	3841.09835
855.997	3996.58031
856.181	3790.64828
856.364	3891.53701
856.547	3874.7254
856.73	4141.45587
856.913	3658.16343
857.096	4168.74015
857.279	3744.39245
857.462	3830.58886
857.645	3666.57743
857.828	3830.58886
858.011	3744.39245
858.194	4040.68331
858.377	3637.12708
858.56	3931.45942
858.743	3813.77264
858.926	3960.87128
859.109	3637.12708
859.292	3868.42072
859.475	3693.92084
859.658	3860.01419
859.841	3637.12708
860.023	3853.70909
860.206	3527.70788
860.389	3834.79272
860.572	3363.48655
860.755	3696.02404
860.937	3504.5551
861.12	3489.82036
861.303	3428.76703
861.486	3656.05988
861.668	3611.88098
861.851	3534.02189
862.034	3515.07937
862.216	3586.63217
862.399	3367.6987
862.581	3559.27627
862.764	3199.15906
862.947	3529.81257
863.129	3386.65253
863.312	3523.49845
863.494	3028.40532
863.677	3477.18988
863.859	3076.90152
864.042	3502.45019
864.224	3148.57631
864.406	3437.18907
864.589	3283.44247
864.771	3367.6987
864.954	3209.69595
865.136	3479.29501
865.318	3106.4169
865.501	3220.23242
865.683	3100.09244
865.865	3298.1893
866.048	3064.25113
866.23	3138.03706
866.412	2979.90099
866.594	3173.86886
866.777	3129.60537
866.959	3226.5541
867.141	2988.3371
867.323	3157.00742
867.505	2918.73205
867.687	3182.29919
867.869	2908.18443
868.052	3116.95735
868.234	2834.34102
868.416	3167.54594
868.598	3064.25113
868.78	3041.0573
868.962	3148.57631
869.144	3253.94633
869.326	3106.4169
869.508	3123.28143
869.69	2832.23095
869.872	3038.94867
870.054	2741.48509
870.236	3093.76783
870.417	2878.64916
870.599	3091.6596
870.781	2979.90099
870.963	3081.1182
871.145	2887.0881
871.327	3114.84929
871.508	2802.68856
871.69	2855.44091
871.872	2870.21
872.054	3038.94867
872.235	2726.71015
872.417	3121.17342
872.599	2912.40352
872.78	3142.25281
872.962	2819.57026
873.144	3051.60018
873.325	2849.11109
873.507	2939.82619
873.689	2695.0474
873.87	3138.03706
874.052	2612.71079
874.233	3013.64399
874.415	2878.64916
874.596	3125.38943
874.778	2899.74607
874.959	2958.80966
875.141	2944.04484
875.322	3034.73138
875.503	2578.92623
875.685	2988.3371
875.866	2783.6956
876.048	2946.15415
876.229	2760.48048
876.41	2781.5852
876.592	2861.7706
876.773	2929.2793
876.954	2802.68856
877.136	2973.57375
877.317	2754.1488
877.498	2996.77297
877.679	2749.92762
877.86	3070.5764
878.042	2878.64916
878.223	2726.71015
878.404	2811.12952
878.585	2937.71684
878.766	2847.00112
878.947	3173.86886
879.128	2865.99033
879.309	2973.57375
879.49	2667.60399
879.672	3104.30876
879.853	2787.91635
880.034	2929.2793
880.215	2663.38174
880.396	3000.99082
880.576	2718.26703
880.757	2844.89114
880.938	2726.71015
881.119	3013.64399
881.3	2690.82548
881.481	3015.7528
881.662	2895.5268
881.843	2872.31981
882.023	2752.03822
882.204	3032.62271
882.385	2726.71015
882.566	2971.46464
882.747	2625.3792
882.927	3028.40532
883.108	2690.82548
883.289	2967.24637
883.469	2756.25938
883.65	2979.90099
883.831	2775.25393
884.011	2903.96528
884.192	2779.47479
884.373	2922.95099
884.553	2899.74607
884.734	2990.44609
884.914	2874.42961
885.095	2918.73205
885.275	2865.99033
885.456	2998.8819
885.636	2840.67113
885.817	3032.62271
885.997	2745.70638
886.178	2903.96528
886.358	2878.64916
886.538	2931.38871
886.719	2958.80966
886.899	3005.2086
887.08	2629.60191
887.26	3038.94867
887.44	2889.19779
887.621	3304.50911
887.801	2912.40352
887.981	3041.0573
888.161	2828.01078
888.342	2946.15415
888.522	2817.46009
888.702	2916.62255
888.882	2743.59574
889.062	2914.51304
889.242	2922.95099
889.423	2880.75892
889.603	2638.04716
889.783	2918.73205
889.963	2627.49056
890.143	2887.0881
890.323	2591.5958
890.503	2889.19779
890.683	2726.71015
890.863	2676.04835
891.043	2771.03301
891.223	2838.56111
891.403	2857.55082
891.583	3114.84929
891.763	2730.93162
891.943	2994.66403
892.122	2777.36436
892.302	2937.71684
892.482	2733.04234
892.662	2796.3577
892.842	2718.26703
893.022	2870.21
893.201	2627.49056
893.381	2735.15305
893.561	2551.47401
893.741	2817.46009
893.92	2802.68856
894.1	2922.95099
894.28	2819.57026
894.459	2887.0881
894.639	2581.03786
894.819	2728.82089
894.998	2745.70638
895.178	2903.96528
895.357	2661.2706
895.537	2819.57026
895.716	2452.20744
895.896	2545.1386
896.075	2367.70627
896.255	2591.5958
896.434	2483.89096
896.614	2891.30748
896.793	2397.28358
896.973	2667.60399
897.152	2528.24367
897.331	2701.38018
897.511	2551.47401
897.69	2709.82371
897.87	2431.08373
898.049	2663.38174
898.228	2346.5784
898.407	2545.1386
898.587	2310.65875
898.766	2407.84642
898.945	2253.60426
899.124	2371.93172
899.304	2378.26982
899.483	2534.57935
899.662	2329.67539
899.841	2369.819
900.02	2316.99772
900.199	2378.26982
900.378	2276.8495
900.557	2338.12697
900.737	2103.54168
900.916	2314.88474
901.095	2071.8332
901.274	2281.07579
901.453	2126.7935
901.632	2384.60783
901.811	2120.45219
901.989	2219.79105
902.168	1877.32175
902.347	2139.47591
902.526	1949.21243
902.705	2052.80732
902.884	1902.69566
903.063	2050.6933
903.242	2025.3245
903.42	2116.22461
903.599	1898.46673
903.778	1983.04103
903.957	1879.43627
904.135	1909.03901
904.314	1796.96637
904.493	1974.58403
904.672	1809.6545
904.85	1898.46673
905.029	1923.83999
905.207	1966.12693
905.386	1731.40872
905.565	1670.07757
905.743	1545.294
905.922	1686.99676
906.1	1496.64814
906.279	1729.2939
906.457	1443.77187
906.636	1771.58965
906.814	1428.96651
906.993	1568.55921
907.171	1517.79857
907.35	1646.8134
907.528	1469.1525
907.707	1648.92834
907.885	1441.65682
908.063	1522.02865
908.242	1412.04612
908.42	1426.85146
908.598	1464.9224
908.777	1460.69229
908.955	1251.30612
909.133	1333.78997
909.311	1198.43392
909.49	1524.14369
909.668	1289.37518
909.846	1312.63997
910.024	1287.26021
910.202	1492.41805
910.38	1285.14525
910.559	1314.75496
910.737	1249.1912
910.915	1486.0729
911.093	1268.2256
911.271	1395.12576
911.449	1386.6656
911.627	1215.35281
911.805	1166.71161
911.983	1352.8251
912.161	1316.86995
912.339	1621.43397
912.517	1316.86995
912.695	1481.8428
912.872	1340.135
913.05	1541.06395
913.228	1251.30612
913.406	1437.42672
913.584	1454.34714
913.762	1602.39919
913.939	1395.12576
914.117	1496.64814
914.295	1414.16117
914.473	1439.54177
914.65	1416.27622
914.828	1450.11703
915.006	1327.44495
915.184	1496.64814
915.361	1393.01072
915.539	1481.8428
915.716	1221.69745
915.894	1310.52498
916.072	1263.99572
916.249	1462.80734
916.427	1143.44913
916.604	1386.6656
916.782	1154.02292
916.959	1486.0729
917.137	1115.95778
917.314	1424.73641
917.492	1179.40043
917.669	1373.97538
917.847	1105.38439
918.024	1230.15701
918.201	1120.18717
918.379	1096.92576
918.556	995.42896
918.733	1198.43392
918.911	1092.69648
919.088	1118.07247
919.265	1035.6032
919.442	1234.38681
919.62	1132.87545
919.797	1196.31908
919.974	1158.25247
920.151	1310.52498
920.328	1006.00091
920.506	1175.17081
920.683	1060.9775
920.86	1111.72841
921.037	951.02856
921.214	1010.22973
921.391	1077.89414
921.568	1192.08939
921.745	925.6583
921.922	1120.18717
922.099	999.65772
922.276	1008.11532
922.453	860.12359
922.63	1010.22973
922.807	845.32654
922.984	862.23749
923.161	841.09888
923.338	944.6859
923.514	923.54416
923.691	951.02856
923.868	841.09888
924.045	932.00077
924.222	752.32677
924.399	923.54416
924.575	843.21271
924.752	967.94264
924.929	758.66706
925.105	891.83297
925.282	912.97357
925.459	887.60495
925.635	779.80203
925.812	900.28912
925.989	739.64646
926.165	853.78195
926.342	879.149
926.518	769.23442
926.695	699.49467
926.871	832.64368
927.048	665.68575
927.224	790.36989
927.401	731.19313
927.577	663.57279
927.754	566.38994
927.93	718.51345
928.107	672.02469
928.283	691.04216
928.459	731.19313
928.636	773.46144
928.812	678.36375
928.988	790.36989
929.165	655.12107
929.341	758.66706
929.517	566.38994
929.693	733.30644
929.87	551.60365
930.046	824.18863
930.222	716.40021
930.398	688.92907
930.574	437.56144
930.751	600.18963
930.927	477.68249
931.103	682.58984
931.279	570.61472
931.455	562.16522
931.631	492.4653
931.807	522.03308
931.983	443.89597
932.159	505.13686
932.335	541.04242
932.511	566.38994
932.687	422.78141
932.863	553.71593
933.039	443.89597
933.215	431.22705
933.391	296.12896
933.566	460.78874
933.742	384.77926
933.918	431.22705
934.094	384.77926
934.27	401.66845
934.445	389.00146
934.621	270.8061
934.797	393.22373
934.973	372.11307
935.148	329.89685
935.324	313.01233
935.5	329.89685
935.675	317.23335
935.851	241.26619
936.027	228.60739
936.202	211.73008
936.378	313.01233
936.553	123.1456
936.729	192.74463
936.904	291.9083
937.08	196.96348
937.255	49.35423
937.431	123.1456
937.606	131.58062
937.782	190.63523
937.957	196.96348
938.133	133.68943
938.308	161.10588
938.483	108.38515
938.659	154.77869
938.834	133.68943
939.009	114.71092
939.185	123.1456
939.36	112.60231
939.535	97.84262
939.71	142.12488
939.886	72.54284
940.061	106.2766
940.236	133.68943
940.411	83.08402
940.586	97.84262
940.761	148.45169
940.937	152.66967
941.112	99.95108
941.287	72.54284
941.462	123.1456
941.637	112.60231
941.812	131.58062
941.987	97.84262
942.162	59.89417
942.337	108.38515
942.512	70.43467
942.687	148.45169
942.862	123.1456
943.037	72.54284
943.212	40.92271
943.386	28.27611
943.561	7.20034
943.736	59.89417
943.911	43.03055
944.086	131.58062
944.26	17.73793
944.435	64.1103
944.61	106.2766
944.785	106.2766
944.959	89.40901
945.134	32.49155
945.309	123.1456
945.483	74.65103
945.658	38.81488
945.833	47.24632
946.007	40.92271
946.182	110.49372
946.357	47.24632
946.531	87.30066
946.706	125.25432
946.88	32.49155
947.055	72.54284
947.229	80.97574
947.404	47.24632
947.578	64.1103
947.752	123.1456
947.927	74.65103
948.101	34.5993
948.276	97.84262
948.45	30.38382
948.624	26.16843
948.799	85.19233
948.973	93.62577
949.147	47.24632
949.321	97.84262
949.496	110.49372
949.67	167.43326
949.844	49.35423
950.018	34.5993
950.193	125.25432
950.367	30.38382
950.541	40.92271
950.715	85.19233
950.889	47.24632
951.063	47.24632
951.237	57.78613
951.411	38.81488
951.585	127.36306
951.759	148.45169
951.933	55.67812
952.107	55.67812
952.281	68.32652
952.455	89.40901
952.629	74.65103
952.803	59.89417
952.977	72.54284
953.151	123.1456
953.325	74.65103
953.499	49.35423
953.672	83.08402
953.846	144.23379
954.02	51.46218
954.194	127.36306
954.368	49.35423
954.541	116.81956
954.715	26.16843
954.889	106.2766
955.062	150.56067
955.236	66.2184
955.41	116.81956
955.583	133.68943
955.757	106.2766
955.93	83.08402
956.104	102.05957
956.278	89.40901
956.451	97.84262
956.625	68.32652
956.798	125.25432
956.972	87.30066
957.145	68.32652
957.319	76.75925
957.492	66.2184
957.665	180.08857
957.839	51.46218
958.012	38.81488
958.185	85.19233
958.359	55.67812
958.532	106.2766
958.705	9.30781
958.879	72.54284
959.052	110.49372
959.225	95.73419
959.398	121.0369
959.572	108.38515
959.745	30.38382
959.918	57.78613
960.091	97.84262
960.264	93.62577
960.438	89.40901
960.611	110.49372
960.784	106.2766
960.957	85.19233
961.13	74.65103
961.303	47.24632
961.476	83.08402
961.649	57.78613
961.822	-22.3017
961.995	135.79826
962.168	80.97574
962.341	114.71092
962.514	43.03055
962.686	30.38382
962.859	66.2184
963.032	53.57014
963.205	36.70708
963.378	118.92822
963.551	144.23379
963.723	85.19233
963.896	62.00222
964.069	78.86748
964.242	114.71092
964.414	66.2184
964.587	53.57014
964.76	72.54284
964.932	55.67812
965.105	26.16843
965.278	30.38382
965.45	148.45169
965.623	74.65103
965.795	91.51738
965.968	114.71092
966.14	74.65103
966.313	87.30066
966.485	21.95313
966.658	47.24632
966.83	104.16807
967.003	116.81956
967.175	85.19233
967.348	55.67812
967.52	80.97574
967.692	99.95108
967.865	80.97574
968.037	34.5993
968.209	47.24632
968.382	80.97574
968.554	59.89417
968.726	55.67812
968.898	59.89417
969.071	121.0369
969.243	62.00222
969.415	97.84262
969.587	38.81488
969.759	-41.26476
969.932	83.08402
970.104	-3.33665
970.276	51.46218
970.448	85.19233
970.62	55.67812
970.792	30.38382
970.964	108.38515
971.136	21.95313
971.308	40.92271
971.48	137.90711
971.652	118.92822
971.824	7.20034
971.996	59.89417
972.168	21.95313
972.339	26.16843
972.511	80.97574
972.683	34.5993
972.855	15.63036
973.027	125.25432
973.199	59.89417
973.37	80.97574
973.542	55.67812
973.714	15.63036
973.886	85.19233
974.057	21.95313
974.229	9.30781
974.401	55.67812
974.572	2.98547
974.744	108.38515
974.915	102.05957
975.087	114.71092
975.259	17.73793
975.43	26.16843
975.602	40.92271
975.773	21.95313
975.945	59.89417
976.116	40.92271
976.288	-11.7658
976.459	-3.33665
976.63	34.5993
976.802	85.19233
976.973	5.09289
977.145	36.70708
977.316	38.81488
977.487	-15.98024
977.659	-1.2293
977.83	80.97574
978.001	72.54284
978.172	43.03055
978.344	80.97574
978.515	21.95313
978.686	38.81488
978.857	-11.7658
979.028	40.92271
979.2	38.81488
979.371	49.35423
979.542	99.95108
979.713	87.30066
979.884	11.4153
980.055	21.95313
980.226	21.95313
980.397	78.86748
980.568	-53.90568
980.739	47.24632
980.91	47.24632
981.081	83.08402
981.252	123.1456
981.423	-18.08741
981.594	5.09289
981.765	68.32652
981.936	26.16843
982.106	-18.08741
982.277	13.52282
982.448	85.19233
982.619	97.84262
982.79	55.67812
982.96	45.13842
983.131	59.89417
983.302	-9.65855
983.472	55.67812
983.643	30.38382
983.814	2.98547
983.984	17.73793
984.155	49.35423
984.326	28.27611
984.496	-15.98024
984.667	7.20034
984.837	45.13842
985.008	-3.33665
985.178	38.81488
985.349	-24.40881
985.519	43.03055
985.69	11.4153
985.86	89.40901
986.031	13.52282
986.201	51.46218
986.371	-1.2293
986.542	30.38382
986.712	40.92271
986.882	-11.7658
987.053	70.43467
987.223	40.92271
987.393	21.95313
987.563	68.32652
987.734	24.06077
987.904	28.27611
988.074	5.09289
988.244	70.43467
988.414	108.38515
988.585	13.52282
988.755	-13.87303
988.925	64.1103
989.095	47.24632
989.265	55.67812
989.435	76.75925
989.605	-15.98024
989.775	131.58062
989.945	9.30781
990.115	80.97574
990.285	51.46218
990.455	85.19233
990.625	26.16843
990.795	30.38382
990.965	-96.03546
991.134	59.89417
991.304	110.49372
991.474	5.09289
991.644	-5.44397
991.814	99.95108
991.984	11.4153
992.153	17.73793
992.323	47.24632
992.493	49.35423
992.662	62.00222
992.832	5.09289
993.002	-7.55127
993.171	51.46218
993.341	21.95313
993.511	99.95108
993.68	26.16843
993.85	-11.7658
994.019	-9.65855
994.189	-53.90568
994.358	34.5993
994.528	-3.33665
994.697	47.24632
994.867	106.2766
995.036	32.49155
995.206	-9.65855
995.375	68.32652
995.544	-37.05092
995.714	34.5993
995.883	53.57014
996.052	83.08402
996.222	38.81488
996.391	72.54284
996.56	30.38382
996.73	-3.33665
996.899	9.30781
997.068	21.95313
997.237	9.30781
997.406	-15.98024
997.576	26.16843
997.745	9.30781
997.914	-7.55127
998.083	26.16843
998.252	7.20034
998.421	-11.7658
998.59	11.4153
998.759	-3.33665
998.928	21.95313
999.097	-66.54569
999.266	38.81488
999.435	-1.2293
999.604	24.06077
999.773	-45.4785
999.942	-51.79892
1000.111	11.4153
1000.28	-28.62294
1000.448	-3.33665
1000.617	-11.7658
1000.786	21.95313
1000.955	5.09289
1001.124	-41.26476
1001.292	55.67812
1001.461	78.86748
1001.63	2.98547
1001.798	9.30781
1001.967	49.35423
1002.136	-11.7658
1002.304	38.81488
1002.473	9.30781
1002.642	47.24632
1002.81	-18.08741
1002.979	85.19233
1003.147	15.63036
1003.316	-3.33665
1003.484	38.81488
1003.653	21.95313
1003.821	97.84262
1003.99	-18.08741
1004.158	80.97574
1004.327	80.97574
1004.495	-18.08741
1004.663	-7.55127
1004.832	-1.2293
1005	13.52282
1005.168	38.81488
1005.337	24.06077
1005.505	-22.3017
1005.673	51.46218
1005.842	-11.7658
1006.01	72.54284
1006.178	38.81488
1006.346	7.20034
1006.514	-28.62294
1006.683	-37.05092
1006.851	55.67812
1007.019	-7.55127
1007.187	57.78613
1007.355	55.67812
1007.523	-11.7658
1007.691	-43.37164
1007.859	13.52282
1008.027	68.32652
1008.195	-24.40881
1008.363	13.52282
1008.531	17.73793
1008.699	-1.2293
1008.867	36.70708
1009.035	-60.2258
1009.203	9.30781
1009.37	47.24632
1009.538	-1.2293
1009.706	-53.90568
1009.874	30.38382
1010.042	51.46218
1010.209	30.38382
1010.377	-28.62294
1010.545	59.89417
1010.713	-58.11912
1010.88	74.65103
1011.048	40.92271
1011.216	-51.79892
1011.383	-22.3017
1011.551	49.35423
1011.718	49.35423
1011.886	9.30781
1012.054	-1.2293
1012.221	55.67812
1012.389	0.87808
1012.556	-28.62294
1012.724	43.03055
1012.891	66.2184
1013.058	11.4153
1013.226	-3.33665
1013.393	-72.86535
1013.561	38.81488
1013.728	-70.75882
1013.895	-53.90568
1014.063	-41.26476
1014.23	0.87808
1014.397	0.87808
1014.565	36.70708
1014.732	76.75925
1014.899	38.81488
1015.066	-15.98024
1015.233	15.63036
1015.401	32.49155
1015.568	-32.83698
1015.735	13.52282
1015.902	-43.37164
1016.069	43.03055
1016.236	9.30781
1016.403	-3.33665
1016.57	-56.01241
1016.737	30.38382
1016.904	-37.05092
1017.071	0.87808
1017.238	83.08402
1017.405	80.97574
1017.572	-7.55127
1017.739	-3.33665
1017.906	32.49155
1018.073	55.67812
1018.24	-7.55127
1018.407	21.95313
1018.573	17.73793
1018.74	26.16843
1018.907	-15.98024
1019.074	55.67812
1019.241	21.95313
1019.407	-9.65855
1019.574	-125.52012
1019.741	-15.98024
1019.907	26.16843
1020.074	-1.2293
1020.241	30.38382
1020.407	-66.54569
1020.574	-13.87303
1020.74	13.52282
1020.907	-7.55127
1021.073	30.38382
1021.24	72.54284
1021.406	-20.19457
1021.573	-20.19457
1021.739	-28.62294
1021.906	-20.19457
1022.072	15.63036
1022.239	-26.51589
1022.405	0.87808
1022.571	-20.19457
1022.738	-49.69214
1022.904	2.98547
1023.07	5.09289
1023.237	5.09289
1023.403	43.03055
1023.569	-47.58533
1023.735	-32.83698
1023.902	-18.08741
1024.068	-1.2293
1024.234	-58.11912
1024.4	30.38382
1024.566	-3.33665
1024.732	32.49155
1024.898	-30.72997
1025.065	53.57014
1025.231	-15.98024
1025.397	34.5993
1025.563	38.81488
1025.729	15.63036
1025.895	-5.44397
1026.061	-5.44397
1026.227	32.49155
1026.392	-28.62294
1026.558	32.49155
1026.724	-7.55127
1026.89	38.81488
1027.056	21.95313
1027.222	30.38382
1027.388	7.20034
1027.553	19.84552
1027.719	-20.19457
1027.885	9.30781
1028.051	-3.33665
1028.216	17.73793
1028.382	17.73793
1028.548	-22.3017
1028.713	72.54284
1028.879	26.16843
1029.045	83.08402
1029.21	-13.87303
1029.376	0.87808
1029.541	-9.65855
1029.707	64.1103
1029.873	-24.40881
1030.038	55.67812
1030.204	64.1103
1030.369	-37.05092
1030.534	7.20034
1030.7	97.84262
1030.865	7.20034
1031.031	-34.94396
1031.196	49.35423
1031.361	24.06077
1031.527	-41.26476
1031.692	99.95108
1031.857	-20.19457
1032.023	-11.7658
1032.188	-41.26476
1032.353	11.4153
1032.518	-37.05092
1032.684	-1.2293
1032.849	-11.7658
1033.014	-18.08741
1033.179	51.46218
1033.344	-51.79892
1033.509	-41.26476
1033.674	53.57014
1033.839	80.97574
1034.004	9.30781
1034.17	5.09289
1034.335	55.67812
1034.5	-7.55127
1034.664	59.89417
1034.829	-53.90568
1034.994	-11.7658
1035.159	21.95313
1035.324	-18.08741
1035.489	-74.97185
1035.654	17.73793
1035.819	-26.51589
1035.984	-37.05092
1036.148	55.67812
1036.313	30.38382
1036.478	21.95313
1036.643	40.92271
1036.807	13.52282
1036.972	40.92271
1037.137	68.32652
1037.301	32.49155
1037.466	26.16843
1037.631	40.92271
1037.795	-45.4785
1037.96	-28.62294
1038.124	17.73793
1038.289	43.03055
1038.454	-37.05092
1038.618	5.09289
1038.783	9.30781
1038.947	-37.05092
1039.111	-62.33245
1039.276	21.95313
1039.44	0.87808
1039.605	43.03055
1039.769	0.87808
1039.933	-22.3017
1040.098	0.87808
1040.262	-37.05092
1040.426	-18.08741
1040.591	-1.2293
1040.755	13.52282
1040.919	-11.7658
1041.083	-5.44397
1041.248	34.5993
1041.412	13.52282
1041.576	-58.11912
1041.74	7.20034
1041.904	24.06077
1042.068	-58.11912
1042.232	-24.40881
1042.397	-26.51589
1042.561	-41.26476
1042.725	-45.4785
1042.889	21.95313
1043.053	30.38382
1043.217	-53.90568
1043.381	76.75925
1043.544	19.84552
1043.708	64.1103
1043.872	13.52282
1044.036	13.52282
1044.2	21.95313
1044.364	-41.26476
1044.528	15.63036
1044.691	43.03055
1044.855	-18.08741
1045.019	-74.97185
1045.183	17.73793
1045.346	-39.15785
1045.51	47.24632
1045.674	11.4153
1045.837	-37.05092
1046.001	15.63036
1046.165	-138.1548
1046.328	-11.7658
1046.492	-9.65855
1046.655	-3.33665
1046.819	-9.65855
1046.983	15.63036
1047.146	-60.2258
1047.31	-26.51589
1047.473	-37.05092
1047.636	9.30781
1047.8	-34.94396
1047.963	-9.65855
1048.127	-43.37164
1048.29	-45.4785
