Data from mixed_try6.1_USB4F045381__12__00296.txt Node

Date: Thu Apr 03 20:32:20 EDT 2025
User: mmckonesweet
Spectrometer: USB4F04538
Trigger mode: 4
Integration Time (sec): 2.700000E-3
Scans to average: 1
Electric dark correction enabled: true
Nonlinearity correction enabled: true
Boxcar width: 0
XAxis mode: Wavelengths
Number of Pixels in Spectrum: 3648
>>>>>Begin Spectral Data<<<<<
345.52	33.36978
345.736	33.36978
345.952	33.36978
346.168	27.04663
346.384	-12.99502
346.6	-25.63794
346.816	75.52945
347.032	39.69314
347.248	8.07845
347.464	27.04663
347.68	-50.9211
347.896	-8.78052
348.112	18.61609
348.328	-53.02787
348.544	-21.42373
348.76	-8.78052
348.975	-0.35123
349.191	48.12461
349.407	-44.60065
349.623	1.75615
349.839	1.75615
350.055	-31.95906
350.27	24.93896
350.486	-19.31659
350.702	-67.77453
350.918	10.18593
351.133	-0.35123
351.349	37.58533
351.565	20.72369
351.781	22.83131
351.996	20.72369
352.212	1.75615
352.428	22.83131
352.644	52.34049
352.859	22.83131
353.075	-34.06606
353.291	12.29343
353.506	-17.20943
353.722	39.69314
353.938	-67.77453
354.153	73.42125
354.369	52.34049
354.584	1.75615
354.8	-27.74501
355.016	16.50851
355.231	14.40096
355.447	73.42125
355.662	-17.20943
355.878	60.77252
356.093	39.69314
356.309	27.04663
356.524	10.18593
356.74	20.72369
356.955	27.04663
357.171	5.97099
357.386	24.93896
357.602	24.93896
357.817	31.26204
358.033	27.04663
358.248	-2.45859
358.464	-34.06606
358.679	-0.35123
358.895	73.42125
359.11	124.02423
359.325	75.52945
359.541	48.12461
359.756	33.36978
359.972	60.77252
360.187	16.50851
360.402	14.40096
360.618	-2.45859
360.833	5.97099
361.048	41.80097
361.264	60.77252
361.479	52.34049
361.694	-10.88778
361.909	41.80097
362.125	-2.45859
362.34	41.80097
362.555	22.83131
362.77	-25.63794
362.986	-10.88778
363.201	31.26204
363.416	-8.78052
363.631	-25.63794
363.847	-0.35123
364.062	35.47754
364.277	35.47754
364.492	83.96248
364.707	1.75615
364.922	8.07845
365.138	41.80097
365.353	22.83131
365.568	14.40096
365.783	-0.35123
365.998	-2.45859
366.213	8.07845
366.428	46.01671
366.643	75.52945
366.858	14.40096
367.073	-15.10224
367.288	81.85419
367.503	-8.78052
367.718	14.40096
367.933	-2.45859
368.148	18.61609
368.363	39.69314
368.578	-15.10224
368.793	73.42125
369.008	22.83131
369.223	27.04663
369.438	48.12461
369.653	67.09678
369.868	33.36978
370.083	41.80097
370.298	24.93896
370.513	27.04663
370.728	48.12461
370.943	50.23254
371.157	-15.10224
371.372	33.36978
371.587	67.09678
371.802	52.34049
372.017	73.42125
372.232	12.29343
372.446	5.97099
372.661	14.40096
372.876	-50.9211
373.091	56.55646
373.306	-0.35123
373.52	-10.88778
373.735	56.55646
373.95	50.23254
374.165	-63.56133
374.379	-55.13461
374.594	22.83131
374.809	48.12461
375.023	-19.31659
375.238	39.69314
375.453	16.50851
375.667	-48.81431
375.882	1.75615
376.097	73.42125
376.311	-53.02787
376.526	-17.20943
376.741	-10.88778
376.955	8.07845
377.17	54.44846
377.384	1.75615
377.599	-21.42373
377.813	-44.60065
378.028	5.97099
378.242	79.74592
378.457	-55.13461
378.672	67.09678
378.886	-27.74501
379.101	39.69314
379.315	-4.56592
379.53	-10.88778
379.744	39.69314
379.958	41.80097
380.173	10.18593
380.387	5.97099
380.602	41.80097
380.816	39.69314
381.031	1.75615
381.245	24.93896
381.459	14.40096
381.674	-15.10224
381.888	22.83131
382.103	-25.63794
382.317	-44.60065
382.531	56.55646
382.746	16.50851
382.96	83.96248
383.174	-19.31659
383.388	39.69314
383.603	14.40096
383.817	62.88058
384.031	1.75615
384.246	58.66448
384.46	43.90883
384.674	64.98867
384.888	107.15516
385.103	62.88058
385.317	-2.45859
385.531	31.26204
385.745	-0.35123
385.959	52.34049
386.174	31.26204
386.388	-59.34802
386.602	-2.45859
386.816	-34.06606
387.03	8.07845
387.244	98.72115
387.458	16.50851
387.672	39.69314
387.887	50.23254
388.101	-27.74501
388.315	31.26204
388.529	46.01671
388.743	-23.53085
388.957	5.97099
389.171	-2.45859
389.385	24.93896
389.599	18.61609
389.813	10.18593
390.027	56.55646
390.241	50.23254
390.455	-2.45859
390.669	-31.95906
390.883	56.55646
391.097	73.42125
391.311	58.66448
391.525	14.40096
391.738	-61.45468
391.952	-2.45859
392.166	-25.63794
392.38	10.18593
392.594	-71.98763
392.808	1.75615
393.022	-23.53085
393.236	41.80097
393.449	-40.38689
393.663	-27.74501
393.877	56.55646
394.091	-59.34802
394.305	-90.94533
394.518	-19.31659
394.732	-15.10224
394.946	48.12461
395.16	48.12461
395.373	35.47754
395.587	-0.35123
395.801	-15.10224
396.015	-17.20943
396.228	1.75615
396.442	16.50851
396.656	67.09678
396.869	22.83131
397.083	56.55646
397.297	-0.35123
397.51	-10.88778
397.724	27.04663
397.938	56.55646
398.151	-38.27997
398.365	41.80097
398.578	43.90883
398.792	73.42125
399.005	27.04663
399.219	20.72369
399.433	-2.45859
399.646	22.83131
399.86	14.40096
400.073	5.97099
400.287	73.42125
400.5	41.80097
400.714	100.82962
400.927	-36.17303
401.141	8.07845
401.354	50.23254
401.567	5.97099
401.781	5.97099
401.994	39.69314
402.208	-2.45859
402.421	52.34049
402.635	58.66448
402.848	-36.17303
403.061	39.69314
403.275	18.61609
403.488	1.75615
403.701	39.69314
403.915	12.29343
404.128	33.36978
404.341	-23.53085
404.555	50.23254
404.768	-31.95906
404.981	81.85419
405.195	54.44846
405.408	35.47754
405.621	-69.8811
405.834	-21.42373
406.048	-6.67324
406.261	29.15432
406.474	-36.17303
406.687	-44.60065
406.9	3.86356
407.114	43.90883
407.327	-6.67324
407.54	39.69314
407.753	64.98867
407.966	77.63768
408.179	39.69314
408.392	-42.49378
408.605	64.98867
408.819	-10.88778
409.032	14.40096
409.245	60.77252
409.458	14.40096
409.671	22.83131
409.884	56.55646
410.097	14.40096
410.31	-21.42373
410.523	48.12461
410.736	-23.53085
410.949	-48.81431
411.162	48.12461
411.375	48.12461
411.588	22.83131
411.801	-27.74501
412.014	56.55646
412.227	-31.95906
412.44	-25.63794
412.653	75.52945
412.865	-25.63794
413.078	-8.78052
413.291	64.98867
413.504	-15.10224
413.717	29.15432
413.93	48.12461
414.143	-17.20943
414.356	8.07845
414.568	33.36978
414.781	12.29343
414.994	-42.49378
415.207	1.75615
415.42	48.12461
415.632	-17.20943
415.845	-2.45859
416.058	3.86356
416.271	-6.67324
416.483	14.40096
416.696	-4.56592
416.909	39.69314
417.121	48.12461
417.334	22.83131
417.547	52.34049
417.759	-6.67324
417.972	3.86356
418.185	48.12461
418.397	-40.38689
418.61	41.80097
418.823	94.50427
419.035	48.12461
419.248	41.80097
419.46	-10.88778
419.673	22.83131
419.885	3.86356
420.098	31.26204
420.311	3.86356
420.523	54.44846
420.736	-19.31659
420.948	-19.31659
421.161	33.36978
421.373	46.01671
421.586	50.23254
421.798	1.75615
422.01	14.40096
422.223	39.69314
422.435	-10.88778
422.648	140.89469
422.86	-6.67324
423.073	24.93896
423.285	-4.56592
423.497	73.42125
423.71	54.44846
423.922	18.61609
424.134	-2.45859
424.347	-17.20943
424.559	73.42125
424.771	48.12461
424.984	-27.74501
425.196	-10.88778
425.408	-23.53085
425.621	46.01671
425.833	50.23254
426.045	-36.17303
426.257	-2.45859
426.47	35.47754
426.682	14.40096
426.894	14.40096
427.106	56.55646
427.318	60.77252
427.531	-2.45859
427.743	86.0708
427.955	14.40096
428.167	31.26204
428.379	39.69314
428.591	18.61609
428.804	50.23254
429.016	-0.35123
429.228	18.61609
429.44	14.40096
429.652	52.34049
429.864	83.96248
430.076	31.26204
430.288	92.39587
430.5	10.18593
430.712	81.85419
430.924	22.83131
431.136	75.52945
431.348	69.20492
431.56	-0.35123
431.772	60.77252
431.984	-19.31659
432.196	77.63768
432.408	43.90883
432.62	22.83131
432.832	-19.31659
433.044	-38.27997
433.256	-12.99502
433.468	-44.60065
433.679	-10.88778
433.891	64.98867
434.103	29.15432
434.315	-10.88778
434.527	39.69314
434.739	46.01671
434.95	92.39587
435.162	-19.31659
435.374	79.74592
435.586	-0.35123
435.798	-53.02787
436.009	-55.13461
436.221	-0.35123
436.433	81.85419
436.645	69.20492
436.856	94.50427
437.068	5.97099
437.28	50.23254
437.491	41.80097
437.703	8.07845
437.915	14.40096
438.126	-67.77453
438.338	-61.45468
438.55	73.42125
438.761	48.12461
438.973	50.23254
439.184	79.74592
439.396	-61.45468
439.608	1.75615
439.819	27.04663
440.031	56.55646
440.242	39.69314
440.454	-6.67324
440.665	52.34049
440.877	27.04663
441.088	-0.35123
441.3	10.18593
441.511	-2.45859
441.723	-0.35123
441.934	18.61609
442.146	64.98867
442.357	64.98867
442.569	50.23254
442.78	-42.49378
442.991	39.69314
443.203	-6.67324
443.414	31.26204
443.626	58.66448
443.837	35.47754
444.048	77.63768
444.26	-2.45859
444.471	58.66448
444.682	22.83131
444.894	58.66448
445.105	73.42125
445.316	86.0708
445.528	56.55646
445.739	-8.78052
445.95	136.67694
446.161	-53.02787
446.373	56.55646
446.584	52.34049
446.795	62.88058
447.006	64.98867
447.217	-0.35123
447.429	58.66448
447.64	31.26204
447.851	50.23254
448.062	14.40096
448.273	48.12461
448.484	88.17913
448.695	43.90883
448.907	58.66448
449.118	8.07845
449.329	33.36978
449.54	35.47754
449.751	-19.31659
449.962	60.77252
450.173	-15.10224
450.384	16.50851
450.595	27.04663
450.806	14.40096
451.017	-65.66794
451.228	48.12461
451.439	-23.53085
451.65	1.75615
451.861	64.98867
452.072	5.97099
452.283	-42.49378
452.494	-8.78052
452.705	39.69314
452.915	-17.20943
453.126	27.04663
453.337	-101.47647
453.548	-19.31659
453.759	-8.78052
453.97	-23.53085
454.181	8.07845
454.391	64.98867
454.602	41.80097
454.813	58.66448
455.024	41.80097
455.235	27.04663
455.445	-15.10224
455.656	54.44846
455.867	54.44846
456.078	39.69314
456.288	60.77252
456.499	39.69314
456.71	18.61609
456.921	75.52945
457.131	18.61609
457.342	18.61609
457.553	22.83131
457.763	73.42125
457.974	27.04663
458.184	67.09678
458.395	48.12461
458.606	41.80097
458.816	48.12461
459.027	67.09678
459.237	77.63768
459.448	48.12461
459.659	35.47754
459.869	22.83131
460.08	-19.31659
460.29	31.26204
460.501	-34.06606
460.711	8.07845
460.922	56.55646
461.132	-4.56592
461.343	-44.60065
461.553	3.86356
461.764	-84.62633
461.974	64.98867
462.184	8.07845
462.395	41.80097
462.605	14.40096
462.816	-10.88778
463.026	1.75615
463.236	33.36978
463.447	-17.20943
463.657	48.12461
463.867	73.42125
464.078	-8.78052
464.288	14.40096
464.498	52.34049
464.709	41.80097
464.919	67.09678
465.129	-2.45859
465.339	56.55646
465.55	27.04663
465.76	-6.67324
465.97	-21.42373
466.18	31.26204
466.391	69.20492
466.601	64.98867
466.811	64.98867
467.021	8.07845
467.231	-10.88778
467.441	90.28749
467.651	-8.78052
467.862	56.55646
468.072	-27.74501
468.282	-17.20943
468.492	73.42125
468.702	43.90883
468.912	98.72115
469.122	39.69314
469.332	81.85419
469.542	35.47754
469.752	5.97099
469.962	33.36978
470.172	73.42125
470.382	73.42125
470.592	50.23254
470.802	98.72115
471.012	60.77252
471.222	-40.38689
471.432	60.77252
471.642	43.90883
471.852	39.69314
472.062	107.15516
472.272	24.93896
472.482	90.28749
472.691	48.12461
472.901	39.69314
473.111	14.40096
473.321	31.26204
473.531	60.77252
473.741	35.47754
473.95	5.97099
474.16	71.31307
474.37	43.90883
474.58	-44.60065
474.79	22.83131
474.999	132.45929
475.209	56.55646
475.419	39.69314
475.628	64.98867
475.838	96.6127
476.048	22.83131
476.258	92.39587
476.467	48.12461
476.677	22.83131
476.886	58.66448
477.096	27.04663
477.306	39.69314
477.515	109.26371
477.725	50.23254
477.935	22.83131
478.144	35.47754
478.354	83.96248
478.563	62.88058
478.773	50.23254
478.982	41.80097
479.192	27.04663
479.401	50.23254
479.611	94.50427
479.82	48.12461
480.03	83.96248
480.239	73.42125
480.449	52.34049
480.658	90.28749
480.868	121.91552
481.077	73.42125
481.287	50.23254
481.496	128.24171
481.705	56.55646
481.915	132.45929
482.124	73.42125
482.333	136.67694
482.543	58.66448
482.752	50.23254
482.961	115.58952
483.171	50.23254
483.38	109.26371
483.589	81.85419
483.799	88.17913
484.008	86.0708
484.217	39.69314
484.426	81.85419
484.636	115.58952
484.845	54.44846
485.054	96.6127
485.263	136.67694
485.472	130.35049
485.682	43.90883
485.891	111.37229
486.1	58.66448
486.309	83.96248
486.518	81.85419
486.727	161.98467
486.936	126.13296
487.146	86.0708
487.355	161.98467
487.564	111.37229
487.773	136.67694
487.982	132.45929
488.191	102.93811
488.4	102.93811
488.609	180.96744
488.818	155.65745
489.027	168.31207
489.236	119.80683
489.445	208.38993
489.654	107.15516
489.863	166.20292
490.072	145.11251
490.281	157.7665
490.49	197.84241
490.698	183.07674
490.907	185.18606
491.116	153.54842
491.325	174.63967
491.534	178.85816
491.743	170.42125
491.952	168.31207
492.16	191.51415
492.369	155.65745
492.578	214.71868
492.787	136.67694
492.996	187.2954
493.204	166.20292
493.413	157.7665
493.622	254.80485
493.831	244.25518
494.039	225.26699
494.248	191.51415
494.457	280.12601
494.665	202.06136
494.874	256.91485
495.083	294.89792
495.291	263.24494
495.5	259.02486
495.709	326.55503
495.917	199.95188
496.126	292.78759
496.335	223.15728
496.543	225.26699
496.752	242.1453
496.96	326.55503
497.169	259.02486
497.377	286.45672
497.586	278.01581
497.794	328.66565
498.003	351.8836
498.211	341.32972
498.42	334.99761
498.628	320.22329
498.837	288.56699
499.045	273.79547
499.254	254.80485
499.462	259.02486
499.671	332.88694
499.879	334.99761
500.087	360.32701
500.296	313.8917
500.504	351.8836
500.713	394.10337
500.921	410.99314
501.129	326.55503
501.338	305.44984
501.546	351.8836
501.754	413.10444
501.962	463.78027
502.171	438.44123
502.379	478.56239
502.587	421.54978
502.795	457.4453
503.004	290.67728
503.212	444.77578
503.42	337.1083
503.628	364.54882
503.837	364.54882
504.045	372.99264
504.253	360.32701
504.461	415.21575
504.669	432.10681
504.877	487.00965
505.085	506.01685
505.294	474.33885
505.502	351.8836
505.71	552.48376
505.918	510.24083
506.126	579.94462
506.334	436.32974
506.542	594.73216
506.75	446.88733
506.958	571.49488
507.166	470.11538
507.374	556.70836
507.582	590.50708
507.79	598.95729
507.998	455.33367
508.206	603.18247
508.414	495.45715
508.622	689.80952
508.83	546.14697
509.037	601.06987
509.245	556.70836
509.453	615.85832
509.661	592.61962
509.869	656.00144
510.077	563.04536
510.285	647.5499
510.492	683.47028
510.7	835.63822
510.908	584.16957
511.116	689.80952
511.324	647.5499
511.531	721.50723
511.739	639.09854
511.947	698.262
512.155	622.19641
512.362	746.86714
512.57	751.09394
512.778	685.58335
512.985	787.02337
513.193	643.32419
513.401	689.80952
513.608	742.64038
513.816	700.37515
514.024	808.15966
514.231	782.79623
514.439	808.15966
514.646	732.07367
514.854	850.435
515.061	719.39397
515.269	761.66112
515.477	740.52702
515.684	951.90949
515.892	763.77459
516.099	839.86582
516.307	715.16749
516.514	915.96855
516.722	901.16997
516.929	880.02982
517.136	825.06936
517.344	890.59979
517.551	734.18699
517.759	979.39514
517.966	1040.71324
518.173	939.22421
518.381	844.09347
518.588	1021.68293
518.796	1013.22517
519.003	1047.05678
519.21	968.8236
519.418	960.36649
519.625	858.89049
519.832	1066.0877
520.039	928.65334
520.247	1129.52714
520.454	1047.05678
520.661	1171.82237
520.868	968.8236
521.076	1188.74091
521.283	1040.71324
521.49	1239.49783
521.697	1083.00445
521.904	1180.28161
522.112	1021.68293
522.319	1252.18734
522.526	954.02373
522.733	1239.49783
522.94	1197.20026
523.147	1260.64707
523.354	1146.44503
523.561	1167.59277
523.768	1315.63621
523.975	1190.85574
524.183	1226.80843
524.39	1442.53809
524.597	1247.95749
524.804	1341.01625
525.011	1252.18734
525.218	1383.31679
525.425	1324.09619
525.632	1387.54686
525.838	1315.63621
526.045	1379.08671
526.252	1290.25642
526.459	1379.08671
526.666	1385.43182
526.873	1493.29932
527.08	1343.13127
527.287	1476.37892
527.494	1442.53809
527.701	1503.87455
527.907	1357.93641
528.114	1499.64446
528.321	1569.44047
528.528	1434.07789
528.735	1527.13999
528.941	1554.63536
529.148	1309.29123
529.355	1552.52034
529.562	1279.6816
529.768	1706.91182
529.975	1603.28043
530.182	1840.14061
530.388	1508.10463
530.595	1791.50337
530.802	1497.52941
531.008	1882.43183
531.215	1654.03943
531.422	1774.58555
531.628	1664.61404
531.835	1821.10893
532.042	1620.20024
532.248	1802.07688
532.455	1713.25638
532.661	1933.17855
532.868	1689.99285
533.074	1975.46497
533.281	1700.56723
533.487	1967.00788
533.694	1816.87961
533.9	1916.26333
534.107	1808.42094
534.313	1992.37885
534.52	1880.31732
534.726	2089.62539
534.933	1903.57668
535.139	2007.17816
535.345	1814.76495
535.552	1956.43638
535.758	2036.77582
535.965	2009.29232
536.171	1983.92196
536.377	2207.99112
536.584	2138.24291
536.79	2195.3103
536.996	2123.4467
537.203	2045.23204
537.409	2110.76394
537.615	2254.48478
537.821	1975.46497
538.028	2197.4238
538.234	2019.86303
538.44	2292.5218
538.646	2197.4238
538.853	2246.03171
539.059	2284.06939
539.265	2307.31315
539.471	2315.76515
539.677	2362.24833
539.883	2374.92472
540.09	2277.72998
540.296	2246.03171
540.502	2442.52587
540.708	2391.82601
540.914	2512.22799
541.12	2385.48811
541.326	2558.68921
541.532	2560.80095
541.738	2552.35392
541.944	2339.00733
542.15	2655.81674
542.356	2476.32235
542.562	2579.80608
542.768	2499.55578
542.974	2719.14653
543.18	2431.96391
543.386	2600.92174
543.592	2634.70427
543.798	2706.48151
544.004	2469.98572
544.21	2989.21585
544.415	2617.8134
544.621	2816.22916
544.827	2814.11897
545.033	2904.84427
545.239	2611.47912
545.445	2879.52823
545.651	2704.37062
545.856	3020.84902
546.062	2693.81601
546.268	2877.41846
546.474	2617.8134
546.679	2763.4704
546.885	2710.70323
547.091	2961.79769
547.297	2670.59473
547.502	3052.47874
547.708	2856.32004
547.914	2864.75958
548.119	2797.23699
548.325	3058.80427
548.531	2814.11897
548.736	3134.69955
548.942	2919.611
549.147	3031.39264
549.353	3022.95777
549.559	3252.71725
549.764	3119.94374
549.97	3141.02322
550.175	2934.37701
550.381	3003.97842
550.586	3025.06651
550.792	3277.99998
550.997	3073.56328
551.203	3277.99998
551.408	3322.23887
551.614	3246.39619
551.819	3370.68227
552.025	3292.74711
552.23	3360.15188
552.435	3364.36409
552.641	3322.23887
552.846	3412.79945
553.052	3284.32028
553.257	3351.72725
553.462	3377.00029
553.668	3513.85156
553.873	3124.15976
554.078	3528.58484
554.283	3423.32764
554.489	3591.71722
554.694	3355.9396
554.899	3549.63081
555.105	3387.52999
555.31	3583.30053
555.515	3410.69376
555.72	3812.54641
555.925	3463.33069
556.131	3827.26075
556.336	3461.22543
556.541	3862.99154
556.746	3494.90746
556.951	3541.21264
557.156	3606.4457
557.361	3808.34213
557.567	3730.54891
557.772	3850.38133
557.977	3745.2686
558.182	3839.87227
558.387	3728.44603
558.592	3890.3112
558.797	3732.65178
559.002	3949.14203
559.207	3886.1084
559.412	4110.84429
559.617	3869.29638
559.822	4049.95778
560.027	3717.93129
560.232	4083.5525
560.437	3932.33483
560.642	3974.35038
560.847	3898.71657
561.051	4112.94351
561.256	3736.85747
561.461	3867.19478
561.666	4125.5384
561.871	4146.52822
562.076	3961.74657
562.281	4272.42275
562.485	4045.75807
562.69	3888.20981
562.895	3839.87227
563.1	3951.24283
563.305	3907.12162
563.509	4146.52822
563.714	3894.51393
563.919	4052.05761
564.123	4142.33042
564.328	4217.87784
564.533	3970.14919
564.737	4157.02234
564.942	4205.28851
565.147	4337.43813
565.351	4142.33042
565.556	4259.83674
565.761	4278.71546
565.965	4303.88439
566.17	4232.56442
566.374	4295.49509
566.579	4234.66242
566.784	4433.87423
566.988	4469.50196
567.193	4708.25186
567.397	4303.88439
567.602	4553.30679
567.806	4033.15844
568.011	4655.91928
568.215	4259.83674
568.42	4603.57267
568.624	4366.79312
568.828	4513.50391
569.033	4318.56483
569.237	4475.78854
569.442	4461.11953
569.646	4448.54524
569.85	4341.63196
570.055	4599.38433
570.259	4570.06351
570.463	4787.77037
570.668	4586.8188
570.872	4739.64465
571.076	4678.94734
571.281	4789.86252
571.485	4632.88849
571.689	4967.61189
571.893	4670.57382
572.098	4837.9757
572.302	4616.13713
572.506	4804.50693
572.71	4695.69332
572.914	4996.87236
573.119	4699.87959
573.323	4936.25638
573.527	4781.49378
573.731	4898.62295
573.935	4722.90246
574.139	4798.23089
574.343	4704.06577
574.547	4848.43349
574.751	4821.24205
574.955	4996.87236
575.159	4888.1679
575.364	4929.98466
575.568	4831.70075
575.772	4875.62108
575.976	4764.75521
576.18	4998.96222
576.383	4850.52498
576.587	5191.13037
576.791	4863.07344
576.995	5034.48632
577.199	5126.4
577.403	4984.33271
577.607	5021.94917
577.811	5228.70547
578.015	5049.11195
578.219	5180.6915
578.422	5124.31155
578.626	5389.3579
578.83	5218.2687
579.034	5203.65624
579.238	5076.27083
579.442	5376.84452
579.645	5151.45957
579.849	5399.78507
580.053	5197.39341
580.257	5385.18686
580.46	5209.91887
580.664	5543.62
580.868	5189.04264
581.071	5364.33029
581.275	4938.34691
581.479	5393.52883
581.682	5260.01228
581.886	5514.44516
582.09	5297.57351
582.293	5458.16637
582.497	5383.10131
582.7	5681.0963
582.904	5435.23305
583.107	5685.26064
583.311	5499.85601
583.515	5518.61328
583.718	5572.79022
583.922	5818.46983
584.125	5420.63765
584.329	5570.70679
584.532	5549.87115
584.735	5893.35751
584.939	5526.94923
585.142	5608.20499
585.346	5406.04109
585.549	5741.47006
585.753	5649.86071
585.956	5731.06221
586.159	5741.47006
586.363	6001.47464
586.566	5658.19072
586.769	5768.52771
586.973	5864.23816
587.176	5939.10715
587.379	5668.6027
587.582	5924.55169
587.786	5699.83511
587.989	5916.23376
588.192	5847.59645
588.395	5853.83727
588.599	5791.41954
588.802	6022.25909
589.005	5835.11418
589.208	6246.58127
589.411	6047.19732
589.615	6074.20991
589.818	6202.98452
590.021	6117.83723
590.224	6279.79091
590.427	6173.91428
590.63	6030.57221
590.833	6238.27793
591.036	6151.07014
591.239	6296.39349
591.442	6115.75998
591.645	6331.66898
591.848	6163.53093
592.051	6389.75509
592.254	6267.338
592.457	6178.06745
592.66	6408.42174
592.863	6418.79129
593.066	6165.60765
593.269	6358.63981
593.472	6238.27793
593.675	6331.66898
593.878	6323.36947
594.081	6539.03558
594.284	6331.66898
594.486	6555.61487
594.689	6516.23662
594.892	6383.53245
595.095	6520.3821
595.298	6425.01274
595.5	6286.01705
595.703	6706.83272
595.906	6582.55307
596.109	6781.36083
596.311	6462.33704
596.514	6768.94153
596.717	6729.60835
596.92	7066.77892
597.122	6706.83272
597.325	6752.3812
597.528	6505.87254
597.73	6777.22115
597.933	6536.96306
598.136	6816.54435
598.338	6795.84896
598.541	6919.9872
598.743	7035.77603
598.946	6845.51408
599.148	6748.24089
599.351	6849.65225
599.554	6789.6399
599.756	6901.37168
599.959	6812.40546
600.161	6818.61377
600.363	6868.27287
600.566	6891.02892
600.768	6876.54812
600.971	6988.22846
601.173	6855.85933
601.376	7081.24521
601.578	6893.09752
601.78	7025.44061
601.983	6843.44496
602.185	7019.23909
602.388	6946.87305
602.59	7128.7696
602.792	7050.24467
602.995	6984.09332
603.197	7015.10463
603.399	7223.78306
603.601	7112.24072
603.804	6882.75431
604.006	7004.76809
604.208	7277.46561
604.41	7035.77603
604.613	7130.83561
604.815	7130.83561
605.017	7477.61214
605.219	6971.68738
605.421	7283.65879
605.623	7058.51198
605.826	7263.01408
606.028	7211.39266
606.23	7329.06942
606.432	7275.40117
606.634	7322.87768
606.836	7087.44471
607.038	7364.15218
607.24	7246.49673
607.442	7306.36543
607.644	7324.94162
607.846	7312.55769
608.048	7186.60947
608.25	7430.17324
608.452	7438.4243
608.654	7419.85892
608.856	7430.17324
609.058	7527.10143
609.26	7285.72314
609.462	7576.57834
609.664	7407.48101
609.866	7626.04294
610.067	7576.57834
610.269	7757.88883
610.471	7547.71831
610.673	7850.54149
610.875	7702.27689
611.077	7743.47239
611.278	7339.38853
611.48	7512.66833
611.682	7588.94564
611.884	7856.71683
612.085	7512.66833
612.287	7704.33686
612.489	7613.67794
612.69	7729.05492
612.892	7446.67502
613.094	7784.65949
613.295	7426.04757
613.497	7716.69627
613.699	7496.17208
613.9	7817.60316
614.102	7597.19008
614.304	7735.23396
614.505	7694.03678
614.707	7776.42274
614.908	7502.35834
615.11	7794.95496
615.311	7481.73672
615.513	7829.95565
615.714	7465.23788
615.916	7813.48549
616.117	7254.75558
616.319	7762.00762
616.52	7638.40717
616.722	7803.19096
616.923	7566.27167
617.124	7792.89591
617.326	7615.73883
617.527	7832.01433
617.729	7599.25114
617.93	7928.74879
618.131	7726.9952
618.333	7920.51784
618.534	7696.09684
618.735	7908.17081
618.937	7615.73883
619.138	7741.41281
619.339	7809.36774
619.54	7801.13199
619.742	7749.65099
619.943	7961.66929
620.144	7827.89696
620.345	8037.77791
620.546	7854.65841
620.748	8267.99273
620.949	7918.46006
621.15	7957.55451
621.351	7836.13162
621.552	7875.24175
621.753	7854.65841
621.954	8008.98333
622.155	7634.28585
622.356	8074.79367
622.558	8076.84991
622.759	7920.51784
622.96	7885.53265
623.161	8159.083
623.362	7945.20969
623.563	8304.96833
623.764	7860.83363
623.965	8315.23821
624.166	8105.63515
624.366	8076.84991
624.567	7971.95587
624.768	8169.35989
624.969	8066.56851
625.17	7978.12757
625.371	8000.75557
625.572	8270.0471
625.773	7992.52749
625.973	8251.55709
626.174	7998.69858
626.375	8052.1737
626.576	7969.89859
626.777	8228.95602
626.977	8140.58335
627.178	8300.86025
627.379	8154.97211
627.58	8142.63895
627.78	8191.96728
627.981	8043.94766
628.182	8204.29757
628.382	8307.02235
628.583	8101.52321
628.784	8463.07059
628.984	7990.47042
629.185	8208.40751
629.386	7926.69108
629.586	8387.11369
629.787	8231.01076
629.987	8467.17562
630.188	8606.70145
630.388	8272.10144
630.589	8068.62483
630.79	8298.80617
630.99	8128.24935
631.191	8442.54429
631.391	8175.52578
631.591	8594.39386
631.792	8146.75008
631.992	8596.44517
632.193	8280.31864
632.393	8526.68999
632.594	8573.8797
632.794	8385.06044
632.994	8239.22953
633.195	8557.46702
633.395	8204.29757
633.595	8399.43282
633.796	8575.9312
633.996	8495.90869
634.196	8442.54429
634.397	8852.71355
634.597	8364.52682
634.797	8623.11053
634.997	8327.56141
635.198	8532.84573
635.398	8458.96549
635.598	8506.1696
635.798	8309.07634
635.998	8590.29118
636.199	8592.34253
636.399	8748.19068
636.599	8623.11053
636.799	8852.71355
636.999	8487.69963
637.199	8532.84573
637.399	8487.69963
637.599	8458.96549
637.799	8278.26437
637.999	8770.73883
638.199	8516.43003
638.399	8885.49536
638.599	8750.2406
638.799	8852.71355
638.999	8649.77273
639.199	8768.68909
639.399	8758.44011
639.599	9006.33887
639.799	8739.9908
639.999	9004.29119
640.199	8668.22934
640.399	9028.86223
640.599	8407.64518
640.799	8994.05251
640.998	8893.69009
641.198	8780.98726
641.398	8590.29118
641.598	8885.49536
641.798	8901.88454
641.997	8787.13609
642.197	8885.49536
642.397	9229.4326
642.597	9010.43419
642.796	9102.56032
642.996	8926.46618
643.196	9194.65154
643.395	8881.39788
643.595	9104.60716
643.795	8908.03019
643.994	9088.23189
644.194	8936.70777
644.394	9350.10576
644.593	9075.94971
644.793	9118.93462
644.992	9090.27886
645.192	9237.61567
645.392	9059.5725
645.591	9118.93462
645.791	9026.81474
645.99	9380.77619
646.19	9123.02803
646.389	8973.57383
646.589	9192.60545
646.788	9213.06565
646.987	9026.81474
647.187	9425.75282
647.386	8922.36942
647.586	9249.88977
647.785	9135.30783
647.984	9102.56032
648.184	9086.1849
648.383	9262.16326
648.582	9239.66139
648.782	9452.32623
648.981	9235.56993
649.18	9460.50212
649.38	9587.1956
649.579	9213.06565
649.778	9180.32851
649.977	9450.28222
650.177	9331.70173
650.376	9247.84413
650.575	9163.95831
650.774	9433.92955
650.973	8899.83596
651.173	9071.85551
651.372	9213.06565
651.571	9348.06093
651.77	9182.37471
651.969	9554.50635
652.168	9211.01971
652.367	9190.55933
652.566	9382.82075
652.765	9523.85651
652.964	9278.52699
653.163	9384.8653
653.362	9260.11772
653.561	9249.88977
653.76	9288.75377
653.959	9489.11568
654.158	9448.23819
654.357	9282.61775
654.556	9352.15057
654.755	9523.85651
654.954	9327.61176
655.153	9206.92777
655.352	9407.35424
655.551	9566.76529
655.749	9509.55202
655.948	9476.85311
656.147	9376.68701
656.346	9660.73175
656.545	9523.85651
656.743	9419.62011
656.942	9454.37023
657.141	9415.53155
657.34	9527.94336
657.538	9760.79045
657.737	9746.49859
657.936	9952.63861
658.135	9679.11264
658.333	9805.70288
658.532	9785.28904
658.731	9883.26183
658.929	9388.95434
659.128	9793.45476
659.326	9495.24675
659.525	9811.82674
659.724	9770.99846
659.922	9666.85885
660.121	9587.1956
660.319	9615.79539
660.518	9388.95434
660.716	9660.73175
660.915	9626.00886
661.113	9556.54955
661.312	9658.68935
661.51	9752.62376
661.709	9456.41421
661.907	9642.3496
662.105	9556.54955
662.304	9966.91997
662.502	9770.99846
662.701	9801.62023
662.899	9493.20308
663.097	9719.9546
663.296	9644.39213
663.494	9924.07375
663.692	9642.3496
663.891	9621.92352
664.089	9581.06667
664.287	9656.64694
664.485	9605.58154
664.684	9928.15462
664.882	9607.62434
665.08	9871.01711
665.278	9648.47712
665.476	9742.41507
665.675	9591.28147
665.873	10048.5142
666.071	9742.41507
666.269	10156.59159
666.467	9560.63589
666.665	9860.81276
666.863	9713.8287
667.061	9905.70911
667.259	10034.23687
667.457	10066.86975
667.655	9848.56706
667.853	10109.69492
668.051	9811.82674
668.249	9917.95234
668.447	9687.28152
668.645	10087.26347
668.843	9826.11521
669.041	9842.44401
669.239	9613.75265
669.437	9762.83208
669.635	9754.66546
669.833	9901.62792
670.031	9687.28152
670.229	9858.77185
670.426	9883.26183
670.624	10278.8964
670.822	9809.78546
671.02	10070.94861
671.218	9752.62376
671.415	9893.46536
671.613	9940.39688
671.811	9930.19503
672.009	9954.67885
672.206	10079.10615
672.404	9868.97627
672.602	9973.04034
672.799	9942.4372
672.997	9895.50602
673.195	9574.93761
673.392	10015.87926
673.59	10017.91905
673.788	9791.41335
673.985	9936.31618
674.183	10070.94861
674.38	9975.08043
674.578	10285.01036
674.775	9924.07375
674.973	9656.64694
675.17	10185.13379
675.368	10103.57742
675.565	10079.10615
675.763	10274.82036
675.96	10062.79084
676.158	10017.91905
676.355	9777.12308
676.553	9891.42468
676.75	9730.16413
676.947	9895.50602
677.145	9770.99846
677.342	10087.26347
677.539	9846.52606
677.737	9893.46536
677.934	9699.53439
678.131	9944.47751
678.329	9944.47751
678.526	10099.49902
678.723	10003.64022
678.92	10095.42056
679.118	9973.04034
679.315	9789.37193
679.512	9873.05793
679.709	10001.60033
679.906	9895.50602
680.104	10036.27653
680.301	9813.86799
680.498	9787.33049
680.695	9803.66156
680.892	9932.23543
681.089	9834.27973
681.286	9950.59836
681.483	9668.90119
681.68	9895.50602
681.877	10095.42056
682.075	10134.16367
682.272	9989.36068
682.469	10172.90175
682.665	9901.62792
682.862	10054.63285
683.059	9842.44401
683.256	10091.34204
683.453	9987.32068
683.65	9938.35654
683.847	9805.70288
684.044	9834.27973
684.241	9705.66061
684.438	10011.79964
684.635	9903.66852
684.831	10244.24835
685.028	9658.68935
685.225	9899.5873
685.422	9632.13676
685.619	9809.78546
685.815	9793.45476
686.012	9846.52606
686.209	9448.23819
686.405	9926.11419
686.602	9699.53439
686.799	9834.27973
686.996	9691.36587
687.192	9687.28152
687.389	9677.07038
687.586	9791.41335
687.782	9752.62376
687.979	9895.50602
688.175	10005.68009
688.372	9901.62792
688.568	9605.58154
688.765	9793.45476
688.962	9621.92352
689.158	9768.95689
689.355	9421.66436
689.551	9711.7867
689.748	9542.24684
689.944	9883.26183
690.14	9683.19711
690.337	9901.62792
690.533	9926.11419
690.73	9550.41991
690.926	9672.98581
691.123	9591.28147
691.319	9709.74468
691.515	9838.3619
691.712	9621.92352
691.908	9646.43463
692.104	9848.56706
692.301	10058.71187
692.497	9525.89994
692.693	9801.62023
692.889	9472.76546
693.086	9288.75377
693.282	9576.98064
693.478	9675.0281
693.674	9736.28967
693.87	9715.87068
694.067	9448.23819
694.263	9517.72611
694.459	9438.01781
694.655	9754.66546
694.851	9493.20308
695.047	9599.45303
695.243	9866.93541
695.439	9701.57648
695.635	9501.37768
695.831	9401.22109
696.027	9370.55312
696.224	9744.45684
696.42	9791.41335
696.615	9877.13953
696.811	9660.73175
697.007	9564.72218
697.203	9652.56206
697.399	9709.74468
697.595	9390.99884
697.791	9715.87068
697.987	9268.29978
698.183	9805.70288
698.379	9675.0281
698.575	9648.47712
698.77	9713.8287
698.966	9699.53439
699.162	9726.08036
699.358	9752.62376
699.554	9409.39859
699.749	9844.48504
699.945	9527.94336
700.141	9705.66061
700.337	9617.83812
700.532	9487.07196
700.728	9411.44293
700.924	9421.66436
701.119	9354.19536
701.315	9501.37768
701.511	9253.981
701.706	9650.5196
701.902	9478.89691
702.097	9773.04001
702.293	9298.98014
702.489	9658.68935
702.684	9662.77413
702.88	9793.45476
703.075	9574.93761
703.271	9809.78546
703.466	9607.62434
703.662	9603.53872
703.857	9615.79539
704.053	9489.11568
704.248	9579.02367
704.443	9770.99846
704.639	9640.30707
704.834	9650.5196
705.03	9570.85148
705.225	9566.76529
705.42	9433.92955
705.616	9568.8084
705.811	9482.98447
706.006	9781.20609
706.202	9491.15939
706.397	9270.34526
706.592	9560.63589
706.787	9509.55202
706.983	9470.72161
707.178	9785.28904
707.373	9525.89994
707.568	9560.63589
707.763	9333.74668
707.959	9468.67774
708.154	9556.54955
708.349	9176.23606
708.544	9329.65675
708.739	9153.72638
708.934	9270.34526
709.129	9695.45016
709.324	9303.07057
709.519	9550.41991
709.714	9446.19415
709.909	9705.66061
710.104	9253.981
710.299	9343.97123
710.494	9229.4326
710.689	9646.43463
710.884	9417.57584
711.079	9425.75282
711.274	9368.50846
711.469	9654.60451
711.664	9540.20353
711.859	9440.06192
712.054	9217.15749
712.249	9623.9662
712.443	9008.38654
712.638	9450.28222
712.833	9229.4326
713.028	9390.99884
713.223	8961.28578
713.417	9562.67904
713.612	9333.74668
713.807	9576.98064
714.002	9339.88146
714.196	9403.26549
714.391	9092.32581
714.586	9368.50846
714.78	9192.60545
714.975	9264.20879
715.17	9417.57584
715.364	9691.36587
715.559	9556.54955
715.754	9458.45817
715.948	9368.50846
716.143	9589.23855
716.337	9419.62011
716.532	9444.15009
716.726	9213.06565
716.921	9425.75282
717.115	9278.52699
717.31	9323.52173
717.504	9104.60716
717.699	9607.62434
717.893	9370.55312
718.088	9421.66436
718.282	9190.55933
718.476	9491.15939
718.671	9325.56675
718.865	9540.20353
719.059	9323.52173
719.254	9298.98014
719.448	9045.24153
719.642	9474.80929
719.837	8795.33429
720.031	8967.42989
720.225	8938.75604
720.419	9251.93539
720.614	9317.38655
720.808	9204.88177
721.002	8973.57383
721.196	9163.95831
721.39	9057.52527
721.585	9278.52699
721.779	8856.81153
721.973	9127.12137
722.167	8746.14074
722.361	8959.23771
722.555	8649.77273
722.749	8885.49536
722.943	8926.46618
723.137	9100.51345
723.331	9106.654
723.525	9106.654
723.719	8815.82851
723.913	9020.67217
724.107	8901.88454
724.301	9157.8192
724.495	8731.79064
724.689	8965.38187
724.883	8862.95836
725.077	9041.14681
725.271	8871.15388
725.465	8901.88454
725.659	8660.02659
725.853	8850.66454
726.046	8834.27176
726.24	8848.6155
726.434	8828.12418
726.628	9180.32851
726.822	8772.78855
727.015	9258.07216
727.209	8852.71355
727.403	9184.42089
727.596	8674.38121
727.79	8903.93311
727.984	9123.02803
728.177	9192.60545
728.371	8838.37007
728.565	8871.15388
728.758	8992.00472
728.952	8994.05251
729.146	8780.98726
729.339	9184.42089
729.533	8832.22259
729.726	8951.04525
729.92	8594.39386
730.113	9004.29119
730.307	8664.128
730.5	8901.88454
730.694	8852.71355
730.887	9012.48182
731.081	8928.51453
731.274	8963.33384
731.468	8551.31195
731.661	8934.65949
731.854	9192.60545
732.048	8987.90909
732.241	8871.15388
732.435	9266.25429
732.628	8942.85251
732.821	9024.76723
733.014	9000.19577
733.208	9057.52527
733.401	8961.28578
733.594	8807.63104
733.788	9030.90971
733.981	8803.5322
734.174	8877.30034
734.367	8783.03689
734.56	8789.18567
734.754	9215.11158
734.947	8885.49536
735.14	9022.71971
735.333	8758.44011
735.526	8934.65949
735.719	8926.46618
735.912	8836.32092
736.105	9108.70081
736.298	8821.97643
736.491	8750.2406
736.684	8885.49536
736.877	8819.92714
737.07	8987.90909
737.263	8953.0934
737.456	9032.95716
737.649	8938.75604
737.842	8821.97643
738.035	8965.38187
738.228	8836.32092
738.421	9018.6246
738.614	9088.23189
738.807	8873.20272
739	8791.23523
739.192	9035.0046
739.385	8944.90072
739.578	8797.3838
739.771	8729.74055
739.964	8803.5322
740.156	8930.56287
740.349	8963.33384
740.542	8797.3838
740.735	8739.9908
740.927	8846.56645
741.12	8729.74055
741.313	8951.04525
741.505	8819.92714
741.698	8838.37007
741.891	8803.5322
742.083	8842.46829
742.276	8811.72981
742.468	8989.95692
742.661	9065.71408
742.854	8969.47789
743.046	8948.9971
743.239	8901.88454
743.431	8959.23771
743.624	8594.39386
743.816	8565.67351
744.009	8491.8042
744.201	8567.72509
744.393	8682.58344
744.586	8739.9908
744.778	8705.13806
744.971	8686.68445
745.163	8709.23866
745.355	8684.63395
745.548	8623.11053
745.74	8608.75265
745.932	8549.26023
746.125	8727.69044
746.317	8783.03689
746.509	8651.82354
746.702	9045.24153
746.894	8549.26023
747.086	8785.0865
747.278	8731.79064
747.471	8680.53291
747.663	8668.22934
747.855	8811.72981
748.047	8450.75504
748.239	8532.84573
748.431	8479.49025
748.623	8686.68445
748.815	8493.85646
749.008	8454.8603
749.2	8366.58027
749.392	8651.82354
749.584	8631.31462
749.776	8653.87433
749.968	8368.6337
750.16	8582.08559
750.352	8422.01608
750.544	8378.90055
750.736	8405.59212
750.928	8631.31462
751.12	8528.74192
751.311	8409.69823
751.503	8493.85646
751.695	8452.80768
751.887	8541.05313
752.079	8594.39386
752.271	8508.22172
752.463	8668.22934
752.654	8370.68711
752.846	8489.75192
753.038	8280.31864
753.23	8602.599
753.421	8483.59498
753.613	8360.41986
753.805	8602.599
753.997	8389.16693
754.188	8419.96315
754.38	8175.52578
754.572	8304.96833
754.763	8220.73685
754.955	8031.60797
755.146	8267.99273
755.338	8152.91663
755.53	8389.16693
755.721	8163.19382
755.913	8500.01311
756.104	8383.00716
756.296	8553.36366
756.487	8434.33324
756.679	8534.89761
756.87	8089.18692
757.062	8253.61161
757.253	8064.51217
757.445	8138.52774
757.636	8383.00716
757.827	8463.07059
758.019	8444.59701
758.21	8417.9102
758.401	8348.09853
758.593	7971.95587
758.784	7941.09459
758.975	7941.09459
759.167	8253.61161
759.358	8385.06044
759.549	8167.30455
759.74	8458.96549
759.932	8228.95602
760.123	8175.52578
760.314	8218.68201
760.505	8206.35255
760.696	8085.07467
760.888	8274.15577
761.079	7792.89591
761.27	8054.23017
761.461	7899.93904
761.652	7751.71048
761.843	7780.54116
762.034	7885.53265
762.225	7759.94824
762.416	8148.80562
762.607	7949.32471
762.798	7877.29997
762.989	7762.00762
763.18	8072.73741
763.371	7817.60316
763.562	7854.65841
763.753	7897.88105
763.944	7883.47451
764.135	7669.31441
764.326	7930.80647
764.517	7786.71863
764.708	7891.70694
764.899	7689.91659
765.089	7615.73883
765.28	7858.77524
765.471	7757.88883
765.662	7570.3944
765.853	7566.27167
766.043	7426.04757
766.234	7496.17208
766.425	7492.0478
766.615	7731.11462
766.806	7421.92182
766.997	7636.34652
767.187	7382.72286
767.378	7430.17324
767.569	7405.41795
767.759	7597.19008
767.95	7628.1037
768.141	7794.95496
768.331	7469.36272
768.522	7623.98216
768.712	7314.62173
768.903	7599.25114
769.093	7372.40603
769.284	7560.08741
769.474	7454.9254
769.665	7520.91595
769.855	7456.98794
770.046	7514.73027
770.236	7298.10878
770.426	7409.54405
770.617	7502.35834
770.807	7331.13328
770.998	7248.56147
771.188	7576.57834
771.378	7219.65302
771.569	7609.5561
771.759	7075.04551
771.949	6990.29599
772.139	7174.21668
772.33	6756.52142
772.52	7134.96756
772.71	7058.51198
772.9	7023.37346
773.09	7110.17451
773.281	7048.17779
773.471	7108.10827
773.661	7141.16532
773.851	7095.71041
774.041	6994.43099
774.231	7041.97701
774.421	6888.96031
774.611	7143.2312
774.802	6870.34172
774.992	7236.17266
775.182	7081.24521
775.372	7201.06672
775.562	6911.71386
775.752	6909.64547
775.942	6862.0662
776.131	7004.76809
776.321	6868.27287
776.511	7139.09943
776.701	7004.76809
776.891	7174.21668
777.081	6969.61964
777.271	7122.57143
777.461	6903.44016
777.651	7114.3069
777.84	6926.19197
778.03	7108.10827
778.22	6886.89166
778.41	6992.3635
778.599	6868.27287
778.789	6899.30317
778.979	6586.69707
779.169	6760.66155
779.358	6713.04453
779.548	6793.77929
779.738	6696.47925
779.927	6733.74907
780.117	6926.19197
780.307	6922.05548
780.496	6555.61487
780.686	6650.91714
780.875	6862.0662
781.065	6669.55753
781.254	6665.41538
781.444	6760.66155
781.633	6555.61487
781.823	6619.84568
782.012	6352.41612
782.202	6597.05664
782.391	6543.18054
782.581	6634.34634
782.77	6663.34427
782.96	6812.40546
783.149	6572.19269
783.338	6723.39709
783.528	6613.63076
783.717	6715.11509
783.906	6478.9232
784.096	6659.20199
784.285	6462.33704
784.474	6516.23662
784.663	6476.85001
784.853	6619.84568
785.042	6362.78882
785.231	6356.56527
785.42	6250.73281
785.61	6321.29454
785.799	6337.89337
785.988	6398.05161
786.177	6065.89877
786.366	6283.9417
786.555	6304.69421
786.744	6493.43487
786.933	6472.70356
787.122	6433.30768
787.312	6447.82293
787.501	6290.1677
787.69	6271.48907
787.879	6373.16093
788.068	6271.48907
788.257	6261.11123
788.445	6057.58725
788.634	6304.69421
788.823	6132.37737
789.012	6395.97752
789.201	5937.02787
789.39	6157.30064
789.579	5897.51704
789.768	6261.11123
789.957	5976.53019
790.145	6030.57221
790.334	5993.1602
790.523	6040.96308
790.712	6229.97421
790.9	6387.6809
791.089	6439.52864
791.278	6342.04284
791.467	6051.35336
791.655	6182.22053
791.844	6038.88495
792.033	6155.22383
792.221	5747.71449
792.41	6030.57221
792.599	5801.82397
792.787	5814.3085
792.976	5739.38853
793.164	5839.27503
793.353	5928.71051
793.541	5972.37245
793.73	5872.55844
793.918	6107.45072
794.107	5816.38918
794.295	5997.31747
794.484	5853.83727
794.672	5855.91749
794.861	5941.18641
795.049	5781.01452
795.238	5666.52035
795.426	5778.93344
795.614	5606.12196
795.803	5626.95123
795.991	5747.71449
796.179	5795.58138
796.368	5597.78959
796.556	5664.43798
796.744	5549.87115
796.932	5699.83511
797.121	5422.72278
797.309	5706.08095
797.497	5606.12196
797.685	5808.06634
797.874	5728.98056
798.062	5839.27503
798.25	5451.91211
798.438	5697.75311
798.626	5447.74249
798.814	5633.19955
799.002	5514.44516
799.19	5601.95582
799.378	5416.46732
799.566	5716.49022
799.755	5481.09684
799.943	5791.41954
800.131	5514.44516
800.318	5291.31383
800.506	5366.41606
800.694	5520.6973
800.882	5491.51883
801.07	5708.16285
801.258	5545.70374
801.446	5801.82397
801.634	5366.41606
801.822	5497.77175
802.01	5218.2687
802.197	5666.52035
802.385	5326.78255
802.573	5370.58751
802.761	5558.20569
802.949	5722.7355
803.136	5445.65764
803.324	5449.82731
803.512	5399.78507
803.699	5599.87272
803.887	5431.06306
804.075	5606.12196
804.262	5364.33029
804.45	5656.10825
804.638	5297.57351
804.825	5872.55844
805.013	5591.54007
805.201	5803.90478
805.388	5643.61295
805.576	5891.27771
805.763	5531.11706
805.951	5437.31802
806.138	5487.3501
806.326	5531.11706
806.513	5474.84335
806.701	5747.71449
806.888	5576.95702
807.075	5751.87732
807.263	5643.61295
807.45	5997.31747
807.638	5745.63303
807.825	5616.53689
808.012	5437.31802
808.2	5651.94325
808.387	5330.9549
808.574	5539.45245
808.761	5531.11706
808.949	5733.14382
809.136	5524.86527
809.323	5579.04038
809.51	5493.60316
809.698	5747.71449
809.885	5453.99689
810.072	5560.28926
810.259	5597.78959
810.446	5658.19072
810.633	5506.10864
810.82	5514.44516
811.008	5668.6027
811.195	5920.39277
811.382	5560.28926
811.569	5712.32658
811.756	5656.10825
811.943	5805.98557
812.13	5847.59645
812.317	5801.82397
812.504	5724.81721
812.691	5712.32658
812.878	5512.36107
813.064	5776.85234
813.251	5493.60316
813.438	5701.91708
813.625	5445.65764
813.812	5741.47006
813.999	5495.68747
814.186	5662.35558
814.372	5524.86527
814.559	5474.84335
814.746	5337.21324
814.933	5343.47138
815.12	5414.38212
815.306	5654.02576
815.493	5558.20569
815.68	5695.67109
815.866	5706.08095
816.053	5606.12196
816.24	5610.288
816.426	5889.19789
816.613	5599.87272
816.799	5835.11418
816.986	5785.17659
817.173	5797.66227
817.359	5472.75881
817.546	5506.10864
817.732	5489.43448
817.919	5853.83727
818.105	5560.28926
818.292	5551.95482
818.478	5497.77175
818.665	5522.7813
818.851	5649.86071
819.037	5835.11418
819.224	5476.92787
819.41	5466.50505
819.597	5568.62333
819.783	5558.20569
819.969	5626.95123
820.156	5689.42489
820.342	5618.61981
820.528	5735.22542
820.714	5387.27239
820.901	5672.76733
821.087	5451.91211
821.273	5637.36498
821.459	5551.95482
821.646	5714.40841
821.832	5487.3501
822.018	5697.75311
822.204	5293.40041
822.39	5631.1168
822.576	5347.64335
822.762	5531.11706
822.948	5272.53353
823.134	5662.35558
823.32	5262.09922
823.507	5526.94923
823.693	5230.79276
823.879	5318.43758
824.065	5109.69176
824.25	5172.33999
824.436	5090.89322
824.622	5464.42041
824.808	5358.07286
824.994	5322.61011
825.18	5030.30736
825.366	5274.62033
825.552	5266.27301
825.738	5437.31802
825.923	5193.21807
826.109	5172.33999
826.295	5076.27083
826.481	5322.61011
826.667	5101.33709
826.852	5170.25205
827.038	5220.3561
827.224	5155.63584
827.409	4990.60264
827.595	5372.6732
827.781	5241.22883
827.966	5189.04264
828.152	4996.87236
828.338	5297.57351
828.523	5036.57577
828.709	5239.14166
828.894	4921.62204
829.08	5065.82557
829.266	4911.16825
829.451	4875.62108
829.637	4919.53133
829.822	5155.63584
830.008	5082.53771
830.193	5301.74651
830.378	5042.84397
830.564	5266.27301
830.749	5084.62662
830.935	5151.45957
831.12	4850.52498
831.305	5224.53084
831.491	4934.16583
831.676	5224.53084
831.861	4710.34487
832.047	4955.07031
832.232	4708.25186
832.417	4938.34691
832.602	4689.41375
832.788	4971.79223
832.973	4787.77037
833.158	4840.0673
833.343	4616.13713
833.528	4894.441
833.714	4909.07742
833.899	4854.70789
834.084	4789.86252
834.269	4898.62295
834.454	4955.07031
834.639	5032.39686
834.824	4863.07344
835.009	4946.70879
835.194	4804.50693
835.379	4984.33271
835.564	4712.43786
835.749	4988.51269
835.934	4697.78647
836.119	4647.54476
836.304	4720.80958
836.489	4739.64465
836.674	4645.45107
836.859	4605.6668
837.044	4366.79312
837.228	4637.07611
837.413	4574.25247
837.598	5007.32143
837.783	4486.26575
837.968	4808.69085
838.152	4779.40154
838.337	4572.158
838.522	4597.29013
838.707	4674.76063
838.891	4280.81299
839.076	4687.32051
839.261	4459.02387
839.445	4724.99531
839.63	4505.12333
839.815	4511.4088
839.999	4324.85613
840.184	4670.57382
840.368	4373.08292
840.553	4593.10167
840.737	4448.54524
840.922	4360.50312
841.106	4469.50196
841.291	4280.81299
841.475	3980.65201
841.66	4415.00992
841.844	4146.52822
842.029	4329.05021
842.213	4266.12984
842.397	4295.49509
842.582	3997.45546
842.766	4276.61791
842.951	4085.65199
843.135	4303.88439
843.319	4207.38678
843.504	4251.44564
843.688	4100.34786
843.872	4192.69841
844.056	4343.72884
844.241	4419.20214
844.425	4268.2275
844.609	4377.27601
844.793	4159.1211
844.977	4154.92356
845.161	3890.3112
845.346	4007.95695
845.53	3919.72859
845.714	4066.7558
845.898	3783.11483
846.082	4209.48503
846.266	3955.44439
846.45	4301.7871
846.634	3993.25472
846.818	3978.55149
847.002	3856.68652
847.186	4062.55642
847.37	3770.50012
847.554	3923.93075
847.738	3860.88989
847.922	4043.65818
848.106	3999.5558
848.29	3781.01243
848.473	3865.09317
848.657	3869.29638
848.841	3968.04857
849.025	3900.81786
849.209	3789.42192
849.392	3926.0318
849.576	3900.81786
849.76	3789.42192
849.944	3652.72922
850.127	4007.95695
850.311	3488.59243
850.495	3591.71722
850.678	3545.42177
850.862	3713.72526
851.046	3471.75156
851.229	3774.7051
851.413	3640.10735
851.596	3610.65367
851.78	3520.16593
851.964	3738.96028
852.147	3701.10671
852.331	3732.65178
852.514	3667.45387
852.698	3589.61308
852.881	3576.98782
853.065	3738.96028
853.248	3515.95637
853.431	3947.0412
853.615	3528.58484
853.798	3627.4848
853.982	3473.85673
854.165	3482.27724
854.348	3351.72725
854.532	3520.16593
854.715	3412.79945
854.898	3515.95637
855.081	3309.59996
855.265	3377.00029
855.448	3147.34675
855.631	3372.7883
855.814	3006.0873
855.997	3427.53879
856.181	3185.28487
856.364	3162.10109
856.547	3212.68132
856.73	3377.00029
856.913	3242.18207
857.096	3427.53879
857.279	3320.13243
857.462	3305.38685
857.645	3193.71484
857.828	3227.4321
858.011	3063.02121
858.194	3286.42702
858.377	2942.81441
858.56	3473.85673
858.743	3166.31647
858.926	3393.84759
859.109	3149.45456
859.292	3065.12965
859.475	3063.02121
859.658	3296.96043
859.841	2894.29617
860.023	3183.17733
860.206	2721.25733
860.389	3044.04449
860.572	2854.21012
860.755	3058.80427
860.937	2955.47006
861.12	3079.88834
861.303	3046.15307
861.486	3275.89318
861.668	2934.37701
861.851	3041.93588
862.034	2839.44029
862.216	3130.48368
862.399	2841.55031
862.581	3041.93588
862.764	2801.45757
862.947	2938.59574
863.129	2797.23699
863.312	2765.58091
863.494	2645.26067
863.677	2702.25972
863.859	2719.14653
864.042	2845.7703
864.224	2818.33933
864.406	3075.67165
864.589	2828.88998
864.771	2955.47006
864.954	2586.1409
865.136	2765.58091
865.318	2516.45197
865.501	2704.37062
865.683	2676.92796
865.865	2868.97927
866.048	2389.71339
866.23	2516.45197
866.412	2431.96391
866.594	2410.83917
866.777	2423.51414
866.959	2634.70427
867.141	2370.6993
867.323	2626.25894
867.505	2444.63824
867.687	2482.65887
867.869	2260.82449
868.052	2552.35392
868.234	2258.71126
868.416	2527.01171
868.598	2343.23306
868.78	2681.15005
868.962	2478.43453
869.144	2672.70582
869.326	2465.76125
869.508	2687.48309
869.69	2567.1361
869.872	2660.03909
870.054	2332.66867
870.236	2436.18873
870.417	2330.55577
870.599	2448.86293
870.781	2493.21952
870.963	2651.59435
871.145	2529.12363
871.327	2653.70555
871.508	2235.46516
871.69	2480.54671
871.872	2368.58657
872.054	2442.52587
872.235	2212.21799
872.417	2508.00397
872.599	2408.72664
872.78	2552.35392
872.962	2309.42617
873.144	2450.97525
873.325	2235.46516
873.507	2377.03742
873.689	2138.24291
873.87	2567.1361
874.052	2267.16412
874.233	2415.0642
874.415	2203.76422
874.596	2524.89979
874.778	2229.12513
874.959	2351.68439
875.141	2129.78798
875.322	2419.28919
875.503	2197.4238
875.685	2248.14499
875.866	2136.12919
876.048	2201.65075
876.229	2087.51149
876.41	2186.85625
876.592	2195.3103
876.773	2381.26278
876.954	2034.66174
877.136	2358.02278
877.317	2243.91842
877.498	2370.6993
877.679	2383.37545
877.86	2508.00397
878.042	2197.4238
878.223	2362.24833
878.404	2322.10404
878.585	2434.07632
878.766	2254.48478
878.947	2594.58717
879.128	2290.40871
879.309	2484.77103
879.49	2438.30112
879.672	2600.92174
879.853	2339.00733
880.034	2567.1361
880.215	2281.95626
880.396	2440.4135
880.576	2398.16383
880.757	2634.70427
880.938	2298.86101
881.119	2508.00397
881.3	2364.36109
881.481	2531.23553
881.662	2427.73904
881.843	2436.18873
882.023	2381.26278
882.204	2476.32235
882.385	2309.42617
882.566	2343.23306
882.747	2119.21914
882.927	2246.03171
883.108	2106.53629
883.289	2368.58657
883.469	2180.51563
883.65	2425.6266
883.831	2370.6993
884.011	2440.4135
884.192	2334.78157
884.373	2450.97525
884.553	2311.53917
884.734	2436.18873
884.914	2307.31315
885.095	2343.23306
885.275	2273.50366
885.456	2448.86293
885.636	2279.84312
885.817	2345.34591
885.997	2081.16976
886.178	2478.43453
886.358	2246.03171
886.538	2429.85148
886.719	2237.57849
886.899	2575.5828
887.08	2508.00397
887.26	2482.65887
887.44	2366.47383
887.621	2617.8134
887.801	2319.99109
887.981	2442.52587
888.161	2300.97406
888.342	2366.47383
888.522	2313.65216
888.702	2349.57157
888.882	2450.97525
889.062	2427.73904
889.242	2093.85316
889.423	2453.08757
889.603	2066.37212
889.783	2370.6993
889.963	2165.72055
890.143	2406.6141
890.323	2172.06135
890.503	2425.6266
890.683	2252.37152
890.863	2377.03742
891.043	2188.96978
891.223	2330.55577
891.403	2339.00733
891.583	2364.36109
891.763	2296.74795
891.943	2284.06939
892.122	2127.67423
892.302	2385.48811
892.482	2351.68439
892.662	2237.57849
892.842	2216.44483
893.022	2366.47383
893.201	2165.72055
893.381	2427.73904
893.561	2142.47033
893.741	2389.71339
893.92	2199.53728
894.1	2292.5218
894.28	2315.76515
894.459	2383.37545
894.639	2203.76422
894.819	2343.23306
894.998	2203.76422
895.178	2353.7972
895.357	2229.12513
895.537	2203.76422
895.716	2110.76394
895.896	2339.00733
896.075	2041.00394
896.255	2292.5218
896.434	2169.94776
896.614	2427.73904
896.793	2043.118
896.973	2203.76422
897.152	2125.56047
897.331	2328.44285
897.511	2138.24291
897.69	2258.71126
897.87	1969.12216
898.049	2106.53629
898.228	1863.40103
898.407	2098.0809
898.587	1831.68213
898.766	2074.82796
898.945	1958.55069
899.124	2157.26603
899.304	1950.09341
899.483	2053.68816
899.662	1873.97375
899.841	2110.76394
900.02	1825.33822
900.199	2095.96703
900.378	1732.28989
900.557	1876.08828
900.737	1768.24129
900.916	1886.66085
901.095	1668.84387
901.274	1869.74468
901.453	1725.94542
901.632	1977.57923
901.811	1569.44047
901.989	1890.88984
902.168	1586.3605
902.347	1842.25521
902.526	1467.91872
902.705	1541.94521
902.884	1622.3152
903.063	1793.61808
903.242	1554.63536
903.42	1554.63536
903.599	1429.84778
903.778	1596.93547
903.957	1560.98041
904.135	1603.28043
904.314	1396.00703
904.493	1541.94521
904.672	1383.31679
904.85	1470.03377
905.029	1396.00703
905.207	1569.44047
905.386	1385.43182
905.565	1520.79488
905.743	1311.40622
905.922	1332.55621
906.1	1165.47798
906.279	1345.24629
906.457	1207.77453
906.636	1516.5648
906.814	1104.15084
906.993	1254.30227
907.171	1070.31686
907.35	1319.8662
907.528	1154.90408
907.707	1319.8662
907.885	1125.29771
908.063	1317.7512
908.242	1123.183
908.42	1357.93641
908.598	1125.29771
908.777	1224.69354
908.955	1116.8389
909.133	1250.07242
909.311	1112.60953
909.49	1089.34831
909.668	937.11002
909.846	1114.72421
910.024	1085.11906
910.202	1197.20026
910.38	1095.69222
910.559	1040.71324
910.737	1023.79738
910.915	1085.11906
911.093	1089.34831
911.271	1214.11914
911.449	1104.15084
911.627	1205.65967
911.805	1063.97313
911.983	1171.82237
912.161	1112.60953
912.339	1252.18734
912.517	1049.1713
912.695	1332.55621
912.872	1131.64186
913.05	1239.49783
913.228	1072.43144
913.406	1218.34889
913.584	1184.51125
913.762	1247.95749
913.939	1188.74091
914.117	1207.77453
914.295	970.93789
914.473	1044.94226
914.65	1061.85857
914.828	1241.61274
915.006	1044.94226
915.184	1176.05198
915.361	1154.90408
915.539	1199.31511
915.716	985.73814
915.894	1070.31686
916.072	1131.64186
916.249	1144.33028
916.427	1072.43144
916.604	1108.38017
916.782	975.1665
916.959	1066.0877
917.137	954.02373
917.314	1078.77523
917.492	1066.0877
917.669	1011.11074
917.847	896.94188
918.024	1019.56848
918.201	877.91585
918.379	1061.85857
918.556	896.94188
918.733	903.28403
918.911	835.63822
919.088	934.99584
919.265	759.54766
919.442	977.28082
919.62	765.88806
919.797	791.25055
919.974	934.99584
920.151	954.02373
920.328	799.70503
920.506	1023.79738
920.683	793.36416
920.86	892.71381
921.037	708.82785
921.214	825.06936
921.391	584.16957
921.568	892.71381
921.745	837.75202
921.922	827.18311
922.099	776.4556
922.276	858.89049
922.453	858.89049
922.63	799.70503
922.807	755.32078
922.984	778.56913
923.161	715.16749
923.338	732.07367
923.514	628.53462
923.691	778.56913
923.868	617.971
924.045	757.43422
924.222	613.74564
924.399	666.56615
924.575	643.32419
924.752	740.52702
924.929	694.03574
925.105	656.00144
925.282	698.262
925.459	744.75376
925.635	675.01812
925.812	863.11829
925.989	617.971
926.165	734.18699
926.342	531.3616
926.518	791.25055
926.695	495.45715
926.871	666.56615
927.048	694.03574
927.224	649.66276
927.401	516.57691
927.577	527.13733
927.754	499.68099
927.93	643.32419
928.107	484.89782
928.283	546.14697
928.459	436.32974
928.636	643.32419
928.812	558.82068
928.988	624.30913
929.165	482.78599
929.341	468.00366
929.517	495.45715
929.693	579.94462
929.87	417.32708
930.046	554.59606
930.222	487.00965
930.398	569.38248
930.574	495.45715
930.751	525.02522
930.927	406.7706
931.103	512.35284
931.279	440.55273
931.455	415.21575
931.631	410.99314
931.807	383.5478
931.983	381.43673
932.159	541.92251
932.335	463.78027
932.511	444.77578
932.687	404.65936
932.863	522.91312
933.039	432.10681
933.215	320.22329
933.391	345.55122
933.566	320.22329
933.742	394.10337
933.918	410.99314
934.094	292.78759
934.27	231.59621
934.445	267.46509
934.621	366.65975
934.797	337.1083
934.973	288.56699
935.148	208.38993
935.324	259.02486
935.5	275.90563
935.675	318.11274
935.851	170.42125
936.027	250.58493
936.202	235.81579
936.378	193.62355
936.553	216.8283
936.729	161.98467
936.904	221.0476
937.08	301.22902
937.255	134.5681
937.431	126.13296
937.606	94.50427
937.782	176.7489
937.957	151.43941
938.133	124.02423
938.308	151.43941
938.483	212.60907
938.659	136.67694
938.834	140.89469
939.009	90.28749
939.185	128.24171
939.36	58.66448
939.535	174.63967
939.71	121.91552
939.886	39.69314
940.061	94.50427
940.236	117.69816
940.411	58.66448
940.586	151.43941
940.761	98.72115
940.937	60.77252
941.112	92.39587
941.287	67.09678
941.462	90.28749
941.637	18.61609
941.812	75.52945
941.987	35.47754
942.162	107.15516
942.337	96.6127
942.512	81.85419
942.687	83.96248
942.862	98.72115
943.037	113.4809
943.212	98.72115
943.386	48.12461
943.561	31.26204
943.736	81.85419
943.911	145.11251
944.086	14.40096
944.26	-2.45859
944.435	107.15516
944.61	140.89469
944.785	16.50851
944.959	134.5681
945.134	86.0708
945.309	69.20492
945.483	71.31307
945.658	151.43941
945.833	64.98867
946.007	27.04663
946.182	52.34049
946.357	100.82962
946.531	67.09678
946.706	16.50851
946.88	5.97099
947.055	56.55646
947.229	96.6127
947.404	81.85419
947.578	52.34049
947.752	124.02423
947.927	14.40096
948.101	124.02423
948.276	100.82962
948.45	94.50427
948.624	88.17913
948.799	94.50427
948.973	64.98867
949.147	109.26371
949.321	31.26204
949.496	64.98867
949.67	67.09678
949.844	126.13296
950.018	109.26371
950.193	98.72115
950.367	128.24171
950.541	56.55646
950.715	71.31307
950.889	132.45929
951.063	109.26371
951.237	56.55646
951.411	90.28749
951.585	161.98467
951.759	73.42125
951.933	124.02423
952.107	109.26371
952.281	166.20292
952.455	172.53045
952.629	98.72115
952.803	100.82962
952.977	151.43941
953.151	64.98867
953.325	1.75615
953.499	48.12461
953.672	132.45929
953.846	117.69816
954.02	60.77252
954.194	168.31207
954.368	39.69314
954.541	92.39587
954.715	14.40096
954.889	69.20492
955.062	50.23254
955.236	132.45929
955.41	60.77252
955.583	50.23254
955.757	102.93811
955.93	77.63768
956.104	124.02423
956.278	100.82962
956.451	115.58952
956.625	43.90883
956.798	31.26204
956.972	-10.88778
957.145	128.24171
957.319	39.69314
957.492	69.20492
957.665	81.85419
957.839	92.39587
958.012	107.15516
958.185	75.52945
958.359	27.04663
958.532	77.63768
958.705	128.24171
958.879	98.72115
959.052	107.15516
959.225	50.23254
959.398	102.93811
959.572	20.72369
959.745	94.50427
959.918	92.39587
960.091	121.91552
960.264	98.72115
960.438	86.0708
960.611	98.72115
960.784	75.52945
960.957	14.40096
961.13	37.58533
961.303	96.6127
961.476	77.63768
961.649	60.77252
961.822	111.37229
961.995	111.37229
962.168	58.66448
962.341	54.44846
962.514	58.66448
962.686	71.31307
962.859	113.4809
963.032	126.13296
963.205	18.61609
963.378	60.77252
963.551	92.39587
963.723	98.72115
963.896	77.63768
964.069	5.97099
964.242	69.20492
964.414	115.58952
964.587	83.96248
964.76	140.89469
964.932	149.33043
965.105	128.24171
965.278	92.39587
965.45	98.72115
965.623	100.82962
965.795	67.09678
965.968	90.28749
966.14	24.93896
966.313	16.50851
966.485	60.77252
966.658	58.66448
966.83	27.04663
967.003	64.98867
967.175	75.52945
967.348	-17.20943
967.52	115.58952
967.692	90.28749
967.865	67.09678
968.037	90.28749
968.209	64.98867
968.382	143.00359
968.554	75.52945
968.726	107.15516
968.898	8.07845
969.071	35.47754
969.243	77.63768
969.415	48.12461
969.587	83.96248
969.759	111.37229
969.932	58.66448
970.104	43.90883
970.276	134.5681
970.448	29.15432
970.62	54.44846
970.792	12.29343
970.964	-8.78052
971.136	56.55646
971.308	33.36978
971.48	117.69816
971.652	27.04663
971.824	35.47754
971.996	31.26204
972.168	115.58952
972.339	31.26204
972.511	75.52945
972.683	12.29343
972.855	102.93811
973.027	31.26204
973.199	69.20492
973.37	81.85419
973.542	124.02423
973.714	41.80097
973.886	22.83131
974.057	33.36978
974.229	77.63768
974.401	81.85419
974.572	100.82962
974.744	8.07845
974.915	56.55646
975.087	39.69314
975.259	48.12461
975.43	92.39587
975.602	8.07845
975.773	52.34049
975.945	39.69314
976.116	58.66448
976.288	50.23254
976.459	60.77252
976.63	22.83131
976.802	75.52945
976.973	67.09678
977.145	-2.45859
977.316	130.35049
977.487	73.42125
977.659	67.09678
977.83	50.23254
978.001	67.09678
978.172	92.39587
978.344	35.47754
978.515	69.20492
978.686	56.55646
978.857	52.34049
979.028	115.58952
979.2	107.15516
979.371	83.96248
979.542	43.90883
979.713	48.12461
979.884	-19.31659
980.055	14.40096
980.226	46.01671
980.397	67.09678
980.568	60.77252
980.739	81.85419
980.91	117.69816
981.081	31.26204
981.252	41.80097
981.423	67.09678
981.594	48.12461
981.765	90.28749
981.936	12.29343
982.106	27.04663
982.277	98.72115
982.448	-57.24133
982.619	64.98867
982.79	33.36978
982.96	-2.45859
983.131	92.39587
983.302	24.93896
983.472	56.55646
983.643	-0.35123
983.814	136.67694
983.984	14.40096
984.155	98.72115
984.326	98.72115
984.496	18.61609
984.667	1.75615
984.837	-15.10224
985.008	111.37229
985.178	22.83131
985.349	73.42125
985.519	64.98867
985.69	56.55646
985.86	48.12461
986.031	22.83131
986.201	83.96248
986.371	10.18593
986.542	12.29343
986.712	60.77252
986.882	58.66448
987.053	24.93896
987.223	48.12461
987.393	39.69314
987.563	33.36978
987.734	10.18593
987.904	107.15516
988.074	73.42125
988.244	18.61609
988.414	24.93896
988.585	-19.31659
988.755	37.58533
988.925	71.31307
989.095	43.90883
989.265	62.88058
989.435	50.23254
989.605	111.37229
989.775	18.61609
989.945	54.44846
990.115	35.47754
990.285	31.26204
990.455	107.15516
990.625	-6.67324
990.795	5.97099
990.965	86.0708
991.134	24.93896
991.304	50.23254
991.474	-34.06606
991.644	67.09678
991.814	102.93811
991.984	31.26204
992.153	14.40096
992.323	41.80097
992.493	39.69314
992.662	-10.88778
992.832	27.04663
993.002	48.12461
993.171	56.55646
993.341	16.50851
993.511	-31.95906
993.68	24.93896
993.85	12.29343
994.019	67.09678
994.189	94.50427
994.358	-17.20943
994.528	39.69314
994.697	31.26204
994.867	14.40096
995.036	75.52945
995.206	-0.35123
995.375	54.44846
995.544	-25.63794
995.714	10.18593
995.883	-34.06606
996.052	69.20492
996.222	52.34049
996.391	3.86356
996.56	24.93896
996.73	-6.67324
996.899	39.69314
997.068	22.83131
997.237	48.12461
997.406	-8.78052
997.576	39.69314
997.745	67.09678
997.914	41.80097
998.083	50.23254
998.252	29.15432
998.421	1.75615
998.59	16.50851
998.759	16.50851
998.928	64.98867
999.097	14.40096
999.266	33.36978
999.435	58.66448
999.604	81.85419
999.773	33.36978
999.942	60.77252
1000.111	12.29343
1000.28	-15.10224
1000.448	22.83131
1000.617	75.52945
1000.786	48.12461
1000.955	22.83131
1001.124	-23.53085
1001.292	12.29343
1001.461	31.26204
1001.63	86.0708
1001.798	58.66448
1001.967	22.83131
1002.136	8.07845
1002.304	-10.88778
1002.473	31.26204
1002.642	-4.56592
1002.81	107.15516
1002.979	50.23254
1003.147	14.40096
1003.316	-40.38689
1003.484	-6.67324
1003.653	5.97099
1003.821	73.42125
1003.99	100.82962
1004.158	33.36978
1004.327	-2.45859
1004.495	-23.53085
1004.663	-31.95906
1004.832	39.69314
1005	5.97099
1005.168	94.50427
1005.337	18.61609
1005.505	83.96248
1005.673	134.5681
1005.842	-10.88778
1006.01	27.04663
1006.178	33.36978
1006.346	5.97099
1006.514	-36.17303
1006.683	90.28749
1006.851	-27.74501
1007.019	8.07845
1007.187	35.47754
1007.355	-42.49378
1007.523	22.83131
1007.691	43.90883
1007.859	24.93896
1008.027	50.23254
1008.195	48.12461
1008.363	14.40096
1008.531	46.01671
1008.699	10.18593
1008.867	43.90883
1009.035	41.80097
1009.203	33.36978
1009.37	43.90883
1009.538	14.40096
1009.706	-19.31659
1009.874	67.09678
1010.042	98.72115
1010.209	73.42125
1010.377	77.63768
1010.545	24.93896
1010.713	27.04663
1010.88	18.61609
1011.048	81.85419
1011.216	-23.53085
1011.383	12.29343
1011.551	67.09678
1011.718	48.12461
1011.886	43.90883
1012.054	64.98867
1012.221	43.90883
1012.389	41.80097
1012.556	5.97099
1012.724	-50.9211
1012.891	-21.42373
1013.058	67.09678
1013.226	-15.10224
1013.393	5.97099
1013.561	39.69314
1013.728	92.39587
1013.895	3.86356
1014.063	33.36978
1014.23	43.90883
1014.397	-23.53085
1014.565	69.20492
1014.732	5.97099
1014.899	102.93811
1015.066	27.04663
1015.233	102.93811
1015.401	46.01671
1015.568	22.83131
1015.735	-19.31659
1015.902	-10.88778
1016.069	50.23254
1016.236	81.85419
1016.403	75.52945
1016.57	-53.02787
1016.737	48.12461
1016.904	18.61609
1017.071	64.98867
1017.238	1.75615
1017.405	22.83131
1017.572	-15.10224
1017.739	-65.66794
1017.906	-65.66794
1018.073	-57.24133
1018.24	16.50851
1018.407	10.18593
1018.573	35.47754
1018.74	124.02423
1018.907	56.55646
1019.074	-23.53085
1019.241	14.40096
1019.407	27.04663
1019.574	31.26204
1019.741	-19.31659
1019.907	94.50427
1020.074	1.75615
1020.241	-19.31659
1020.407	1.75615
1020.574	33.36978
1020.74	48.12461
1020.907	-15.10224
1021.073	10.18593
1021.24	48.12461
1021.406	124.02423
1021.573	5.97099
1021.739	37.58533
1021.906	-25.63794
1022.072	-10.88778
1022.239	31.26204
1022.405	41.80097
1022.571	27.04663
1022.738	-55.13461
1022.904	-8.78052
1023.07	-23.53085
1023.237	18.61609
1023.403	-6.67324
1023.569	-4.56592
1023.735	-4.56592
1023.902	-8.78052
1024.068	14.40096
1024.234	73.42125
1024.4	16.50851
1024.566	-8.78052
1024.732	18.61609
1024.898	56.55646
1025.065	-31.95906
1025.231	1.75615
1025.397	98.72115
1025.563	46.01671
1025.729	22.83131
1025.895	-34.06606
1026.061	-19.31659
1026.227	86.0708
1026.392	115.58952
1026.558	24.93896
1026.724	83.96248
1026.89	-61.45468
1027.056	27.04663
1027.222	48.12461
1027.388	5.97099
1027.553	-17.20943
1027.719	56.55646
1027.885	43.90883
1028.051	18.61609
1028.216	83.96248
1028.382	27.04663
1028.548	5.97099
1028.713	90.28749
1028.879	56.55646
1029.045	35.47754
1029.21	31.26204
1029.376	-0.35123
1029.541	41.80097
1029.707	50.23254
1029.873	-48.81431
1030.038	8.07845
1030.204	16.50851
1030.369	5.97099
1030.534	-40.38689
1030.7	-55.13461
1030.865	5.97099
1031.031	16.50851
1031.196	35.47754
1031.361	-38.27997
1031.527	12.29343
1031.692	24.93896
1031.857	-0.35123
1032.023	-15.10224
1032.188	67.09678
1032.353	-0.35123
1032.518	5.97099
1032.684	22.83131
1032.849	-19.31659
1033.014	64.98867
1033.179	81.85419
1033.344	41.80097
1033.509	-19.31659
1033.674	1.75615
1033.839	29.15432
1034.004	64.98867
1034.17	39.69314
1034.335	-19.31659
1034.5	-42.49378
1034.664	31.26204
1034.829	-34.06606
1034.994	-10.88778
1035.159	109.26371
1035.324	29.15432
1035.489	31.26204
1035.654	-10.88778
1035.819	-36.17303
1035.984	16.50851
1036.148	5.97099
1036.313	27.04663
1036.478	27.04663
1036.643	-0.35123
1036.807	48.12461
1036.972	-19.31659
1037.137	-50.9211
1037.301	5.97099
1037.466	-71.98763
1037.631	29.15432
1037.795	31.26204
1037.96	48.12461
1038.124	8.07845
1038.289	24.93896
1038.454	-82.51994
1038.618	64.98867
1038.783	56.55646
1038.947	-0.35123
1039.111	41.80097
1039.276	-23.53085
1039.44	41.80097
1039.605	10.18593
1039.769	62.88058
1039.933	56.55646
1040.098	5.97099
1040.262	-65.66794
1040.426	8.07845
1040.591	16.50851
1040.755	10.18593
1040.919	-44.60065
1041.083	-42.49378
1041.248	8.07845
1041.412	14.40096
1041.576	33.36978
1041.74	-6.67324
1041.904	-2.45859
1042.068	33.36978
1042.232	31.26204
1042.397	-19.31659
1042.561	18.61609
1042.725	31.26204
1042.889	14.40096
1043.053	37.58533
1043.217	8.07845
1043.381	-27.74501
1043.544	10.18593
1043.708	86.0708
1043.872	81.85419
1044.036	-19.31659
1044.2	83.96248
1044.364	69.20492
1044.528	-4.56592
1044.691	43.90883
1044.855	67.09678
1045.019	39.69314
1045.183	-101.47647
1045.346	-10.88778
1045.51	-10.88778
1045.674	39.69314
1045.837	48.12461
1046.001	1.75615
1046.165	48.12461
1046.328	64.98867
1046.492	83.96248
1046.655	31.26204
1046.819	22.83131
1046.983	-25.63794
1047.146	22.83131
1047.31	-27.74501
1047.473	58.66448
1047.636	35.47754
1047.8	20.72369
1047.963	10.18593
1048.127	-27.74501
1048.29	22.83131
