Data from mixed_try6.1_USB4F045381__4__00288.txt Node

Date: Thu Apr 03 20:31:31 EDT 2025
User: mmckonesweet
Spectrometer: USB4F04538
Trigger mode: 4
Integration Time (sec): 2.700000E-3
Scans to average: 1
Electric dark correction enabled: true
Nonlinearity correction enabled: true
Boxcar width: 0
XAxis mode: Wavelengths
Number of Pixels in Spectrum: 3648
>>>>>Begin Spectral Data<<<<<
345.52	-39.50901
345.736	-39.50901
345.952	-39.50901
346.168	-7.90249
346.384	11.06405
346.6	-37.40208
346.816	-24.75999
347.032	-16.33143
347.248	-31.08114
347.464	34.24801
347.68	8.95656
347.896	38.46358
348.112	17.38667
348.328	-54.2568
348.544	38.46358
348.76	-14.22423
348.975	40.5714
349.191	-7.90249
349.407	8.95656
349.623	27.92483
349.839	-56.36353
350.055	-16.33143
350.27	-35.29512
350.486	44.78711
350.702	-47.93647
350.918	38.46358
351.133	-47.93647
351.349	-33.18815
351.565	-7.90249
351.781	-16.33143
351.996	13.17157
352.212	-14.22423
352.428	11.06405
352.644	17.38667
352.859	89.05761
353.075	19.49425
353.291	-41.61591
353.506	4.74166
353.722	-16.33143
353.938	55.32679
354.153	-52.15005
354.369	-47.93647
354.584	8.95656
354.8	-45.82964
355.016	38.46358
355.231	36.35578
355.447	-73.21644
355.662	-39.50901
355.878	38.46358
356.093	-16.33143
356.309	-62.68356
356.524	-47.93647
356.74	17.38667
356.955	51.11085
357.171	-58.47023
357.386	17.38667
357.602	17.38667
357.817	36.35578
358.033	-26.86706
358.248	19.49425
358.464	32.14026
358.679	-58.47023
358.895	-12.11701
359.11	13.17157
359.325	34.24801
359.541	-47.93647
359.756	89.05761
359.972	-71.10991
360.187	-28.97412
360.402	13.17157
360.618	42.67924
360.833	-5.79519
361.048	30.03253
361.264	4.74166
361.479	-7.90249
361.694	67.97517
361.909	-16.33143
362.125	-26.86706
362.34	32.14026
362.555	-64.79019
362.77	13.17157
362.986	-54.2568
363.201	51.11085
363.416	-54.2568
363.631	-7.90249
363.847	30.03253
364.062	-3.68787
364.277	17.38667
364.492	0.52684
364.707	-33.18815
364.922	27.92483
365.138	-31.08114
365.353	51.11085
365.568	-14.22423
365.783	57.4348
365.998	0.52684
366.213	8.95656
366.428	8.95656
366.643	42.67924
366.858	-58.47023
367.073	-75.32294
367.288	-16.33143
367.503	44.78711
367.718	-22.65289
367.933	15.2791
368.148	17.38667
368.363	65.86705
368.578	-33.18815
368.793	30.03253
369.008	53.21881
369.223	40.5714
369.438	42.67924
369.653	-20.54576
369.868	-24.75999
370.083	-66.89679
370.298	44.78711
370.513	-24.75999
370.728	8.95656
370.943	-33.18815
371.157	-50.04327
371.372	-14.22423
371.587	0.52684
371.802	74.29967
372.017	-5.79519
372.232	-77.42941
372.446	38.46358
372.661	51.11085
372.876	53.21881
373.091	6.8491
373.306	51.11085
373.52	-7.90249
373.735	-16.33143
373.95	11.06405
374.165	25.81715
374.379	40.5714
374.594	25.81715
374.809	2.63424
375.023	15.2791
375.238	74.29967
375.453	-5.79519
375.667	38.46358
375.882	-37.40208
376.097	-10.00976
376.311	-7.90249
376.526	13.17157
376.741	15.2791
376.955	61.65088
377.17	-3.68787
377.384	36.35578
377.599	-60.57691
377.813	21.60186
378.028	17.38667
378.242	23.70949
378.457	36.35578
378.672	67.97517
378.886	15.2791
379.101	19.49425
379.315	-14.22423
379.53	93.27437
379.744	-3.68787
379.958	13.17157
380.173	-3.68787
380.387	23.70949
380.602	84.84094
380.816	-20.54576
381.031	-87.96139
381.245	-12.11701
381.459	-5.79519
381.674	82.73264
381.888	-16.33143
382.103	8.95656
382.317	-14.22423
382.531	32.14026
382.746	84.84094
382.96	53.21881
383.174	30.03253
383.388	36.35578
383.603	59.54283
383.817	30.03253
384.031	42.67924
384.246	2.63424
384.46	34.24801
384.674	32.14026
384.888	-75.32294
385.103	53.21881
385.317	27.92483
385.531	0.52684
385.745	13.17157
385.959	25.81715
386.174	19.49425
386.388	17.38667
386.602	76.40788
386.816	-39.50901
387.03	44.78711
387.244	76.40788
387.458	34.24801
387.672	51.11085
387.887	-7.90249
388.101	0.52684
388.315	-3.68787
388.529	25.81715
388.743	-22.65289
388.957	0.52684
389.171	-3.68787
389.385	34.24801
389.599	-3.68787
389.813	72.19148
390.027	61.65088
390.241	-14.22423
390.455	-31.08114
390.669	-5.79519
390.883	13.17157
391.097	59.54283
391.311	17.38667
391.525	30.03253
391.738	27.92483
391.952	-35.29512
392.166	-83.74867
392.38	-16.33143
392.594	30.03253
392.808	17.38667
393.022	19.49425
393.236	97.49122
393.449	2.63424
393.663	51.11085
393.877	17.38667
394.091	30.03253
394.305	-31.08114
394.518	-7.90249
394.732	27.92483
394.946	-37.40208
395.16	-3.68787
395.373	38.46358
395.587	4.74166
395.801	25.81715
396.015	38.46358
396.228	-24.75999
396.442	25.81715
396.656	-37.40208
396.869	76.40788
397.083	91.16598
397.297	61.65088
397.51	49.00291
397.724	19.49425
397.938	57.4348
398.151	44.78711
398.365	86.94927
398.578	25.81715
398.792	21.60186
399.005	-7.90249
399.219	-3.68787
399.433	17.38667
399.646	-14.22423
399.86	76.40788
400.073	27.92483
400.287	63.75895
400.5	-22.65289
400.714	2.63424
400.927	15.2791
401.141	46.895
401.354	11.06405
401.567	101.70815
401.781	-62.68356
401.994	84.84094
402.208	-14.22423
402.421	84.84094
402.635	80.62436
402.848	4.74166
403.061	-3.68787
403.275	-18.43861
403.488	19.49425
403.701	110.14229
403.915	-22.65289
404.128	-35.29512
404.341	8.95656
404.555	-1.58052
404.768	-5.79519
404.981	103.81665
405.195	99.59967
405.408	59.54283
405.621	0.52684
405.834	0.52684
406.048	17.38667
406.261	112.25088
406.474	59.54283
406.687	-5.79519
406.9	76.40788
407.114	11.06405
407.327	-31.08114
407.54	38.46358
407.753	152.31817
407.966	-22.65289
408.179	59.54283
408.392	53.21881
408.605	89.05761
408.819	25.81715
409.032	53.21881
409.245	93.27437
409.458	55.32679
409.671	97.49122
409.884	108.03372
410.097	53.21881
410.31	51.11085
410.523	25.81715
410.736	13.17157
410.949	63.75895
411.162	-37.40208
411.375	36.35578
411.588	4.74166
411.801	-18.43861
412.014	61.65088
412.227	42.67924
412.44	34.24801
412.653	78.51611
412.865	36.35578
413.078	95.38278
413.291	70.08331
413.504	101.70815
413.717	103.81665
413.93	25.81715
414.143	-1.58052
414.356	42.67924
414.568	93.27437
414.781	27.92483
414.994	42.67924
415.207	80.62436
415.42	44.78711
415.632	25.81715
415.845	84.84094
416.058	76.40788
416.271	80.62436
416.483	19.49425
416.696	13.17157
416.909	154.42718
417.121	15.2791
417.334	72.19148
417.547	67.97517
417.759	44.78711
417.972	76.40788
418.185	51.11085
418.397	78.51611
418.61	78.51611
418.823	17.38667
419.035	127.01161
419.248	44.78711
419.46	63.75895
419.673	46.895
419.885	19.49425
420.098	95.38278
420.311	114.35949
420.523	97.49122
420.736	137.55563
420.948	36.35578
421.161	105.92518
421.373	101.70815
421.586	91.16598
421.798	70.08331
422.01	110.14229
422.223	99.59967
422.435	80.62436
422.648	55.32679
422.86	63.75895
423.073	38.46358
423.285	131.22915
423.497	15.2791
423.71	89.05761
423.922	95.38278
424.134	97.49122
424.347	91.16598
424.559	112.25088
424.771	65.86705
424.984	135.44678
425.196	13.17157
425.408	143.8823
425.621	67.97517
425.833	46.895
426.045	101.70815
426.257	135.44678
426.47	112.25088
426.682	101.70815
426.894	84.84094
427.106	93.27437
427.318	65.86705
427.531	51.11085
427.743	78.51611
427.955	63.75895
428.167	78.51611
428.379	114.35949
428.591	72.19148
428.804	65.86705
429.016	95.38278
429.228	139.6645
429.44	97.49122
429.652	154.42718
429.864	219.81696
430.076	152.31817
430.288	84.84094
430.5	82.73264
430.712	200.83082
430.924	186.06495
431.136	76.40788
431.348	103.81665
431.56	152.31817
431.772	171.30008
431.984	152.31817
432.196	135.44678
432.408	150.20917
432.62	207.15936
432.832	131.22915
433.044	181.84631
433.256	127.01161
433.468	171.30008
433.679	202.94032
433.891	137.55563
434.103	148.10019
434.315	162.86346
434.527	181.84631
434.739	202.94032
434.95	152.31817
435.162	266.2342
435.374	219.81696
435.586	198.72135
435.798	219.81696
436.009	245.1343
436.221	177.62776
436.433	232.47528
436.645	264.12413
436.856	205.04983
437.068	177.62776
437.28	228.25576
437.491	243.02442
437.703	253.57403
437.915	240.91455
438.126	281.00526
438.338	188.1743
438.55	262.01407
438.761	259.90403
438.973	365.42837
439.184	173.40929
439.396	365.42837
439.608	169.1909
439.819	401.31658
440.031	228.25576
440.242	306.32919
440.454	331.65572
440.665	287.336
440.877	274.6747
441.088	228.25576
441.3	329.54508
441.511	346.43071
441.723	245.1343
441.934	230.36551
442.146	373.87222
442.357	278.89506
442.569	314.77108
442.78	308.43963
442.991	350.65229
443.203	306.32919
443.414	407.65029
443.626	407.65029
443.837	407.65029
444.048	405.53904
444.26	356.9848
444.471	373.87222
444.682	354.87394
444.894	375.98323
445.105	413.98415
445.316	456.21352
445.528	397.09419
445.739	407.65029
445.95	380.20529
446.161	420.31815
446.373	456.21352
446.584	451.9903
446.795	447.76714
447.006	445.65559
447.217	384.42741
447.429	422.42952
447.64	477.33052
447.851	390.76073
448.062	473.107
448.273	490.00145
448.484	384.42741
448.695	449.87871
448.907	509.00883
449.118	504.78487
449.329	424.5409
449.54	430.87514
449.751	365.42837
449.962	416.09547
450.173	525.90526
450.384	559.70082
450.595	599.83753
450.806	608.28796
451.017	574.48747
451.228	521.68107
451.439	658.99475
451.65	570.26265
451.861	582.93728
452.072	627.30218
452.283	591.3873
452.494	633.64047
452.705	578.71235
452.915	644.20454
453.126	642.09171
453.337	625.18944
453.548	633.64047
453.759	775.2227
453.97	887.25261
454.181	847.08807
454.391	794.24483
454.602	768.88217
454.813	747.74772
455.024	853.42963
455.235	796.35845
455.445	785.79045
455.656	870.34086
455.867	889.36662
456.078	849.20191
456.288	819.60887
456.499	902.05083
456.71	811.15404
456.921	830.17761
457.131	988.73347
457.342	929.53424
457.553	954.90467
457.763	870.34086
457.974	997.19094
458.184	906.27896
458.395	1166.35914
458.606	1052.16689
458.816	1140.98193
459.027	1200.1963
459.237	1140.98193
459.448	1170.58874
459.659	1126.17884
459.869	1286.90772
460.08	1411.69361
460.29	1217.11521
460.501	1405.34847
460.711	1312.28747
460.922	1354.58762
461.132	1458.22473
461.343	1354.58762
461.553	1329.20745
461.764	1528.02125
461.974	1428.614
462.184	1521.67614
462.395	1530.13629
462.605	1591.47174
462.816	1528.02125
463.026	1728.94142
463.236	1591.47174
463.447	1783.92563
463.657	1604.16167
463.867	1997.48817
464.078	1876.96933
464.288	2117.9861
464.498	2056.68301
464.709	2054.569
464.919	1993.25977
465.129	2128.55496
465.339	2054.569
465.55	2113.7585
465.76	1931.94516
465.97	2048.22693
466.18	2088.39228
466.391	2432.84408
466.601	2077.8227
466.811	2487.76322
467.021	2415.94441
467.231	2587.02073
467.441	2413.83191
467.651	2460.30458
467.862	2597.57851
468.072	2770.68126
468.282	2646.14035
468.492	2688.36266
468.702	2874.07798
468.912	3070.225
469.122	2753.79704
469.332	2958.45813
469.542	2924.70887
469.752	3135.57784
469.962	3091.30822
470.172	3293.62489
470.382	3335.7548
470.592	3459.99735
470.802	3339.96741
471.012	3388.40744
471.222	3645.19124
471.432	3565.23872
471.642	3531.56646
471.852	3863.86722
472.062	3752.45286
472.272	3859.66391
472.482	3994.12988
472.691	4076.02914
472.901	3931.10926
473.111	4180.98194
473.321	4185.17896
473.531	4558.36887
473.741	4441.03521
473.95	4646.32344
474.16	4271.19914
474.37	4660.97871
474.58	4815.83816
474.79	4920.40246
474.999	4629.57323
475.209	4845.12192
475.419	5001.92282
475.628	5016.55097
475.838	5041.62517
476.048	5242.09847
476.258	5024.9094
476.467	5767.31367
476.677	5592.40807
476.886	5921.25922
477.096	5792.28659
477.306	5927.49753
477.515	5858.86444
477.725	5758.98861
477.935	5985.71153
478.144	5962.84395
478.354	5979.4752
478.563	6259.90044
478.773	6245.37039
478.982	6396.84173
479.192	6430.02431
479.401	6527.46373
479.611	6579.27235
479.82	6757.38396
480.03	6780.15343
480.239	7218.4484
480.449	7020.10043
480.658	7350.56696
480.868	7212.25313
481.077	7187.47005
481.287	7191.60079
481.496	7608.35389
481.705	7604.23194
481.915	7799.93092
482.124	7738.15178
482.333	7997.49866
482.543	7684.59457
482.752	8001.61265
482.961	8355.11493
483.171	8367.43586
483.38	8217.48334
483.589	8151.7176
483.799	8400.28829
484.008	8693.69016
484.217	8543.95985
484.426	8716.24368
484.636	8730.59475
484.845	8962.13914
485.054	8632.1692
485.263	9207.78026
485.472	9113.64721
485.682	9218.00995
485.891	9283.46998
486.1	9404.11732
486.309	9726.93115
486.518	9508.35994
486.727	9602.34707
486.936	9726.93115
487.146	9869.82662
487.355	9884.11214
487.564	9947.36793
487.773	10055.48265
487.982	10116.66192
488.191	10177.8286
488.4	10194.13761
488.609	10318.46515
488.818	10375.51681
489.027	10575.11744
489.236	10623.9807
489.445	10790.87711
489.654	10756.28327
489.863	10917.01426
490.072	10965.82971
490.281	11045.14109
490.49	11134.60059
490.698	11244.36363
490.907	11158.99503
491.116	11563.32227
491.325	11402.85738
491.534	11270.78353
491.743	11522.70386
491.952	11486.14407
492.16	11827.25354
492.369	11717.63874
492.578	11770.41939
492.787	11989.6007
492.996	12076.84101
493.204	12157.98197
493.413	12204.6326
493.622	12350.64463
493.831	12251.27935
494.039	12480.40305
494.248	12068.72624
494.457	12709.44369
494.665	12585.81209
494.874	12664.85782
495.083	12719.57644
495.291	12893.83769
495.5	12747.94739
495.709	13021.469
495.917	12776.31721
496.126	13147.05514
496.335	13092.36667
496.543	13104.51996
496.752	13219.96788
496.96	13386.02585
497.169	13388.05078
497.377	13519.66262
497.586	13242.24562
497.794	13697.8205
498.003	13610.76939
498.211	13679.601
498.42	13705.91797
498.628	13730.21008
498.837	13728.18575
499.045	13989.29967
499.254	13847.61576
499.462	14104.66177
499.671	14238.22997
499.879	14313.10538
500.087	14432.49646
500.296	14470.94329
500.504	14424.40232
500.713	14189.66075
500.921	14695.54461
501.129	14357.62475
501.338	14470.94329
501.546	14725.89514
501.754	14697.56798
501.962	15001.06614
502.171	14986.90316
502.379	15045.5783
502.587	14620.67905
502.795	14936.32091
503.004	14974.76344
503.212	15047.60158
503.42	15017.2524
503.628	15181.13755
503.837	15260.04517
504.045	15423.93132
504.253	15571.63377
504.461	15436.07114
504.669	15399.65174
504.877	15763.85526
505.085	15725.4103
505.294	15717.31667
505.502	15784.0896
505.71	16061.31216
505.918	15699.10606
506.126	15913.59203
506.334	15786.11304
506.542	16247.49148
506.75	15850.86369
506.958	16215.11146
507.166	16053.21771
507.374	16294.03856
507.582	16352.72973
507.79	16101.78477
507.998	16306.18143
508.206	16579.41472
508.414	16285.94335
508.622	16666.45269
508.83	16545.00549
509.037	16561.19799
509.245	16348.68201
509.453	16731.22789
509.661	16713.00962
509.869	16549.0536
510.077	16324.39586
510.285	16846.61482
510.492	16889.12783
510.7	17188.77659
510.908	16994.40306
511.116	16951.88721
511.324	16919.49496
511.531	17180.67718
511.739	17113.85875
511.947	17415.57936
512.155	17358.87513
512.362	17492.53899
512.57	17178.65233
512.778	17567.47776
512.985	17470.26074
513.193	17387.22695
513.401	17622.16558
513.608	17887.53725
513.816	17468.23546
514.024	17597.85959
514.231	17520.89369
514.439	17794.34669
514.646	17857.14822
514.854	18100.2826
515.061	17626.21663
515.269	17804.47574
515.477	18140.81
515.684	18165.12714
515.892	18128.65163
516.099	18410.35474
516.307	17893.61515
516.514	18179.31238
516.722	18163.10069
516.929	18424.54314
517.136	18288.74745
517.344	18329.28171
517.551	18126.62525
517.759	18732.68072
517.966	18872.58886
518.173	18797.5633
518.381	18736.73576
518.588	18884.75568
518.796	19091.61381
519.003	18645.50111
519.21	18951.67578
519.418	18898.95048
519.625	18817.83994
519.832	19111.89629
520.039	19180.85977
520.247	19513.57394
520.454	19373.57699
520.661	19412.1249
520.868	19422.26934
521.076	19310.68623
521.283	19089.58559
521.49	19225.48571
521.697	19428.35605
521.904	19700.26739
522.112	19213.3148
522.319	19783.47915
522.526	19391.83634
522.733	19795.65707
522.94	19921.50443
523.147	19872.78741
523.354	19874.81723
523.561	20102.18454
523.768	19931.65412
523.975	20256.49955
524.183	19982.40412
524.39	20496.14199
524.597	20325.54308
524.804	20632.23609
525.011	20453.48949
525.218	20163.09546
525.425	20835.3964
525.632	20439.2724
525.838	20727.71627
526.045	20666.77041
526.252	20666.77041
526.459	20914.64015
526.666	20609.891
526.873	21067.04955
527.08	20715.5268
527.287	20796.79275
527.494	20880.09723
527.701	21457.32188
527.907	21290.62488
528.114	21670.81441
528.321	21260.13445
528.528	21357.70702
528.735	21563.04608
528.941	21563.04608
529.148	21254.03647
529.355	21426.82652
529.562	20985.76166
529.768	21105.6636
529.975	21018.27603
530.182	21550.84658
530.388	21475.61953
530.595	21800.96441
530.802	21575.24571
531.008	21992.15087
531.215	21925.02837
531.422	22124.37394
531.628	22175.23319
531.835	22291.20096
532.042	22287.13171
532.248	22397.00653
532.455	22283.06248
532.661	22380.72811
532.868	22342.06779
533.074	22820.32565
533.281	22543.52273
533.487	22726.6939
533.694	22399.04135
533.9	22958.75107
534.107	22659.52783
534.313	22844.75252
534.52	22688.02206
534.726	22856.96614
534.933	22897.6791
535.139	22804.04134
535.345	23201.03282
535.552	23449.47019
535.758	23117.55232
535.965	22932.28618
536.171	22899.71478
536.377	23372.083
536.584	23447.43363
536.79	23683.69545
536.996	23196.96048
537.203	23374.11944
537.409	23691.84313
537.615	23404.66653
537.821	23349.68229
538.028	23901.66234
538.234	23708.13865
538.44	24166.5261
538.646	23897.58789
538.853	23734.61927
539.059	23767.2115
539.265	24101.32449
539.471	23928.14657
539.677	23950.55668
539.883	24030.01347
540.09	24223.5798
540.296	23960.74321
540.502	24510.91766
540.708	24298.97545
540.914	24417.17052
541.12	24435.51192
541.326	24777.92238
541.532	24592.4413
541.738	24731.04063
541.944	24943.03769
542.15	24832.95909
542.356	24678.04542
542.562	24680.08367
542.768	24225.61748
542.974	24963.42336
543.18	24849.2666
543.386	24987.88647
543.592	25067.39385
543.798	25332.44283
544.004	25228.45769
544.21	25106.12946
544.415	25203.99141
544.621	25257.00207
544.827	25020.50447
545.033	25632.19501
545.239	25605.68455
545.445	25809.61958
545.651	25422.15992
545.856	26013.57343
546.062	26009.49417
546.268	25281.46902
546.474	25089.81963
546.679	25161.17618
546.885	25091.85835
547.091	25752.51583
547.297	25173.40901
547.502	25895.27796
547.708	25974.82079
547.914	25807.58013
548.119	25964.62284
548.325	26111.47768
548.531	25758.63402
548.736	26239.98309
548.942	25948.30621
549.147	25803.50125
549.353	26137.99411
549.559	26105.35854
549.764	26325.6571
549.97	26150.23256
550.175	26111.47768
550.381	26676.54229
550.586	25938.10837
550.792	26562.2955
550.997	26537.81467
551.203	26711.2253
551.408	26688.7833
551.614	26754.06961
551.819	26945.85681
552.025	27058.07856
552.23	27211.1149
552.435	26756.10983
552.641	26945.85681
552.846	26809.15611
553.052	26888.72738
553.257	27082.56386
553.462	27511.08752
553.668	27425.37825
553.873	27402.93094
554.078	27515.16897
554.283	27480.47681
554.489	27221.31759
554.694	27464.15122
554.899	27384.56508
555.105	27674.34932
555.31	27764.14659
555.515	27572.30978
555.72	27402.93094
555.925	27449.86639
556.131	27986.60869
556.336	27607.00288
556.541	27735.57448
556.746	27717.20682
556.951	27639.65554
557.156	27594.75822
557.361	27923.33826
557.567	28153.97441
557.772	28064.16748
557.977	28017.22381
558.182	28558.13173
558.387	28151.93332
558.592	28258.07148
558.797	28153.97441
559.002	28080.49585
559.207	28513.22328
559.412	28376.45983
559.617	28164.17988
559.822	28288.68881
560.027	27798.84161
560.232	28576.50351
560.437	28441.77909
560.642	28831.67595
560.847	28335.63585
561.051	28343.80061
561.256	28145.81005
561.461	29037.86718
561.666	28709.19114
561.871	28600.99935
562.076	28523.4297
562.281	28835.75885
562.485	28260.11263
562.69	28935.79099
562.895	28490.76925
563.1	29160.36202
563.305	28674.48779
563.509	28558.13173
563.714	28637.7434
563.919	29105.23888
564.123	28829.63451
564.328	28988.87028
564.533	29031.74253
564.737	29519.70191
564.942	28897.00272
565.147	29156.2788
565.351	29172.61171
565.556	29366.57014
565.761	29282.86061
565.965	29466.61556
566.17	29321.65261
566.374	29491.11686
566.579	29781.06066
566.784	29417.61341
566.988	29791.27035
567.193	29540.11993
567.397	29615.66753
567.602	29444.15616
567.806	29417.61341
568.011	29697.34226
568.215	29576.87263
568.42	29648.33721
568.624	29676.92341
568.828	29607.50015
569.033	29362.48671
569.237	30083.27918
569.442	30240.5244
569.646	29825.98349
569.85	29556.45442
570.055	29960.75519
570.259	29736.13836
570.463	30091.4476
570.668	30009.7643
570.872	29676.92341
571.076	29919.91477
571.281	30528.4854
571.485	30361.01575
571.689	30669.41158
571.893	30293.62177
572.098	30332.4242
572.302	30022.01668
572.506	30371.22708
572.71	30320.17076
572.914	30532.57013
573.119	30320.17076
573.323	30387.56526
573.527	30599.96892
573.731	30361.01575
573.935	30550.95148
574.139	30608.13857
574.343	30240.5244
574.547	30426.36877
574.751	30459.04575
574.955	30669.41158
575.159	30530.52776
575.364	30742.94075
575.568	30749.06826
575.772	31141.25488
575.976	30765.40834
576.18	30591.7993
576.383	31131.04101
576.587	31269.95286
576.791	30906.34519
576.995	30843.02492
577.199	31000.30677
577.403	30830.76954
577.607	31208.66735
577.811	31008.47749
578.015	30930.85661
578.219	31543.71226
578.422	31192.32478
578.626	31678.55998
578.83	31382.31328
579.034	31106.52788
579.238	31020.7336
579.442	31758.24631
579.645	31600.91946
579.849	31159.63994
580.053	31694.90567
580.257	31374.14145
580.46	31948.27878
580.664	32027.9747
580.868	31842.02208
581.071	32099.49922
581.275	31484.46333
581.479	31758.24631
581.682	31582.53129
581.886	31909.45363
582.09	31478.33421
582.293	32105.63
582.497	32085.19412
582.7	32201.68139
582.904	32532.78815
583.107	31950.32223
583.311	32109.71721
583.515	31876.75929
583.718	31774.59256
583.922	32140.37147
584.125	32011.62658
584.329	32561.40506
584.532	32696.31958
584.735	32530.7441
584.939	32177.1572
585.142	32393.79806
585.346	32520.5239
585.549	32737.20482
585.753	32142.41511
585.956	32710.6293
586.159	32587.97832
586.363	32774.00239
586.566	32649.30274
586.769	32653.39111
586.973	32831.24464
587.176	32845.55551
587.379	32714.71782
587.582	33211.54868
587.786	33516.27102
587.989	33184.96523
588.192	33481.50068
588.395	33653.31587
588.599	33289.2569
588.802	33246.31238
589.005	33158.38226
589.208	33203.36911
589.411	33583.76895
589.615	33313.79721
589.818	33825.15377
590.021	33577.63264
590.224	33782.1921
590.427	33665.58924
590.63	33769.91761
590.833	33581.72351
591.036	33416.05303
591.239	33739.23191
591.442	33714.68388
591.645	34044.07721
591.848	34175.04156
592.051	33700.36442
592.254	33812.87886
592.457	33976.5545
592.66	33593.99621
592.863	33831.29127
593.066	34150.4846
593.269	33859.93335
593.472	34121.83549
593.675	34033.84625
593.878	33880.39239
594.081	34166.85585
594.284	34459.53296
594.486	34492.28503
594.689	34598.73647
594.892	34527.08525
595.095	34658.10847
595.298	34398.12558
595.5	34246.6691
595.703	34807.57796
595.906	34443.15731
596.109	34707.2466
596.311	34762.52994
596.514	34889.48889
596.717	34813.72103
596.92	35135.26512
597.122	34770.72034
597.325	34344.90872
597.528	35020.56129
597.73	34989.83952
597.933	34570.07537
598.136	34965.26285
598.338	34846.48477
598.541	34854.67588
598.743	35327.83731
598.946	35278.66585
599.148	35633.17523
599.351	35188.5255
599.554	35338.08172
599.756	35307.34885
599.959	35924.27803
600.161	35417.99241
600.363	35407.74702
600.566	35067.67002
600.768	35055.38055
600.971	35065.62176
601.173	34514.80268
601.376	35186.47696
601.578	35450.7785
601.78	35877.12002
601.983	35354.47303
602.185	35465.12282
602.388	35266.37343
602.59	35295.05602
602.792	35272.51962
602.995	35444.63101
603.197	35362.66881
603.399	36515.04137
603.601	35567.58963
603.804	35475.36892
604.006	35454.87685
604.208	35579.88652
604.41	35620.87751
604.613	36338.58023
604.815	36053.46537
605.017	35737.71355
605.219	35729.51396
605.421	35471.27047
605.623	35788.96297
605.826	36330.37385
606.028	36295.49786
606.23	35807.41359
606.432	35907.8749
606.634	35752.06304
606.836	35758.21291
607.038	35770.51278
607.24	35784.86289
607.442	36178.5735
607.644	35735.66364
607.846	35916.07642
608.048	35698.76626
608.25	35770.51278
608.452	35651.62215
608.654	36629.97154
608.856	35832.01513
609.058	36127.29703
609.26	35694.66666
609.462	35745.91323
609.664	36404.23478
609.866	35868.91893
610.067	36613.55171
610.269	36396.02762
610.471	35971.43903
610.673	36424.75314
610.875	36607.39438
611.077	35944.78244
611.278	36123.19507
611.48	36211.3924
611.682	36244.21283
611.884	36995.42319
612.085	36705.91874
612.287	36773.66305
612.489	36211.3924
612.69	36714.12978
612.892	35989.89415
613.094	36285.24055
613.295	36018.60305
613.497	36121.1441
613.699	36289.34346
613.9	36373.45842
614.102	36451.42793
614.304	36170.36902
614.505	36078.07508
614.707	36174.47125
614.908	35985.79297
615.11	36461.68776
615.311	36369.35501
615.513	36090.38025
615.714	35821.76439
615.916	36026.8058
616.117	36420.64942
616.319	36529.40654
616.52	36149.85822
616.722	36398.0794
616.923	36180.62464
617.124	36246.26416
617.326	35780.76283
617.527	36137.55203
617.729	35832.01513
617.93	36018.60305
618.131	36375.51013
618.333	35848.41659
618.534	35932.47972
618.735	36426.80501
618.937	36599.18469
619.138	36311.90987
619.339	36151.90927
619.54	36802.40526
619.742	36018.60305
619.943	36572.50393
620.144	36662.81247
620.345	36383.71705
620.546	36435.01255
620.748	36810.61756
620.949	36416.54572
621.15	36705.91874
621.351	36350.88998
621.552	36418.59757
621.753	35985.79297
621.954	35909.92527
622.155	36363.19994
622.356	36320.11603
622.558	36209.34117
622.759	36551.98101
622.96	36406.28659
623.161	36041.16083
623.362	35780.76283
623.563	36818.82997
623.764	36361.14827
623.965	37248.08258
624.166	36740.81642
624.366	36451.42793
624.567	35840.21582
624.768	36123.19507
624.969	35711.0652
625.17	36215.49487
625.371	36149.85822
625.572	36256.52089
625.773	36352.94162
625.973	36172.42013
626.174	36517.09352
626.375	36412.44205
626.576	36646.3918
626.777	36962.56478
626.977	36547.8765
627.178	37079.63103
627.379	36627.91904
627.58	36839.36147
627.78	36359.0966
627.981	36556.08554
628.182	36611.49926
628.382	36473.99975
628.583	37061.14537
628.784	36900.96004
628.984	36572.50393
629.185	37151.52518
629.386	36338.58023
629.586	36905.06683
629.787	37018.01438
629.987	36872.21328
630.188	36751.08081
630.388	37015.9606
630.589	36864.00016
630.79	36701.81325
630.99	36361.14827
631.191	36554.03327
631.391	37190.5571
631.591	36045.26232
631.792	36453.47989
631.992	37170.01366
632.193	36759.29244
632.393	37057.03752
632.594	36656.65467
632.794	37192.61148
632.994	36939.97566
633.195	36950.24334
633.395	36841.41466
633.595	36295.49786
633.796	35905.82454
633.996	36656.65467
634.196	36426.80501
634.397	37209.04681
634.597	36792.14004
634.797	36831.14879
634.997	36486.31197
635.198	36814.72376
635.398	36096.53292
635.598	36293.44639
635.798	36636.12909
635.998	36621.76157
636.199	37135.09146
636.399	37032.39103
636.599	37151.52518
636.799	36656.65467
636.999	36156.0114
637.199	36650.49693
637.399	36796.24611
637.599	36697.70779
637.799	36123.19507
637.999	36714.12978
638.199	36839.36147
638.399	36824.98935
638.599	36666.9177
638.799	37389.86632
638.999	37494.6858
639.199	37184.39399
639.399	37258.35559
639.599	37597.46919
639.799	37044.71415
639.999	37104.27947
640.199	37250.13717
640.399	37519.35207
640.599	36149.85822
640.799	37895.65147
640.998	37268.62878
641.198	37472.07602
641.398	36896.85328
641.598	37346.71102
641.798	37241.91886
641.997	37554.29783
642.197	37494.6858
642.397	37472.07602
642.597	37233.70068
642.796	37225.48261
642.996	37153.57942
643.196	37147.4167
643.395	37096.06321
643.595	37706.44069
643.795	37330.27177
643.994	37079.63103
644.194	37299.44945
644.394	37225.48261
644.593	37315.88781
644.793	37928.56464
644.992	37350.82091
645.192	37459.7438
645.392	37893.59446
645.591	37406.3073
645.791	37428.91443
645.99	37628.30796
646.19	37788.69795
646.389	37910.05072
646.589	37418.63835
646.788	37291.23044
646.987	36334.47703
647.187	37373.42582
647.386	37344.65609
647.586	38103.45108
647.785	37817.49099
647.984	38078.7576
648.184	37916.22196
648.383	37716.72216
648.582	37712.60955
648.782	38682.04398
648.981	38113.74038
649.18	37391.92142
649.38	37400.14188
649.579	37605.69269
649.778	37973.82365
649.977	38373.10089
650.177	37766.07594
650.376	37720.8348
650.575	37646.81206
650.774	37428.91443
650.973	37379.59095
651.173	37461.79915
651.372	37595.41334
651.571	37264.51948
651.77	37457.68845
651.969	37675.59747
652.168	37790.75454
652.367	37862.74037
652.566	37593.35749
652.765	37317.94264
652.964	37648.86811
653.163	37433.02491
653.362	37801.03763
653.561	37620.08412
653.76	37957.36537
653.959	38210.47014
654.158	38189.88777
654.357	37836.00163
654.556	37712.60955
654.755	37957.36537
654.954	37348.76596
655.153	37587.18999
655.352	37784.58478
655.551	37903.87957
655.749	38296.92537
655.948	37774.30201
656.147	37990.28246
656.346	38126.08783
656.545	37903.87957
656.743	37638.58794
656.942	37870.96795
657.141	37977.93831
657.34	37982.05299
657.538	38233.11171
657.737	38572.86117
657.936	38844.83566
658.135	38772.70569
658.333	38298.98401
658.532	38408.10444
658.731	38387.51381
658.929	37761.96295
659.128	37733.17291
659.326	37476.18682
659.525	38243.40368
659.724	37947.07921
659.922	38424.57757
660.121	38426.63675
660.319	37930.62178
660.518	38070.52671
660.716	38533.72631
660.915	38364.86512
661.113	38163.13197
661.312	37969.70903
661.51	37613.91632
661.709	37630.36394
661.907	37669.42904
662.105	38138.43557
662.304	38995.3149
662.502	37854.51292
662.701	38103.45108
662.899	37581.02256
663.097	37539.90813
663.296	38060.23828
663.494	38126.08783
663.692	37363.15075
663.891	37739.34207
664.089	37712.60955
664.287	37947.07921
664.485	37712.60955
664.684	38498.71363
664.882	37809.26425
665.08	37815.43429
665.278	37727.00382
665.476	37969.70903
665.675	37673.54132
665.873	37650.92417
666.071	37546.0751
666.269	38327.80591
666.467	38138.43557
666.665	38303.10132
666.863	37706.44069
667.061	37774.30201
667.259	37465.90987
667.457	37696.15942
667.655	37842.17199
667.853	38086.98863
668.051	37648.86811
668.249	37490.57486
668.447	37063.1993
668.645	37291.23044
668.843	37739.34207
669.041	37768.13244
669.239	37706.44069
669.437	37638.58794
669.635	37539.90813
669.833	37221.37361
670.031	37215.21018
670.229	37305.61378
670.426	37400.14188
670.624	37683.82216
670.822	37157.68794
671.02	37574.8552
671.218	38064.35363
671.415	37470.02063
671.613	37305.61378
671.811	37223.42811
672.009	37595.41334
672.206	37414.52797
672.404	37315.88781
672.602	37322.05232
672.799	37223.42811
672.997	36991.31579
673.195	37200.82909
673.392	37620.08412
673.59	37079.63103
673.788	37266.57413
673.985	36478.1038
674.183	37264.51948
674.38	37480.29765
674.578	37437.13543
674.775	37235.75521
674.973	36812.67066
675.17	37285.06626
675.368	37307.66857
675.565	37155.63368
675.763	37836.00163
675.96	36946.13624
676.158	37073.46908
676.355	37122.76647
676.553	37241.91886
676.75	36935.86863
676.947	36872.21328
677.145	37365.20575
677.342	37562.52069
677.539	37375.48086
677.737	37155.63368
677.934	36944.08271
678.131	37042.66028
678.329	36976.94011
678.526	37011.85306
678.723	37379.59095
678.92	37317.94264
679.118	37015.9606
679.315	37022.12196
679.512	36981.04742
679.709	37504.96328
679.906	36143.7051
680.104	36923.54773
680.301	36642.2867
680.498	36418.59757
680.695	36258.57226
680.892	36268.82917
681.089	36371.40671
681.286	36683.3389
681.483	36084.22764
681.68	36160.11354
681.877	36437.06445
682.075	36221.64862
682.272	35764.36282
682.469	36391.92407
682.665	36164.21572
682.862	36100.63472
683.059	36213.44363
683.256	36369.35501
683.453	36586.87036
683.65	36716.18256
683.847	36839.36147
684.044	36166.26681
684.241	35805.3635
684.438	36525.30217
684.635	35641.37381
684.831	36580.71328
685.028	36071.92258
685.225	36147.80717
685.422	35665.97006
685.619	36119.09314
685.815	36078.07508
686.012	35918.12681
686.209	35266.37343
686.405	35518.40395
686.602	35465.12282
686.799	35387.25662
686.996	35481.51665
687.192	35510.20662
687.389	35493.81223
687.586	35135.26512
687.782	35989.89415
687.979	35901.72382
688.175	35862.76817
688.372	35690.56708
688.568	35850.4668
688.765	35407.74702
688.962	35034.89847
689.158	35094.29778
689.355	35502.00938
689.551	35692.61687
689.748	35151.65259
689.944	35125.02311
690.14	35272.51962
690.337	35030.80211
690.533	35321.69072
690.73	34412.45365
690.926	35098.39443
691.123	34774.81556
691.319	34846.48477
691.515	35188.5255
691.712	34787.10133
691.908	34926.35113
692.104	34959.11879
692.301	34778.9108
692.497	34389.9382
692.693	34357.1893
692.889	34132.06723
693.086	34717.48402
693.282	34967.31088
693.478	35000.08
693.674	35360.61986
693.87	35000.08
694.067	35172.13735
694.263	34623.30377
694.459	34885.39317
694.655	34555.74513
694.851	34635.58764
695.047	34484.09692
695.243	34580.31139
695.439	34367.42322
695.635	34422.6881
695.831	34424.73501
696.027	34175.04156
696.224	33673.77155
696.42	33892.66798
696.615	34437.0165
696.811	33954.04778
697.007	33683.99951
697.203	33712.63823
697.399	33418.09822
697.595	33761.73469
697.791	33943.8176
697.987	34148.43822
698.183	34969.35892
698.379	34324.4414
698.575	34641.72964
698.77	34240.52942
698.966	34285.55456
699.162	34336.72175
699.358	34664.25061
699.554	33980.64667
699.749	34275.32141
699.945	33638.99708
700.141	33755.59752
700.337	33471.27428
700.532	33585.8144
700.728	33514.22569
700.924	33984.73886
701.119	33814.92467
701.315	33007.07266
701.511	33281.0769
701.706	33606.26902
701.902	33542.86071
702.097	33673.77155
702.293	33925.40349
702.489	33794.46671
702.684	33591.95075
702.88	33900.85177
703.075	33769.91761
703.271	33771.96335
703.466	33814.92467
703.662	33692.18194
703.857	33655.36142
704.053	33686.04511
704.248	33591.95075
704.443	33874.25464
704.639	33495.81777
704.834	33403.78194
705.03	33524.45241
705.225	33483.54597
705.42	33113.39676
705.616	33369.01443
705.811	33456.95745
706.006	33354.69865
706.202	32827.15584
706.397	32575.71369
706.592	32747.42629
706.787	32960.047
706.983	32970.26985
707.178	33127.71018
707.373	32915.06723
707.568	33090.90451
707.763	32810.80075
707.959	33489.68186
708.154	33094.99399
708.349	32430.58854
708.544	32998.89418
708.739	32988.67114
708.934	32857.82207
709.129	33354.69865
709.324	32414.23713
709.519	33133.84455
709.714	32935.51242
709.909	32857.82207
710.104	32297.73736
710.299	32111.76081
710.494	32870.08872
710.689	32774.00239
710.884	32177.1572
711.079	32479.64365
711.274	32463.2918
711.469	32886.4444
711.664	32677.92153
711.859	32978.44817
712.054	32910.97822
712.249	32346.78903
712.443	32406.06147
712.638	32338.61367
712.833	32201.68139
713.028	32598.19891
713.223	31895.1498
713.417	32211.89989
713.612	32032.06175
713.807	32481.68764
714.002	32401.97366
714.196	32107.6736
714.391	31664.25759
714.586	32005.49606
714.78	32066.80199
714.975	32132.19696
715.17	32242.5557
715.364	32919.15625
715.559	32927.33432
715.754	31797.06885
715.948	32173.06986
716.143	31987.10463
716.337	31741.90017
716.532	32093.36845
716.726	32401.97366
716.921	32310.00016
717.115	31901.28
717.31	32344.74519
717.504	31991.1916
717.699	32232.33704
717.893	31987.10463
718.088	31983.01766
718.282	31835.89204
718.476	31782.76573
718.671	32021.84414
718.865	31511.02302
719.059	31703.07856
719.254	31304.68193
719.448	31237.26708
719.642	31257.69565
719.837	30832.8121
720.031	31361.88375
720.225	30875.70618
720.419	31455.8609
720.614	31441.55981
720.808	31002.34945
721.002	30851.19521
721.196	30922.68612
721.39	31018.69091
721.585	30800.13131
721.779	30855.28035
721.973	30599.96892
722.167	30022.01668
722.361	29997.51196
722.555	30407.9881
722.749	30312.00181
722.943	30244.60878
723.137	30091.4476
723.331	30191.51216
723.525	30248.69317
723.719	30322.21299
723.913	30612.2234
724.107	30142.50059
724.301	30068.98451
724.495	30350.80446
724.689	30201.72299
724.883	29995.46991
725.077	29930.12483
725.271	29766.76715
725.465	29948.50302
725.659	30213.97602
725.853	29991.38581
726.046	30007.72224
726.24	30291.57955
726.434	29693.25848
726.628	30820.55676
726.822	30383.48071
727.015	30765.40834
727.209	30195.59649
727.403	30442.70722
727.596	30379.39616
727.79	30389.60754
727.984	30275.24182
728.177	30724.5583
728.371	30024.05874
728.565	29791.27035
728.758	30503.97712
728.952	30322.21299
729.146	30142.50059
729.339	30075.11079
729.533	30283.41067
729.726	30401.86124
729.92	30281.36846
730.113	29950.54504
730.307	29713.67741
730.5	29948.50302
730.694	30438.6226
730.887	29689.17471
731.081	30189.47
731.274	29740.22219
731.468	29721.84502
731.661	29593.20728
731.854	29672.83966
732.048	30158.83771
732.241	29721.84502
732.435	29721.84502
732.628	30107.78448
732.821	30062.85823
733.014	30526.44303
733.208	30322.21299
733.401	30046.52155
733.594	30348.7622
733.788	29854.57102
733.981	29809.64785
734.174	29970.96537
734.367	29687.13282
734.56	29666.71403
734.754	29574.8308
734.947	29944.41897
735.14	29750.43176
735.333	30169.04844
735.526	30185.38568
735.719	29926.0408
735.912	29821.89957
736.105	30183.34352
736.298	29973.00741
736.491	29421.69689
736.684	29368.61186
736.877	29193.02795
737.07	29460.49025
737.263	29476.82442
737.456	29807.6059
737.649	29431.90564
737.842	29558.49624
738.035	29378.82047
738.228	29440.07265
738.421	29080.73995
738.614	29372.6953
738.807	28978.66267
739	29235.90238
739.192	29425.78039
739.385	29558.49624
739.578	29766.76715
739.771	29376.77874
739.964	29113.40522
740.156	29617.70937
740.349	29035.82563
740.542	29233.86073
740.735	29209.36101
740.927	29258.36059
741.12	29070.5321
741.313	28866.38067
741.505	29123.61318
741.698	28703.067
741.891	29315.52754
742.083	29554.4126
742.276	29564.62169
742.468	29411.48818
742.661	29323.69431
742.854	29391.07083
743.046	29629.96048
743.239	29311.44416
743.431	29654.46281
743.624	29552.37079
743.816	29256.31893
744.009	29423.73864
744.201	29331.8611
744.393	28643.86745
744.586	28696.94287
744.778	28596.9167
744.971	28682.65326
745.163	28925.58352
745.355	28486.68672
745.548	28637.7434
745.74	28694.90149
745.932	28223.37214
746.125	28325.42992
746.317	28305.01815
746.509	28258.07148
746.702	28619.37134
746.894	28829.63451
747.086	28425.44917
747.278	28578.54482
747.471	28523.4297
747.663	28615.28867
747.855	28594.87538
748.047	28433.61412
748.239	28498.93434
748.431	28178.46758
748.623	28649.9915
748.815	28184.5909
749.008	28447.90283
749.2	28117.23495
749.392	28194.79645
749.584	27662.10441
749.776	27751.90138
749.968	27404.9716
750.16	27819.2506
750.352	27500.88392
750.544	27931.50213
750.736	27535.57629
750.928	27809.04609
751.12	27298.85911
751.311	27433.54094
751.503	27460.06983
751.695	27607.00288
751.887	27711.08429
752.079	27747.81965
752.271	27339.6712
752.463	27594.75822
752.654	27404.9716
752.846	27417.21557
753.038	26994.82578
753.23	27429.45959
753.421	27492.72107
753.613	27382.52444
753.805	27568.22826
753.997	27429.45959
754.188	27288.65617
754.38	26925.45332
754.572	26970.3412
754.763	26835.67962
754.955	26133.91464
755.146	26443.97361
755.338	26395.01439
755.53	26621.45842
755.721	26411.33403
755.913	27149.89945
756.104	26660.22103
756.296	26645.94
756.487	26864.24368
756.679	26456.21355
756.87	25856.52733
757.062	26123.71599
757.253	26370.53513
757.445	26488.8537
757.636	26590.85675
757.827	26749.98917
758.019	26513.33407
758.21	26474.57359
758.401	26064.56472
758.593	25895.27796
758.784	26113.51739
758.975	26025.81123
759.167	26042.12841
759.358	26615.33806
759.549	26056.40604
759.74	26191.02785
759.932	25489.45038
760.123	25776.98869
760.314	25754.55523
760.505	25954.42493
760.696	26133.91464
760.888	25944.22707
761.079	25462.94175
761.27	25848.36939
761.461	25811.65903
761.652	25558.78226
761.843	25116.32318
762.034	25750.47644
762.225	25479.25471
762.416	25332.44283
762.607	25332.44283
762.798	25509.84187
762.989	25583.25289
763.18	25438.47256
763.371	25281.46902
763.562	25224.37995
763.753	25230.49656
763.944	25672.98097
764.135	25677.05961
764.326	25387.49602
764.517	25621.99864
764.708	24957.30763
764.899	25075.54865
765.089	24920.61372
765.28	24877.8051
765.471	24951.19193
765.662	24700.46627
765.853	24837.03595
766.043	24959.34621
766.234	24853.3435
766.425	24345.84485
766.615	24643.39561
766.806	24894.11302
766.997	24916.53666
767.187	24437.54987
767.378	24686.19842
767.569	24027.97607
767.759	24517.03179
767.95	24894.11302
768.141	24484.42335
768.331	24492.5754
768.522	24162.45092
768.712	23783.50789
768.903	24176.7141
769.093	23952.59398
769.284	23922.03478
769.474	23834.43533
769.665	23964.81784
769.855	23636.84718
770.046	24135.96249
770.236	23832.3982
770.426	23626.66298
770.617	23922.03478
770.807	23779.43377
770.998	24317.31548
771.188	24184.86456
771.378	23455.5799
771.569	23706.1017
771.759	23559.44919
771.949	23115.51628
772.139	23425.03164
772.33	23196.96048
772.52	23109.40818
772.71	23455.5799
772.9	23129.76864
773.09	23388.37466
773.281	23390.41113
773.471	23618.51568
773.661	23325.24559
773.851	23608.33162
774.041	23437.25086
774.231	23516.67851
774.421	23184.74352
774.611	23227.50339
774.802	23019.82608
774.992	23009.6467
775.182	22877.32245
775.372	22565.90878
775.562	22380.72811
775.752	22747.04801
775.942	22437.7036
776.131	22484.50702
776.321	22006.38951
776.511	22759.26064
776.701	22653.42201
776.891	22771.47339
777.081	22722.62312
777.271	22659.52783
777.461	22641.21047
777.651	22865.10862
777.84	22732.8001
778.03	22659.52783
778.22	22337.99836
778.41	22429.56407
778.599	22671.73956
778.789	22584.22496
778.979	22120.3053
779.169	22034.86735
779.358	21729.78665
779.548	21945.36808
779.738	21697.24984
779.927	22175.23319
780.117	21963.67415
780.307	21890.45173
780.496	21807.06558
780.686	22101.99661
780.875	21772.49273
781.065	22423.45946
781.254	22319.6861
781.444	21910.79079
781.633	21685.04879
781.823	21628.11243
782.012	21430.89252
782.202	21680.98181
782.391	21245.90589
782.581	21471.55336
782.77	21636.24601
782.96	21792.82957
783.149	21099.56654
783.338	21235.74276
783.528	21298.75581
783.717	21191.02617
783.906	20928.86405
784.096	21154.44133
784.285	20963.40864
784.474	20414.90072
784.663	20522.54684
784.853	20150.91298
785.042	20396.62236
785.231	20420.99358
785.42	20136.70027
785.61	20494.11087
785.799	20658.64458
785.988	20481.92428
786.177	20075.79099
786.366	20094.06337
786.555	20217.91852
786.744	20146.85218
786.933	20211.82692
787.122	20039.24724
787.312	20347.88173
787.501	19931.65412
787.69	20185.43041
787.879	20571.29612
788.068	20193.55234
788.257	19982.40412
788.445	19878.8769
788.634	20599.73431
788.823	20295.0821
789.012	20266.65271
789.201	20181.36948
789.39	20087.97254
789.579	20132.63953
789.768	20293.0514
789.957	20146.85218
790.145	20201.67433
790.334	19856.54894
790.523	19966.16383
790.712	19994.58451
790.9	20295.0821
791.089	19746.94629
791.278	19992.55443
791.467	19923.53436
791.655	20142.7914
791.844	20087.97254
792.033	19673.88465
792.221	19387.77868
792.41	19519.66121
792.599	19002.37574
792.787	19312.7149
792.976	19422.26934
793.164	19434.4428
793.353	19215.34328
793.541	19730.7099
793.73	19294.457
793.918	19458.79017
794.107	19207.22941
794.295	19375.60579
794.484	19225.48571
794.672	18913.14549
794.861	18836.08926
795.049	18923.2849
795.238	18621.17321
795.426	18963.84354
795.614	18596.84587
795.803	18538.05711
795.991	18846.2279
796.179	18842.17243
796.368	18631.30977
796.556	18783.36989
796.744	18641.44642
796.932	18959.7876
797.121	18564.41029
797.309	18744.8459
797.497	18574.5463
797.685	18193.4978
797.874	18501.56916
798.062	18645.50111
798.25	18248.21469
798.438	18785.39751
798.626	18469.13648
798.814	18631.30977
799.002	18884.75568
799.19	18866.5055
799.378	18521.84009
799.566	18611.03675
799.755	18335.36198
799.943	18341.44228
800.131	18221.86918
800.318	18049.62539
800.506	18100.2826
800.694	18408.32784
800.882	18144.86282
801.07	18452.92051
801.258	18157.02137
801.446	18509.67749
801.634	17849.04461
801.822	17883.48533
802.01	17883.48533
802.197	17806.50156
802.385	17759.90853
802.573	18278.61412
802.761	18396.16652
802.949	18292.80081
803.136	18009.10123
803.324	17964.5263
803.512	18171.20651
803.699	18114.46703
803.887	18084.07205
804.075	18280.64078
804.262	17824.73411
804.45	18027.33692
804.638	17589.7577
804.825	18185.39183
805.013	18035.44177
805.201	18047.59914
805.388	17719.3943
805.576	17782.19193
805.763	17859.17413
805.951	17636.3443
806.138	17490.51368
806.326	17883.48533
806.513	17790.29509
806.701	18270.50752
806.888	18011.1274
807.075	18292.80081
807.263	18077.99315
807.45	18536.02997
807.638	17972.6307
807.825	18159.04781
808.012	17928.05717
808.2	17996.94426
808.387	18521.84009
808.574	18497.51503
808.761	18461.02847
808.949	18588.73688
809.136	18000.99657
809.323	18315.09455
809.51	18205.65688
809.698	18456.97448
809.885	18205.65688
810.072	18122.57249
810.259	18011.1274
810.446	17735.59983
810.633	17899.69308
810.82	18086.09836
811.008	18284.69411
811.195	18236.05515
811.382	17994.91811
811.569	18309.0144
811.756	18270.50752
811.943	18677.93919
812.13	18284.69411
812.317	18335.36198
812.504	18069.888
812.691	18659.69264
812.878	18138.7836
813.064	18211.73647
813.251	18361.7102
813.438	18481.29862
813.625	18104.33528
813.812	18019.23213
813.999	18246.18809
814.186	18359.68339
814.372	17798.3983
814.559	17755.85704
814.746	17300.14827
814.933	17863.22596
815.12	18011.1274
815.306	18213.763
815.493	18240.10831
815.68	18450.89353
815.866	18007.07506
816.053	18223.89574
816.24	18027.33692
816.426	18432.65089
816.613	18298.88088
816.799	18177.28591
816.986	18140.81
817.173	17861.20005
817.359	17267.74832
817.546	17541.14742
817.732	17267.74832
817.919	17889.56321
818.105	17441.90715
818.292	17853.09641
818.478	17759.90853
818.665	17585.70677
818.851	17859.17413
819.037	17820.68241
819.224	17585.70677
819.41	17654.57431
819.597	17648.49761
819.783	17802.44992
819.969	17867.27781
820.156	18134.7308
820.342	17624.1911
820.528	17881.45938
820.714	17308.24837
820.901	17401.40308
821.087	17522.91905
821.273	17605.96154
821.459	17261.67341
821.646	17573.55407
821.832	17433.80624
822.018	17662.67662
822.204	17253.57358
822.39	17699.13768
822.576	17470.26074
822.762	17557.35064
822.948	17261.67341
823.134	17792.32088
823.32	17277.87322
823.507	17249.52368
823.693	17336.59913
823.879	17053.11738
824.065	17002.50145
824.25	16905.32356
824.436	16889.12783
824.622	16557.14985
824.808	16895.20121
824.994	16441.78149
825.18	16644.18676
825.366	16686.69468
825.552	16791.95686
825.738	17217.1249
825.923	16749.44636
826.109	16868.8834
826.295	16583.4629
826.481	16607.7522
826.667	16407.37467
826.852	16591.5593
827.038	16684.67047
827.224	16350.70587
827.409	16239.39644
827.595	16713.00962
827.781	16686.69468
827.966	16761.59211
828.152	16389.15953
828.338	16383.08786
828.523	16164.51855
828.709	16696.81577
828.894	16184.75559
829.08	16026.91091
829.266	15652.56817
829.451	16109.87936
829.637	16095.71384
829.822	16061.31216
830.008	16053.21771
830.193	16285.94335
830.378	16128.0923
830.564	16755.51922
830.749	16427.61391
830.935	16603.70397
831.12	15994.53365
831.305	16196.89789
831.491	16020.84015
831.676	15895.38045
831.861	15931.80371
832.047	15954.06257
832.232	16069.40663
832.417	16018.81656
832.602	15778.01928
832.788	15626.26435
832.973	15585.7972
833.158	15622.21762
833.343	15939.89782
833.528	16239.39644
833.714	15810.3944
833.899	15923.70962
834.084	15322.76679
834.269	15565.56374
834.454	15632.33445
834.639	15539.26035
834.824	15363.23249
835.009	15591.86726
835.194	15338.95305
835.379	15452.25758
835.564	15100.20671
835.749	15306.58054
835.934	15171.0212
836.119	15203.39353
836.304	15314.67366
836.489	15262.06844
836.674	15015.22912
836.859	15110.32307
837.044	14812.89896
837.228	15067.83433
837.413	14869.55192
837.598	15427.97792
837.783	15075.92743
837.968	15140.67214
838.152	14671.26404
838.337	14776.47893
838.522	14614.60881
838.707	14723.87177
838.891	14574.14027
839.076	14861.45867
839.261	14689.47448
839.445	14689.47448
839.63	14620.67905
839.815	14667.21726
839.999	14481.0608
840.184	14962.62371
840.368	14574.14027
840.553	15071.88088
840.737	14442.6141
840.922	14458.80224
841.106	14529.62434
841.291	14260.49049
841.475	14072.28019
841.66	14258.46682
841.844	13954.89191
842.029	14477.0138
842.213	14541.76511
842.397	14456.77873
842.582	14333.34156
842.766	14663.17048
842.951	14256.44314
843.135	14424.40232
843.319	14329.29434
843.504	14092.51874
843.688	14116.80471
843.872	14062.16083
844.056	14430.47293
844.241	14315.12901
844.425	13813.20478
844.609	13839.51913
844.793	13618.86743
844.977	13774.74445
845.161	13228.06894
845.346	13242.24562
845.53	13228.06894
845.714	13517.63794
845.898	13454.87111
846.082	13574.32754
846.266	13722.11276
846.45	13766.6474
846.634	13396.15044
846.818	13228.06894
847.002	12982.97916
847.186	13294.89999
847.37	13031.59761
847.554	13258.44727
847.738	12924.22796
847.922	13254.39689
848.106	13057.9314
848.29	13017.41752
848.473	13033.62331
848.657	12820.89612
848.841	12942.46156
849.025	12908.01997
849.209	12926.25394
849.392	12968.79823
849.576	12885.73342
849.76	12936.38374
849.944	13027.54618
850.127	13068.05957
850.311	12541.21805
850.495	13088.31553
850.678	12723.6295
850.862	12812.79107
851.046	12622.29588
851.229	12595.94667
851.413	12506.75693
851.596	12760.10602
851.78	12871.55074
851.964	12843.18457
852.147	12571.6234
852.331	12650.6708
852.514	12525.00128
852.698	12569.59642
852.881	12200.57617
853.065	12484.45757
853.248	12366.86594
853.431	12425.66456
853.615	12385.11439
853.798	12535.13681
853.982	12358.75534
854.165	12374.97643
854.348	12155.9536
854.532	12251.27935
854.715	12123.49854
854.898	12399.30726
855.081	11949.01882
855.265	12062.64008
855.448	11882.05161
855.631	11865.81578
855.814	11431.29857
855.997	11928.72667
856.181	11744.0298
856.364	12028.15053
856.547	11794.7777
856.73	11841.46104
856.913	11689.21593
857.096	11995.68771
857.279	11508.48653
857.462	11433.33001
857.645	11386.60441
857.828	11514.57973
858.011	11620.18181
858.194	11512.54867
858.377	11189.48594
858.56	11457.70654
858.743	11230.1368
858.926	11555.19889
859.109	11610.02885
859.292	11561.29144
859.475	11404.88896
859.658	11709.51812
859.841	11236.23408
860.023	11260.62223
860.206	10900.74099
860.389	11315.4902
860.572	11053.27464
860.755	11232.16924
860.937	11203.71421
861.12	11486.14407
861.303	11295.16959
861.486	11179.32256
861.668	11065.47464
861.851	11030.90695
862.034	11030.90695
862.216	11055.308
862.399	10595.478
862.581	10799.01634
862.764	10744.07286
862.947	11187.45328
863.129	10929.21873
863.312	10731.86202
863.494	10522.17413
863.677	10336.80431
863.859	10450.89073
864.042	10314.38963
864.224	10379.59154
864.406	10611.76555
864.589	10312.35185
864.771	10332.72904
864.954	10202.29179
865.136	10416.26169
865.318	10081.99523
865.501	10346.99228
865.683	10173.75121
865.865	10265.47924
866.048	10065.68008
866.23	10102.38789
866.412	9965.72988
866.594	10137.05221
866.777	10179.86728
866.959	10273.63151
867.141	9796.34672
867.323	9933.08559
867.505	9865.74491
867.687	9869.82662
867.869	9706.51146
868.052	9849.41747
868.234	9635.03044
868.416	9594.1756
868.598	9218.00995
868.78	9690.17461
868.962	9596.21849
869.144	10139.09116
869.326	9880.03063
869.508	9924.92394
869.69	9645.24317
869.872	9902.47817
870.054	9822.88336
870.236	9700.38526
870.417	9594.1756
870.599	9675.87905
870.781	9494.05461
870.963	9545.1415
871.145	9489.96723
871.327	9632.98784
871.508	9293.69657
871.69	9340.7335
871.872	9152.53263
872.054	9702.42734
872.235	9365.27104
872.417	9473.61706
872.599	9596.21849
872.78	9798.38809
872.962	9688.13243
873.144	9506.31637
873.325	9479.74849
873.507	9610.51828
873.689	9469.52935
873.87	9696.30105
874.052	9338.6886
874.233	9367.31573
874.415	9371.40506
874.596	9447.04584
874.778	9154.57906
874.959	9377.53893
875.141	9346.86811
875.322	9757.55783
875.503	9348.91295
875.685	9551.27126
875.866	9324.37382
876.048	9232.3308
876.229	9281.42462
876.41	9267.10658
876.592	9113.64721
876.773	9692.21677
876.954	9357.09213
877.136	9682.00581
877.317	9314.14848
877.498	9477.7047
877.679	9371.40506
877.86	9459.30982
878.042	9232.3308
878.223	9350.95777
878.404	9263.01557
878.585	9428.64878
878.766	9402.07293
878.947	9747.34932
879.128	9330.50883
879.309	9586.00388
879.49	9185.27346
879.672	9422.51613
879.853	9013.33499
880.034	9275.28842
880.215	9082.94381
880.396	9041.99988
880.576	9109.55364
880.757	9324.37382
880.938	9230.28501
881.119	9563.53035
881.3	9299.83232
881.481	9522.66449
881.662	9230.28501
881.843	9404.11732
882.023	9481.79227
882.204	9199.59621
882.385	9248.69648
882.566	9418.42762
882.747	9003.0967
882.927	9185.27346
883.108	8865.86098
883.289	9060.42551
883.469	8976.47509
883.65	9428.64878
883.831	9265.06108
884.011	9207.78026
884.192	9340.7335
884.373	9463.39768
884.553	9150.48618
884.734	9457.26586
884.914	9236.42232
885.095	9657.49794
885.275	9322.32879
885.456	9520.62104
885.636	9536.96827
885.817	9594.1756
885.997	9747.34932
886.178	9622.77464
886.358	9575.78887
886.538	9479.74849
886.719	9432.73713
886.899	9677.92132
887.08	9661.58274
887.26	9837.17127
887.44	9273.24298
887.621	9485.87978
887.801	9305.96792
887.981	9796.34672
888.161	9140.25369
888.342	9256.87891
888.522	9232.3308
888.702	9504.27279
888.882	9293.69657
889.062	9379.58352
889.242	9062.47271
889.423	8929.36801
889.603	8970.33122
889.783	9342.77839
889.963	8765.44363
890.143	9275.28842
890.323	9185.27346
890.503	9093.17871
890.683	9105.46001
890.863	9438.86953
891.043	9054.28379
891.223	9301.87753
891.403	9105.46001
891.583	9432.73713
891.763	9207.78026
891.943	9457.26586
892.122	9076.80266
892.302	9541.05491
892.482	9248.69648
892.662	9236.42232
892.842	9150.48618
893.022	9258.92448
893.201	8781.84127
893.381	9076.80266
893.561	9029.71535
893.741	9387.76171
893.92	9076.80266
894.1	9273.24298
894.28	9389.80622
894.459	9414.33904
894.639	9232.3308
894.819	9185.27346
894.998	8847.42023
895.178	9183.22729
895.357	8763.39384
895.537	8945.75414
895.716	9146.39324
895.896	9256.87891
896.075	9218.00995
896.255	9293.69657
896.434	9039.9525
896.614	9471.57321
896.793	9019.47776
896.973	9240.51377
897.152	8705.99235
897.331	9203.68827
897.511	8839.22387
897.69	9060.42551
897.87	8810.53435
898.049	8660.88106
898.228	8804.38613
898.407	8947.80233
898.587	8929.36801
898.766	9121.83413
898.945	8636.27111
899.124	8708.04266
899.304	8726.49454
899.483	8910.93225
899.662	8705.99235
899.841	8898.64094
900.02	8548.06338
900.199	8710.09294
900.378	8543.95985
900.557	8414.65967
900.737	8314.04008
900.916	8640.37296
901.095	8527.54496
901.274	8402.3414
901.453	8244.19488
901.632	8560.37352
901.811	8426.97724
901.989	8525.49302
902.168	8303.77015
902.347	8465.97833
902.526	8244.19488
902.705	8198.98879
902.884	8190.76847
903.063	8515.23301
903.242	8034.52158
903.42	7915.20185
903.599	7933.72149
903.778	7960.46915
903.957	7752.5686
904.135	8011.89725
904.314	7804.04886
904.493	8127.05018
904.672	7968.6985
904.85	8178.43739
905.029	7958.41176
905.207	8065.36898
905.386	7880.21575
905.565	7878.15756
905.743	7668.11255
905.922	7748.44961
906.1	7804.04886
906.279	7863.74964
906.457	7445.47182
906.636	7836.98938
906.814	7348.5033
906.993	7199.86199
907.171	7201.92724
907.35	7426.90709
907.528	7301.03305
907.707	7443.40916
907.885	7515.5894
908.063	7643.387
908.242	7904.91244
908.42	7598.04886
908.598	7558.88489
908.777	7663.99184
908.955	7433.09553
909.133	7678.41397
909.311	7274.1969
909.49	7129.63044
909.668	7067.64004
909.846	7146.15782
910.024	6978.75197
910.202	7082.10627
910.38	6964.27789
910.559	6974.61663
910.737	7026.30192
910.915	7206.05766
911.093	7071.77336
911.271	7338.18466
911.449	6755.31387
911.627	6970.4812
911.805	6620.70884
911.983	6724.25978
912.161	6469.42089
912.339	7001.49474
912.517	6653.8514
912.695	6972.54893
912.872	6722.18932
913.05	6836.03043
913.228	6651.78016
913.406	6593.77617
913.584	6525.39109
913.762	6840.16881
913.939	6558.55064
914.117	6614.49396
914.295	6284.80643
914.473	6517.10027
914.65	6344.982
914.828	6102.08412
915.006	5989.86896
915.184	6349.13131
915.361	6176.85612
915.539	6378.1739
915.716	5904.62269
915.894	6276.50481
916.072	6060.53095
916.249	6087.54158
916.427	5983.63278
916.604	5933.73563
916.782	5854.70403
916.959	5754.82594
917.137	5736.09274
917.314	6079.23104
917.492	5771.47606
917.669	5850.54353
917.847	5661.14084
918.024	5692.37451
918.201	5519.48162
918.379	5550.73935
918.556	5361.02779
918.733	5442.35658
918.911	5098.02992
919.088	5502.80867
919.265	5139.80033
919.442	5361.02779
919.62	4983.11354
919.797	5517.39759
919.974	5517.39759
920.151	5675.71722
920.328	5331.82413
920.506	5461.11969
920.683	5298.44289
920.86	5075.05225
921.037	4993.56337
921.214	5087.58587
921.391	4907.85776
921.568	5237.92413
921.745	5049.98249
921.922	5118.91629
922.099	4600.25691
922.276	4778.18105
922.453	4786.54994
922.63	4874.40121
922.807	4549.99019
922.984	4916.22099
923.161	4501.80592
923.338	4914.13022
923.514	4432.65159
923.691	4757.25726
923.868	4350.89303
924.045	4723.77448
924.222	4180.98194
924.399	4434.74753
924.575	4376.05303
924.752	4660.97871
924.929	4218.75207
925.105	4529.04195
925.282	4258.61306
925.459	4443.13106
925.635	4145.30387
925.812	4438.93934
925.989	4128.51209
926.165	4382.34255
926.342	4241.83042
926.518	4283.78445
926.695	4071.82994
926.871	4073.92955
927.048	4139.00711
927.224	4216.65391
927.401	3952.11816
927.577	4122.21482
927.754	4023.53322
927.93	4143.20497
928.107	3929.00826
928.283	3987.82864
928.459	3868.07045
928.636	4027.73337
928.812	3802.91149
928.988	3851.25706
929.165	3643.08757
929.341	3882.78112
929.517	3733.52797
929.693	4073.92955
929.87	3550.50769
930.046	3912.19951
930.222	3518.93815
930.398	3733.52797
930.574	3499.99444
930.751	3634.67272
930.927	3506.30918
931.103	3375.7718
931.279	3146.11719
931.455	3295.73155
931.631	2983.76757
931.807	3304.15801
931.983	3165.08699
932.159	3451.57608
932.335	2966.89485
932.511	3148.22501
932.687	2890.95586
932.863	3203.02263
933.039	2876.18776
933.215	3078.65848
933.391	2705.25016
933.566	2777.01263
933.742	2833.98934
933.918	2758.01818
934.094	2620.80455
934.27	2857.19917
934.445	2534.22737
934.621	2498.32374
934.797	2403.26922
934.973	2261.705
935.148	2029.20035
935.324	2170.82842
935.5	2058.79701
935.675	2156.03307
935.851	1906.57216
936.027	1982.68866
936.202	1712.02272
936.378	1908.68661
936.553	1678.18471
936.729	1705.67815
936.904	1599.9317
937.08	1712.02272
937.255	1538.59641
937.431	1686.64428
937.606	1320.74745
937.782	1460.33978
937.957	1329.20745
938.133	1267.87311
938.308	1024.67841
938.483	1153.67046
938.659	997.19094
938.834	1022.56395
939.009	942.21932
939.185	1117.72003
939.36	897.82273
939.535	1041.59428
939.71	853.42963
939.886	902.05083
940.061	815.38144
940.236	885.13862
940.411	694.9162
940.586	737.18088
940.761	568.15026
940.937	608.28796
941.112	502.6729
941.287	684.35073
941.462	637.86606
941.637	678.01157
941.812	532.24166
941.987	578.71235
942.162	477.33052
942.337	536.46599
942.512	430.87514
942.687	500.56096
942.862	494.22521
943.037	515.34488
943.212	380.20529
943.386	610.4006
943.561	498.44903
943.736	466.77183
943.911	456.21352
944.086	540.69038
944.26	430.87514
944.435	515.34488
944.61	464.66014
944.785	536.46599
944.959	479.44231
945.134	464.66014
945.309	464.66014
945.483	509.00883
945.658	479.44231
945.833	386.5385
946.007	333.76638
946.182	443.54405
946.357	373.87222
946.531	464.66014
946.706	375.98323
946.88	422.42952
947.055	331.65572
947.229	498.44903
947.404	397.09419
947.578	487.88959
947.752	369.65026
947.927	399.20538
948.101	418.2068
948.276	435.09805
948.45	397.09419
948.624	439.32102
948.799	346.43071
948.973	464.66014
949.147	405.53904
949.321	511.12083
949.496	454.1019
949.67	502.6729
949.844	502.6729
950.018	413.98415
950.193	373.87222
950.367	443.54405
950.541	380.20529
950.715	574.48747
950.889	441.43252
951.063	589.27478
951.237	424.5409
951.411	521.68107
951.585	477.33052
951.759	585.04977
951.933	534.35382
952.107	604.06272
952.281	490.00145
952.455	618.85129
952.629	540.69038
952.803	580.82481
952.977	559.70082
953.151	538.57818
953.325	397.09419
953.499	525.90526
953.672	502.6729
953.846	576.59991
954.02	557.58849
954.194	519.56899
954.368	468.88354
954.541	612.51326
954.715	549.13933
954.889	561.81316
955.062	610.4006
955.236	620.96399
955.41	574.48747
955.583	635.75326
955.757	447.76714
955.93	582.93728
956.104	506.89684
956.278	625.18944
956.451	464.66014
956.625	506.89684
956.798	591.3873
956.972	589.27478
957.145	511.12083
957.319	551.2516
957.492	405.53904
957.665	551.2516
957.839	470.99526
958.012	511.12083
958.185	517.45693
958.359	593.49984
958.532	612.51326
958.705	616.7386
958.879	464.66014
959.052	591.3873
959.225	542.8026
959.398	555.47618
959.572	458.32515
959.745	599.83753
959.918	456.21352
960.091	549.13933
960.264	449.87871
960.438	582.93728
960.611	498.44903
960.784	481.5541
960.957	468.88354
961.13	439.32102
961.303	369.65026
961.476	523.79316
961.649	318.99213
961.822	574.48747
961.995	494.22521
962.168	580.82481
962.341	521.68107
962.514	544.91483
962.686	371.76124
962.859	490.00145
963.032	405.53904
963.205	513.23285
963.378	456.21352
963.551	511.12083
963.723	382.31634
963.896	500.56096
964.069	515.34488
964.242	644.20454
964.414	416.09547
964.587	538.57818
964.76	394.98302
964.932	432.98659
965.105	380.20529
965.278	363.31745
965.45	337.98775
965.623	397.09419
965.795	337.98775
965.968	367.53931
966.14	363.31745
966.313	413.98415
966.485	354.87394
966.658	441.43252
966.83	371.76124
967.003	424.5409
967.175	257.79401
967.348	399.20538
967.52	331.65572
967.692	441.43252
967.865	340.09847
968.037	449.87871
968.209	287.336
968.382	348.54149
968.554	439.32102
968.726	316.8816
968.898	380.20529
969.071	397.09419
969.243	378.09425
969.415	382.31634
969.587	285.22573
969.759	371.76124
969.932	325.32385
970.104	356.9848
970.276	356.9848
970.448	380.20529
970.62	321.10269
970.792	409.76156
970.964	264.12413
971.136	392.87187
971.308	299.99796
971.48	321.10269
971.652	295.77723
971.824	272.56455
971.996	243.02442
972.168	373.87222
972.339	283.11549
972.511	312.66058
972.683	238.8047
972.855	266.2342
973.027	283.11549
973.199	327.43445
973.37	183.95562
973.542	253.57403
973.714	230.36551
973.886	312.66058
974.057	240.91455
974.229	283.11549
974.401	274.6747
974.572	211.37848
974.744	240.91455
974.915	274.6747
975.087	188.1743
975.259	297.88759
975.43	243.02442
975.602	245.1343
975.773	194.50247
975.945	196.6119
976.116	152.31817
976.288	304.21876
976.459	257.79401
976.63	194.50247
976.802	200.83082
976.973	240.91455
977.145	139.6645
977.316	120.68545
977.487	143.8823
977.659	158.64528
977.83	173.40929
978.001	245.1343
978.172	173.40929
978.344	205.04983
978.515	124.90287
978.686	236.69488
978.857	228.25576
979.028	211.37848
979.2	186.06495
979.371	183.95562
979.542	202.94032
979.713	179.73703
979.884	160.75436
980.055	152.31817
980.226	190.28367
980.397	249.35413
980.568	162.86346
980.739	224.03632
980.91	213.48807
981.081	188.1743
981.252	207.15936
981.423	243.02442
981.594	236.69488
981.765	221.92663
981.936	228.25576
982.106	190.28367
982.277	135.44678
982.448	215.59768
982.619	78.51611
982.79	118.57677
982.96	177.62776
983.131	137.55563
983.302	179.73703
983.472	124.90287
983.643	95.38278
983.814	169.1909
983.984	67.97517
984.155	61.65088
984.326	219.81696
984.496	148.10019
984.667	78.51611
984.837	103.81665
985.008	129.12037
985.178	135.44678
985.349	202.94032
985.519	205.04983
985.69	110.14229
985.86	143.8823
986.031	162.86346
986.201	78.51611
986.371	137.55563
986.542	103.81665
986.712	84.84094
986.882	120.68545
987.053	61.65088
987.223	160.75436
987.393	110.14229
987.563	91.16598
987.734	101.70815
987.904	59.54283
988.074	143.8823
988.244	129.12037
988.414	148.10019
988.585	78.51611
988.755	110.14229
988.925	105.92518
989.095	110.14229
989.265	97.49122
989.435	86.94927
989.605	95.38278
989.775	84.84094
989.945	103.81665
990.115	118.57677
990.285	42.67924
990.455	152.31817
990.625	46.895
990.795	143.8823
990.965	72.19148
991.134	42.67924
991.304	80.62436
991.474	59.54283
991.644	84.84094
991.814	63.75895
991.984	137.55563
992.153	44.78711
992.323	51.11085
992.493	135.44678
992.662	65.86705
992.832	80.62436
993.002	84.84094
993.171	118.57677
993.341	34.24801
993.511	36.35578
993.68	118.57677
993.85	19.49425
994.019	97.49122
994.189	80.62436
994.358	137.55563
994.528	84.84094
994.697	70.08331
994.867	76.40788
995.036	105.92518
995.206	84.84094
995.375	84.84094
995.544	108.03372
995.714	36.35578
995.883	78.51611
996.052	103.81665
996.222	120.68545
996.391	36.35578
996.56	17.38667
996.73	53.21881
996.899	120.68545
997.068	76.40788
997.237	55.32679
997.406	-28.97412
997.576	61.65088
997.745	70.08331
997.914	46.895
998.083	51.11085
998.252	44.78711
998.421	11.06405
998.59	67.97517
998.759	129.12037
998.928	133.33796
999.097	124.90287
999.266	34.24801
999.435	34.24801
999.604	59.54283
999.773	78.51611
999.942	59.54283
1000.111	59.54283
1000.28	44.78711
1000.448	-20.54576
1000.617	-14.22423
1000.786	17.38667
1000.955	95.38278
1001.124	42.67924
1001.292	131.22915
1001.461	70.08331
1001.63	42.67924
1001.798	4.74166
1001.967	49.00291
1002.136	84.84094
1002.304	59.54283
1002.473	44.78711
1002.642	38.46358
1002.81	51.11085
1002.979	120.68545
1003.147	34.24801
1003.316	76.40788
1003.484	23.70949
1003.653	53.21881
1003.821	-7.90249
1003.99	70.08331
1004.158	17.38667
1004.327	78.51611
1004.495	59.54283
1004.663	80.62436
1004.832	55.32679
1005	93.27437
1005.168	-43.72279
1005.337	49.00291
1005.505	27.92483
1005.673	103.81665
1005.842	34.24801
1006.01	-14.22423
1006.178	-39.50901
1006.346	44.78711
1006.514	-3.68787
1006.683	44.78711
1006.851	61.65088
1007.019	70.08331
1007.187	67.97517
1007.355	-7.90249
1007.523	8.95656
1007.691	127.01161
1007.859	19.49425
1008.027	36.35578
1008.195	-33.18815
1008.363	-5.79519
1008.531	110.14229
1008.699	30.03253
1008.867	38.46358
1009.035	78.51611
1009.203	86.94927
1009.37	-33.18815
1009.538	25.81715
1009.706	-24.75999
1009.874	44.78711
1010.042	110.14229
1010.209	17.38667
1010.377	-22.65289
1010.545	53.21881
1010.713	61.65088
1010.88	44.78711
1011.048	53.21881
1011.216	32.14026
1011.383	36.35578
1011.551	-22.65289
1011.718	67.97517
1011.886	2.63424
1012.054	-1.58052
1012.221	103.81665
1012.389	-20.54576
1012.556	4.74166
1012.724	86.94927
1012.891	70.08331
1013.058	42.67924
1013.226	0.52684
1013.393	63.75895
1013.561	-24.75999
1013.728	51.11085
1013.895	21.60186
1014.063	-66.89679
1014.23	21.60186
1014.397	8.95656
1014.565	42.67924
1014.732	84.84094
1014.899	17.38667
1015.066	38.46358
1015.233	44.78711
1015.401	25.81715
1015.568	-10.00976
1015.735	61.65088
1015.902	11.06405
1016.069	67.97517
1016.236	2.63424
1016.403	51.11085
1016.57	105.92518
1016.737	46.895
1016.904	-33.18815
1017.071	21.60186
1017.238	-10.00976
1017.405	72.19148
1017.572	46.895
1017.739	51.11085
1017.906	-58.47023
1018.073	61.65088
1018.24	8.95656
1018.407	0.52684
1018.573	8.95656
1018.74	25.81715
1018.907	36.35578
1019.074	30.03253
1019.241	-22.65289
1019.407	2.63424
1019.574	25.81715
1019.741	15.2791
1019.907	32.14026
1020.074	8.95656
1020.241	38.46358
1020.407	122.79415
1020.574	23.70949
1020.74	0.52684
1020.907	67.97517
1021.073	19.49425
1021.24	-14.22423
1021.406	27.92483
1021.573	-22.65289
1021.739	4.74166
1021.906	38.46358
1022.072	2.63424
1022.239	38.46358
1022.405	34.24801
1022.571	-24.75999
1022.738	55.32679
1022.904	36.35578
1023.07	42.67924
1023.237	-16.33143
1023.403	-18.43861
1023.569	-22.65289
1023.735	-56.36353
1023.902	11.06405
1024.068	15.2791
1024.234	46.895
1024.4	67.97517
1024.566	-37.40208
1024.732	19.49425
1024.898	6.8491
1025.065	78.51611
1025.231	42.67924
1025.397	-26.86706
1025.563	32.14026
1025.729	34.24801
1025.895	61.65088
1026.061	2.63424
1026.227	4.74166
1026.392	84.84094
1026.558	2.63424
1026.724	-7.90249
1026.89	2.63424
1027.056	36.35578
1027.222	-10.00976
1027.388	61.65088
1027.553	-7.90249
1027.719	63.75895
1027.885	34.24801
1028.051	8.95656
1028.216	8.95656
1028.382	-22.65289
1028.548	59.54283
1028.713	17.38667
1028.879	51.11085
1029.045	-5.79519
1029.21	84.84094
1029.376	27.92483
1029.541	118.57677
1029.707	25.81715
1029.873	8.95656
1030.038	-20.54576
1030.204	2.63424
1030.369	-10.00976
1030.534	25.81715
1030.7	-20.54576
1030.865	-50.04327
1031.031	-43.72279
1031.196	-45.82964
1031.361	27.92483
1031.527	-3.68787
1031.692	13.17157
1031.857	30.03253
1032.023	0.52684
1032.188	-28.97412
1032.353	74.29967
1032.518	120.68545
1032.684	-3.68787
1032.849	17.38667
1033.014	-3.68787
1033.179	67.97517
1033.344	-31.08114
1033.509	51.11085
1033.674	-5.79519
1033.839	6.8491
1034.004	2.63424
1034.17	42.67924
1034.335	42.67924
1034.5	-75.32294
1034.664	44.78711
1034.829	-18.43861
1034.994	4.74166
1035.159	42.67924
1035.324	0.52684
1035.489	-5.79519
1035.654	-14.22423
1035.819	30.03253
1035.984	4.74166
1036.148	15.2791
1036.313	15.2791
1036.478	13.17157
1036.643	-14.22423
1036.807	51.11085
1036.972	-24.75999
1037.137	25.81715
1037.301	4.74166
1037.466	8.95656
1037.631	95.38278
1037.795	25.81715
1037.96	118.57677
1038.124	-5.79519
1038.289	25.81715
1038.454	-7.90249
1038.618	95.38278
1038.783	0.52684
1038.947	-41.61591
1039.111	2.63424
1039.276	46.895
1039.44	21.60186
1039.605	8.95656
1039.769	76.40788
1039.933	-14.22423
1040.098	-7.90249
1040.262	44.78711
1040.426	-45.82964
1040.591	-7.90249
1040.755	57.4348
1040.919	-12.11701
1041.083	8.95656
1041.248	-7.90249
1041.412	-58.47023
1041.576	-7.90249
1041.74	67.97517
1041.904	42.67924
1042.068	0.52684
1042.232	13.17157
1042.397	11.06405
1042.561	-14.22423
1042.725	67.97517
1042.889	93.27437
1043.053	34.24801
1043.217	-14.22423
1043.381	49.00291
1043.544	-20.54576
1043.708	51.11085
1043.872	-52.15005
1044.036	-64.79019
1044.2	67.97517
1044.364	2.63424
1044.528	8.95656
1044.691	21.60186
1044.855	8.95656
1045.019	-87.96139
1045.183	-16.33143
1045.346	-3.68787
1045.51	17.38667
1045.674	-50.04327
1045.837	-16.33143
1046.001	-35.29512
1046.165	0.52684
1046.328	27.92483
1046.492	-37.40208
1046.655	27.92483
1046.819	-37.40208
1046.983	-20.54576
1047.146	70.08331
1047.31	11.06405
1047.473	8.95656
1047.636	42.67924
1047.8	-18.43861
1047.963	63.75895
1048.127	27.92483
1048.29	15.2791
