Data from mixed_try6.1_USB4F045381__6__00290.txt Node

Date: Thu Apr 03 20:31:47 EDT 2025
User: mmckonesweet
Spectrometer: USB4F04538
Trigger mode: 4
Integration Time (sec): 2.700000E-3
Scans to average: 1
Electric dark correction enabled: true
Nonlinearity correction enabled: true
Boxcar width: 0
XAxis mode: Wavelengths
Number of Pixels in Spectrum: 3648
>>>>>Begin Spectral Data<<<<<
345.52	6.32224
345.736	6.32224
345.952	6.32224
346.168	-23.17966
346.384	-29.50088
346.6	16.85977
346.816	-46.35635
347.032	99.07256
347.248	12.64469
347.464	-31.6079
347.68	14.75222
347.896	-10.53658
348.112	27.39791
348.328	-23.17966
348.544	-27.39383
348.76	-52.67674
348.975	21.07496
349.191	14.75222
349.407	-29.50088
349.623	4.2148
349.839	-37.92881
350.055	27.39791
350.27	31.61332
350.486	-65.31684
350.702	23.18258
350.918	-31.6079
351.133	10.53718
351.349	-16.85823
351.565	46.36803
351.781	-35.82187
351.996	-21.07254
352.212	-2.10736
352.428	-6.32202
352.644	71.66443
352.859	27.39791
353.075	29.5056
353.291	35.82884
353.506	23.18258
353.722	-21.07254
353.938	29.5056
354.153	18.96735
354.369	-88.48797
354.584	56.90779
354.8	-14.75104
355.016	27.39791
355.231	14.75222
355.447	8.4297
355.662	-21.07254
355.878	10.53718
356.093	12.64469
356.309	40.04444
356.524	2.10739
356.74	48.47593
356.955	4.2148
357.171	50.58386
357.386	-18.9654
357.602	-8.42931
357.817	61.12386
358.033	-27.39383
358.248	4.2148
358.464	-10.53658
358.679	27.39791
358.895	27.39791
359.11	4.2148
359.325	-46.35635
359.541	-8.42931
359.756	61.12386
359.972	29.5056
360.187	-35.82187
360.402	29.5056
360.618	2.10739
360.833	-4.2147
361.048	4.2148
361.264	18.96735
361.479	10.53718
361.694	82.20557
361.909	25.29023
362.125	40.04444
362.34	10.53718
362.555	14.75222
362.77	29.5056
362.986	10.53718
363.201	14.75222
363.416	40.04444
363.631	-52.67674
363.847	-14.75104
364.062	35.82884
364.277	35.82884
364.492	-31.6079
364.707	61.12386
364.922	21.07496
365.138	-8.42931
365.353	-10.53658
365.568	6.32224
365.783	0
365.998	-111.65595
366.213	65.34002
366.428	-14.75104
366.643	52.69182
366.858	44.26014
367.073	-8.42931
367.288	48.47593
367.503	-46.35635
367.718	35.82884
367.933	-12.64382
368.148	44.26014
368.363	37.93663
368.578	29.5056
368.793	12.64469
369.008	44.26014
369.223	21.07496
369.438	-21.07254
369.653	14.75222
369.868	67.44814
370.083	40.04444
370.298	65.34002
370.513	21.07496
370.728	16.85977
370.943	52.69182
371.157	12.64469
371.372	-61.10358
371.587	-52.67674
371.802	-31.6079
372.017	4.2148
372.232	42.15228
372.446	25.29023
372.661	6.32224
372.876	44.26014
373.091	50.58386
373.306	61.12386
373.52	18.96735
373.735	8.4297
373.95	23.18258
374.165	10.53718
374.379	-44.2495
374.594	65.34002
374.809	-23.17966
375.023	44.26014
375.238	10.53718
375.453	23.18258
375.667	59.01582
375.882	0
376.097	-29.50088
376.311	52.69182
376.526	21.07496
376.741	-21.07254
376.955	-27.39383
377.17	14.75222
377.384	23.18258
377.599	69.55627
377.813	54.79979
378.028	-63.21022
378.242	6.32224
378.457	42.15228
378.672	-23.17966
378.886	94.85568
379.101	12.64469
379.315	40.04444
379.53	-6.32202
379.744	40.04444
379.958	71.66443
380.173	40.04444
380.387	-46.35635
380.602	-21.07254
380.816	65.34002
381.031	4.2148
381.245	54.79979
381.459	52.69182
381.674	-33.71489
381.888	-56.89021
382.103	-14.75104
382.317	27.39791
382.531	-12.64382
382.746	35.82884
382.96	14.75222
383.174	-12.64382
383.388	61.12386
383.603	61.12386
383.817	61.12386
384.031	82.20557
384.246	23.18258
384.46	-18.9654
384.674	82.20557
384.888	-94.80682
385.103	0
385.317	18.96735
385.531	18.96735
385.745	21.07496
385.959	-23.17966
386.174	33.72107
386.388	-29.50088
386.602	21.07496
386.816	29.5056
387.03	52.69182
387.244	-4.2147
387.458	-8.42931
387.672	-18.9654
387.887	2.10739
388.101	52.69182
388.315	14.75222
388.529	25.29023
388.743	-6.32202
388.957	27.39791
389.171	2.10739
389.385	-25.28676
389.599	40.04444
389.813	-4.2147
390.027	-42.14263
390.241	27.39791
390.455	12.64469
390.669	44.26014
390.883	82.20557
391.097	52.69182
391.311	10.53718
391.525	-12.64382
391.738	10.53718
391.952	27.39791
392.166	-16.85823
392.38	14.75222
392.594	14.75222
392.808	16.85977
393.022	42.15228
393.236	-46.35635
393.449	2.10739
393.663	42.15228
393.877	27.39791
394.091	18.96735
394.305	4.2148
394.518	40.04444
394.732	35.82884
394.946	-56.89021
395.16	54.79979
395.373	-18.9654
395.587	35.82884
395.801	18.96735
396.015	27.39791
396.228	-8.42931
396.442	-67.42343
396.656	77.98905
396.869	12.64469
397.083	-4.2147
397.297	21.07496
397.51	31.61332
397.724	6.32224
397.938	27.39791
398.151	18.96735
398.365	52.69182
398.578	2.10739
398.792	14.75222
399.005	35.82884
399.219	4.2148
399.433	2.10739
399.646	-2.10736
399.86	16.85977
400.073	-31.6079
400.287	44.26014
400.5	14.75222
400.714	18.96735
400.927	-56.89021
401.141	46.36803
401.354	-6.32202
401.567	-10.53658
401.781	86.42218
401.994	0
402.208	35.82884
402.421	-18.9654
402.635	69.55627
402.848	92.74727
403.061	18.96735
403.275	23.18258
403.488	50.58386
403.701	14.75222
403.915	63.23193
404.128	29.5056
404.341	-23.17966
404.555	-4.2147
404.768	40.04444
404.981	2.10739
405.195	21.07496
405.408	-63.21022
405.621	52.69182
405.834	54.79979
406.048	18.96735
406.261	2.10739
406.474	-14.75104
406.687	130.70195
406.9	-23.17966
407.114	-23.17966
407.327	23.18258
407.54	-56.89021
407.753	63.23193
407.966	27.39791
408.179	52.69182
408.392	69.55627
408.605	27.39791
408.819	42.15228
409.032	4.2148
409.245	-31.6079
409.458	-10.53658
409.671	12.64469
409.884	-42.14263
410.097	-56.89021
410.31	46.36803
410.523	35.82884
410.736	12.64469
410.949	-35.82187
411.162	67.44814
411.375	23.18258
411.588	16.85977
411.801	21.07496
412.014	-12.64382
412.227	-21.07254
412.44	61.12386
412.653	52.69182
412.865	82.20557
413.078	27.39791
413.291	21.07496
413.504	111.72373
413.717	8.4297
413.93	35.82884
414.143	35.82884
414.356	65.34002
414.568	29.5056
414.781	128.59318
414.994	-65.31684
415.207	-29.50088
415.42	18.96735
415.632	4.2148
415.845	14.75222
416.058	14.75222
416.271	-29.50088
416.483	-77.95602
416.696	54.79979
416.909	54.79979
417.121	2.10739
417.334	-37.92881
417.547	27.39791
417.759	63.23193
417.972	-16.85823
418.185	-23.17966
418.397	-14.75104
418.61	35.82884
418.823	18.96735
419.035	-29.50088
419.248	44.26014
419.46	10.53718
419.673	-2.10736
419.885	37.93663
420.098	8.4297
420.311	-14.75104
420.523	-8.42931
420.736	18.96735
420.948	71.66443
421.161	-52.67674
421.373	86.42218
421.586	23.18258
421.798	10.53718
422.01	31.61332
422.223	-27.39383
422.435	-2.10736
422.648	44.26014
422.86	-14.75104
423.073	61.12386
423.285	-2.10736
423.497	2.10739
423.71	37.93663
423.922	21.07496
424.134	18.96735
424.347	67.44814
424.559	50.58386
424.771	27.39791
424.984	-2.10736
425.196	18.96735
425.408	-21.07254
425.621	56.90779
425.833	69.55627
426.045	-14.75104
426.257	27.39791
426.47	-23.17966
426.682	-31.6079
426.894	-86.38163
427.106	52.69182
427.318	-2.10736
427.531	67.44814
427.743	52.69182
427.955	-52.67674
428.167	27.39791
428.379	-6.32202
428.591	35.82884
428.804	48.47593
429.016	-35.82187
429.228	18.96735
429.44	48.47593
429.652	35.82884
429.864	21.07496
430.076	35.82884
430.288	-4.2147
430.5	33.72107
430.712	-40.03573
430.924	63.23193
431.136	35.82884
431.348	27.39791
431.56	21.07496
431.772	-4.2147
431.984	37.93663
432.196	18.96735
432.408	67.44814
432.62	69.55627
432.832	-31.6079
433.044	10.53718
433.256	65.34002
433.468	2.10739
433.679	69.55627
433.891	-4.2147
434.103	82.20557
434.315	-2.10736
434.527	-14.75104
434.739	-10.53658
434.95	-48.46317
435.162	10.53718
435.374	61.12386
435.586	-27.39383
435.798	35.82884
436.009	-27.39383
436.221	-10.53658
436.433	-27.39383
436.645	-21.07254
436.856	8.4297
437.068	44.26014
437.28	-23.17966
437.491	27.39791
437.703	-40.03573
437.915	-12.64382
438.126	-23.17966
438.338	69.55627
438.55	46.36803
438.761	-29.50088
438.973	-23.17966
439.184	42.15228
439.396	-6.32202
439.608	54.79979
439.819	6.32224
440.031	10.53718
440.242	-23.17966
440.454	25.29023
440.665	50.58386
440.877	-56.89021
441.088	-2.10736
441.3	-8.42931
441.511	35.82884
441.723	-18.9654
441.934	-25.28676
442.146	71.66443
442.357	12.64469
442.569	-10.53658
442.78	18.96735
442.991	139.13728
443.203	-2.10736
443.414	-12.64382
443.626	54.79979
443.837	-14.75104
444.048	16.85977
444.26	46.36803
444.471	-4.2147
444.682	-2.10736
444.894	-27.39383
445.105	4.2148
445.316	40.04444
445.528	-12.64382
445.739	-31.6079
445.95	31.61332
446.161	2.10739
446.373	-37.92881
446.584	-10.53658
446.795	-40.03573
447.006	40.04444
447.217	12.64469
447.429	-31.6079
447.64	10.53718
447.851	35.82884
448.062	35.82884
448.273	27.39791
448.484	-29.50088
448.695	-23.17966
448.907	10.53718
449.118	-8.42931
449.329	-69.53
449.54	27.39791
449.751	2.10739
449.962	12.64469
450.173	37.93663
450.384	69.55627
450.595	27.39791
450.806	37.93663
451.017	4.2148
451.228	-16.85823
451.439	27.39791
451.65	4.2148
451.861	44.26014
452.072	35.82884
452.283	4.2148
452.494	46.36803
452.705	40.04444
452.915	10.53718
453.126	-37.92881
453.337	-67.42343
453.548	-50.56997
453.759	-27.39383
453.97	88.53052
454.181	44.26014
454.391	2.10739
454.602	21.07496
454.813	88.53052
455.024	-12.64382
455.235	31.61332
455.445	48.47593
455.656	2.10739
455.867	59.01582
456.078	-65.31684
456.288	90.63889
456.499	96.96411
456.71	18.96735
456.921	6.32224
457.131	52.69182
457.342	71.66443
457.553	56.90779
457.763	18.96735
457.974	2.10739
458.184	-16.85823
458.395	10.53718
458.606	40.04444
458.816	37.93663
459.027	-90.59428
459.237	21.07496
459.448	10.53718
459.659	-12.64382
459.869	-48.46317
460.08	-4.2147
460.29	4.2148
460.501	69.55627
460.711	27.39791
460.922	4.2148
461.132	18.96735
461.343	61.12386
461.553	61.12386
461.764	-4.2147
461.974	48.47593
462.184	-35.82187
462.395	-42.14263
462.605	67.44814
462.816	-6.32202
463.026	-12.64382
463.236	-16.85823
463.447	4.2148
463.657	-2.10736
463.867	12.64469
464.078	-14.75104
464.288	-21.07254
464.498	37.93663
464.709	23.18258
464.919	-21.07254
465.129	10.53718
465.339	4.2148
465.55	-105.33773
465.76	-42.14263
465.97	27.39791
466.18	73.77262
466.391	2.10739
466.601	-44.2495
466.811	18.96735
467.021	18.96735
467.231	63.23193
467.441	105.39804
467.651	69.55627
467.862	-27.39383
468.072	-14.75104
468.282	40.04444
468.492	12.64469
468.702	40.04444
468.912	-10.53658
469.122	-31.6079
469.332	73.77262
469.542	80.0973
469.752	14.75222
469.962	44.26014
470.172	-31.6079
470.382	2.10739
470.592	27.39791
470.802	18.96735
471.012	2.10739
471.222	63.23193
471.432	-2.10736
471.642	4.2148
471.852	56.90779
472.062	35.82884
472.272	29.5056
472.482	86.42218
472.691	46.36803
472.901	-14.75104
473.111	12.64469
473.321	80.0973
473.531	-14.75104
473.741	-40.03573
473.95	21.07496
474.16	52.69182
474.37	63.23193
474.58	40.04444
474.79	16.85977
474.999	48.47593
475.209	10.53718
475.419	69.55627
475.628	35.82884
475.838	21.07496
476.048	14.75222
476.258	50.58386
476.467	101.18103
476.677	-65.31684
476.886	-23.17966
477.096	16.85977
477.306	-4.2147
477.515	54.79979
477.725	-27.39383
477.935	-14.75104
478.144	69.55627
478.354	29.5056
478.563	31.61332
478.773	21.07496
478.982	10.53718
479.192	16.85977
479.401	-31.6079
479.611	10.53718
479.82	-27.39383
480.03	21.07496
480.239	-54.78349
480.449	54.79979
480.658	-21.07254
480.868	23.18258
481.077	27.39791
481.287	-31.6079
481.496	12.64469
481.705	44.26014
481.915	-23.17966
482.124	14.75222
482.333	-63.21022
482.543	27.39791
482.752	-58.9969
482.961	23.18258
483.171	10.53718
483.38	29.5056
483.589	18.96735
483.799	6.32224
484.008	42.15228
484.217	77.98905
484.426	44.26014
484.636	77.98905
484.845	-12.64382
485.054	77.98905
485.263	23.18258
485.472	6.32224
485.682	21.07496
485.891	35.82884
486.1	-4.2147
486.309	8.4297
486.518	23.18258
486.727	2.10739
486.936	8.4297
487.146	84.31387
487.355	2.10739
487.564	40.04444
487.773	44.26014
487.982	-29.50088
488.191	-10.53658
488.4	44.26014
488.609	94.85568
488.818	12.64469
489.027	50.58386
489.236	-10.53658
489.445	-58.9969
489.654	54.79979
489.863	77.98905
490.072	-42.14263
490.281	-46.35635
490.49	21.07496
490.698	31.61332
490.907	-75.84956
491.116	-14.75104
491.325	86.42218
491.534	2.10739
491.743	56.90779
491.952	94.85568
492.16	44.26014
492.369	107.50658
492.578	44.26014
492.787	63.23193
492.996	61.12386
493.204	2.10739
493.413	46.36803
493.622	29.5056
493.831	31.61332
494.039	-14.75104
494.248	-31.6079
494.457	61.12386
494.665	-21.07254
494.874	48.47593
495.083	63.23193
495.291	2.10739
495.5	2.10739
495.709	56.90779
495.917	21.07496
496.126	40.04444
496.335	4.2148
496.543	-10.53658
496.752	14.75222
496.96	-6.32202
497.169	54.79979
497.377	73.77262
497.586	61.12386
497.794	8.4297
498.003	-40.03573
498.211	-21.07254
498.42	8.4297
498.628	23.18258
498.837	42.15228
499.045	44.26014
499.254	27.39791
499.462	69.55627
499.671	31.61332
499.879	69.55627
500.087	18.96735
500.296	2.10739
500.504	42.15228
500.713	71.66443
500.921	-23.17966
501.129	-31.6079
501.338	69.55627
501.546	31.61332
501.754	69.55627
501.962	44.26014
502.171	-42.14263
502.379	-2.10736
502.587	-65.31684
502.795	-4.2147
503.004	63.23193
503.212	63.23193
503.42	6.32224
503.628	10.53718
503.837	77.98905
504.045	-46.35635
504.253	10.53718
504.461	35.82884
504.669	-35.82187
504.877	8.4297
505.085	2.10739
505.294	63.23193
505.502	6.32224
505.71	-40.03573
505.918	-4.2147
506.126	6.32224
506.334	37.93663
506.542	18.96735
506.75	103.28953
506.958	-29.50088
507.166	18.96735
507.374	2.10739
507.582	12.64469
507.79	18.96735
507.998	27.39791
508.206	61.12386
508.414	27.39791
508.622	2.10739
508.83	12.64469
509.037	12.64469
509.245	27.39791
509.453	69.55627
509.661	21.07496
509.869	65.34002
510.077	61.12386
510.285	-61.10358
510.492	82.20557
510.7	56.90779
510.908	40.04444
511.116	-42.14263
511.324	37.93663
511.531	-14.75104
511.739	35.82884
511.947	14.75222
512.155	-29.50088
512.362	-27.39383
512.57	105.39804
512.778	23.18258
512.985	77.98905
513.193	59.01582
513.401	-2.10736
513.608	88.53052
513.816	52.69182
514.024	88.53052
514.231	-31.6079
514.439	14.75222
514.646	23.18258
514.854	61.12386
515.061	4.2148
515.269	96.96411
515.477	2.10739
515.684	44.26014
515.892	-18.9654
516.099	10.53718
516.307	0
516.514	-6.32202
516.722	103.28953
516.929	61.12386
517.136	35.82884
517.344	21.07496
517.551	2.10739
517.759	40.04444
517.966	52.69182
518.173	29.5056
518.381	65.34002
518.588	-23.17966
518.796	71.66443
519.003	31.61332
519.21	86.42218
519.418	27.39791
519.625	27.39791
519.832	44.26014
520.039	56.90779
520.247	69.55627
520.454	124.37568
520.661	67.44814
520.868	-6.32202
521.076	12.64469
521.283	52.69182
521.49	-6.32202
521.697	-6.32202
521.904	50.58386
522.112	27.39791
522.319	27.39791
522.526	-12.64382
522.733	6.32224
522.94	-4.2147
523.147	-35.82187
523.354	107.50658
523.561	23.18258
523.768	37.93663
523.975	33.72107
524.183	54.79979
524.39	50.58386
524.597	48.47593
524.804	6.32224
525.011	2.10739
525.218	18.96735
525.425	14.75222
525.632	-18.9654
525.838	33.72107
526.045	86.42218
526.252	80.0973
526.459	46.36803
526.666	46.36803
526.873	21.07496
527.08	92.74727
527.287	4.2148
527.494	35.82884
527.701	56.90779
527.907	-2.10736
528.114	23.18258
528.321	103.28953
528.528	6.32224
528.735	73.77262
528.941	2.10739
529.148	56.90779
529.355	40.04444
529.562	10.53718
529.768	99.07256
529.975	35.82884
530.182	-23.17966
530.388	35.82884
530.595	10.53718
530.802	27.39791
531.008	44.26014
531.215	31.61332
531.422	21.07496
531.628	2.10739
531.835	-23.17966
532.042	18.96735
532.248	27.39791
532.455	77.98905
532.661	90.63889
532.868	31.61332
533.074	29.5056
533.281	44.26014
533.487	21.07496
533.694	-8.42931
533.9	35.82884
534.107	69.55627
534.313	48.47593
534.52	86.42218
534.726	109.61514
534.933	86.42218
535.139	29.5056
535.345	61.12386
535.552	2.10739
535.758	63.23193
535.965	12.64469
536.171	2.10739
536.377	65.34002
536.584	73.77262
536.79	73.77262
536.996	54.79979
537.203	-12.64382
537.409	-14.75104
537.615	21.07496
537.821	35.82884
538.028	90.63889
538.234	71.66443
538.44	-10.53658
538.646	18.96735
538.853	63.23193
539.059	99.07256
539.265	54.79979
539.471	46.36803
539.677	69.55627
539.883	103.28953
540.09	44.26014
540.296	101.18103
540.502	63.23193
540.708	27.39791
540.914	56.90779
541.12	94.85568
541.326	40.04444
541.532	-4.2147
541.738	10.53718
541.944	145.464
542.15	6.32224
542.356	96.96411
542.562	-29.50088
542.768	65.34002
542.974	52.69182
543.18	92.74727
543.386	25.29023
543.592	52.69182
543.798	8.4297
544.004	103.28953
544.21	44.26014
544.415	-18.9654
544.621	105.39804
544.827	14.75222
545.033	27.39791
545.239	12.64469
545.445	-8.42931
545.651	40.04444
545.856	52.69182
546.062	0
546.268	35.82884
546.474	52.69182
546.679	-2.10736
546.885	52.69182
547.091	63.23193
547.297	145.464
547.502	118.04961
547.708	65.34002
547.914	166.55444
548.119	65.34002
548.325	-14.75104
548.531	-2.10736
548.736	40.04444
548.942	96.96411
549.147	46.36803
549.353	63.23193
549.559	130.70195
549.764	31.61332
549.97	73.77262
550.175	35.82884
550.381	69.55627
550.586	21.07496
550.792	128.59318
550.997	96.96411
551.203	69.55627
551.408	48.47593
551.614	-2.10736
551.819	50.58386
552.025	-27.39383
552.23	88.53052
552.435	40.04444
552.641	80.0973
552.846	40.04444
553.052	96.96411
553.257	61.12386
553.462	96.96411
553.668	101.18103
553.873	56.90779
554.078	52.69182
554.283	94.85568
554.489	44.26014
554.694	122.26697
554.899	40.04444
555.105	77.98905
555.31	61.12386
555.515	54.79979
555.72	77.98905
555.925	149.68192
556.131	69.55627
556.336	61.12386
556.541	88.53052
556.746	48.47593
556.951	-12.64382
557.156	56.90779
557.361	99.07256
557.567	63.23193
557.772	63.23193
557.977	115.94096
558.182	63.23193
558.387	61.12386
558.592	50.58386
558.797	71.66443
559.002	105.39804
559.207	48.47593
559.412	103.28953
559.617	63.23193
559.822	73.77262
560.027	130.70195
560.232	37.93663
560.437	105.39804
560.642	120.15828
560.847	46.36803
561.051	181.31899
561.256	77.98905
561.461	71.66443
561.666	153.89993
561.871	96.96411
562.076	103.28953
562.281	65.34002
562.485	86.42218
562.69	61.12386
562.895	168.6636
563.1	86.42218
563.305	139.13728
563.509	69.55627
563.714	75.88082
563.919	105.39804
564.123	107.50658
564.328	145.464
564.533	124.37568
564.737	147.57295
564.942	48.47593
565.147	156.00896
565.351	139.13728
565.556	122.26697
565.761	126.48442
565.965	141.24617
566.17	200.30345
566.374	103.28953
566.579	88.53052
566.784	21.07496
566.988	111.72373
567.193	77.98905
567.397	96.96411
567.602	107.50658
567.806	63.23193
568.011	109.61514
568.215	103.28953
568.42	130.70195
568.624	128.59318
568.828	86.42218
569.033	122.26697
569.237	82.20557
569.442	153.89993
569.646	69.55627
569.85	88.53052
570.055	80.0973
570.259	111.72373
570.463	54.79979
570.668	111.72373
570.872	99.07256
571.076	139.13728
571.281	120.15828
571.485	52.69182
571.689	111.72373
571.893	147.57295
572.098	122.26697
572.302	103.28953
572.506	149.68192
572.71	44.26014
572.914	71.66443
573.119	56.90779
573.323	164.4453
573.527	118.04961
573.731	113.83233
573.935	111.72373
574.139	181.31899
574.343	69.55627
574.547	139.13728
574.751	151.79091
574.955	139.13728
575.159	115.94096
575.364	92.74727
575.568	120.15828
575.772	103.28953
575.976	82.20557
576.18	105.39804
576.383	172.88198
576.587	141.24617
576.791	99.07256
576.995	183.42829
577.199	130.70195
577.403	153.89993
577.607	77.98905
577.811	191.86571
578.015	181.31899
578.219	124.37568
578.422	105.39804
578.626	212.96067
578.83	107.50658
579.034	172.88198
579.238	69.55627
579.442	128.59318
579.645	56.90779
579.849	143.35507
580.053	162.33619
580.257	128.59318
580.46	147.57295
580.664	139.13728
580.868	137.02842
581.071	52.69182
581.275	221.39921
581.479	204.52245
581.682	149.68192
581.886	109.61514
582.09	219.28955
582.293	162.33619
582.497	187.64696
582.7	162.33619
582.904	164.4453
583.107	130.70195
583.311	149.68192
583.515	137.02842
583.718	113.83233
583.922	181.31899
584.125	170.77278
584.329	162.33619
584.532	147.57295
584.735	132.81075
584.939	137.02842
585.142	103.28953
585.346	128.59318
585.549	145.464
585.753	86.42218
585.956	124.37568
586.159	242.49695
586.363	141.24617
586.566	204.52245
586.769	139.13728
586.973	137.02842
587.176	208.74152
587.379	162.33619
587.582	267.81677
587.786	177.10045
587.989	160.22709
588.192	187.64696
588.395	172.88198
588.599	162.33619
588.802	137.02842
589.005	196.08454
589.208	202.41294
589.411	149.68192
589.615	215.07028
589.818	215.07028
590.021	238.27725
590.224	223.5089
590.427	229.83807
590.63	153.89993
590.833	193.97512
591.036	179.20971
591.239	191.86571
591.442	170.77278
591.645	181.31899
591.848	255.15652
592.051	198.19399
592.254	193.97512
592.457	263.59661
592.66	181.31899
592.863	225.6186
593.066	191.86571
593.269	200.30345
593.472	162.33619
593.675	174.9912
593.878	177.10045
594.081	238.27725
594.284	196.08454
594.486	339.57079
594.689	189.75633
594.892	240.38709
595.095	253.04654
595.298	238.27725
595.5	238.27725
595.703	257.26651
595.906	153.89993
596.109	257.26651
596.311	288.91871
596.514	261.48656
596.717	187.64696
596.92	293.13931
597.122	269.92688
597.325	265.70668
597.528	229.83807
597.73	221.39921
597.933	206.63197
598.136	246.71673
598.338	250.93658
598.541	183.42829
598.743	276.25732
598.946	187.64696
599.148	215.07028
599.351	242.49695
599.554	263.59661
599.756	221.39921
599.959	223.5089
600.161	238.27725
600.363	293.13931
600.566	288.91871
600.768	227.72833
600.971	198.19399
601.173	293.13931
601.376	255.15652
601.578	310.02248
601.78	248.82665
601.983	246.71673
602.185	181.31899
602.388	229.83807
602.59	246.71673
602.792	172.88198
602.995	362.78973
603.197	280.47771
603.399	179.20971
603.601	238.27725
603.804	293.13931
604.006	322.68561
604.208	331.12806
604.41	280.47771
604.613	337.46008
604.815	318.4645
605.017	272.03701
605.219	356.45708
605.421	293.13931
605.623	255.15652
605.826	377.56649
606.028	373.34447
606.23	354.34623
606.432	297.36
606.634	282.58793
606.836	204.52245
607.038	335.34939
607.24	246.71673
607.442	339.57079
607.644	345.90302
607.846	367.01157
608.048	272.03701
608.25	339.57079
608.452	272.03701
608.654	259.37653
608.856	305.80158
609.058	291.029
609.26	307.91202
609.462	367.01157
609.664	272.03701
609.866	360.67883
610.067	316.35397
610.269	280.47771
610.471	316.35397
610.673	388.12183
610.875	364.90064
611.077	350.12459
611.278	280.47771
611.48	316.35397
611.682	390.23295
611.884	335.34939
612.085	297.36
612.287	377.56649
612.489	307.91202
612.69	398.67758
612.892	352.2354
613.094	364.90064
613.295	375.45547
613.497	390.23295
613.699	312.13296
613.9	348.0138
614.102	352.2354
614.304	345.90302
614.505	383.89964
614.707	445.1277
614.908	316.35397
615.11	297.36
615.311	390.23295
615.513	280.47771
615.714	381.78858
615.916	383.89964
616.117	428.23586
616.319	307.91202
616.52	257.26651
616.722	364.90064
616.923	345.90302
617.124	333.23872
617.326	231.94784
617.527	440.90465
617.729	358.56795
617.93	358.56795
618.131	356.45708
618.333	354.34623
618.534	407.12248
618.735	438.79314
618.937	303.69116
619.138	449.35082
619.339	377.56649
619.54	339.57079
619.742	339.57079
619.943	392.34408
620.144	350.12459
620.345	434.57018
620.546	390.23295
620.748	457.79724
620.949	318.4645
621.15	459.90888
621.351	316.35397
621.552	360.67883
621.753	367.01157
621.954	367.01157
622.155	362.78973
622.356	457.79724
622.558	379.67753
622.759	428.23586
622.96	291.029
623.161	449.35082
623.362	381.78858
623.563	394.45523
623.764	392.34408
623.965	466.24391
624.166	341.68151
624.366	419.79031
624.567	383.89964
624.768	428.23586
624.969	398.67758
625.17	417.67897
625.371	369.12252
625.572	413.45632
625.773	445.1277
625.973	402.9
626.174	443.01617
626.375	493.69724
626.576	417.67897
626.777	483.13796
626.977	462.02054
627.178	500.03297
627.379	402.9
627.58	508.48083
627.78	415.56764
627.981	443.01617
628.182	407.12248
628.382	578.18424
628.583	407.12248
628.784	428.23586
628.984	457.79724
629.185	468.35561
629.386	430.34728
629.586	474.69081
629.787	474.69081
629.987	497.92105
630.188	485.24979
630.388	430.34728
630.589	421.90167
630.79	500.03297
630.99	377.56649
631.191	588.74665
631.391	478.91436
631.591	472.57906
631.792	428.23586
631.992	554.94811
632.193	409.23374
632.393	491.58535
632.594	413.45632
632.794	519.04098
632.994	352.2354
633.195	495.80913
633.395	466.24391
633.595	411.34503
633.796	455.68561
633.996	559.17274
634.196	533.82578
634.397	510.59283
634.597	472.57906
634.797	508.48083
634.997	478.91436
635.198	561.28507
635.398	487.36163
635.598	428.23586
635.798	497.92105
635.998	470.46733
636.199	491.58535
636.399	592.97171
636.599	466.24391
636.799	481.02615
636.999	434.57018
637.199	516.92892
637.399	500.03297
637.599	525.37723
637.799	394.45523
637.999	407.12248
638.199	485.24979
638.399	474.69081
638.599	542.27454
638.799	643.67633
638.999	502.14492
639.199	584.52165
639.399	557.06041
639.599	586.63414
639.799	508.48083
639.999	510.59283
640.199	605.64718
640.399	601.42197
640.599	396.5664
640.799	620.43582
640.998	626.77399
641.198	571.84695
641.398	559.17274
641.598	512.70485
641.798	559.17274
641.997	569.73455
642.197	440.90465
642.397	635.22506
642.597	546.49901
642.796	571.84695
642.996	542.27454
643.196	548.61126
643.395	576.0718
643.595	576.0718
643.795	567.62216
643.994	643.67633
644.194	584.52165
644.394	633.11228
644.593	586.63414
644.793	662.69239
644.992	491.58535
645.192	576.0718
645.392	647.90204
645.591	696.50105
645.791	628.88674
645.99	692.27481
646.19	650.01491
646.389	588.74665
646.589	519.04098
646.788	552.83581
646.987	510.59283
647.187	620.43582
647.386	559.17274
647.586	677.48332
647.785	688.04861
647.984	702.8405
648.184	609.87244
648.383	730.31258
648.582	614.09776
648.782	702.8405
648.981	611.98509
649.18	654.24069
649.38	662.69239
649.579	662.69239
649.778	635.22506
649.977	643.67633
650.177	622.54853
650.376	694.38792
650.575	639.45067
650.774	800.0573
650.973	624.66125
651.173	694.38792
651.372	635.22506
651.571	683.82246
651.77	715.51969
651.969	774.69432
652.168	626.77399
652.367	821.19417
652.566	578.18424
652.765	874.04026
652.964	652.12779
653.163	690.1617
653.362	669.03129
653.561	757.78646
653.76	683.82246
653.959	681.7094
654.158	753.55959
654.357	745.10599
654.556	679.59635
654.755	702.8405
654.954	662.69239
655.153	812.73931
655.352	685.93553
655.551	778.92139
655.749	677.48332
655.948	840.21813
656.147	719.74618
656.346	821.19417
656.545	685.93553
656.743	846.55961
656.942	601.42197
657.141	795.83004
657.34	789.48922
657.538	861.3567
657.737	757.78646
657.936	745.10599
658.135	723.97271
658.333	846.55961
658.532	730.31258
658.731	747.21937
658.929	603.53457
659.128	740.87925
659.326	747.21937
659.525	871.92631
659.724	772.5808
659.922	852.90117
660.121	611.98509
660.319	766.24031
660.518	797.94367
660.716	833.87673
660.915	823.3079
661.113	933.23403
661.312	804.2846
661.51	967.06169
661.709	914.20679
661.907	941.69077
662.105	694.38792
662.304	890.95213
662.502	745.10599
662.701	812.73931
662.899	800.0573
663.097	812.73931
663.296	753.55959
663.494	838.10432
663.692	713.40647
663.891	804.2846
664.089	795.83004
664.287	1032.60768
664.485	766.24031
664.684	933.23403
664.882	804.2846
665.08	831.76294
665.278	732.42589
665.476	812.73931
665.675	810.62562
665.873	838.10432
666.071	738.76589
666.269	933.23403
666.467	812.73931
666.665	846.55961
666.863	696.50105
667.061	795.83004
667.259	789.48922
667.457	888.83812
667.655	785.26206
667.853	888.83812
668.051	897.29422
668.249	926.89155
668.447	787.37564
668.645	838.10432
668.843	789.48922
669.041	956.49035
669.239	806.39826
669.437	907.86452
669.635	890.95213
669.833	922.66327
670.031	850.78731
670.229	797.94367
670.426	833.87673
670.624	840.21813
670.822	791.60282
671.02	958.60461
671.218	774.69432
671.415	983.97619
671.613	939.57658
671.811	808.51194
672.009	882.49613
672.206	821.19417
672.404	825.42165
672.602	954.37611
672.799	804.2846
672.997	899.40826
673.195	787.37564
673.392	958.60461
673.59	819.08044
673.788	897.29422
673.985	888.83812
674.183	1062.211
674.38	905.75044
674.578	1032.60768
674.775	909.9786
674.973	939.57658
675.17	831.76294
675.368	1003.00551
675.565	850.78731
675.763	907.86452
675.96	855.01504
676.158	950.14763
676.355	909.9786
676.553	1045.29468
676.75	713.40647
676.947	903.63637
677.145	831.76294
677.342	956.49035
677.539	848.67345
677.737	964.94741
677.934	964.94741
678.131	1019.92089
678.329	829.64917
678.526	1049.52372
678.723	846.55961
678.92	1007.23431
679.118	897.29422
679.315	899.40826
679.512	874.04026
679.709	969.17598
679.906	888.83812
680.104	960.71887
680.301	787.37564
680.498	988.20488
680.695	897.29422
680.892	964.94741
681.089	899.40826
681.286	979.74753
681.483	1003.00551
681.68	1007.23431
681.877	926.89155
682.075	1062.211
682.272	865.58452
682.469	914.20679
682.665	967.06169
682.862	897.29422
683.059	956.49035
683.256	1007.23431
683.453	933.23403
683.65	1000.89111
683.847	897.29422
684.044	950.14763
684.241	814.85301
684.438	1005.11991
684.635	899.40826
684.831	1057.98188
685.028	909.9786
685.225	988.20488
685.422	945.91919
685.619	975.51889
685.815	931.11986
686.012	1007.23431
686.209	871.92631
686.405	931.11986
686.602	922.66327
686.799	869.81237
686.996	912.09269
687.192	924.77741
687.389	863.47061
687.586	992.4336
687.782	890.95213
687.979	1140.45325
688.175	840.21813
688.372	992.4336
688.568	800.0573
688.765	986.09053
688.962	871.92631
689.158	960.71887
689.355	888.83812
689.551	1066.44013
689.748	814.85301
689.944	990.31924
690.14	861.3567
690.337	1051.63825
690.533	865.58452
690.73	905.75044
690.926	958.60461
691.123	867.69844
691.319	863.47061
691.515	1011.46315
691.712	1043.18016
691.908	1015.692
692.104	939.57658
692.301	1108.73262
692.497	823.3079
692.693	945.91919
692.889	825.42165
693.086	861.3567
693.282	933.23403
693.478	884.61012
693.674	895.18018
693.87	948.03341
694.067	912.09269
694.263	1011.46315
694.459	814.85301
694.655	1005.11991
694.851	983.97619
695.047	983.97619
695.243	1093.93002
695.439	1068.55471
695.635	829.64917
695.831	912.09269
696.027	905.75044
696.224	905.75044
696.42	880.38215
696.615	950.14763
696.811	918.43502
697.007	1070.66929
697.203	838.10432
697.399	1066.44013
697.595	859.24281
697.791	840.21813
697.987	890.95213
698.183	821.19417
698.379	880.38215
698.575	1015.692
698.77	897.29422
698.966	1066.44013
699.162	903.63637
699.358	1005.11991
699.554	844.44577
699.749	1104.50328
699.945	882.49613
700.141	952.26187
700.337	914.20679
700.532	1041.06565
700.728	882.49613
700.924	969.17598
701.119	956.49035
701.315	922.66327
701.511	897.29422
701.706	964.94741
701.902	869.81237
702.097	977.6332
702.293	840.21813
702.489	1144.68274
702.684	948.03341
702.88	1104.50328
703.075	905.75044
703.271	1015.692
703.466	920.54914
703.662	943.80498
703.857	926.89155
704.053	1184.86372
704.248	1041.06565
704.443	1066.44013
704.639	848.67345
704.834	948.03341
705.03	954.37611
705.225	996.66234
705.42	895.18018
705.616	973.40458
705.811	941.69077
706.006	1036.83665
706.202	823.3079
706.397	990.31924
706.592	948.03341
706.787	914.20679
706.983	846.55961
707.178	1003.00551
707.373	952.26187
707.568	979.74753
707.763	924.77741
707.959	1000.89111
708.154	869.81237
708.349	1057.98188
708.544	998.77672
708.739	882.49613
708.934	895.18018
709.129	954.37611
709.324	850.78731
709.519	1212.35674
709.714	795.83004
709.909	1060.09644
710.104	863.47061
710.299	964.94741
710.494	916.3209
710.689	1024.14979
710.884	909.9786
711.079	1038.95115
711.274	880.38215
711.469	1034.72216
711.664	888.83812
711.859	1032.60768
712.054	914.20679
712.249	1034.72216
712.443	867.69844
712.638	986.09053
712.833	770.4673
713.028	1064.32556
713.223	956.49035
713.417	1030.4932
713.612	992.4336
713.807	998.77672
714.002	922.66327
714.196	981.86185
714.391	871.92631
714.586	948.03341
714.78	990.31924
714.975	973.40458
715.17	958.60461
715.364	1003.00551
715.559	1068.55471
715.754	1000.89111
715.948	956.49035
716.143	918.43502
716.337	931.11986
716.532	1015.692
716.726	956.49035
716.921	1091.81538
717.115	804.2846
717.31	1070.66929
717.504	943.80498
717.699	1068.55471
717.893	986.09053
718.088	926.89155
718.282	1032.60768
718.476	1049.52372
718.671	852.90117
718.865	994.54797
719.059	967.06169
719.254	1051.63825
719.448	888.83812
719.642	1032.60768
719.837	924.77741
720.031	950.14763
720.225	905.75044
720.419	1015.692
720.614	867.69844
720.808	1043.18016
721.002	1028.37872
721.196	948.03341
721.39	912.09269
721.585	1091.81538
721.779	924.77741
721.973	943.80498
722.167	825.42165
722.361	983.97619
722.555	848.67345
722.749	918.43502
722.943	882.49613
723.137	865.58452
723.331	755.67302
723.525	1007.23431
723.719	789.48922
723.913	1051.63825
724.107	772.5808
724.301	973.40458
724.495	916.3209
724.689	909.9786
724.883	821.19417
725.077	859.24281
725.271	874.04026
725.465	855.01504
725.659	855.01504
725.853	975.51889
726.046	922.66327
726.24	890.95213
726.434	876.15421
726.628	939.57658
726.822	855.01504
727.015	1030.4932
727.209	835.99052
727.403	816.96672
727.596	874.04026
727.79	973.40458
727.984	990.31924
728.177	1060.09644
728.371	895.18018
728.565	983.97619
728.758	791.60282
728.952	840.21813
729.146	905.75044
729.339	994.54797
729.533	958.60461
729.726	964.94741
729.92	850.78731
730.113	1017.80644
730.307	939.57658
730.5	931.11986
730.694	888.83812
730.887	1074.89846
731.081	926.89155
731.274	922.66327
731.468	814.85301
731.661	998.77672
731.854	958.60461
732.048	924.77741
732.241	812.73931
732.435	1034.72216
732.628	1007.23431
732.821	909.9786
733.014	924.77741
733.208	1030.4932
733.401	929.0057
733.594	1089.70075
733.788	967.06169
733.981	888.83812
734.174	909.9786
734.367	884.61012
734.56	990.31924
734.754	1064.32556
734.947	888.83812
735.14	981.86185
735.333	874.04026
735.526	1049.52372
735.719	981.86185
735.912	954.37611
736.105	890.95213
736.298	956.49035
736.491	971.29028
736.684	918.43502
736.877	1036.83665
737.07	1007.23431
737.263	973.40458
737.456	1041.06565
737.649	831.76294
737.842	871.92631
738.035	996.66234
738.228	986.09053
738.421	956.49035
738.614	948.03341
738.807	905.75044
739	969.17598
739.192	967.06169
739.385	990.31924
739.578	859.24281
739.771	1026.26425
739.964	962.83314
740.156	998.77672
740.349	865.58452
740.542	1093.93002
740.735	863.47061
740.927	994.54797
741.12	950.14763
741.313	964.94741
741.505	981.86185
741.698	772.5808
741.891	914.20679
742.083	1034.72216
742.276	914.20679
742.468	973.40458
742.661	863.47061
742.854	886.72411
743.046	888.83812
743.239	1009.34873
743.431	977.6332
743.624	948.03341
743.816	931.11986
744.009	880.38215
744.201	812.73931
744.393	829.64917
744.586	863.47061
744.778	1003.00551
744.971	821.19417
745.163	1079.12766
745.355	981.86185
745.548	935.34821
745.74	876.15421
745.932	990.31924
746.125	941.69077
746.317	1085.4715
746.509	1041.06565
746.702	1024.14979
746.894	867.69844
747.086	1015.692
747.278	956.49035
747.471	840.21813
747.663	924.77741
747.855	901.52231
748.047	874.04026
748.239	994.54797
748.431	967.06169
748.623	1032.60768
748.815	926.89155
749.008	914.20679
749.2	960.71887
749.392	994.54797
749.584	829.64917
749.776	888.83812
749.968	825.42165
750.16	918.43502
750.352	926.89155
750.544	962.83314
750.736	899.40826
750.928	956.49035
751.12	890.95213
751.311	937.46239
751.503	914.20679
751.695	981.86185
751.887	922.66327
752.079	998.77672
752.271	914.20679
752.463	922.66327
752.654	878.26818
752.846	931.11986
753.038	833.87673
753.23	916.3209
753.421	899.40826
753.613	918.43502
753.805	1034.72216
753.997	882.49613
754.188	884.61012
754.38	939.57658
754.572	812.73931
754.763	907.86452
754.955	812.73931
755.146	825.42165
755.338	759.89991
755.53	825.42165
755.721	821.19417
755.913	867.69844
756.104	757.78646
756.296	914.20679
756.487	874.04026
756.679	893.06615
756.87	749.33277
757.062	861.3567
757.253	791.60282
757.445	770.4673
757.636	871.92631
757.827	903.63637
758.019	878.26818
758.21	992.4336
758.401	825.42165
758.593	882.49613
758.784	855.01504
758.975	736.65255
759.167	876.15421
759.358	863.47061
759.549	861.3567
759.74	948.03341
759.932	770.4673
760.123	766.24031
760.314	821.19417
760.505	880.38215
760.696	662.69239
760.888	787.37564
761.079	781.03494
761.27	838.10432
761.461	810.62562
761.652	890.95213
761.843	795.83004
762.034	888.83812
762.225	831.76294
762.416	810.62562
762.607	738.76589
762.798	871.92631
762.989	893.06615
763.18	912.09269
763.371	698.61419
763.562	821.19417
763.753	785.26206
763.944	840.21813
764.135	762.01336
764.326	747.21937
764.517	783.14849
764.708	666.91831
764.899	658.46652
765.089	876.15421
765.28	787.37564
765.471	776.80785
765.662	738.76589
765.853	726.08599
766.043	696.50105
766.234	728.19928
766.425	681.7094
766.615	855.01504
766.806	762.01336
766.997	762.01336
767.187	586.63414
767.378	707.06685
767.569	664.80534
767.759	757.78646
767.95	730.31258
768.141	730.31258
768.331	694.38792
768.522	787.37564
768.712	728.19928
768.903	753.55959
769.093	702.8405
769.284	669.03129
769.474	702.8405
769.665	639.45067
769.855	624.66125
770.046	709.18005
770.236	611.98509
770.426	694.38792
770.617	698.61419
770.807	671.14428
770.998	685.93553
771.188	721.85944
771.378	677.48332
771.569	707.06685
771.759	590.85917
771.949	698.61419
772.139	711.29325
772.33	519.04098
772.52	603.53457
772.71	635.22506
772.9	592.97171
773.09	719.74618
773.281	609.87244
773.471	639.45067
773.661	609.87244
773.851	580.2967
774.041	654.24069
774.231	719.74618
774.421	677.48332
774.611	671.14428
774.802	679.59635
774.992	654.24069
775.182	633.11228
775.372	704.95367
775.562	628.88674
775.752	713.40647
775.942	567.62216
776.131	652.12779
776.321	620.43582
776.511	664.80534
776.701	595.08425
776.891	704.95367
777.081	685.93553
777.271	753.55959
777.461	696.50105
777.651	662.69239
777.84	535.93795
778.03	698.61419
778.22	694.38792
778.41	609.87244
778.599	618.32312
778.789	736.65255
778.979	643.67633
779.169	576.0718
779.358	466.24391
779.548	624.66125
779.738	544.38677
779.927	618.32312
780.117	637.33786
780.307	588.74665
780.496	688.04861
780.686	698.61419
780.875	592.97171
781.065	662.69239
781.254	599.30939
781.444	690.1617
781.633	491.58535
781.823	578.18424
782.012	550.72353
782.202	567.62216
782.391	500.03297
782.581	533.82578
782.77	550.72353
782.96	559.17274
783.149	459.90888
783.338	660.57945
783.528	415.56764
783.717	711.29325
783.906	502.14492
784.096	586.63414
784.285	567.62216
784.474	618.32312
784.663	554.94811
784.853	557.06041
785.042	443.01617
785.231	584.52165
785.42	508.48083
785.61	576.0718
785.799	459.90888
785.988	542.27454
786.177	485.24979
786.366	626.77399
786.555	542.27454
786.744	559.17274
786.933	481.02615
787.122	607.75981
787.312	535.93795
787.501	474.69081
787.69	573.95937
787.879	523.26513
788.068	495.80913
788.257	508.48083
788.445	394.45523
788.634	542.27454
788.823	474.69081
789.012	643.67633
789.201	500.03297
789.39	516.92892
789.579	390.23295
789.768	506.36885
789.957	529.60148
790.145	443.01617
790.334	485.24979
790.523	516.92892
790.712	508.48083
790.9	493.69724
791.089	493.69724
791.278	559.17274
791.467	538.05013
791.655	565.50978
791.844	578.18424
792.033	559.17274
792.221	367.01157
792.41	519.04098
792.599	407.12248
792.787	419.79031
792.976	466.24391
793.164	546.49901
793.353	390.23295
793.541	519.04098
793.73	478.91436
793.918	573.95937
794.107	421.90167
794.295	483.13796
794.484	468.35561
794.672	519.04098
794.861	381.78858
795.049	525.37723
795.238	428.23586
795.426	519.04098
795.614	364.90064
795.803	362.78973
795.991	424.01305
796.179	462.02054
796.368	360.67883
796.556	379.67753
796.744	409.23374
796.932	398.67758
797.121	379.67753
797.309	436.68165
797.497	436.68165
797.685	457.79724
797.874	405.01123
798.062	508.48083
798.25	453.574
798.438	453.574
798.626	413.45632
798.814	407.12248
799.002	398.67758
799.19	390.23295
799.378	352.2354
799.566	455.68561
799.755	430.34728
799.943	466.24391
800.131	491.58535
800.318	419.79031
800.506	390.23295
800.694	316.35397
800.882	417.67897
801.07	436.68165
801.258	440.90465
801.446	502.14492
801.634	383.89964
801.822	424.01305
802.01	413.45632
802.197	432.45872
802.385	440.90465
802.573	500.03297
802.761	407.12248
802.949	434.57018
803.136	392.34408
803.324	466.24391
803.512	415.56764
803.699	457.79724
803.887	500.03297
804.075	533.82578
804.262	411.34503
804.45	449.35082
804.638	390.23295
804.825	417.67897
805.013	440.90465
805.201	449.35082
805.388	335.34939
805.576	510.59283
805.763	516.92892
805.951	362.78973
806.138	432.45872
806.326	443.01617
806.513	440.90465
806.701	434.57018
806.888	459.90888
807.075	424.01305
807.263	426.12445
807.45	504.25687
807.638	445.1277
807.825	466.24391
808.012	390.23295
808.2	445.1277
808.387	485.24979
808.574	440.90465
808.761	445.1277
808.949	487.36163
809.136	440.90465
809.323	468.35561
809.51	400.78878
809.698	491.58535
809.885	417.67897
810.072	500.03297
810.259	375.45547
810.446	432.45872
810.633	504.25687
810.82	400.78878
811.008	487.36163
811.195	407.12248
811.382	508.48083
811.569	493.69724
811.756	394.45523
811.943	571.84695
812.13	457.79724
812.317	535.93795
812.504	381.78858
812.691	491.58535
812.878	483.13796
813.064	426.12445
813.251	504.25687
813.438	559.17274
813.625	487.36163
813.812	474.69081
813.999	331.12806
814.186	502.14492
814.372	491.58535
814.559	514.81688
814.746	379.67753
814.933	483.13796
815.12	364.90064
815.306	542.27454
815.493	466.24391
815.68	552.83581
815.866	576.0718
816.053	510.59283
816.24	443.01617
816.426	500.03297
816.613	472.57906
816.799	533.82578
816.986	510.59283
817.173	563.39742
817.359	449.35082
817.546	457.79724
817.732	424.01305
817.919	516.92892
818.105	348.0138
818.292	487.36163
818.478	447.23925
818.665	529.60148
818.851	468.35561
819.037	485.24979
819.224	521.15305
819.41	559.17274
819.597	432.45872
819.783	554.94811
819.969	443.01617
820.156	508.48083
820.342	436.68165
820.528	470.46733
820.714	345.90302
820.901	478.91436
821.087	424.01305
821.273	538.05013
821.459	405.01123
821.646	447.23925
821.832	440.90465
822.018	516.92892
822.204	329.01742
822.39	573.95937
822.576	453.574
822.762	497.92105
822.948	419.79031
823.134	424.01305
823.32	459.90888
823.507	489.47348
823.693	464.13222
823.879	398.67758
824.065	449.35082
824.25	500.03297
824.436	409.23374
824.622	457.79724
824.808	398.67758
824.994	474.69081
825.18	470.46733
825.366	504.25687
825.552	457.79724
825.738	419.79031
825.923	434.57018
826.109	552.83581
826.295	392.34408
826.481	381.78858
826.667	369.12252
826.852	457.79724
827.038	341.68151
827.224	451.4624
827.409	373.34447
827.595	415.56764
827.781	409.23374
827.966	405.01123
828.152	383.89964
828.338	474.69081
828.523	419.79031
828.709	434.57018
828.894	419.79031
829.08	449.35082
829.266	434.57018
829.451	405.01123
829.637	398.67758
829.822	531.71362
830.008	312.13296
830.193	540.16233
830.378	402.9
830.564	457.79724
830.749	449.35082
830.935	350.12459
831.12	398.67758
831.305	356.45708
831.491	362.78973
831.676	341.68151
831.861	329.01742
832.047	360.67883
832.232	286.80843
832.417	274.14716
832.602	324.7962
832.788	415.56764
832.973	339.57079
833.158	506.36885
833.343	307.91202
833.528	383.89964
833.714	350.12459
833.899	375.45547
834.084	356.45708
834.269	455.68561
834.454	322.68561
834.639	373.34447
834.824	282.58793
835.009	350.12459
835.194	400.78878
835.379	386.01073
835.564	373.34447
835.749	383.89964
835.934	297.36
836.119	371.23349
836.304	223.5089
836.489	398.67758
836.674	257.26651
836.859	314.24345
837.044	343.79226
837.228	419.79031
837.413	307.91202
837.598	379.67753
837.783	381.78858
837.968	322.68561
838.152	326.9068
838.337	373.34447
838.522	301.58075
838.707	335.34939
838.891	337.46008
839.076	350.12459
839.261	331.12806
839.445	329.01742
839.63	272.03701
839.815	322.68561
839.999	246.71673
840.184	282.58793
840.368	314.24345
840.553	280.47771
840.737	301.58075
840.922	316.35397
841.106	312.13296
841.291	253.04654
841.475	269.92688
841.66	240.38709
841.844	381.78858
842.029	331.12806
842.213	272.03701
842.397	312.13296
842.582	172.88198
842.766	322.68561
842.951	282.58793
843.135	293.13931
843.319	250.93658
843.504	326.9068
843.688	291.029
843.872	339.57079
844.056	280.47771
844.241	316.35397
844.425	314.24345
844.609	299.47036
844.793	248.82665
844.977	358.56795
845.161	229.83807
845.346	242.49695
845.53	299.47036
845.714	352.2354
845.898	360.67883
846.082	257.26651
846.266	282.58793
846.45	356.45708
846.634	348.0138
846.818	310.02248
847.002	297.36
847.186	238.27725
847.37	234.05762
847.554	179.20971
847.738	295.24965
847.922	299.47036
848.106	223.5089
848.29	335.34939
848.473	267.81677
848.657	259.37653
848.841	288.91871
849.025	263.59661
849.209	212.96067
849.392	318.4645
849.576	234.05762
849.76	191.86571
849.944	234.05762
850.127	253.04654
850.311	212.96067
850.495	187.64696
850.678	248.82665
850.862	221.39921
851.046	263.59661
851.229	295.24965
851.413	223.5089
851.596	246.71673
851.78	234.05762
851.964	238.27725
852.147	240.38709
852.331	265.70668
852.514	210.85109
852.698	297.36
852.881	212.96067
853.065	212.96067
853.248	198.19399
853.431	223.5089
853.615	181.31899
853.798	288.91871
853.982	229.83807
854.165	179.20971
854.348	231.94784
854.532	299.47036
854.715	198.19399
854.898	170.77278
855.081	162.33619
855.265	225.6186
855.448	229.83807
855.631	248.82665
855.814	265.70668
855.997	263.59661
856.181	137.02842
856.364	225.6186
856.547	229.83807
856.73	265.70668
856.913	223.5089
857.096	198.19399
857.279	158.11802
857.462	187.64696
857.645	156.00896
857.828	191.86571
858.011	153.89993
858.194	137.02842
858.377	210.85109
858.56	177.10045
858.743	122.26697
858.926	333.23872
859.109	234.05762
859.292	208.74152
859.475	204.52245
859.658	259.37653
859.841	113.83233
860.023	172.88198
860.206	141.24617
860.389	196.08454
860.572	196.08454
860.755	215.07028
860.937	219.28955
861.12	196.08454
861.303	162.33619
861.486	236.16742
861.668	204.52245
861.851	88.53052
862.034	231.94784
862.216	164.4453
862.399	145.464
862.581	187.64696
862.764	160.22709
862.947	227.72833
863.129	206.63197
863.312	164.4453
863.494	73.77262
863.677	181.31899
863.859	187.64696
864.042	156.00896
864.224	246.71673
864.406	162.33619
864.589	200.30345
864.771	284.69817
864.954	90.63889
865.136	124.37568
865.318	183.42829
865.501	128.59318
865.683	179.20971
865.865	118.04961
866.048	137.02842
866.23	231.94784
866.412	223.5089
866.594	170.77278
866.777	69.55627
866.959	179.20971
867.141	153.89993
867.323	198.19399
867.505	120.15828
867.687	99.07256
867.869	179.20971
868.052	128.59318
868.234	77.98905
868.416	158.11802
868.598	158.11802
868.78	92.74727
868.962	187.64696
869.144	153.89993
869.326	189.75633
869.508	80.0973
869.69	126.48442
869.872	147.57295
870.054	69.55627
870.236	179.20971
870.417	198.19399
870.599	145.464
870.781	141.24617
870.963	139.13728
871.145	94.85568
871.327	132.81075
871.508	137.02842
871.69	134.91958
871.872	137.02842
872.054	111.72373
872.235	153.89993
872.417	153.89993
872.599	204.52245
872.78	153.89993
872.962	130.70195
873.144	147.57295
873.325	27.39791
873.507	130.70195
873.689	168.6636
873.87	122.26697
874.052	168.6636
874.233	71.66443
874.415	132.81075
874.596	111.72373
874.778	113.83233
874.959	153.89993
875.141	124.37568
875.322	130.70195
875.503	170.77278
875.685	170.77278
875.866	120.15828
876.048	187.64696
876.229	92.74727
876.41	162.33619
876.592	94.85568
876.773	166.55444
876.954	94.85568
877.136	225.6186
877.317	198.19399
877.498	111.72373
877.679	151.79091
877.86	113.83233
878.042	122.26697
878.223	134.91958
878.404	111.72373
878.585	137.02842
878.766	128.59318
878.947	153.89993
879.128	120.15828
879.309	73.77262
879.49	115.94096
879.672	82.20557
879.853	103.28953
880.034	111.72373
880.215	105.39804
880.396	177.10045
880.576	52.69182
880.757	242.49695
880.938	185.53762
881.119	299.47036
881.3	82.20557
881.481	172.88198
881.662	120.15828
881.843	69.55627
882.023	206.63197
882.204	120.15828
882.385	240.38709
882.566	86.42218
882.747	158.11802
882.927	63.23193
883.108	69.55627
883.289	96.96411
883.469	145.464
883.65	164.4453
883.831	134.91958
884.011	149.68192
884.192	145.464
884.373	128.59318
884.553	88.53052
884.734	115.94096
884.914	147.57295
885.095	147.57295
885.275	158.11802
885.456	120.15828
885.636	149.68192
885.817	137.02842
885.997	272.03701
886.178	149.68192
886.358	238.27725
886.538	82.20557
886.719	143.35507
886.899	166.55444
887.08	204.52245
887.26	164.4453
887.44	149.68192
887.621	181.31899
887.801	145.464
887.981	196.08454
888.161	124.37568
888.342	193.97512
888.522	107.50658
888.702	105.39804
888.882	193.97512
889.062	120.15828
889.242	145.464
889.423	158.11802
889.603	128.59318
889.783	115.94096
889.963	99.07256
890.143	141.24617
890.323	162.33619
890.503	153.89993
890.683	40.04444
890.863	162.33619
891.043	73.77262
891.223	147.57295
891.403	179.20971
891.583	187.64696
891.763	221.39921
891.943	191.86571
892.122	105.39804
892.302	198.19399
892.482	122.26697
892.662	132.81075
892.842	99.07256
893.022	189.75633
893.201	130.70195
893.381	212.96067
893.561	141.24617
893.741	179.20971
893.92	166.55444
894.1	196.08454
894.28	151.79091
894.459	143.35507
894.639	99.07256
894.819	82.20557
894.998	137.02842
895.178	120.15828
895.357	185.53762
895.537	137.02842
895.716	263.59661
895.896	181.31899
896.075	111.72373
896.255	132.81075
896.434	149.68192
896.614	122.26697
896.793	122.26697
896.973	122.26697
897.152	126.48442
897.331	141.24617
897.511	217.1799
897.69	139.13728
897.87	200.30345
898.049	65.34002
898.228	71.66443
898.407	221.39921
898.587	82.20557
898.766	139.13728
898.945	115.94096
899.124	153.89993
899.304	170.77278
899.483	204.52245
899.662	158.11802
899.841	94.85568
900.02	99.07256
900.199	80.0973
900.378	103.28953
900.557	168.6636
900.737	86.42218
900.916	187.64696
901.095	80.0973
901.274	179.20971
901.453	153.89993
901.632	118.04961
901.811	162.33619
901.989	122.26697
902.168	187.64696
902.347	80.0973
902.526	86.42218
902.705	59.01582
902.884	128.59318
903.063	111.72373
903.242	109.61514
903.42	132.81075
903.599	94.85568
903.778	126.48442
903.957	137.02842
904.135	75.88082
904.314	37.93663
904.493	111.72373
904.672	103.28953
904.85	10.53718
905.029	145.464
905.207	96.96411
905.386	153.89993
905.565	145.464
905.743	113.83233
905.922	92.74727
906.1	179.20971
906.279	128.59318
906.457	105.39804
906.636	86.42218
906.814	94.85568
906.993	94.85568
907.171	96.96411
907.35	120.15828
907.528	18.96735
907.707	107.50658
907.885	88.53052
908.063	77.98905
908.242	54.79979
908.42	94.85568
908.598	59.01582
908.777	105.39804
908.955	101.18103
909.133	63.23193
909.311	37.93663
909.49	82.20557
909.668	94.85568
909.846	128.59318
910.024	69.55627
910.202	120.15828
910.38	73.77262
910.559	124.37568
910.737	82.20557
910.915	56.90779
911.093	31.61332
911.271	153.89993
911.449	164.4453
911.627	111.72373
911.805	77.98905
911.983	115.94096
912.161	40.04444
912.339	128.59318
912.517	151.79091
912.695	198.19399
912.872	158.11802
913.05	63.23193
913.228	137.02842
913.406	113.83233
913.584	52.69182
913.762	107.50658
913.939	56.90779
914.117	61.12386
914.295	50.58386
914.473	88.53052
914.65	107.50658
914.828	170.77278
915.006	48.47593
915.184	4.2148
915.361	71.66443
915.539	111.72373
915.716	145.464
915.894	42.15228
916.072	61.12386
916.249	96.96411
916.427	35.82884
916.604	52.69182
916.782	122.26697
916.959	69.55627
917.137	48.47593
917.314	105.39804
917.492	90.63889
917.669	111.72373
917.847	77.98905
918.024	52.69182
918.201	52.69182
918.379	65.34002
918.556	103.28953
918.733	65.34002
918.911	90.63889
919.088	124.37568
919.265	37.93663
919.442	12.64469
919.62	69.55627
919.797	25.29023
919.974	14.75222
920.151	128.59318
920.328	111.72373
920.506	40.04444
920.683	63.23193
920.86	52.69182
921.037	118.04961
921.214	99.07256
921.391	141.24617
921.568	54.79979
921.745	48.47593
921.922	115.94096
922.099	48.47593
922.276	27.39791
922.453	61.12386
922.63	46.36803
922.807	31.61332
922.984	94.85568
923.161	27.39791
923.338	86.42218
923.514	59.01582
923.691	14.75222
923.868	21.07496
924.045	35.82884
924.222	101.18103
924.399	52.69182
924.575	61.12386
924.752	103.28953
924.929	69.55627
925.105	35.82884
925.282	27.39791
925.459	40.04444
925.635	69.55627
925.812	80.0973
925.989	103.28953
926.165	37.93663
926.342	29.5056
926.518	10.53718
926.695	21.07496
926.871	94.85568
927.048	61.12386
927.224	130.70195
927.401	-6.32202
927.577	65.34002
927.754	130.70195
927.93	73.77262
928.107	52.69182
928.283	61.12386
928.459	113.83233
928.636	103.28953
928.812	94.85568
928.988	37.93663
929.165	69.55627
929.341	2.10739
929.517	35.82884
929.693	77.98905
929.87	65.34002
930.046	115.94096
930.222	35.82884
930.398	115.94096
930.574	94.85568
930.751	63.23193
930.927	71.66443
931.103	75.88082
931.279	37.93663
931.455	80.0973
931.631	80.0973
931.807	54.79979
931.983	77.98905
932.159	-23.17966
932.335	14.75222
932.511	77.98905
932.687	44.26014
932.863	6.32224
933.039	35.82884
933.215	46.36803
933.391	33.72107
933.566	-10.53658
933.742	94.85568
933.918	46.36803
934.094	8.4297
934.27	63.23193
934.445	80.0973
934.621	86.42218
934.797	94.85568
934.973	82.20557
935.148	46.36803
935.324	44.26014
935.5	23.18258
935.675	96.96411
935.851	52.69182
936.027	10.53718
936.202	54.79979
936.378	23.18258
936.553	73.77262
936.729	-6.32202
936.904	71.66443
937.08	14.75222
937.255	80.0973
937.431	27.39791
937.606	-63.21022
937.782	44.26014
937.957	-25.28676
938.133	14.75222
938.308	-6.32202
938.483	120.15828
938.659	23.18258
938.834	40.04444
939.009	94.85568
939.185	52.69182
939.36	-63.21022
939.535	-6.32202
939.71	21.07496
939.886	21.07496
940.061	44.26014
940.236	86.42218
940.411	-48.46317
940.586	-4.2147
940.761	71.66443
940.937	132.81075
941.112	-18.9654
941.287	-6.32202
941.462	18.96735
941.637	-6.32202
941.812	82.20557
941.987	73.77262
942.162	-48.46317
942.337	88.53052
942.512	21.07496
942.687	56.90779
942.862	37.93663
943.037	2.10739
943.212	10.53718
943.386	-2.10736
943.561	82.20557
943.736	14.75222
943.911	73.77262
944.086	-8.42931
944.26	6.32224
944.435	31.61332
944.61	103.28953
944.785	69.55627
944.959	77.98905
945.134	10.53718
945.309	-69.53
945.483	69.55627
945.658	8.4297
945.833	-8.42931
946.007	8.4297
946.182	-48.46317
946.357	77.98905
946.531	61.12386
946.706	14.75222
946.88	77.98905
947.055	46.36803
947.229	54.79979
947.404	71.66443
947.578	80.0973
947.752	54.79979
947.927	-40.03573
948.101	52.69182
948.276	52.69182
948.45	56.90779
948.624	25.29023
948.799	8.4297
948.973	6.32224
949.147	23.18258
949.321	31.61332
949.496	40.04444
949.67	29.5056
949.844	61.12386
950.018	14.75222
950.193	69.55627
950.367	37.93663
950.541	71.66443
950.715	-6.32202
950.889	14.75222
951.063	111.72373
951.237	4.2148
951.411	27.39791
951.585	63.23193
951.759	96.96411
951.933	4.2148
952.107	35.82884
952.281	69.55627
952.455	-25.28676
952.629	-2.10736
952.803	44.26014
952.977	27.39791
953.151	4.2148
953.325	2.10739
953.499	27.39791
953.672	10.53718
953.846	46.36803
954.02	69.55627
954.194	46.36803
954.368	33.72107
954.541	69.55627
954.715	67.44814
954.889	2.10739
955.062	86.42218
955.236	-31.6079
955.41	113.83233
955.583	-61.10358
955.757	-23.17966
955.93	52.69182
956.104	69.55627
956.278	-14.75104
956.451	21.07496
956.625	-10.53658
956.798	-21.07254
956.972	52.69182
957.145	-27.39383
957.319	27.39791
957.492	82.20557
957.665	61.12386
957.839	56.90779
958.012	59.01582
958.185	18.96735
958.359	44.26014
958.532	40.04444
958.705	-10.53658
958.879	18.96735
959.052	29.5056
959.225	0
959.398	69.55627
959.572	33.72107
959.745	35.82884
959.918	-40.03573
960.091	31.61332
960.264	88.53052
960.438	54.79979
960.611	124.37568
960.784	4.2148
960.957	86.42218
961.13	86.42218
961.303	16.85977
961.476	-6.32202
961.649	-56.89021
961.822	-27.39383
961.995	94.85568
962.168	12.64469
962.341	71.66443
962.514	63.23193
962.686	2.10739
962.859	21.07496
963.032	25.29023
963.205	35.82884
963.378	6.32224
963.551	50.58386
963.723	37.93663
963.896	61.12386
964.069	54.79979
964.242	2.10739
964.414	40.04444
964.587	40.04444
964.76	35.82884
964.932	40.04444
965.105	-56.89021
965.278	27.39791
965.45	-6.32202
965.623	56.90779
965.795	82.20557
965.968	94.85568
966.14	35.82884
966.313	-14.75104
966.485	71.66443
966.658	52.69182
966.83	88.53052
967.003	12.64469
967.175	-37.92881
967.348	-14.75104
967.52	103.28953
967.692	50.58386
967.865	35.82884
968.037	80.0973
968.209	40.04444
968.382	67.44814
968.554	35.82884
968.726	44.26014
968.898	8.4297
969.071	10.53718
969.243	-6.32202
969.415	10.53718
969.587	-54.78349
969.759	56.90779
969.932	37.93663
970.104	29.5056
970.276	-18.9654
970.448	-6.32202
970.62	44.26014
970.792	63.23193
970.964	80.0973
971.136	94.85568
971.308	48.47593
971.48	12.64469
971.652	4.2148
971.824	-2.10736
971.996	40.04444
972.168	63.23193
972.339	-31.6079
972.511	21.07496
972.683	-44.2495
972.855	92.74727
973.027	44.26014
973.199	23.18258
973.37	27.39791
973.542	69.55627
973.714	-14.75104
973.886	27.39791
974.057	35.82884
974.229	48.47593
974.401	-2.10736
974.572	29.5056
974.744	-14.75104
974.915	27.39791
975.087	18.96735
975.259	-27.39383
975.43	-40.03573
975.602	35.82884
975.773	63.23193
975.945	2.10739
976.116	67.44814
976.288	-10.53658
976.459	54.79979
976.63	48.47593
976.802	6.32224
976.973	35.82884
977.145	29.5056
977.316	-6.32202
977.487	40.04444
977.659	8.4297
977.83	63.23193
978.001	73.77262
978.172	-6.32202
978.344	10.53718
978.515	-23.17966
978.686	56.90779
978.857	46.36803
979.028	56.90779
979.2	29.5056
979.371	31.61332
979.542	8.4297
979.713	-37.92881
979.884	10.53718
980.055	37.93663
980.226	-21.07254
980.397	-10.53658
980.568	4.2148
980.739	-14.75104
980.91	48.47593
981.081	37.93663
981.252	-40.03573
981.423	44.26014
981.594	-8.42931
981.765	0
981.936	42.15228
982.106	21.07496
982.277	14.75222
982.448	75.88082
982.619	56.90779
982.79	18.96735
982.96	86.42218
983.131	2.10739
983.302	-16.85823
983.472	-18.9654
983.643	6.32224
983.814	105.39804
983.984	4.2148
984.155	14.75222
984.326	27.39791
984.496	18.96735
984.667	31.61332
984.837	132.81075
985.008	54.79979
985.178	2.10739
985.349	82.20557
985.519	21.07496
985.69	10.53718
985.86	-23.17966
986.031	96.96411
986.201	35.82884
986.371	-12.64382
986.542	-23.17966
986.712	18.96735
986.882	35.82884
987.053	31.61332
987.223	-52.67674
987.393	2.10739
987.563	23.18258
987.734	-8.42931
987.904	10.53718
988.074	4.2148
988.244	-29.50088
988.414	-16.85823
988.585	46.36803
988.755	2.10739
988.925	18.96735
989.095	-37.92881
989.265	0
989.435	12.64469
989.605	69.55627
989.775	21.07496
989.945	40.04444
990.115	25.29023
990.285	18.96735
990.455	-10.53658
990.625	23.18258
990.795	-44.2495
990.965	-31.6079
991.134	-10.53658
991.304	2.10739
991.474	-18.9654
991.644	6.32224
991.814	54.79979
991.984	18.96735
992.153	14.75222
992.323	-12.64382
992.493	44.26014
992.662	-4.2147
992.832	21.07496
993.002	6.32224
993.171	35.82884
993.341	4.2148
993.511	67.44814
993.68	52.69182
993.85	-14.75104
994.019	109.61514
994.189	2.10739
994.358	21.07496
994.528	-23.17966
994.697	8.4297
994.867	31.61332
995.036	-8.42931
995.206	37.93663
995.375	-27.39383
995.544	-14.75104
995.714	27.39791
995.883	44.26014
996.052	12.64469
996.222	14.75222
996.391	6.32224
996.56	29.5056
996.73	48.47593
996.899	52.69182
997.068	37.93663
997.237	-33.71489
997.406	-31.6079
997.576	52.69182
997.745	82.20557
997.914	-40.03573
998.083	23.18258
998.252	6.32224
998.421	-27.39383
998.59	-21.07254
998.759	46.36803
998.928	-2.10736
999.097	44.26014
999.266	54.79979
999.435	2.10739
999.604	40.04444
999.773	18.96735
999.942	25.29023
1000.111	16.85977
1000.28	48.47593
1000.448	-4.2147
1000.617	35.82884
1000.786	46.36803
1000.955	-27.39383
1001.124	2.10739
1001.292	14.75222
1001.461	6.32224
1001.63	23.18258
1001.798	18.96735
1001.967	29.5056
1002.136	-6.32202
1002.304	54.79979
1002.473	-16.85823
1002.642	-12.64382
1002.81	25.29023
1002.979	40.04444
1003.147	8.4297
1003.316	4.2148
1003.484	27.39791
1003.653	10.53718
1003.821	48.47593
1003.99	-6.32202
1004.158	27.39791
1004.327	-12.64382
1004.495	21.07496
1004.663	35.82884
1004.832	-84.27527
1005	23.18258
1005.168	-14.75104
1005.337	31.61332
1005.505	-14.75104
1005.673	-14.75104
1005.842	59.01582
1006.01	-23.17966
1006.178	-10.53658
1006.346	2.10739
1006.514	40.04444
1006.683	-46.35635
1006.851	2.10739
1007.019	105.39804
1007.187	27.39791
1007.355	10.53718
1007.523	-6.32202
1007.691	27.39791
1007.859	-2.10736
1008.027	0
1008.195	12.64469
1008.363	-40.03573
1008.531	35.82884
1008.699	2.10739
1008.867	-6.32202
1009.035	31.61332
1009.203	-27.39383
1009.37	18.96735
1009.538	40.04444
1009.706	61.12386
1009.874	48.47593
1010.042	-31.6079
1010.209	-2.10736
1010.377	61.12386
1010.545	103.28953
1010.713	2.10739
1010.88	-27.39383
1011.048	37.93663
1011.216	12.64469
1011.383	25.29023
1011.551	-33.71489
1011.718	-73.74306
1011.886	-16.85823
1012.054	61.12386
1012.221	-14.75104
1012.389	23.18258
1012.556	-25.28676
1012.724	18.96735
1012.891	6.32224
1013.058	-27.39383
1013.226	113.83233
1013.393	-90.59428
1013.561	-21.07254
1013.728	10.53718
1013.895	14.75222
1014.063	12.64469
1014.23	-16.85823
1014.397	35.82884
1014.565	-27.39383
1014.732	37.93663
1014.899	12.64469
1015.066	10.53718
1015.233	35.82884
1015.401	82.20557
1015.568	-23.17966
1015.735	29.5056
1015.902	-33.71489
1016.069	52.69182
1016.236	12.64469
1016.403	-56.89021
1016.57	10.53718
1016.737	4.2148
1016.904	-40.03573
1017.071	-14.75104
1017.238	-37.92881
1017.405	-31.6079
1017.572	37.93663
1017.739	-14.75104
1017.906	35.82884
1018.073	2.10739
1018.24	31.61332
1018.407	37.93663
1018.573	35.82884
1018.74	-14.75104
1018.907	94.85568
1019.074	-40.03573
1019.241	0
1019.407	-52.67674
1019.574	-10.53658
1019.741	-12.64382
1019.907	27.39791
1020.074	48.47593
1020.241	21.07496
1020.407	86.42218
1020.574	8.4297
1020.74	73.77262
1020.907	4.2148
1021.073	35.82884
1021.24	2.10739
1021.406	18.96735
1021.573	-10.53658
1021.739	27.39791
1021.906	18.96735
1022.072	-10.53658
1022.239	56.90779
1022.405	48.47593
1022.571	2.10739
1022.738	-6.32202
1022.904	-4.2147
1023.07	44.26014
1023.237	-6.32202
1023.403	-18.9654
1023.569	0
1023.735	4.2148
1023.902	31.61332
1024.068	10.53718
1024.234	40.04444
1024.4	44.26014
1024.566	-14.75104
1024.732	12.64469
1024.898	12.64469
1025.065	6.32224
1025.231	-14.75104
1025.397	25.29023
1025.563	8.4297
1025.729	12.64469
1025.895	40.04444
1026.061	-40.03573
1026.227	-21.07254
1026.392	46.36803
1026.558	52.69182
1026.724	-10.53658
1026.89	-48.46317
1027.056	-29.50088
1027.222	52.69182
1027.388	27.39791
1027.553	77.98905
1027.719	56.90779
1027.885	27.39791
1028.051	-14.75104
1028.216	-18.9654
1028.382	-29.50088
1028.548	21.07496
1028.713	-4.2147
1028.879	21.07496
1029.045	21.07496
1029.21	25.29023
1029.376	29.5056
1029.541	33.72107
1029.707	52.69182
1029.873	56.90779
1030.038	35.82884
1030.204	56.90779
1030.369	10.53718
1030.534	18.96735
1030.7	12.64469
1030.865	-21.07254
1031.031	-12.64382
1031.196	35.82884
1031.361	73.77262
1031.527	27.39791
1031.692	25.29023
1031.857	103.28953
1032.023	-4.2147
1032.188	61.12386
1032.353	40.04444
1032.518	10.53718
1032.684	10.53718
1032.849	-42.14263
1033.014	-73.74306
1033.179	-18.9654
1033.344	61.12386
1033.509	61.12386
1033.674	46.36803
1033.839	-23.17966
1034.004	27.39791
1034.17	73.77262
1034.335	27.39791
1034.5	-2.10736
1034.664	-18.9654
1034.829	44.26014
1034.994	56.90779
1035.159	69.55627
1035.324	31.61332
1035.489	63.23193
1035.654	-35.82187
1035.819	-35.82187
1035.984	61.12386
1036.148	54.79979
1036.313	27.39791
1036.478	80.0973
1036.643	-31.6079
1036.807	-14.75104
1036.972	21.07496
1037.137	14.75222
1037.301	29.5056
1037.466	44.26014
1037.631	14.75222
1037.795	23.18258
1037.96	122.26697
1038.124	-29.50088
1038.289	-37.92881
1038.454	94.85568
1038.618	6.32224
1038.783	69.55627
1038.947	18.96735
1039.111	18.96735
1039.276	29.5056
1039.44	40.04444
1039.605	-44.2495
1039.769	69.55627
1039.933	-14.75104
1040.098	-48.46317
1040.262	12.64469
1040.426	63.23193
1040.591	-10.53658
1040.755	67.44814
1040.919	12.64469
1041.083	21.07496
1041.248	77.98905
1041.412	44.26014
1041.576	59.01582
1041.74	10.53718
1041.904	-48.46317
1042.068	23.18258
1042.232	18.96735
1042.397	2.10739
1042.561	-27.39383
1042.725	18.96735
1042.889	21.07496
1043.053	52.69182
1043.217	40.04444
1043.381	6.32224
1043.544	18.96735
1043.708	-2.10736
1043.872	31.61332
1044.036	27.39791
1044.2	-14.75104
1044.364	77.98905
1044.528	29.5056
1044.691	4.2148
1044.855	23.18258
1045.019	-4.2147
1045.183	18.96735
1045.346	61.12386
1045.51	14.75222
1045.674	-10.53658
1045.837	6.32224
1046.001	-42.14263
1046.165	2.10739
1046.328	42.15228
1046.492	69.55627
1046.655	27.39791
1046.819	2.10739
1046.983	-35.82187
1047.146	2.10739
1047.31	-48.46317
1047.473	8.4297
1047.636	-23.17966
1047.8	-10.53658
1047.963	35.82884
1048.127	31.61332
1048.29	35.82884
