Data from mixed_try6.1_USB4F045381__29__00313.txt Node

Date: Thu Apr 03 20:34:08 EDT 2025
User: mmckonesweet
Spectrometer: USB4F04538
Trigger mode: 4
Integration Time (sec): 2.700000E-3
Scans to average: 1
Electric dark correction enabled: true
Nonlinearity correction enabled: true
Boxcar width: 0
XAxis mode: Wavelengths
Number of Pixels in Spectrum: 3648
>>>>>Begin Spectral Data<<<<<
345.52	54.79979
345.736	54.79979
345.952	54.79979
346.168	-2.10736
346.384	-35.82187
346.6	-14.75104
346.816	18.96735
347.032	23.18258
347.248	46.36803
347.464	-6.32202
347.68	48.47593
347.896	-14.75104
348.112	-16.85823
348.328	-31.6079
348.544	-18.9654
348.76	-18.9654
348.975	-14.75104
349.191	-52.67674
349.407	-23.17966
349.623	-67.42343
349.839	-8.42931
350.055	44.26014
350.27	2.10739
350.486	-61.10358
350.702	56.90779
350.918	-27.39383
351.133	16.85977
351.349	4.2148
351.565	-37.92881
351.781	21.07496
351.996	-61.10358
352.212	-35.82187
352.428	-23.17966
352.644	-8.42931
352.859	-52.67674
353.075	56.90779
353.291	40.04444
353.506	16.85977
353.722	-58.9969
353.938	6.32224
354.153	-14.75104
354.369	-2.10736
354.584	14.75222
354.8	8.4297
355.016	48.47593
355.231	6.32224
355.447	-75.84956
355.662	14.75222
355.878	29.5056
356.093	-0
356.309	-0
356.524	2.10739
356.74	-69.53
356.955	-4.2147
357.171	31.61332
357.386	40.04444
357.602	40.04444
357.817	84.31387
358.033	-40.03573
358.248	-29.50088
358.464	40.04444
358.679	-48.46317
358.895	6.32224
359.11	59.01582
359.325	10.53718
359.541	61.12386
359.756	-52.67674
359.972	50.58386
360.187	14.75222
360.402	-56.89021
360.618	14.75222
360.833	33.72107
361.048	2.10739
361.264	103.28953
361.479	61.12386
361.694	-56.89021
361.909	-52.67674
362.125	40.04444
362.34	-14.75104
362.555	-37.92881
362.77	-42.14263
362.986	-2.10736
363.201	50.58386
363.416	65.34002
363.631	6.32224
363.847	-80.06246
364.062	-14.75104
364.277	-0
364.492	-18.9654
364.707	-6.32202
364.922	6.32224
365.138	-61.10358
365.353	14.75222
365.568	14.75222
365.783	-12.64382
365.998	-23.17966
366.213	18.96735
366.428	-25.28676
366.643	-8.42931
366.858	40.04444
367.073	31.61332
367.288	-31.6079
367.503	33.72107
367.718	-12.64382
367.933	-18.9654
368.148	16.85977
368.363	-0
368.578	-6.32202
368.793	25.29023
369.008	-50.56997
369.223	-27.39383
369.438	-10.53658
369.653	42.15228
369.868	10.53718
370.083	107.50658
370.298	33.72107
370.513	52.69182
370.728	-25.28676
370.943	-10.53658
371.157	14.75222
371.372	-27.39383
371.587	-25.28676
371.802	-52.67674
372.017	-42.14263
372.232	40.04444
372.446	56.90779
372.661	8.4297
372.876	-2.10736
373.091	14.75222
373.306	8.4297
373.52	14.75222
373.735	14.75222
373.95	-8.42931
374.165	-105.33773
374.379	25.29023
374.594	-18.9654
374.809	35.82884
375.023	-52.67674
375.238	75.88082
375.453	16.85977
375.667	27.39791
375.882	-8.42931
376.097	-56.89021
376.311	23.18258
376.526	-44.2495
376.741	14.75222
376.955	-14.75104
377.17	-31.6079
377.384	16.85977
377.599	-52.67674
377.813	-69.53
378.028	10.53718
378.242	-8.42931
378.457	40.04444
378.672	-23.17966
378.886	-40.03573
379.101	-29.50088
379.315	99.07256
379.53	48.47593
379.744	6.32224
379.958	65.34002
380.173	23.18258
380.387	-29.50088
380.602	-8.42931
380.816	6.32224
381.031	14.75222
381.245	14.75222
381.459	14.75222
381.674	-27.39383
381.888	10.53718
382.103	27.39791
382.317	6.32224
382.531	-61.10358
382.746	-18.9654
382.96	-2.10736
383.174	10.53718
383.388	31.61332
383.603	4.2148
383.817	31.61332
384.031	-2.10736
384.246	-27.39383
384.46	111.72373
384.674	31.61332
384.888	44.26014
385.103	-8.42931
385.317	21.07496
385.531	33.72107
385.745	82.20557
385.959	-16.85823
386.174	35.82884
386.388	33.72107
386.602	-6.32202
386.816	-35.82187
387.03	-67.42343
387.244	-117.97394
387.458	-23.17966
387.672	-33.71489
387.887	67.44814
388.101	56.90779
388.315	-16.85823
388.529	31.61332
388.743	-8.42931
388.957	-0
389.171	52.69182
389.385	-23.17966
389.599	6.32224
389.813	-31.6079
390.027	23.18258
390.241	73.77262
390.455	14.75222
390.669	-16.85823
390.883	25.29023
391.097	-18.9654
391.311	-10.53658
391.525	-50.56997
391.738	12.64469
391.952	-6.32202
392.166	-52.67674
392.38	56.90779
392.594	33.72107
392.808	-10.53658
393.022	-21.07254
393.236	42.15228
393.449	-2.10736
393.663	-42.14263
393.877	-35.82187
394.091	23.18258
394.305	14.75222
394.518	-16.85823
394.732	-33.71489
394.946	14.75222
395.16	-0
395.373	-16.85823
395.587	48.47593
395.801	42.15228
396.015	-35.82187
396.228	50.58386
396.442	14.75222
396.656	23.18258
396.869	-35.82187
397.083	31.61332
397.297	-33.71489
397.51	-2.10736
397.724	59.01582
397.938	-92.70056
398.151	-48.46317
398.365	-44.2495
398.578	48.47593
398.792	-90.59428
399.005	25.29023
399.219	27.39791
399.433	56.90779
399.646	8.4297
399.86	-65.31684
400.073	52.69182
400.287	21.07496
400.5	48.47593
400.714	-21.07254
400.927	-14.75104
401.141	-109.5499
401.354	-42.14263
401.567	12.64469
401.781	86.42218
401.994	67.44814
402.208	99.07256
402.421	16.85977
402.635	35.82884
402.848	-86.38163
403.061	6.32224
403.275	14.75222
403.488	-2.10736
403.701	-63.21022
403.915	-14.75104
404.128	56.90779
404.341	-8.42931
404.555	-33.71489
404.768	67.44814
404.981	56.90779
405.195	48.47593
405.408	14.75222
405.621	86.42218
405.834	67.44814
406.048	-16.85823
406.261	-31.6079
406.474	35.82884
406.687	65.34002
406.9	-18.9654
407.114	16.85977
407.327	23.18258
407.54	18.96735
407.753	-50.56997
407.966	48.47593
408.179	31.61332
408.392	-33.71489
408.605	31.61332
408.819	37.93663
409.032	-12.64382
409.245	-82.16888
409.458	14.75222
409.671	-6.32202
409.884	-44.2495
410.097	-23.17966
410.31	6.32224
410.523	-14.75104
410.736	27.39791
410.949	-6.32202
411.162	8.4297
411.375	-50.56997
411.588	23.18258
411.801	-56.89021
412.014	-25.28676
412.227	-25.28676
412.44	-4.2147
412.653	69.55627
412.865	48.47593
413.078	40.04444
413.291	-27.39383
413.504	37.93663
413.717	-10.53658
413.93	-27.39383
414.143	-23.17966
414.356	-2.10736
414.568	23.18258
414.781	40.04444
414.994	8.4297
415.207	59.01582
415.42	-16.85823
415.632	61.12386
415.845	33.72107
416.058	25.29023
416.271	6.32224
416.483	16.85977
416.696	8.4297
416.909	6.32224
417.121	4.2148
417.334	-23.17966
417.547	-18.9654
417.759	46.36803
417.972	-0
418.185	-0
418.397	-18.9654
418.61	18.96735
418.823	23.18258
419.035	-0
419.248	16.85977
419.46	40.04444
419.673	23.18258
419.885	-2.10736
420.098	14.75222
420.311	35.82884
420.523	-21.07254
420.736	-18.9654
420.948	6.32224
421.161	-25.28676
421.373	-27.39383
421.586	-25.28676
421.798	10.53718
422.01	14.75222
422.223	-18.9654
422.435	31.61332
422.648	8.4297
422.86	4.2148
423.073	25.29023
423.285	4.2148
423.497	56.90779
423.71	52.69182
423.922	-35.82187
424.134	-35.82187
424.347	-10.53658
424.559	73.77262
424.771	40.04444
424.984	-35.82187
425.196	14.75222
425.408	-120.07989
425.621	52.69182
425.833	10.53718
426.045	54.79979
426.257	-50.56997
426.47	-14.75104
426.682	42.15228
426.894	-14.75104
427.106	18.96735
427.318	6.32224
427.531	-44.2495
427.743	-44.2495
427.955	37.93663
428.167	-25.28676
428.379	-8.42931
428.591	44.26014
428.804	2.10739
429.016	44.26014
429.228	-58.9969
429.44	73.77262
429.652	2.10739
429.864	73.77262
430.076	-23.17966
430.288	-48.46317
430.5	33.72107
430.712	-0
430.924	31.61332
431.136	10.53718
431.348	29.5056
431.56	-12.64382
431.772	10.53718
431.984	75.88082
432.196	31.61332
432.408	-35.82187
432.62	-2.10736
432.832	2.10739
433.044	14.75222
433.256	-27.39383
433.468	27.39791
433.679	16.85977
433.891	-18.9654
434.103	-42.14263
434.315	-0
434.527	10.53718
434.739	-2.10736
434.95	-35.82187
435.162	52.69182
435.374	33.72107
435.586	44.26014
435.798	40.04444
436.009	-42.14263
436.221	14.75222
436.433	6.32224
436.645	31.61332
436.856	40.04444
437.068	103.28953
437.28	80.0973
437.491	40.04444
437.703	44.26014
437.915	-2.10736
438.126	-2.10736
438.338	48.47593
438.55	-10.53658
438.761	33.72107
438.973	-6.32202
439.184	25.29023
439.396	-18.9654
439.608	-16.85823
439.819	29.5056
440.031	6.32224
440.242	48.47593
440.454	50.58386
440.665	40.04444
440.877	65.34002
441.088	27.39791
441.3	-29.50088
441.511	33.72107
441.723	25.29023
441.934	31.61332
442.146	48.47593
442.357	23.18258
442.569	-27.39383
442.78	80.0973
442.991	50.58386
443.203	14.75222
443.414	-8.42931
443.626	52.69182
443.837	99.07256
444.048	14.75222
444.26	-58.9969
444.471	-10.53658
444.682	29.5056
444.894	-2.10736
445.105	-16.85823
445.316	-6.32202
445.528	-14.75104
445.739	25.29023
445.95	59.01582
446.161	23.18258
446.373	-0
446.584	35.82884
446.795	73.77262
447.006	-2.10736
447.217	50.58386
447.429	-18.9654
447.64	14.75222
447.851	23.18258
448.062	69.55627
448.273	31.61332
448.484	40.04444
448.695	-6.32202
448.907	-40.03573
449.118	-2.10736
449.329	50.58386
449.54	14.75222
449.751	-0
449.962	44.26014
450.173	-31.6079
450.384	-8.42931
450.595	18.96735
450.806	69.55627
451.017	48.47593
451.228	-10.53658
451.439	14.75222
451.65	2.10739
451.861	18.96735
452.072	73.77262
452.283	-50.56997
452.494	10.53718
452.705	77.98905
452.915	2.10739
453.126	84.31387
453.337	37.93663
453.548	16.85977
453.759	31.61332
453.97	25.29023
454.181	82.20557
454.391	23.18258
454.602	-14.75104
454.813	59.01582
455.024	29.5056
455.235	59.01582
455.445	-25.28676
455.656	65.34002
455.867	35.82884
456.078	6.32224
456.288	35.82884
456.499	61.12386
456.71	-0
456.921	42.15228
457.131	-42.14263
457.342	2.10739
457.553	50.58386
457.763	31.61332
457.974	6.32224
458.184	-10.53658
458.395	37.93663
458.606	2.10739
458.816	16.85977
459.027	65.34002
459.237	101.18103
459.448	-0
459.659	50.58386
459.869	73.77262
460.08	2.10739
460.29	90.63889
460.501	84.31387
460.711	65.34002
460.922	54.79979
461.132	-8.42931
461.343	27.39791
461.553	77.98905
461.764	69.55627
461.974	23.18258
462.184	25.29023
462.395	61.12386
462.605	111.72373
462.816	6.32224
463.026	56.90779
463.236	86.42218
463.447	99.07256
463.657	31.61332
463.867	67.44814
464.078	8.4297
464.288	27.39791
464.498	92.74727
464.709	52.69182
464.919	149.68192
465.129	59.01582
465.339	99.07256
465.55	139.13728
465.76	16.85977
465.97	6.32224
466.18	56.90779
466.391	-44.2495
466.601	25.29023
466.811	31.61332
467.021	73.77262
467.231	31.61332
467.441	82.20557
467.651	90.63889
467.862	44.26014
468.072	109.61514
468.282	16.85977
468.492	-10.53658
468.702	25.29023
468.912	40.04444
469.122	21.07496
469.332	69.55627
469.542	44.26014
469.752	37.93663
469.962	126.48442
470.172	111.72373
470.382	86.42218
470.592	52.69182
470.802	73.77262
471.012	67.44814
471.222	99.07256
471.432	111.72373
471.642	94.85568
471.852	109.61514
472.062	59.01582
472.272	107.50658
472.482	77.98905
472.691	168.6636
472.901	101.18103
473.111	120.15828
473.321	122.26697
473.531	61.12386
473.741	84.31387
473.95	118.04961
474.16	134.91958
474.37	111.72373
474.58	80.0973
474.79	185.53762
474.999	120.15828
475.209	105.39804
475.419	124.37568
475.628	177.10045
475.838	196.08454
476.048	221.39921
476.258	126.48442
476.467	219.28955
476.677	111.72373
476.886	82.20557
477.096	149.68192
477.306	223.5089
477.515	162.33619
477.725	208.74152
477.935	208.74152
478.144	236.16742
478.354	166.55444
478.563	229.83807
478.773	316.35397
478.982	221.39921
479.192	284.69817
479.401	305.80158
479.611	267.81677
479.82	255.15652
480.03	231.94784
480.239	356.45708
480.449	278.36751
480.658	295.24965
480.868	348.0138
481.077	305.80158
481.287	326.9068
481.496	288.91871
481.705	337.46008
481.915	303.69116
482.124	335.34939
482.333	375.45547
482.543	379.67753
482.752	487.36163
482.961	394.45523
483.171	567.62216
483.38	457.79724
483.589	453.574
483.799	487.36163
484.008	436.68165
484.217	388.12183
484.426	500.03297
484.636	470.46733
484.845	580.2967
485.054	487.36163
485.263	576.0718
485.472	595.08425
485.682	565.50978
485.891	550.72353
486.1	554.94811
486.309	578.18424
486.518	599.30939
486.727	546.49901
486.936	707.06685
487.146	717.63293
487.355	740.87925
487.564	650.01491
487.773	785.26206
487.982	673.25728
488.191	774.69432
488.4	673.25728
488.609	833.87673
488.818	783.14849
489.027	852.90117
489.236	800.0573
489.445	912.09269
489.654	880.38215
489.863	920.54914
490.072	829.64917
490.281	1024.14979
490.49	926.89155
490.698	1077.01306
490.907	901.52231
491.116	1079.12766
491.325	971.29028
491.534	1028.37872
491.743	943.80498
491.952	1053.75279
492.16	1100.27396
492.369	1104.50328
492.578	1282.14905
492.787	1189.09338
492.996	1146.79749
493.204	1203.89729
493.413	1349.82882
493.622	1292.72388
493.831	1083.35688
494.039	1254.65476
494.248	1299.06881
494.457	1294.83886
494.665	1485.19163
494.874	1485.19163
495.083	1527.49249
495.291	1459.81102
495.5	1421.74009
495.709	1563.44793
495.917	1387.89937
496.126	1609.97787
496.335	1487.30668
496.543	1559.2179
496.752	1430.20029
496.96	1711.49401
497.169	1574.02299
497.377	1648.04711
497.586	1597.28797
497.794	1969.47454
498.003	1730.52754
498.211	1925.07339
498.42	1624.78266
498.628	1829.91994
498.837	1730.52754
499.045	1747.446
499.254	1660.73669
499.462	1857.40976
499.671	1990.61701
499.879	2037.12816
500.087	1893.35674
500.296	2119.57144
500.504	1939.87406
500.713	2026.55773
500.921	1969.47454
501.129	2035.01409
501.338	1939.87406
501.546	2136.48148
501.754	1992.73122
501.962	2121.68522
502.171	1999.07382
502.379	2368.93869
502.587	2011.75884
502.795	2242.15733
503.004	2170.30002
503.212	2193.54905
503.42	2128.02652
503.628	2212.57023
503.837	2191.43555
504.045	2438.65318
504.253	2356.26213
504.461	2402.74108
504.669	2153.39101
504.877	2383.72756
505.085	2261.17669
505.294	2540.035
505.502	2468.22553
505.71	2698.38971
505.918	2366.82596
506.126	2575.93474
506.334	2442.87794
506.542	2662.5021
506.75	2495.68364
506.958	2702.61154
507.166	2464.00104
507.374	2685.72392
507.582	2527.3637
507.79	2635.05616
507.998	2825.02145
508.206	2888.31875
508.414	2763.82215
508.622	2856.67169
508.83	2829.24167
509.037	2860.89149
509.245	2719.49833
509.453	2964.2584
509.661	2875.66032
509.869	2966.36756
510.077	2761.71163
510.285	2926.29095
510.492	2841.90197
510.7	2831.35175
510.908	2955.8216
511.116	2945.27527
511.324	2938.9473
511.531	3080.23973
511.739	3063.37261
511.947	3097.10584
512.155	3113.97093
512.362	3309.95105
512.57	3073.91468
512.778	3090.78116
512.985	3105.53851
513.193	3187.74364
513.401	3187.74364
513.608	3423.67857
513.816	3261.49625
514.024	3272.03067
514.231	3215.13984
514.439	3263.60317
514.646	3263.60317
514.854	3406.83328
515.061	3356.29062
515.269	3488.94327
515.477	3236.21194
515.684	3467.89203
515.892	3263.60317
516.099	3419.46735
516.307	3495.25829
516.514	3472.10242
516.722	3425.78415
516.929	3573.12997
517.136	3440.52272
517.344	3543.66797
517.551	3507.88783
517.759	3659.39049
517.966	3621.52391
518.173	3625.73161
518.381	3486.83823
518.588	3720.38477
518.796	3718.28179
519.003	3785.56761
519.21	3701.45724
519.418	3840.22258
519.625	3751.92719
519.832	3791.87463
520.039	3688.83801
520.247	3974.70048
520.454	3831.81499
520.661	3857.03681
520.868	3743.5163
521.076	3875.95129
521.283	3962.09668
521.49	4052.40758
521.697	3915.87654
521.904	4075.50425
522.112	4067.10575
522.319	4235.01209
522.526	3999.90585
522.733	4258.08863
522.94	4111.19416
523.147	4235.01209
523.354	4130.08637
523.561	4417.45539
523.768	4180.45731
523.975	4427.93565
524.183	4088.10137
524.39	4446.79874
524.597	4381.81843
524.804	4499.18688
525.011	4253.89308
525.218	4436.31947
525.425	4494.99633
525.632	4564.129
525.838	4494.99633
526.045	4398.58955
526.252	4434.22355
526.459	4658.36178
526.666	4413.26314
526.873	4679.29623
527.08	4362.94925
527.287	4572.50708
527.494	4469.85122
527.701	4873.8784
527.907	4664.64235
528.114	4704.41461
528.321	4612.29807
528.528	4863.422
528.735	4867.60463
528.941	4696.04218
529.148	4587.16785
529.355	4631.14362
529.562	4587.16785
529.768	4735.80802
529.975	4842.50748
530.182	5001.40036
530.388	4794.39543
530.595	4947.0572
530.802	4771.38107
531.008	5130.92489
531.215	4944.96676
531.422	5120.48267
531.628	5070.35192
531.835	5122.57116
532.042	5101.68521
532.248	5243.66383
532.455	5072.44097
532.661	5164.3361
532.868	4875.96962
533.074	5425.1554
533.281	5258.27315
533.487	5130.92489
533.694	5147.63124
533.9	5373.02082
534.107	5204.00417
534.313	5402.21799
534.52	5249.92511
534.726	5491.86622
534.933	5302.09426
535.139	5458.51382
535.345	5370.93513
535.552	5487.6975
535.758	5408.47393
535.965	5679.36113
536.171	5425.1554
536.377	5616.88405
536.584	5543.96729
536.79	5600.2199
536.996	5560.63652
537.203	5743.89847
537.409	5464.76785
537.615	5748.06139
537.821	5635.6294
538.028	5816.73595
538.234	5527.29655
538.44	5745.97994
538.646	5581.47094
538.853	5922.81882
539.059	5800.08994
539.265	5931.13645
539.471	5841.70215
539.677	5933.21579
539.883	5833.38046
540.09	5960.24518
540.296	5868.74503
540.502	6097.40986
540.708	5718.91896
540.914	6049.62169
541.12	5991.42798
541.326	6230.3202
541.532	6267.68393
541.738	6282.21221
541.944	6014.292
542.15	6400.47136
542.356	6296.73936
542.562	6514.50932
542.768	6240.69978
542.974	6238.62391
543.18	6408.7674
543.386	6448.16851
543.592	6232.39616
543.798	6473.0491
544.004	6238.62391
544.21	6611.90436
544.415	6298.81457
544.621	6758.93651
544.827	6400.47136
545.033	6560.10485
545.239	6481.34189
545.445	6661.61833
545.651	6429.50588
545.856	6736.16445
546.062	6611.90436
546.268	6752.72622
546.474	6545.59839
546.679	6806.54186
546.885	6338.23916
547.091	6589.11435
547.297	6454.38898
547.502	6812.75037
547.708	6572.53805
547.914	6785.84537
548.119	6750.65608
548.325	6843.78981
548.531	6597.40195
548.736	6771.35646
548.942	6703.03652
549.147	6897.5794
549.353	6827.23608
549.559	7118.78357
549.764	6785.84537
549.97	6903.7849
550.175	6785.84537
550.381	6982.37032
550.586	6736.16445
550.792	7290.19582
550.997	7075.38994
551.203	7184.8883
551.408	7044.38845
551.614	7215.86706
551.819	7019.58363
552.025	7174.56093
552.23	7232.38704
552.435	7267.48729
552.641	7449.08142
552.846	7352.11469
553.052	7552.18502
553.257	7424.32852
553.462	7232.38704
553.668	7333.5411
553.873	7337.66872
554.078	7409.88789
554.283	7331.47726
554.489	7523.32143
554.694	7174.56093
554.899	7451.14402
555.105	7420.20273
555.31	7426.39138
555.515	7368.62306
555.72	7673.7784
555.925	7529.50684
556.131	7799.41617
556.336	7539.81542
556.541	7702.62022
556.746	7562.49242
556.951	7651.11406
557.156	7513.01199
557.361	7727.33849
557.567	7756.17264
557.772	7764.41021
557.977	7758.23206
558.182	7714.97973
558.387	7611.96052
558.592	7832.35744
558.797	7696.44018
559.002	7957.89741
559.207	7867.35171
559.412	7875.58479
559.617	7686.13969
559.822	8091.5857
560.027	7743.81565
560.232	8007.26924
560.437	7581.0444
560.642	7803.53412
560.847	7951.72511
561.051	8015.49674
561.256	7931.14942
561.461	8040.17728
561.666	7937.32234
561.871	8138.87034
562.076	8007.26924
562.281	8017.55356
562.485	7836.47473
562.69	7918.80302
562.895	7939.37994
563.1	8163.53638
563.305	8058.68576
563.509	8307.36468
563.714	8233.40793
563.919	8451.09715
564.123	8011.38303
564.328	8249.84497
564.533	8274.49816
564.737	8151.20372
564.942	8007.26924
565.147	8467.51771
565.351	8171.75776
565.556	8527.03198
565.761	8151.20372
565.965	8438.78093
566.17	8311.47264
566.374	8327.90371
566.579	8401.82812
566.784	8434.67537
566.988	8344.33353
567.193	8492.14624
567.397	8336.11878
567.602	8352.54798
567.806	8266.28074
568.011	8561.91224
568.215	8438.78093
568.42	8836.66245
568.624	8512.66793
568.828	8418.25236
569.033	8586.53032
569.237	8836.66245
569.442	8672.67237
569.646	8773.13017
569.85	8553.70561
570.055	8769.03071
570.259	8684.9757
570.463	8658.31765
570.668	8670.62176
570.872	8590.63307
571.076	8740.33247
571.281	8945.24209
571.485	8701.37911
571.689	8916.56555
571.893	8822.31797
572.098	8775.17987
572.302	9111.08874
572.506	8967.77122
572.71	8615.248
572.914	9066.05528
573.119	8871.49536
573.323	8881.73934
573.527	8894.03154
573.731	8873.54419
573.935	8896.08017
574.139	9127.46247
574.343	8769.03071
574.547	8959.57906
574.751	8926.80757
574.955	9209.31474
575.159	9172.48459
575.364	9109.04194
575.568	9131.55574
575.772	9201.13074
575.976	9158.16027
576.18	9205.22277
576.383	9215.45257
576.587	9315.68231
576.791	9295.23052
576.995	9278.86788
577.199	9350.44656
577.403	9354.53616
577.607	9393.38407
577.811	9479.23754
578.015	9064.0081
578.219	9419.96082
578.422	9289.09466
578.626	9258.41309
578.83	9409.73932
579.034	9528.28393
579.238	9299.32101
579.442	9315.68231
579.645	9303.41143
579.849	9489.4563
580.053	9624.30665
580.257	9818.29066
580.46	9483.3251
580.664	9703.9589
580.868	9458.79883
581.071	9755.00574
581.275	9565.0627
581.479	9834.61991
581.682	9605.922
581.886	9818.29066
582.09	9565.0627
582.293	9850.94821
582.497	9844.82521
582.7	9777.46334
582.904	9648.81754
583.107	9558.93326
583.311	9822.37306
583.515	9691.70623
583.718	9573.23506
583.922	10161.00901
584.125	9950.9384
584.329	9991.74065
584.532	9904.00862
584.735	9989.70067
584.939	9659.02975
585.142	9767.25556
585.346	9775.42181
585.549	10038.65612
585.753	9873.39807
585.956	10040.69575
586.159	9836.661
586.363	10161.00901
586.566	10083.52472
586.769	10161.00901
586.973	10148.77599
587.176	10295.53966
587.379	10189.55079
587.582	10409.641
587.786	10022.33855
587.989	10397.41783
588.192	10319.99345
588.395	10623.47174
588.599	10364.82042
588.802	10515.55561
589.005	10262.93161
589.208	10499.26331
589.411	10399.45506
589.615	10521.66501
589.818	10497.22672
590.021	10521.66501
590.224	10474.82333
590.427	10698.78882
590.63	10260.89349
590.833	10739.49384
591.036	10377.04484
591.239	10808.68143
591.442	10411.67815
591.645	10625.50756
591.848	10723.21241
592.051	10798.50764
592.254	10552.21032
592.457	11156.45402
592.66	10523.70146
592.863	10708.96553
593.066	10788.33356
593.269	10855.4771
593.472	10664.18575
593.675	10885.9927
593.878	10649.9364
594.081	10922.60803
594.284	10686.57637
594.486	10965.32125
594.689	11087.33199
594.892	10902.26664
595.095	10816.82025
595.298	10947.01619
595.5	10904.30083
595.703	11392.19144
595.906	10981.59165
596.109	11093.43149
596.311	10824.95888
596.514	11144.25691
596.717	11077.16593
596.92	11164.58521
597.122	10985.65914
597.325	11186.94512
597.528	11130.02647
597.73	11188.97777
597.933	10910.40333
598.136	11221.49884
598.338	11270.27547
598.541	11298.72577
598.743	11357.65224
598.946	11260.11416
599.148	11221.49884
599.351	11394.22307
599.554	11434.85358
599.756	11245.8879
599.959	11294.66157
600.161	11203.20607
600.363	11396.25469
600.566	11341.39751
600.768	11300.75786
600.971	11497.82323
601.173	11182.87977
601.376	11623.73529
601.578	11562.81457
601.78	11621.70474
601.983	11447.04198
602.185	11595.30665
602.388	11652.16215
602.59	11410.47574
602.792	11459.23003
602.995	11820.65706
603.197	11487.66746
603.399	12039.81637
603.601	11599.368
603.804	11546.56763
604.006	11771.94182
604.208	11729.31189
604.41	11613.58241
604.613	11715.10106
604.815	11526.25812
605.017	11743.52229
605.219	11507.97876
605.421	11759.76223
605.623	11711.04074
605.826	12076.33384
606.028	11558.75289
606.23	11652.16215
606.432	11617.64359
606.634	11814.56793
606.836	11583.1224
607.038	11978.94827
607.24	11690.73863
607.442	11654.19257
607.644	11690.73863
607.846	11883.57369
608.048	11438.91642
608.25	11980.97732
608.452	11983.00636
608.654	12045.90279
608.856	11812.5382
609.058	11861.24936
609.26	11838.92401
609.462	11932.27785
609.664	11706.98039
609.866	11914.01435
610.067	11694.79912
610.269	11660.28378
610.471	11840.95363
610.673	12021.55668
610.875	11926.19009
611.077	11885.60313
611.278	11773.97172
611.48	12023.58557
611.682	11952.56986
611.884	12149.36132
612.085	11792.24044
612.287	12165.58832
612.489	12088.50577
612.69	12098.64884
612.892	12153.41811
613.094	12185.8714
613.295	11895.75018
613.497	11863.27889
613.699	11686.6781
613.9	12165.58832
614.102	12250.77234
614.304	11991.12246
614.505	11885.60313
614.707	12459.62326
614.908	12135.1623
615.11	12185.8714
615.311	12161.53161
615.513	12015.46998
615.714	12222.37909
615.916	12137.19075
616.117	11948.51153
616.319	12396.77284
616.52	12039.81637
616.722	12131.10537
616.923	12212.23831
617.124	12151.38972
617.326	11972.86106
617.527	12315.66591
617.729	12177.75826
617.93	11964.74468
618.131	12104.73458
618.333	12088.50577
618.534	12074.30515
618.735	12388.66264
618.937	12258.88443
619.138	12015.46998
619.339	12165.58832
619.54	12461.65059
619.742	12421.1028
619.943	12281.1921
620.144	12335.94368
620.345	12398.80038
620.546	12200.06912
620.748	12333.91593
620.949	12147.33291
621.15	12260.91244
621.351	12072.27646
621.552	12441.37702
621.753	12078.36251
621.954	12550.84657
622.155	12043.87399
622.356	12461.65059
622.558	12492.05971
622.759	12277.13623
622.96	12031.70103
623.161	12475.8417
623.362	12254.8284
623.563	12453.54124
623.764	12325.80488
623.965	12342.02687
624.166	12820.38956
624.366	12370.41429
624.567	12315.66591
624.768	12526.52162
624.969	12303.49892
625.17	12510.30448
625.371	12404.88293
625.572	12376.49714
625.773	12546.79247
625.973	12465.70522
626.174	12522.46737
626.375	12583.27841
626.576	12415.0204
626.777	12887.25298
626.977	12380.55233
627.178	12755.54656
627.379	12388.66264
627.58	12254.8284
627.78	12342.02687
627.981	12356.22075
628.182	12417.04787
628.382	12558.95468
628.583	12372.44192
628.784	12463.67791
628.984	12368.38667
629.185	12605.57439
629.386	12412.99292
629.586	12510.30448
629.787	12445.43179
629.987	12625.84281
630.188	12733.25543
630.388	12560.98169
630.589	12198.0409
630.79	12648.13737
630.99	12514.35881
631.191	12526.52162
631.391	12617.73552
631.591	12583.27841
631.792	12431.23999
631.992	12939.92914
632.193	12492.05971
632.393	12737.30841
632.594	12552.8736
632.794	13022.9883
632.994	12854.83509
633.195	12528.54873
633.395	12603.54751
633.595	12567.06269
633.796	12546.79247
633.996	12798.10042
634.196	12688.67108
634.397	12976.39519
634.597	12719.06981
634.797	12988.55017
634.997	12512.33165
635.198	12873.07032
635.398	13027.03975
635.598	13043.24535
635.798	12510.30448
635.998	12816.33704
636.199	12682.59117
636.399	13057.42499
636.599	12820.38956
636.799	12915.61751
636.999	12907.51346
637.199	12994.62759
637.399	12950.05877
637.599	13037.16829
637.799	12623.816
637.999	12877.12254
638.199	13022.9883
638.399	13191.10729
638.599	13158.70133
638.799	13110.09016
638.999	12996.65339
639.199	13134.39608
639.399	13108.06464
639.599	13128.31966
639.799	13106.03911
639.999	13138.447
640.199	12854.83509
640.399	13039.19398
640.599	12565.0357
640.799	13417.91797
640.998	13104.01358
641.198	13223.5121
641.398	12864.96583
641.598	13359.19521
641.798	13065.52754
641.997	13033.11689
642.197	13199.2086
642.397	13338.9452
642.597	13328.82004
642.796	13413.86823
642.996	13010.83383
643.196	13191.10729
643.395	13047.2967
643.595	13057.42499
643.795	12962.21415
643.994	13170.8537
644.194	12901.43537
644.394	13411.84335
644.593	13229.58788
644.793	13531.30444
644.992	13217.43629
645.192	13440.19125
645.392	13178.95519
645.591	13490.81062
645.791	13152.62508
645.99	13328.82004
646.19	13176.92982
646.389	13413.86823
646.589	13282.24295
646.788	13211.36043
646.987	13158.70133
647.187	13172.87908
647.386	13154.6505
647.586	13515.10709
647.785	13359.19521
647.984	13430.06709
648.184	13197.18328
648.383	13594.06701
648.582	13385.51962
648.782	13517.13177
648.981	13357.17023
649.18	13567.74764
649.38	13504.98362
649.579	13559.64925
649.778	13436.1416
649.977	13804.6019
650.177	13330.84508
650.376	13753.99566
650.575	13245.78975
650.774	13357.17023
650.973	13444.24089
651.173	13387.54455
651.372	13174.90445
651.571	13529.27978
651.77	13596.09155
651.969	13758.04423
652.168	13415.8931
652.367	13632.53274
652.566	13502.95892
652.765	13764.11706
652.964	13525.23046
653.163	13375.39493
653.362	13342.99523
653.561	13547.50156
653.76	13381.46975
653.959	13753.99566
654.158	13887.59219
654.357	13620.3858
654.556	13547.50156
654.755	13498.9095
654.954	13417.91797
655.153	13656.82626
655.352	13662.89956
655.551	13509.03302
655.749	13545.47693
655.948	13695.29003
656.147	13782.33539
656.346	13507.00832
656.545	13640.63063
656.743	13954.3859
656.942	13709.4606
657.141	13830.91641
657.34	13727.67967
657.538	13677.07049
657.737	14002.96138
657.936	13871.39934
658.135	13788.40811
658.333	14158.79845
658.532	13747.92279
658.731	14083.91739
658.929	13976.64984
659.128	13579.89511
659.326	13711.48495
659.525	13952.36189
659.724	13608.23874
659.922	13863.30284
660.121	13707.43624
660.319	13711.48495
660.518	13685.1681
660.716	13768.1656
660.915	13713.5093
661.113	13992.84161
661.312	13563.69845
661.51	14027.24858
661.709	13628.48378
661.907	13865.32697
662.105	13707.43624
662.304	13691.24126
662.502	13830.91641
662.701	13760.06851
662.899	13438.16642
663.097	13774.23838
663.296	13664.92399
663.494	13871.39934
663.692	13604.18969
663.891	13731.72832
664.089	13583.94424
664.287	14122.3702
664.485	13849.13387
664.684	14021.17681
664.882	13760.06851
665.08	13926.04953
665.278	13998.91348
665.476	14004.98532
665.675	13847.10972
665.873	13980.6978
666.071	13818.77132
666.269	13982.72177
666.467	13816.74712
666.665	13869.37522
666.863	13731.72832
667.061	13731.72832
667.259	13873.42345
667.457	14031.29641
667.655	13903.78488
667.853	14009.03321
668.051	13778.28689
668.249	13662.89956
668.447	13668.97284
668.645	13644.67956
668.843	13472.58792
669.041	13814.72293
669.239	13502.95892
669.437	13911.88115
669.635	13679.0949
669.833	13687.19249
670.031	13778.28689
670.229	13871.39934
670.426	13911.88115
670.624	13725.65534
670.822	13555.60003
671.02	13804.6019
671.218	13725.65534
671.415	13974.62586
671.613	13938.19375
671.811	13741.84989
672.009	13843.06141
672.206	13928.07358
672.404	13721.60667
672.602	13954.3859
672.799	13786.38387
672.997	13786.38387
673.195	13960.45792
673.392	14057.6071
673.59	13507.00832
673.788	13745.89849
673.985	13541.42767
674.183	13845.08557
674.38	13826.86806
674.578	14067.72648
674.775	13792.45657
674.973	13917.95333
675.17	13691.24126
675.368	14083.91739
675.565	13897.71264
675.763	13820.79551
675.96	13733.75264
676.158	13685.1681
676.355	13695.29003
676.553	13932.12165
676.75	13632.53274
676.947	14021.17681
677.145	14009.03321
677.342	13917.95333
677.539	13915.92927
677.737	13903.78488
677.934	13851.15802
678.131	13978.67382
678.329	13782.33539
678.526	14059.63098
678.723	13938.19375
678.92	13990.81764
679.118	13717.55799
679.315	13668.97284
679.512	13687.19249
679.709	13794.4808
679.906	13590.01792
680.104	13826.86806
680.301	13417.91797
680.498	13428.04224
680.695	13480.68693
680.892	13504.98362
681.089	13598.11609
681.286	13598.11609
681.483	13488.78589
681.68	13523.20579
681.877	13513.0824
682.075	13739.82558
682.272	13478.66219
682.469	14002.96138
682.665	13701.36315
682.862	13549.52618
683.059	13608.23874
683.256	13940.21778
683.453	13954.3859
683.65	13654.80182
683.847	13567.74764
684.044	13539.40303
684.241	13594.06701
684.438	13865.32697
684.635	13585.96881
684.831	13640.63063
685.028	13600.14063
685.225	13851.15802
685.422	13428.04224
685.619	13600.14063
685.815	13500.93421
686.012	13385.51962
686.209	13245.78975
686.405	13432.09193
686.602	13468.53839
686.799	13474.61268
686.996	13365.27013
687.192	13401.71892
687.389	13241.73931
687.586	13320.71983
687.782	13122.24321
687.979	13594.06701
688.175	13460.43928
688.372	13496.88479
688.568	13274.14236
688.765	13511.05771
688.962	13334.89515
689.158	13318.69477
689.355	13158.70133
689.551	13332.87011
689.748	13142.4979
689.944	13237.68885
690.14	13077.68121
690.337	13351.09525
690.533	13247.81497
690.73	13142.4979
690.926	13211.36043
691.123	13191.10729
691.319	13231.61313
691.515	13160.72673
691.712	13290.34348
691.908	13436.1416
692.104	13417.91797
692.301	13298.44393
692.497	13272.11721
692.693	13203.25923
692.889	12964.24002
693.086	13409.81847
693.282	13069.57878
693.478	13373.36998
693.674	13114.1412
693.87	13369.32006
694.067	13223.5121
694.263	13407.79359
694.459	13247.81497
694.655	13316.66971
694.851	13189.08195
695.047	13434.11676
695.243	13097.93695
695.439	13101.98804
695.635	13049.32237
695.831	13276.16752
696.027	12968.29177
696.224	12933.8513
696.42	12899.40933
696.615	13421.96769
696.811	13101.98804
697.007	13170.8537
697.203	13274.14236
697.399	13274.14236
697.595	12879.14863
697.791	12796.07411
697.987	12954.11058
698.183	13178.95519
698.379	12931.82535
698.575	13142.4979
698.77	13008.80807
698.966	13140.47245
699.162	13031.09118
699.358	13016.91109
699.554	12911.5655
699.749	13120.21771
699.945	12826.4683
700.141	13144.52335
700.337	12915.61751
700.532	12982.4727
700.728	12909.53948
700.924	12858.8874
701.119	13016.91109
701.315	12956.13648
701.511	12883.20082
701.706	13081.7324
701.902	12860.91355
702.097	13079.70681
702.293	13073.63001
702.489	12893.33118
702.684	12723.12287
702.88	12739.3349
703.075	12968.29177
703.271	12715.01672
703.466	12526.52162
703.662	12887.25298
703.857	12477.86897
704.053	12925.74745
704.248	12761.62583
704.443	12913.5915
704.639	12672.45788
704.834	12640.03034
705.03	12583.27841
705.225	12964.24002
705.42	12642.05711
705.616	12384.6075
705.811	12633.95001
706.006	12858.8874
706.202	12558.95468
706.397	12864.96583
706.592	12623.816
706.787	12485.978
706.983	12611.65498
707.178	12899.40933
707.373	12494.08693
707.568	12652.19085
707.763	12417.04787
707.959	12818.3633
708.154	12544.76541
708.349	12702.85732
708.544	12516.38596
708.739	12672.45788
708.934	12445.43179
709.129	12514.35881
709.324	12348.11001
709.519	12810.25822
709.714	12796.07411
709.909	12806.20564
710.104	12473.81441
710.299	12457.59593
710.494	12548.81952
710.689	12850.78276
710.884	12550.84657
711.079	12589.35921
711.274	12368.38667
711.469	12552.8736
711.664	12652.19085
711.859	12625.84281
712.054	12629.89642
712.249	12804.17935
712.443	12329.86042
712.638	12435.29483
712.833	12198.0409
713.028	12325.80488
713.223	12202.09734
713.417	12242.66013
713.612	12344.05459
713.807	12481.9235
714.002	12520.44024
714.196	12301.47106
714.391	12228.46348
714.586	12392.71776
714.78	12390.6902
714.975	12459.62326
715.17	12084.44849
715.364	12266.99641
715.559	12506.25013
715.754	12410.96543
715.948	12435.29483
716.143	12242.66013
716.337	12283.22003
716.532	12593.41304
716.726	12372.44192
716.921	12317.69372
717.115	12222.37909
717.31	12350.1377
717.504	12254.8284
717.699	12471.78713
717.893	12546.79247
718.088	12218.3228
718.282	12171.67332
718.476	12552.8736
718.671	11946.48235
718.865	12139.2192
719.059	11985.0354
719.254	12275.10828
719.448	12015.46998
719.642	12333.91593
719.837	11739.46222
720.031	12021.55668
720.225	11607.49058
720.419	12098.64884
720.614	12003.29636
720.808	12279.16417
721.002	12129.07689
721.196	12307.55461
721.39	12114.87735
721.585	12122.99142
721.779	11822.68676
721.973	12116.90588
722.167	11483.60508
722.361	11851.1016
722.555	11637.94894
722.749	11763.82213
722.943	11944.45316
723.137	11907.92637
723.331	11909.9557
723.525	11721.19147
723.719	11658.25339
723.913	11804.4192
724.107	11972.86106
724.301	11830.80545
724.495	11751.64233
724.689	11999.23843
724.883	11507.97876
725.077	11942.42396
725.271	11570.93781
725.465	11621.70474
725.659	11696.82936
725.853	11995.18046
726.046	11822.68676
726.24	11765.85206
726.434	11715.10106
726.628	12062.1329
726.822	11814.56793
727.015	11911.98503
727.209	11601.39866
727.403	11938.36554
727.596	11723.22159
727.79	11741.49226
727.984	11798.32985
728.177	11895.75018
728.371	11601.39866
728.565	11637.94894
728.758	11609.5212
728.952	11741.49226
729.146	11682.61753
729.339	11978.94827
729.533	11635.91845
729.726	11698.85958
729.92	11475.48022
730.113	11713.07091
730.307	11715.10106
730.5	11729.31189
730.694	11796.30006
730.887	11798.32985
731.081	11865.3084
731.274	11859.21983
731.468	11503.91658
731.661	11771.94182
731.854	11402.34948
732.048	11792.24044
732.241	11666.37491
732.435	11875.45587
732.628	11666.37491
732.821	11706.98039
733.014	11830.80545
733.208	11836.89439
733.401	11895.75018
733.594	11845.01285
733.788	11731.34198
733.981	11698.85958
734.174	11639.97943
734.367	11538.44394
734.56	11589.21457
734.754	11688.70837
734.947	11617.64359
735.14	11463.29263
735.333	11702.92
735.526	11786.15094
735.719	11520.16509
735.912	11593.27597
736.105	11751.64233
736.298	11800.35964
736.491	11416.57033
736.684	11623.73529
736.877	11308.88611
737.07	11219.46635
737.263	11400.31789
737.456	11499.85435
737.649	11702.92
737.842	11698.85958
738.035	11644.04037
738.228	11371.87461
738.421	11534.38204
738.614	11475.48022
738.807	11449.07334
739	11548.59853
739.192	11345.46125
739.385	11487.66746
739.578	11317.0142
739.771	11430.79071
739.964	11300.75786
740.156	11853.13117
740.349	11392.19144
740.542	11438.91642
740.735	11223.53132
740.927	11426.72779
741.12	11369.84287
741.313	11375.93805
741.505	11373.90634
741.698	11284.50087
741.891	11272.3077
742.083	11205.23864
742.276	11333.2699
742.468	11607.49058
742.661	11485.63627
742.854	11319.0462
743.046	11172.71623
743.239	11254.01725
743.431	11436.88501
743.624	11353.58862
743.816	11195.07568
744.009	11382.03315
744.201	10981.59165
744.393	11436.88501
744.586	11044.63274
744.778	11349.52495
744.971	11237.75838
745.163	11254.01725
745.355	11304.82201
745.548	11227.59625
745.74	10957.18578
745.932	11256.04957
746.125	11134.09236
746.317	11536.413
746.509	11195.07568
746.702	11158.48683
746.894	11095.46464
747.086	11430.79071
747.278	11101.56401
747.471	11209.30376
747.663	11115.7955
747.855	11184.91245
748.047	10959.21967
748.239	11105.6302
748.431	10930.74426
748.623	11024.29806
748.815	10993.79398
749.008	11117.82853
749.2	11182.87977
749.392	11170.68349
749.584	11219.46635
749.776	11447.04198
749.968	11083.2656
750.16	11052.7663
750.352	10898.19822
750.544	10959.21967
750.736	10877.85546
750.928	11073.09944
751.12	11016.16389
751.311	10857.51155
751.503	10898.19822
751.695	10965.32125
751.887	10983.6254
752.079	10829.02813
752.271	10723.21241
752.463	11066.99961
752.654	10700.82418
752.846	10627.54336
753.038	10713.03612
753.23	10829.02813
753.421	10462.60265
753.613	10792.40323
753.805	10735.42355
753.997	10918.53984
754.188	11140.19112
754.38	10987.69287
754.572	10745.59918
754.763	11012.09673
754.955	10666.22132
755.146	10613.29247
755.338	10527.7743
755.53	10792.40323
755.721	10482.9702
755.913	10442.23382
756.104	10702.85954
756.296	10763.91456
756.487	10291.46385
756.679	10513.51912
756.87	10381.11954
757.062	10397.41783
757.253	10413.71528
757.445	10442.23382
757.636	10415.75241
757.827	10511.48261
758.019	10383.15688
758.21	10421.8637
758.401	10193.62797
758.593	10423.90077
758.784	10452.4184
758.975	10234.39672
759.167	10350.55799
759.358	10715.0714
759.549	10214.01303
759.74	10491.11686
759.932	10401.49227
760.123	10446.30769
760.314	10281.27406
760.505	10360.7455
760.696	10474.82333
760.888	10356.67053
761.079	10144.6982
761.27	10344.44532
761.461	10152.85372
761.652	10218.08988
761.843	10028.45774
762.034	10195.66654
762.225	9863.19381
762.416	10048.85413
762.607	9916.25192
762.798	9855.03014
762.989	9967.25999
763.18	9952.97865
763.371	9740.71358
763.562	9975.42044
763.753	9940.73693
763.944	10079.44604
764.135	9795.83638
764.326	10095.76043
764.517	9918.29242
764.708	10034.57681
764.899	9924.41382
765.089	9893.80547
765.28	9977.46052
765.471	9765.21396
765.662	9732.5463
765.853	9930.5351
766.043	9518.06669
766.234	9801.96045
766.425	9963.17968
766.615	9879.52044
766.806	9932.57549
766.997	9804.00178
767.187	9846.86623
767.378	9838.70208
767.569	9695.79051
767.759	9863.19381
767.95	9797.87775
768.141	9697.83263
768.331	9462.8867
768.522	9585.49314
768.712	9444.49077
768.903	9475.14993
769.093	9499.67466
769.284	9405.6506
769.474	9464.93061
769.665	9430.18192
769.855	9387.25058
770.046	9575.27811
770.236	9289.09466
770.426	9430.18192
770.617	9381.11695
770.807	9370.8939
770.998	9268.6407
771.188	9550.76045
771.378	9379.07237
771.569	9282.95864
771.759	9338.17737
771.949	9336.13245
772.139	9303.41143
772.33	9231.81935
772.52	9303.41143
772.71	9432.22609
772.9	9311.59209
773.09	9319.77247
773.281	9164.29937
773.471	9274.77706
773.661	9258.41309
773.851	9244.09374
774.041	9244.09374
774.231	9182.71574
774.421	9237.95662
774.611	9229.77357
774.802	8857.15302
774.992	9018.96587
775.182	8998.48933
775.372	9057.86648
775.562	8609.09452
775.752	8943.19388
775.942	8902.22597
776.131	9039.44066
776.321	8949.33846
776.511	9100.8546
776.701	8803.87377
776.891	9008.72781
777.081	8855.10405
777.271	8992.34602
777.461	8961.62713
777.651	8881.73934
777.84	8713.68089
778.03	8857.15302
778.22	8662.41909
778.41	8871.49536
778.599	8891.98288
778.789	8810.022
778.979	8740.33247
779.169	8615.248
779.358	8592.68442
779.548	8750.58225
779.738	8590.63307
779.927	8721.88171
780.117	8734.18238
780.307	8574.22162
780.496	8453.14979
780.686	8803.87377
780.875	8405.9343
781.065	8422.35823
781.254	8502.40732
781.444	8615.248
781.633	8451.09715
781.823	8592.68442
782.012	8295.04032
782.202	8334.06504
782.391	8091.5857
782.581	8401.82812
782.77	8262.17192
782.96	8364.86906
783.149	8481.88469
783.338	8637.80931
783.528	8105.9778
783.717	8058.68576
783.906	8066.91123
784.096	8315.58053
784.285	8198.47502
784.474	8233.40793
784.663	8027.83737
784.853	8025.78065
785.042	7933.20708
785.231	8112.14555
785.42	7980.52763
785.61	8064.8549
785.799	7957.89741
785.988	8025.78065
786.177	7719.0994
786.366	7914.68739
786.555	8056.62935
786.744	7768.52888
786.933	7817.94629
787.122	8089.52961
787.312	7949.66763
787.501	8196.41997
787.69	7815.88747
787.879	8229.29847
788.068	7914.68739
788.257	8083.3612
788.445	7869.41001
788.634	8153.25921
788.823	7768.52888
789.012	7803.53412
789.201	7558.36952
789.39	7762.35085
789.579	7671.71811
789.768	7836.47473
789.957	7455.26916
790.145	7700.56023
790.334	7607.83865
790.523	7764.41021
790.712	7754.11319
790.9	7817.94629
791.089	7789.12093
791.278	7727.33849
791.467	7560.43098
791.655	7712.91987
791.844	7529.50684
792.033	7548.06191
792.221	7219.99719
792.41	7541.87708
792.599	7350.05105
792.787	7638.75061
792.976	7702.62022
793.164	7603.71669
793.353	7653.17456
793.541	7581.0444
793.73	7636.68996
793.918	7533.63034
794.107	7372.74994
794.295	7463.51917
794.484	7341.79625
794.672	7393.383
794.861	7170.42983
795.049	7213.80197
795.238	7205.54136
795.426	7306.70945
795.614	7279.87409
795.803	7539.81542
795.991	7275.74525
796.179	7438.76809
796.368	7424.32852
796.556	7572.79929
796.744	7255.09969
796.932	7325.2856
797.121	7352.11469
797.309	7350.05105
797.497	7174.56093
797.685	7310.83764
797.874	7000.97789
798.062	6986.50549
798.25	7091.92201
798.438	7405.7618
798.626	7281.93848
798.814	7308.77356
799.002	7040.25454
799.19	7240.64649
799.378	7290.19582
799.566	7178.69195
799.755	6955.48951
799.943	7091.92201
800.131	7259.22898
800.318	7267.48729
800.506	7069.19005
800.694	7042.32151
800.882	6841.72068
801.07	7153.90454
801.258	7054.72284
801.446	7331.47726
801.634	7017.51641
801.822	7164.23302
802.01	7133.24593
802.197	7447.0188
802.385	7029.91936
802.573	6868.61768
802.761	6887.23644
802.949	7129.11394
803.136	6864.47993
803.324	7292.2601
803.512	7290.19582
803.699	7207.60655
803.887	7158.036
804.075	7046.45537
804.262	6870.68653
804.45	6852.06613
804.638	6549.74321
804.825	7019.58363
805.013	6905.85336
805.201	6810.68089
805.388	6934.80936
805.576	7265.42274
805.763	7219.99719
805.951	7199.34568
806.138	6889.30508
806.326	7065.05667
806.513	6897.5794
806.701	7034.0535
806.888	6978.23506
807.075	7335.60492
807.263	6876.89291
807.45	7017.51641
807.638	6802.40275
807.825	7153.90454
808.012	6827.23608
808.2	6992.70808
808.387	7054.72284
808.574	7046.45537
808.761	6810.68089
808.949	7038.18755
809.136	6930.67306
809.323	7104.32012
809.51	6885.16778
809.698	7058.85644
809.885	6821.02806
810.072	6949.2857
810.259	6914.12695
810.446	7009.24733
810.633	7038.18755
810.82	7232.38704
811.008	7042.32151
811.195	7248.9056
811.382	6930.67306
811.569	7211.73685
811.756	7083.65615
811.943	7248.9056
812.13	7025.78514
812.317	7257.16435
812.504	7017.51641
812.691	7300.517
812.878	7087.78913
813.064	7215.86706
813.251	7100.18751
813.438	7533.63034
813.625	7135.31189
813.812	7217.93214
813.999	6953.42159
814.186	7137.37783
814.372	7127.04791
814.559	7135.31189
814.746	6804.47232
814.933	7153.90454
815.12	6794.12424
815.306	6872.75534
815.493	6843.78981
815.68	7168.36425
815.866	6943.08169
816.053	7343.85998
816.24	6845.85893
816.426	7102.25382
816.613	6835.51313
816.799	7213.80197
816.986	6736.16445
817.173	7075.38994
817.359	6678.18671
817.546	6990.64058
817.732	6769.28653
817.919	7112.58508
818.105	6779.63597
818.292	6926.53667
818.478	6686.47034
818.665	7038.18755
818.851	6831.37465
819.037	7100.18751
819.224	6802.40275
819.41	7029.91936
819.597	6698.89511
819.783	6920.33191
819.969	6934.80936
820.156	7091.92201
820.342	6640.90579
820.528	6909.9902
820.714	6721.6717
820.901	6920.33191
821.087	6630.54865
821.273	6947.21772
821.459	6860.34209
821.646	6947.21772
821.832	6616.0477
822.018	6794.12424
822.204	6688.5412
822.39	6885.16778
822.576	6433.65329
822.762	6647.11979
822.948	6429.50588
823.134	6582.89841
823.32	6375.581
823.507	6711.31905
823.693	6404.61943
823.879	6816.88926
824.065	6520.72755
824.25	6645.04848
824.436	6638.83441
824.622	6647.11979
824.808	6421.21077
824.994	6798.26354
825.18	6564.24934
825.366	6622.26253
825.552	6346.538
825.738	6833.4439
825.923	6562.1771
826.109	6611.90436
826.295	6479.26873
826.481	6412.91528
826.667	6354.83647
826.852	6363.13456
827.038	6207.48308
827.224	6454.38898
827.409	6232.39616
827.595	6466.82927
827.781	6172.18376
827.966	6529.0182
828.152	6057.93357
828.338	6361.06007
828.523	6074.5562
828.709	6593.2582
828.894	6319.56541
829.08	6651.26235
829.266	6242.77562
829.451	6508.29088
829.637	6468.90257
829.822	6514.50932
830.008	6253.15449
830.193	6313.3404
830.378	5978.9555
830.564	6313.3404
830.749	6126.49222
830.935	6180.49009
831.12	6024.68379
831.305	6199.17797
831.491	6130.64646
831.676	6251.07876
831.861	5939.4537
832.047	6016.3704
832.232	6047.54366
832.417	6271.83498
832.602	6008.05664
832.788	5976.87667
832.973	5939.4537
833.158	6097.40986
833.343	5733.49076
833.528	6076.63392
833.714	5914.50081
833.899	6051.69969
834.084	5918.65986
834.269	5941.53295
834.454	5941.53295
834.639	6051.69969
834.824	5949.84973
835.009	6182.56662
835.194	6076.63392
835.379	6062.08937
835.564	5858.34439
835.749	5958.16614
835.934	5756.38695
836.119	6072.47845
836.304	5693.93606
836.489	5866.66495
836.674	5631.46393
836.859	5872.90511
837.044	5573.13746
837.228	5881.22501
837.413	5587.72081
837.598	5768.87458
837.783	5741.81698
837.968	5781.36136
838.152	5514.79251
838.337	5750.14282
838.522	5441.83536
838.707	5723.08245
838.891	5448.08996
839.076	5418.90002
839.261	5398.04725
839.445	5643.96005
839.63	5483.52869
839.815	5714.75538
839.999	5370.93513
840.184	5431.41056
840.368	5183.12729
840.553	5566.8871
840.737	5435.58055
840.922	5418.90002
841.106	5291.6616
841.291	5368.84942
841.475	5277.05489
841.66	5391.79096
841.844	5047.37087
842.029	5291.6616
842.213	5222.79137
842.397	5172.68797
842.582	5201.91659
842.766	5318.7853
842.951	4965.87005
843.135	5252.01215
843.319	5009.75947
843.504	5214.44174
843.688	4980.50099
843.872	5049.46017
844.056	5135.10162
844.241	5393.87641
844.425	5026.47657
844.609	5256.18618
844.793	5145.54303
844.977	5124.65963
845.161	4993.04089
845.346	5191.47832
845.53	5007.66973
845.714	5195.6537
845.898	5020.20783
846.082	5055.72794
846.266	4804.8556
846.45	4863.422
846.634	4934.51426
846.818	4871.78717
847.002	4691.85583
847.186	4990.95096
847.37	4790.21121
847.554	4781.84248
847.738	4587.16785
847.922	4930.33309
848.106	4673.01613
848.29	4790.21121
848.473	4681.38956
848.657	4664.64235
848.841	4591.35645
849.025	4758.82663
849.209	4603.92169
849.392	4825.77422
849.576	4673.01613
849.76	4687.66939
849.944	4471.94676
850.127	4815.31519
850.311	4522.23329
850.495	4654.17461
850.678	4603.92169
850.862	4758.82663
851.046	4612.29807
851.229	4474.04229
851.413	4492.90103
851.596	4518.04323
851.78	4276.96751
851.964	4593.45071
852.147	4354.56239
852.331	4505.47253
852.514	4356.65914
852.698	4597.63917
852.881	4268.57711
853.065	4620.6741
853.248	4335.69068
853.431	4494.99633
853.615	4388.10776
853.798	4538.99264
853.982	4339.88454
854.165	4505.47253
854.348	4155.27336
854.532	4471.94676
854.715	4430.03164
854.898	4388.10776
855.081	4111.19416
855.265	4218.22753
855.448	4035.60842
855.631	4163.66834
855.814	4014.60763
855.997	4255.99087
856.181	4201.44161
856.364	4180.45731
856.547	4016.7078
856.73	4331.49673
856.913	3899.06679
857.096	4251.79528
857.279	4020.90809
857.462	4251.79528
857.645	4052.40758
857.828	4138.48237
858.011	4044.00817
858.194	4044.00817
858.377	3745.61905
858.56	4027.20835
858.743	3892.7628
858.926	3884.35721
859.109	3709.86967
859.292	3806.59033
859.475	3848.62985
859.658	4069.2054
859.841	3798.18148
860.023	4035.60842
860.206	3730.89939
860.389	3928.483
860.572	3724.59068
860.755	3831.81499
860.937	3852.83337
861.12	3817.10095
861.303	3804.48814
861.486	3785.56761
861.668	3571.02567
861.851	3571.02567
862.034	3333.12188
862.216	3617.31614
862.399	3448.94437
862.581	3577.33853
862.764	3421.57297
862.947	3867.54505
863.129	3512.09754
863.312	3754.02986
863.494	3554.19053
863.677	3766.64549
863.859	3520.51672
864.042	3486.83823
864.224	3295.20489
864.406	3425.78415
864.589	3185.63612
864.771	3465.78681
864.954	3191.95862
865.136	3373.1393
865.318	3263.60317
865.501	3172.99069
865.683	3242.53324
865.865	3286.77814
866.048	3059.15568
866.23	3288.88485
866.412	3101.3222
866.594	3227.7833
866.777	2905.19587
866.959	3276.24431
867.141	2983.24032
867.323	3164.56007
867.505	2998.00319
867.687	3183.52859
867.869	3170.88306
868.052	3200.38839
868.234	3189.85114
868.416	3512.09754
868.598	3113.97093
868.78	3236.21194
868.962	3050.72162
869.144	3371.03327
869.326	3170.88306
869.508	3069.6979
869.69	3002.22101
869.872	3158.23693
870.054	3122.4031
870.236	3339.44084
870.417	3141.37453
870.599	3099.21403
870.781	3185.63612
870.963	3210.92522
871.145	2917.85309
871.327	2957.93082
871.508	2983.24032
871.69	3054.93868
871.872	2863.00136
872.054	3120.29508
872.235	2998.00319
872.417	3084.45635
872.599	2856.67169
872.78	3107.64664
872.962	3065.48106
873.144	2989.56735
873.325	3109.75475
873.507	3109.75475
873.689	3059.15568
873.87	3158.23693
874.052	3033.85277
874.233	3031.74409
874.415	2759.60109
874.596	2955.8216
874.778	2806.0298
874.959	2993.7853
875.141	2837.68193
875.322	3162.45237
875.503	3014.87413
875.685	3057.04719
875.866	2763.82215
876.048	2964.2584
876.229	2928.40038
876.41	2930.50979
876.592	2812.36047
876.773	3000.11211
876.954	2837.68193
877.136	3057.04719
877.317	2533.6994
877.498	3082.34805
877.679	2848.23194
877.86	2808.14004
878.042	2749.0482
878.223	2913.63408
878.404	2761.71163
878.585	3069.6979
878.766	2938.9473
878.947	3181.42104
879.128	2863.00136
879.309	3006.43878
879.49	2858.7816
879.672	3111.86285
879.853	2829.24167
880.034	2913.63408
880.215	2799.699
880.396	2985.34934
880.576	2645.61254
880.757	2941.05664
880.938	2812.36047
881.119	3040.1787
881.3	2881.9896
881.481	3023.30923
881.662	2934.72857
881.843	3086.56464
882.023	2816.58086
882.204	3116.079
882.385	2820.80118
882.566	2905.19587
882.747	2850.3419
882.927	3113.97093
883.108	2827.13157
883.289	3021.20048
883.469	2763.82215
883.65	2886.20905
883.831	2685.72392
884.011	3048.61307
884.192	2692.05687
884.373	3008.54764
884.553	2662.5021
884.734	2989.56735
884.914	2658.27978
885.095	3044.39592
885.275	2831.35175
885.456	2968.47671
885.636	2881.9896
885.817	2998.00319
885.997	2881.9896
886.178	3147.69805
886.358	2744.82695
886.538	3118.18705
886.719	2856.67169
886.899	3113.97093
887.08	2770.15364
887.26	3071.8063
887.44	2985.34934
887.621	3286.77814
887.801	2989.56735
887.981	2951.60312
888.161	2947.38457
888.342	3048.61307
888.522	2898.86706
888.702	3107.64664
888.882	2938.9473
889.062	3004.3299
889.242	2968.47671
889.423	3272.03067
889.603	3067.58949
889.783	3208.81789
889.963	2943.16596
890.143	3191.95862
890.323	2915.74359
890.503	3040.1787
890.683	2831.35175
890.863	2951.60312
891.043	2825.02145
891.223	3132.94294
891.403	2814.47067
891.583	3154.02143
891.763	2879.87985
891.943	3004.3299
892.122	2833.46182
892.302	3101.3222
892.482	2879.87985
892.662	3107.64664
892.842	2816.58086
893.022	2960.04003
893.201	2622.38809
893.381	2630.83352
893.561	2584.38124
893.741	2820.80118
893.92	2670.94658
894.1	2871.44072
894.28	2666.72436
894.459	3027.52669
894.639	2620.2767
894.819	2782.81627
894.998	2567.48805
895.178	2765.93266
895.357	2736.38429
895.537	2622.38809
895.716	2704.72244
895.896	2687.83492
896.075	2495.68364
896.255	2753.26939
896.434	2556.92942
896.614	2711.05504
896.793	2491.45944
896.973	2820.80118
897.152	2533.6994
897.331	2763.82215
897.511	2679.39085
897.69	2772.26412
897.87	2447.10264
898.049	2628.72218
898.228	2487.23519
898.407	2649.83501
898.587	2613.94246
898.766	2736.38429
898.945	2449.21498
899.124	2597.05063
899.304	2434.42839
899.483	2537.92315
899.662	2339.35948
899.841	2364.71321
900.02	2417.52879
900.199	2514.69198
900.378	2385.84021
900.557	2385.84021
900.737	2273.85586
900.916	2191.43555
901.095	2096.31934
901.274	2299.21318
901.453	2225.25063
901.632	2324.56914
901.811	2119.57144
901.989	2202.003
902.168	2246.38392
902.347	2214.68365
902.526	1950.44579
902.705	2092.09159
902.884	1933.53095
903.063	2037.12816
903.242	1925.07339
903.42	2155.50466
903.599	1990.61701
903.778	1982.1601
903.957	1891.24225
904.135	2113.23005
904.314	1944.10277
904.493	1863.75345
904.672	1758.01993
904.85	1908.158
905.029	1730.52754
905.207	1961.01738
905.386	1755.90515
905.565	1950.44579
905.743	1738.9868
905.922	1821.46137
906.1	1557.10288
906.279	1747.446
906.457	1442.8906
906.636	1637.4724
906.814	1580.368
906.993	1588.828
907.171	1499.99696
907.35	1582.483
907.528	1485.19163
907.707	1417.50999
907.885	1212.35674
908.063	1411.16485
908.242	1368.86405
908.42	1411.16485
908.598	1222.93113
908.777	1489.42173
908.955	1269.45932
909.133	1455.58092
909.311	1313.87371
909.49	1442.8906
909.668	1290.60891
909.846	1565.56294
910.024	1172.17484
910.202	1521.14738
910.38	1250.4249
910.559	1419.62504
910.737	1307.52874
910.915	1497.88192
911.093	1320.2187
911.271	1510.57218
911.449	1239.85032
911.627	1358.28891
911.805	1231.3907
911.983	1508.45714
912.161	1256.76969
912.339	1440.77555
912.517	1425.97019
912.695	1603.63293
912.872	1337.13873
913.05	1540.18269
913.228	1383.66929
913.406	1504.22705
913.584	1328.6787
913.762	1529.60753
913.939	1417.50999
914.117	1495.76687
914.295	1392.12945
914.473	1502.11201
914.65	1438.6605
914.828	1411.16485
915.006	1343.48377
915.184	1569.79297
915.361	1263.11449
915.539	1495.76687
915.716	1315.9887
915.894	1438.6605
916.072	1301.18379
916.249	1523.26242
916.427	1303.29877
916.604	1341.36876
916.782	1206.01215
916.959	1379.43922
917.137	1244.08014
917.314	1504.22705
917.492	1210.24188
917.669	1218.70137
917.847	1123.53545
918.024	1220.81625
918.201	1184.86372
918.379	1328.6787
918.556	1167.94524
918.733	1277.91913
918.911	1057.98188
919.088	1218.70137
919.265	1199.66758
919.442	1301.18379
919.62	962.83314
919.797	1265.22943
919.974	1034.72216
920.151	1231.3907
920.328	1057.98188
920.506	1197.55274
920.683	1049.52372
920.86	1070.66929
921.037	1081.24227
921.214	1049.52372
921.391	1093.93002
921.568	1155.25654
921.745	973.40458
921.922	1258.88462
922.099	1106.61795
922.276	1186.97855
922.453	1053.75279
922.63	1053.75279
922.807	1045.29468
922.984	897.29422
923.161	897.29422
923.338	1055.86733
923.514	890.95213
923.691	1034.72216
923.868	926.89155
924.045	1049.52372
924.222	878.26818
924.399	939.57658
924.575	768.3538
924.752	876.15421
924.929	922.66327
925.105	783.14849
925.282	740.87925
925.459	937.46239
925.635	878.26818
925.812	871.92631
925.989	749.33277
926.165	998.77672
926.342	808.51194
926.518	808.51194
926.695	698.61419
926.871	852.90117
927.048	688.04861
927.224	935.34821
927.401	732.42589
927.577	909.9786
927.754	740.87925
927.93	871.92631
928.107	755.67302
928.283	861.3567
928.459	774.69432
928.636	774.69432
928.812	588.74665
928.988	700.72734
929.165	544.38677
929.341	635.22506
929.517	565.50978
929.693	688.04861
929.87	519.04098
930.046	584.52165
930.222	599.30939
930.398	698.61419
930.574	466.24391
930.751	688.04861
930.927	639.45067
931.103	616.21043
931.279	472.57906
931.455	656.3536
931.631	595.08425
931.807	584.52165
931.983	500.03297
932.159	607.75981
932.335	438.79314
932.511	544.38677
932.687	447.23925
932.863	546.49901
933.039	436.68165
933.215	388.12183
933.391	470.46733
933.566	554.94811
933.742	481.02615
933.918	445.1277
934.094	369.12252
934.27	487.36163
934.445	345.90302
934.621	453.574
934.797	364.90064
934.973	343.79226
935.148	354.34623
935.324	466.24391
935.5	354.34623
935.675	341.68151
935.851	259.37653
936.027	320.57505
936.202	234.05762
936.378	329.01742
936.553	242.49695
936.729	236.16742
936.904	206.63197
937.08	183.42829
937.255	204.52245
937.431	269.92688
937.606	208.74152
937.782	242.49695
937.957	191.86571
938.133	221.39921
938.308	149.68192
938.483	206.63197
938.659	179.20971
938.834	189.75633
939.009	109.61514
939.185	103.28953
939.36	130.70195
939.535	179.20971
939.71	56.90779
939.886	61.12386
940.061	139.13728
940.236	172.88198
940.411	160.22709
940.586	77.98905
940.761	54.79979
940.937	67.44814
941.112	99.07256
941.287	61.12386
941.462	82.20557
941.637	65.34002
941.812	105.39804
941.987	73.77262
942.162	151.79091
942.337	63.23193
942.512	29.5056
942.687	107.50658
942.862	107.50658
943.037	99.07256
943.212	200.30345
943.386	50.58386
943.561	52.69182
943.736	94.85568
943.911	31.61332
944.086	35.82884
944.26	56.90779
944.435	73.77262
944.61	73.77262
944.785	92.74727
944.959	44.26014
945.134	4.2148
945.309	29.5056
945.483	118.04961
945.658	73.77262
945.833	84.31387
946.007	44.26014
946.182	8.4297
946.357	23.18258
946.531	-25.28676
946.706	99.07256
946.88	149.68192
947.055	109.61514
947.229	107.50658
947.404	77.98905
947.578	132.81075
947.752	14.75222
947.927	65.34002
948.101	48.47593
948.276	42.15228
948.45	73.77262
948.624	128.59318
948.799	73.77262
948.973	94.85568
949.147	137.02842
949.321	111.72373
949.496	99.07256
949.67	14.75222
949.844	115.94096
950.018	134.91958
950.193	141.24617
950.367	107.50658
950.541	40.04444
950.715	86.42218
950.889	65.34002
951.063	107.50658
951.237	109.61514
951.411	107.50658
951.585	99.07256
951.759	84.31387
951.933	90.63889
952.107	56.90779
952.281	82.20557
952.455	126.48442
952.629	35.82884
952.803	61.12386
952.977	56.90779
953.151	151.79091
953.325	111.72373
953.499	67.44814
953.672	80.0973
953.846	75.88082
954.02	126.48442
954.194	63.23193
954.368	132.81075
954.541	82.20557
954.715	33.72107
954.889	158.11802
955.062	126.48442
955.236	42.15228
955.41	75.88082
955.583	124.37568
955.757	65.34002
955.93	158.11802
956.104	12.64469
956.278	63.23193
956.451	61.12386
956.625	16.85977
956.798	124.37568
956.972	86.42218
957.145	109.61514
957.319	52.69182
957.492	69.55627
957.665	107.50658
957.839	90.63889
958.012	69.55627
958.185	120.15828
958.359	107.50658
958.532	141.24617
958.705	54.79979
958.879	31.61332
959.052	109.61514
959.225	82.20557
959.398	115.94096
959.572	42.15228
959.745	141.24617
959.918	151.79091
960.091	56.90779
960.264	63.23193
960.438	134.91958
960.611	40.04444
960.784	35.82884
960.957	124.37568
961.13	35.82884
961.303	132.81075
961.476	90.63889
961.649	23.18258
961.822	107.50658
961.995	82.20557
962.168	75.88082
962.341	128.59318
962.514	107.50658
962.686	183.42829
962.859	67.44814
963.032	73.77262
963.205	2.10739
963.378	107.50658
963.551	18.96735
963.723	77.98905
963.896	149.68192
964.069	23.18258
964.242	99.07256
964.414	113.83233
964.587	14.75222
964.76	179.20971
964.932	107.50658
965.105	124.37568
965.278	141.24617
965.45	113.83233
965.623	65.34002
965.795	80.0973
965.968	111.72373
966.14	101.18103
966.313	94.85568
966.485	8.4297
966.658	-14.75104
966.83	52.69182
967.003	73.77262
967.175	-16.85823
967.348	191.86571
967.52	40.04444
967.692	90.63889
967.865	120.15828
968.037	52.69182
968.209	149.68192
968.382	-23.17966
968.554	103.28953
968.726	120.15828
968.898	12.64469
969.071	75.88082
969.243	52.69182
969.415	73.77262
969.587	56.90779
969.759	99.07256
969.932	75.88082
970.104	14.75222
970.276	73.77262
970.448	156.00896
970.62	107.50658
970.792	137.02842
970.964	35.82884
971.136	63.23193
971.308	33.72107
971.48	71.66443
971.652	42.15228
971.824	23.18258
971.996	59.01582
972.168	-2.10736
972.339	-61.10358
972.511	35.82884
972.683	14.75222
972.855	84.31387
973.027	56.90779
973.199	23.18258
973.37	-2.10736
973.542	141.24617
973.714	103.28953
973.886	10.53718
974.057	61.12386
974.229	52.69182
974.401	61.12386
974.572	10.53718
974.744	23.18258
974.915	73.77262
975.087	115.94096
975.259	23.18258
975.43	-8.42931
975.602	56.90779
975.773	56.90779
975.945	-23.17966
976.116	59.01582
976.288	18.96735
976.459	90.63889
976.63	18.96735
976.802	61.12386
976.973	61.12386
977.145	56.90779
977.316	59.01582
977.487	65.34002
977.659	61.12386
977.83	-6.32202
978.001	73.77262
978.172	29.5056
978.344	107.50658
978.515	-33.71489
978.686	35.82884
978.857	40.04444
979.028	25.29023
979.2	50.58386
979.371	23.18258
979.542	18.96735
979.713	-40.03573
979.884	56.90779
980.055	-2.10736
980.226	73.77262
980.397	21.07496
980.568	-0
980.739	27.39791
980.91	-18.9654
981.081	23.18258
981.252	73.77262
981.423	29.5056
981.594	2.10739
981.765	65.34002
981.936	27.39791
982.106	44.26014
982.277	35.82884
982.448	50.58386
982.619	63.23193
982.79	37.93663
982.96	-50.56997
983.131	33.72107
983.302	82.20557
983.472	-77.95602
983.643	-73.74306
983.814	25.29023
983.984	27.39791
984.155	14.75222
984.326	141.24617
984.496	16.85977
984.667	73.77262
984.837	-48.46317
985.008	50.58386
985.178	82.20557
985.349	10.53718
985.519	-14.75104
985.69	14.75222
985.86	71.66443
986.031	27.39791
986.201	73.77262
986.371	40.04444
986.542	75.88082
986.712	-10.53658
986.882	75.88082
987.053	6.32224
987.223	69.55627
987.393	52.69182
987.563	12.64469
987.734	73.77262
987.904	6.32224
988.074	25.29023
988.244	8.4297
988.414	18.96735
988.585	18.96735
988.755	-0
988.925	63.23193
989.095	14.75222
989.265	65.34002
989.435	73.77262
989.605	31.61332
989.775	18.96735
989.945	44.26014
990.115	12.64469
990.285	14.75222
990.455	8.4297
990.625	-6.32202
990.795	71.66443
990.965	44.26014
991.134	-23.17966
991.304	25.29023
991.474	86.42218
991.644	42.15228
991.814	6.32224
991.984	31.61332
992.153	54.79979
992.323	16.85977
992.493	73.77262
992.662	12.64469
992.832	-10.53658
993.002	-0
993.171	48.47593
993.341	-69.53
993.511	2.10739
993.68	2.10739
993.85	10.53718
994.019	8.4297
994.189	12.64469
994.358	25.29023
994.528	-35.82187
994.697	-14.75104
994.867	48.47593
995.036	-10.53658
995.206	73.77262
995.375	-0
995.544	25.29023
995.714	82.20557
995.883	14.75222
996.052	48.47593
996.222	18.96735
996.391	-16.85823
996.56	-4.2147
996.73	23.18258
996.899	82.20557
997.068	56.90779
997.237	48.47593
997.406	50.58386
997.576	25.29023
997.745	-14.75104
997.914	73.77262
998.083	27.39791
998.252	-52.67674
998.421	35.82884
998.59	59.01582
998.759	-16.85823
998.928	42.15228
999.097	50.58386
999.266	80.0973
999.435	40.04444
999.604	-23.17966
999.773	37.93663
999.942	82.20557
1000.111	-12.64382
1000.28	99.07256
1000.448	-2.10736
1000.617	2.10739
1000.786	27.39791
1000.955	16.85977
1001.124	48.47593
1001.292	52.69182
1001.461	18.96735
1001.63	27.39791
1001.798	63.23193
1001.967	82.20557
1002.136	67.44814
1002.304	73.77262
1002.473	16.85977
1002.642	-2.10736
1002.81	-33.71489
1002.979	48.47593
1003.147	65.34002
1003.316	-0
1003.484	6.32224
1003.653	-50.56997
1003.821	-27.39383
1003.99	-0
1004.158	84.31387
1004.327	75.88082
1004.495	75.88082
1004.663	23.18258
1004.832	-10.53658
1005	27.39791
1005.168	59.01582
1005.337	-6.32202
1005.505	29.5056
1005.673	92.74727
1005.842	-48.46317
1006.01	46.36803
1006.178	10.53718
1006.346	61.12386
1006.514	-23.17966
1006.683	65.34002
1006.851	-21.07254
1007.019	-31.6079
1007.187	-10.53658
1007.355	-12.64382
1007.523	-52.67674
1007.691	2.10739
1007.859	16.85977
1008.027	101.18103
1008.195	40.04444
1008.363	-35.82187
1008.531	44.26014
1008.699	23.18258
1008.867	71.66443
1009.035	-27.39383
1009.203	-18.9654
1009.37	86.42218
1009.538	-86.38163
1009.706	-4.2147
1009.874	14.75222
1010.042	-2.10736
1010.209	-46.35635
1010.377	-10.53658
1010.545	18.96735
1010.713	31.61332
1010.88	69.55627
1011.048	2.10739
1011.216	-0
1011.383	73.77262
1011.551	23.18258
1011.718	82.20557
1011.886	59.01582
1012.054	-50.56997
1012.221	14.75222
1012.389	-6.32202
1012.556	-10.53658
1012.724	-0
1012.891	-10.53658
1013.058	96.96411
1013.226	-31.6079
1013.393	23.18258
1013.561	14.75222
1013.728	48.47593
1013.895	27.39791
1014.063	-0
1014.23	14.75222
1014.397	10.53718
1014.565	27.39791
1014.732	4.2148
1014.899	31.61332
1015.066	14.75222
1015.233	14.75222
1015.401	16.85977
1015.568	14.75222
1015.735	-27.39383
1015.902	-16.85823
1016.069	40.04444
1016.236	63.23193
1016.403	-2.10736
1016.57	21.07496
1016.737	6.32224
1016.904	16.85977
1017.071	2.10739
1017.238	-35.82187
1017.405	-0
1017.572	8.4297
1017.739	77.98905
1017.906	23.18258
1018.073	14.75222
1018.24	86.42218
1018.407	50.58386
1018.573	27.39791
1018.74	16.85977
1018.907	8.4297
1019.074	-50.56997
1019.241	-46.35635
1019.407	16.85977
1019.574	27.39791
1019.741	23.18258
1019.907	-8.42931
1020.074	73.77262
1020.241	73.77262
1020.407	42.15228
1020.574	-21.07254
1020.74	-27.39383
1020.907	-61.10358
1021.073	-16.85823
1021.24	67.44814
1021.406	25.29023
1021.573	29.5056
1021.739	-50.56997
1021.906	31.61332
1022.072	-2.10736
1022.239	40.04444
1022.405	46.36803
1022.571	-10.53658
1022.738	12.64469
1022.904	-29.50088
1023.07	33.72107
1023.237	40.04444
1023.403	2.10739
1023.569	77.98905
1023.735	14.75222
1023.902	12.64469
1024.068	-2.10736
1024.234	23.18258
1024.4	31.61332
1024.566	40.04444
1024.732	23.18258
1024.898	-14.75104
1025.065	23.18258
1025.231	-50.56997
1025.397	67.44814
1025.563	31.61332
1025.729	6.32224
1025.895	6.32224
1026.061	31.61332
1026.227	40.04444
1026.392	44.26014
1026.558	-35.82187
1026.724	-48.46317
1026.89	-52.67674
1027.056	65.34002
1027.222	-75.84956
1027.388	29.5056
1027.553	-6.32202
1027.719	-50.56997
1027.885	2.10739
1028.051	-21.07254
1028.216	10.53718
1028.382	6.32224
1028.548	40.04444
1028.713	44.26014
1028.879	82.20557
1029.045	18.96735
1029.21	65.34002
1029.376	59.01582
1029.541	-35.82187
1029.707	31.61332
1029.873	61.12386
1030.038	31.61332
1030.204	-42.14263
1030.369	2.10739
1030.534	23.18258
1030.7	44.26014
1030.865	-37.92881
1031.031	-6.32202
1031.196	-2.10736
1031.361	65.34002
1031.527	-31.6079
1031.692	50.58386
1031.857	-10.53658
1032.023	-10.53658
1032.188	50.58386
1032.353	-92.70056
1032.518	10.53718
1032.684	-58.9969
1032.849	-44.2495
1033.014	23.18258
1033.179	59.01582
1033.344	-18.9654
1033.509	-44.2495
1033.674	71.66443
1033.839	-61.10358
1034.004	59.01582
1034.17	-10.53658
1034.335	23.18258
1034.5	61.12386
1034.664	-48.46317
1034.829	-10.53658
1034.994	-6.32202
1035.159	2.10739
1035.324	25.29023
1035.489	10.53718
1035.654	-77.95602
1035.819	52.69182
1035.984	37.93663
1036.148	16.85977
1036.313	73.77262
1036.478	21.07496
1036.643	-0
1036.807	33.72107
1036.972	6.32224
1037.137	-35.82187
1037.301	-10.53658
1037.466	35.82884
1037.631	-14.75104
1037.795	25.29023
1037.96	-16.85823
1038.124	-73.74306
1038.289	23.18258
1038.454	33.72107
1038.618	52.69182
1038.783	65.34002
1038.947	-67.42343
1039.111	18.96735
1039.276	-46.35635
1039.44	-50.56997
1039.605	132.81075
1039.769	-35.82187
1039.933	-48.46317
1040.098	10.53718
1040.262	48.47593
1040.426	-6.32202
1040.591	-61.10358
1040.755	-44.2495
1040.919	10.53718
1041.083	6.32224
1041.248	-37.92881
1041.412	-2.10736
1041.576	-18.9654
1041.74	56.90779
1041.904	-6.32202
1042.068	18.96735
1042.232	84.31387
1042.397	8.4297
1042.561	2.10739
1042.725	14.75222
1042.889	6.32224
1043.053	86.42218
1043.217	73.77262
1043.381	-2.10736
1043.544	-10.53658
1043.708	69.55627
1043.872	40.04444
1044.036	-8.42931
1044.2	-0
1044.364	52.69182
1044.528	-14.75104
1044.691	-27.39383
1044.855	-40.03573
1045.019	-25.28676
1045.183	-12.64382
1045.346	48.47593
1045.51	-8.42931
1045.674	-6.32202
1045.837	-67.42343
1046.001	10.53718
1046.165	16.85977
1046.328	82.20557
1046.492	-33.71489
1046.655	54.79979
1046.819	6.32224
1046.983	10.53718
1047.146	-18.9654
1047.31	48.47593
1047.473	-44.2495
1047.636	-35.82187
1047.8	23.18258
1047.963	-6.32202
1048.127	44.26014
1048.29	14.75222
