Data from mixed_try6.1_USB4F045381__9__00293.txt Node

Date: Thu Apr 03 20:32:05 EDT 2025
User: mmckonesweet
Spectrometer: USB4F04538
Trigger mode: 4
Integration Time (sec): 2.700000E-3
Scans to average: 1
Electric dark correction enabled: true
Nonlinearity correction enabled: true
Boxcar width: 0
XAxis mode: Wavelengths
Number of Pixels in Spectrum: 3648
>>>>>Begin Spectral Data<<<<<
345.52	-3.68787
345.736	-3.68787
345.952	-3.68787
346.168	4.74166
346.384	65.86705
346.6	72.19148
346.816	17.38667
347.032	-22.65289
347.248	-39.50901
347.464	-47.93647
347.68	4.74166
347.896	-16.33143
348.112	-18.43861
348.328	-1.58052
348.544	13.17157
348.76	-1.58052
348.975	40.5714
349.191	49.00291
349.407	-37.40208
349.623	4.74166
349.839	-43.72279
350.055	80.62436
350.27	-7.90249
350.486	-3.68787
350.702	59.54283
350.918	-45.82964
351.133	65.86705
351.349	13.17157
351.565	4.74166
351.781	-12.11701
351.996	-7.90249
352.212	-7.90249
352.428	8.95656
352.644	78.51611
352.859	-1.58052
353.075	-73.21644
353.291	-54.2568
353.506	-37.40208
353.722	-12.11701
353.938	6.8491
354.153	4.74166
354.369	-62.68356
354.584	15.2791
354.8	36.35578
355.016	-37.40208
355.231	57.4348
355.447	-52.15005
355.662	-10.00976
355.878	0.52684
356.093	-45.82964
356.309	32.14026
356.524	57.4348
356.74	40.5714
356.955	-28.97412
357.171	38.46358
357.386	65.86705
357.602	70.08331
357.817	-16.33143
358.033	40.5714
358.248	32.14026
358.464	11.06405
358.679	63.75895
358.895	13.17157
359.11	25.81715
359.325	4.74166
359.541	55.32679
359.756	59.54283
359.972	-1.58052
360.187	63.75895
360.402	51.11085
360.618	-12.11701
360.833	27.92483
361.048	-45.82964
361.264	40.5714
361.479	74.29967
361.694	-7.90249
361.909	-12.11701
362.125	-3.68787
362.34	84.84094
362.555	21.60186
362.77	-1.58052
362.986	-18.43861
363.201	114.35949
363.416	8.95656
363.631	118.57677
363.847	42.67924
364.062	46.895
364.277	-28.97412
364.492	38.46358
364.707	13.17157
364.922	38.46358
365.138	-20.54576
365.353	23.70949
365.568	0.52684
365.783	46.895
365.998	0.52684
366.213	46.895
366.428	32.14026
366.643	82.73264
366.858	-1.58052
367.073	21.60186
367.288	-7.90249
367.503	15.2791
367.718	-12.11701
367.933	8.95656
368.148	-24.75999
368.363	25.81715
368.578	34.24801
368.793	6.8491
369.008	46.895
369.223	30.03253
369.438	65.86705
369.653	0.52684
369.868	65.86705
370.083	25.81715
370.298	32.14026
370.513	-7.90249
370.728	-20.54576
370.943	74.29967
371.157	21.60186
371.372	-14.22423
371.587	17.38667
371.802	-12.11701
372.017	-37.40208
372.232	17.38667
372.446	122.79415
372.661	32.14026
372.876	-26.86706
373.091	-62.68356
373.306	-28.97412
373.52	63.75895
373.735	17.38667
373.95	42.67924
374.165	-37.40208
374.379	-5.79519
374.594	57.4348
374.809	-39.50901
375.023	-18.43861
375.238	-5.79519
375.453	46.895
375.667	-22.65289
375.882	-43.72279
376.097	6.8491
376.311	-28.97412
376.526	-26.86706
376.741	-28.97412
376.955	-12.11701
377.17	-12.11701
377.384	40.5714
377.599	46.895
377.813	-37.40208
378.028	65.86705
378.242	55.32679
378.457	4.74166
378.672	-62.68356
378.886	-54.2568
379.101	30.03253
379.315	23.70949
379.53	53.21881
379.744	-52.15005
379.958	32.14026
380.173	55.32679
380.387	-33.18815
380.602	15.2791
380.816	-7.90249
381.031	8.95656
381.245	-92.17399
381.459	4.74166
381.674	-20.54576
381.888	-87.96139
382.103	38.46358
382.317	-7.90249
382.531	-22.65289
382.746	55.32679
382.96	-24.75999
383.174	55.32679
383.388	40.5714
383.603	15.2791
383.817	46.895
384.031	-3.68787
384.246	63.75895
384.46	124.90287
384.674	-26.86706
384.888	-54.2568
385.103	-41.61591
385.317	25.81715
385.531	57.4348
385.745	-33.18815
385.959	42.67924
386.174	21.60186
386.388	11.06405
386.602	13.17157
386.816	95.38278
387.03	13.17157
387.244	46.895
387.458	72.19148
387.672	-20.54576
387.887	2.63424
388.101	-43.72279
388.315	21.60186
388.529	15.2791
388.743	-33.18815
388.957	15.2791
389.171	21.60186
389.385	-26.86706
389.599	-35.29512
389.813	21.60186
390.027	-26.86706
390.241	13.17157
390.455	-3.68787
390.669	27.92483
390.883	-1.58052
391.097	-12.11701
391.311	-7.90249
391.525	15.2791
391.738	-3.68787
391.952	-20.54576
392.166	57.4348
392.38	-7.90249
392.594	8.95656
392.808	25.81715
393.022	49.00291
393.236	59.54283
393.449	30.03253
393.663	27.92483
393.877	15.2791
394.091	11.06405
394.305	30.03253
394.518	55.32679
394.732	-1.58052
394.946	8.95656
395.16	11.06405
395.373	74.29967
395.587	-35.29512
395.801	4.74166
396.015	30.03253
396.228	11.06405
396.442	63.75895
396.656	-12.11701
396.869	11.06405
397.083	-12.11701
397.297	-33.18815
397.51	-41.61591
397.724	-7.90249
397.938	15.2791
398.151	-52.15005
398.365	-33.18815
398.578	19.49425
398.792	55.32679
399.005	25.81715
399.219	-45.82964
399.433	-28.97412
399.646	-16.33143
399.86	-41.61591
400.073	-28.97412
400.287	-3.68787
400.5	-54.2568
400.714	32.14026
400.927	-20.54576
401.141	30.03253
401.354	91.16598
401.567	2.63424
401.781	-12.11701
401.994	-3.68787
402.208	4.74166
402.421	67.97517
402.635	11.06405
402.848	21.60186
403.061	110.14229
403.275	-52.15005
403.488	32.14026
403.701	76.40788
403.915	-7.90249
404.128	15.2791
404.341	38.46358
404.555	6.8491
404.768	-41.61591
404.981	6.8491
405.195	8.95656
405.408	4.74166
405.621	21.60186
405.834	89.05761
406.048	44.78711
406.261	-24.75999
406.474	-41.61591
406.687	46.895
406.9	-35.29512
407.114	32.14026
407.327	57.4348
407.54	38.46358
407.753	-37.40208
407.966	-37.40208
408.179	76.40788
408.392	42.67924
408.605	-12.11701
408.819	-12.11701
409.032	2.63424
409.245	-26.86706
409.458	-7.90249
409.671	-52.15005
409.884	-24.75999
410.097	76.40788
410.31	57.4348
410.523	-20.54576
410.736	55.32679
410.949	67.97517
411.162	42.67924
411.375	-20.54576
411.588	-16.33143
411.801	8.95656
412.014	0.52684
412.227	6.8491
412.44	-18.43861
412.653	38.46358
412.865	13.17157
413.078	61.65088
413.291	6.8491
413.504	32.14026
413.717	-20.54576
413.93	-60.57691
414.143	-62.68356
414.356	-12.11701
414.568	-20.54576
414.781	-26.86706
414.994	21.60186
415.207	55.32679
415.42	6.8491
415.632	-28.97412
415.845	30.03253
416.058	46.895
416.271	-50.04327
416.483	51.11085
416.696	40.5714
416.909	-50.04327
417.121	13.17157
417.334	-41.61591
417.547	-35.29512
417.759	97.49122
417.972	17.38667
418.185	25.81715
418.397	-50.04327
418.61	38.46358
418.823	40.5714
419.035	-77.42941
419.248	-14.22423
419.46	-62.68356
419.673	-10.00976
419.885	63.75895
420.098	-92.17399
420.311	-50.04327
420.523	25.81715
420.736	46.895
420.948	-7.90249
421.161	-37.40208
421.373	49.00291
421.586	55.32679
421.798	-39.50901
422.01	46.895
422.223	17.38667
422.435	55.32679
422.648	15.2791
422.86	-35.29512
423.073	30.03253
423.285	-31.08114
423.497	63.75895
423.71	30.03253
423.922	82.73264
424.134	-7.90249
424.347	-60.57691
424.559	13.17157
424.771	6.8491
424.984	38.46358
425.196	57.4348
425.408	51.11085
425.621	-71.10991
425.833	15.2791
426.045	32.14026
426.257	91.16598
426.47	32.14026
426.682	105.92518
426.894	-16.33143
427.106	32.14026
427.318	53.21881
427.531	8.95656
427.743	11.06405
427.955	89.05761
428.167	15.2791
428.379	15.2791
428.591	-39.50901
428.804	-12.11701
429.016	67.97517
429.228	4.74166
429.44	-26.86706
429.652	57.4348
429.864	-10.00976
430.076	15.2791
430.288	13.17157
430.5	89.05761
430.712	21.60186
430.924	55.32679
431.136	63.75895
431.348	61.65088
431.56	-10.00976
431.772	-18.43861
431.984	17.38667
432.196	-75.32294
432.408	65.86705
432.62	-24.75999
432.832	15.2791
433.044	42.67924
433.256	21.60186
433.468	55.32679
433.679	-18.43861
433.891	4.74166
434.103	-14.22423
434.315	-1.58052
434.527	91.16598
434.739	74.29967
434.95	59.54283
435.162	76.40788
435.374	99.59967
435.586	38.46358
435.798	42.67924
436.009	-22.65289
436.221	17.38667
436.433	13.17157
436.645	-3.68787
436.856	-1.58052
437.068	89.05761
437.28	-37.40208
437.491	-20.54576
437.703	110.14229
437.915	-1.58052
438.126	-12.11701
438.338	-28.97412
438.55	49.00291
438.761	21.60186
438.973	34.24801
439.184	49.00291
439.396	30.03253
439.608	-33.18815
439.819	57.4348
440.031	15.2791
440.242	15.2791
440.454	67.97517
440.665	17.38667
440.877	-45.82964
441.088	-26.86706
441.3	-16.33143
441.511	49.00291
441.723	30.03253
441.934	-41.61591
442.146	61.65088
442.357	-28.97412
442.569	51.11085
442.78	-1.58052
442.991	8.95656
443.203	-3.68787
443.414	46.895
443.626	-16.33143
443.837	-10.00976
444.048	57.4348
444.26	-12.11701
444.471	57.4348
444.682	38.46358
444.894	23.70949
445.105	30.03253
445.316	59.54283
445.528	49.00291
445.739	55.32679
445.95	6.8491
446.161	21.60186
446.373	13.17157
446.584	63.75895
446.795	30.03253
447.006	51.11085
447.217	17.38667
447.429	32.14026
447.64	-3.68787
447.851	25.81715
448.062	30.03253
448.273	74.29967
448.484	30.03253
448.695	30.03253
448.907	4.74166
449.118	40.5714
449.329	63.75895
449.54	42.67924
449.751	21.60186
449.962	13.17157
450.173	44.78711
450.384	40.5714
450.595	-12.11701
450.806	38.46358
451.017	89.05761
451.228	-24.75999
451.439	-14.22423
451.65	-14.22423
451.861	4.74166
452.072	23.70949
452.283	49.00291
452.494	21.60186
452.705	-35.29512
452.915	-69.00336
453.126	-79.53586
453.337	63.75895
453.548	2.63424
453.759	17.38667
453.97	-1.58052
454.181	15.2791
454.391	65.86705
454.602	-37.40208
454.813	23.70949
455.024	0.52684
455.235	38.46358
455.445	38.46358
455.656	-5.79519
455.867	-7.90249
456.078	8.95656
456.288	13.17157
456.499	49.00291
456.71	-39.50901
456.921	124.90287
457.131	-7.90249
457.342	13.17157
457.553	-24.75999
457.763	21.60186
457.974	6.8491
458.184	-43.72279
458.395	49.00291
458.606	19.49425
458.816	34.24801
459.027	34.24801
459.237	17.38667
459.448	63.75895
459.659	21.60186
459.869	74.29967
460.08	-39.50901
460.29	34.24801
460.501	82.73264
460.711	-12.11701
460.922	-14.22423
461.132	76.40788
461.343	49.00291
461.553	82.73264
461.764	8.95656
461.974	17.38667
462.184	-43.72279
462.395	23.70949
462.605	38.46358
462.816	67.97517
463.026	61.65088
463.236	-5.79519
463.447	-41.61591
463.657	15.2791
463.867	32.14026
464.078	93.27437
464.288	38.46358
464.498	-39.50901
464.709	21.60186
464.919	13.17157
465.129	23.70949
465.339	13.17157
465.55	15.2791
465.76	-16.33143
465.97	-22.65289
466.18	-1.58052
466.391	8.95656
466.601	36.35578
466.811	63.75895
467.021	25.81715
467.231	-12.11701
467.441	13.17157
467.651	15.2791
467.862	38.46358
468.072	13.17157
468.282	38.46358
468.492	-12.11701
468.702	21.60186
468.912	-10.00976
469.122	21.60186
469.332	-12.11701
469.542	51.11085
469.752	82.73264
469.962	17.38667
470.172	93.27437
470.382	55.32679
470.592	-3.68787
470.802	-37.40208
471.012	38.46358
471.222	23.70949
471.432	-12.11701
471.642	21.60186
471.852	25.81715
472.062	30.03253
472.272	51.11085
472.482	-16.33143
472.691	-18.43861
472.901	-58.47023
473.111	17.38667
473.321	44.78711
473.531	17.38667
473.741	25.81715
473.95	30.03253
474.16	-20.54576
474.37	8.95656
474.58	4.74166
474.79	97.49122
474.999	15.2791
475.209	25.81715
475.419	51.11085
475.628	63.75895
475.838	38.46358
476.048	21.60186
476.258	59.54283
476.467	-12.11701
476.677	-3.68787
476.886	15.2791
477.096	74.29967
477.306	32.14026
477.515	-7.90249
477.725	-10.00976
477.935	-28.97412
478.144	15.2791
478.354	-16.33143
478.563	13.17157
478.773	42.67924
478.982	-1.58052
479.192	67.97517
479.401	57.4348
479.611	34.24801
479.82	49.00291
480.03	25.81715
480.239	13.17157
480.449	11.06405
480.658	8.95656
480.868	6.8491
481.077	27.92483
481.287	-20.54576
481.496	49.00291
481.705	0.52684
481.915	30.03253
482.124	-1.58052
482.333	-7.90249
482.543	21.60186
482.752	65.86705
482.961	30.03253
483.171	72.19148
483.38	-20.54576
483.589	-10.00976
483.799	65.86705
484.008	-1.58052
484.217	38.46358
484.426	70.08331
484.636	15.2791
484.845	-14.22423
485.054	80.62436
485.263	34.24801
485.472	-3.68787
485.682	-5.79519
485.891	51.11085
486.1	-47.93647
486.309	55.32679
486.518	-7.90249
486.727	38.46358
486.936	-16.33143
487.146	57.4348
487.355	72.19148
487.564	99.59967
487.773	72.19148
487.982	44.78711
488.191	91.16598
488.4	38.46358
488.609	44.78711
488.818	-18.43861
489.027	44.78711
489.236	70.08331
489.445	59.54283
489.654	72.19148
489.863	84.84094
490.072	89.05761
490.281	148.10019
490.49	4.74166
490.698	-3.68787
490.907	72.19148
491.116	-3.68787
491.325	63.75895
491.534	-1.58052
491.743	17.38667
491.952	70.08331
492.16	34.24801
492.369	80.62436
492.578	-60.57691
492.787	-22.65289
492.996	82.73264
493.204	120.68545
493.413	105.92518
493.622	-12.11701
493.831	133.33796
494.039	0.52684
494.248	25.81715
494.457	74.29967
494.665	55.32679
494.874	-12.11701
495.083	95.38278
495.291	8.95656
495.5	84.84094
495.709	63.75895
495.917	0.52684
496.126	137.55563
496.335	72.19148
496.543	-16.33143
496.752	122.79415
496.96	63.75895
497.169	4.74166
497.377	21.60186
497.586	-24.75999
497.794	15.2791
498.003	59.54283
498.211	63.75895
498.42	97.49122
498.628	57.4348
498.837	101.70815
499.045	51.11085
499.254	84.84094
499.462	21.60186
499.671	2.63424
499.879	91.16598
500.087	53.21881
500.296	105.92518
500.504	57.4348
500.713	32.14026
500.921	17.38667
501.129	46.895
501.338	91.16598
501.546	-20.54576
501.754	21.60186
501.962	57.4348
502.171	23.70949
502.379	38.46358
502.587	49.00291
502.795	15.2791
503.004	76.40788
503.212	8.95656
503.42	-20.54576
503.628	122.79415
503.837	40.5714
504.045	13.17157
504.253	105.92518
504.461	63.75895
504.669	55.32679
504.877	38.46358
505.085	21.60186
505.294	38.46358
505.502	55.32679
505.71	21.60186
505.918	32.14026
506.126	59.54283
506.334	97.49122
506.542	141.77339
506.75	72.19148
506.958	86.94927
507.166	95.38278
507.374	80.62436
507.582	38.46358
507.79	63.75895
507.998	30.03253
508.206	80.62436
508.414	55.32679
508.622	74.29967
508.83	46.895
509.037	15.2791
509.245	40.5714
509.453	135.44678
509.661	30.03253
509.869	46.895
510.077	76.40788
510.285	91.16598
510.492	49.00291
510.7	103.81665
510.908	108.03372
511.116	38.46358
511.324	6.8491
511.531	74.29967
511.739	143.8823
511.947	65.86705
512.155	135.44678
512.362	53.21881
512.57	89.05761
512.778	30.03253
512.985	30.03253
513.193	46.895
513.401	131.22915
513.608	89.05761
513.816	13.17157
514.024	114.35949
514.231	72.19148
514.439	72.19148
514.646	80.62436
514.854	120.68545
515.061	164.97259
515.269	101.70815
515.477	99.59967
515.684	67.97517
515.892	139.6645
516.099	63.75895
516.307	51.11085
516.514	76.40788
516.722	114.35949
516.929	63.75895
517.136	36.35578
517.344	105.92518
517.551	4.74166
517.759	32.14026
517.966	99.59967
518.173	82.73264
518.381	108.03372
518.588	124.90287
518.796	82.73264
519.003	30.03253
519.21	103.81665
519.418	145.99124
519.625	82.73264
519.832	133.33796
520.039	105.92518
520.247	122.79415
520.454	101.70815
520.661	105.92518
520.868	145.99124
521.076	91.16598
521.283	91.16598
521.49	105.92518
521.697	74.29967
521.904	76.40788
522.112	63.75895
522.319	162.86346
522.526	38.46358
522.733	177.62776
522.94	114.35949
523.147	101.70815
523.354	99.59967
523.561	63.75895
523.768	108.03372
523.975	82.73264
524.183	108.03372
524.39	148.10019
524.597	139.6645
524.804	154.42718
525.011	38.46358
525.218	51.11085
525.425	150.20917
525.632	164.97259
525.838	112.25088
526.045	110.14229
526.252	145.99124
526.459	179.73703
526.666	110.14229
526.873	131.22915
527.08	156.53622
527.287	93.27437
527.494	188.1743
527.701	110.14229
527.907	118.57677
528.114	84.84094
528.321	116.46812
528.528	133.33796
528.735	175.51851
528.941	200.83082
529.148	167.08173
529.355	99.59967
529.562	232.47528
529.768	160.75436
529.975	173.40929
530.182	224.03632
530.388	118.57677
530.595	141.77339
530.802	89.05761
531.008	173.40929
531.215	133.33796
531.422	173.40929
531.628	89.05761
531.835	245.1343
532.042	133.33796
532.248	162.86346
532.455	179.73703
532.661	133.33796
532.868	173.40929
533.074	198.72135
533.281	148.10019
533.487	198.72135
533.694	154.42718
533.9	217.70731
534.107	141.77339
534.313	194.50247
534.52	139.6645
534.726	160.75436
534.933	173.40929
535.139	162.86346
535.345	190.28367
535.552	224.03632
535.758	194.50247
535.965	240.91455
536.171	194.50247
536.377	226.14603
536.584	190.28367
536.79	266.2342
536.996	164.97259
537.203	221.92663
537.409	202.94032
537.615	245.1343
537.821	329.54508
538.028	139.6645
538.234	234.58507
538.44	198.72135
538.646	245.1343
538.853	262.01407
539.059	202.94032
539.265	181.84631
539.471	234.58507
539.677	211.37848
539.883	217.70731
540.09	257.79401
540.296	259.90403
540.502	183.95562
540.708	156.53622
540.914	245.1343
541.12	245.1343
541.326	276.78487
541.532	175.51851
541.738	236.69488
541.944	224.03632
542.15	253.57403
542.356	211.37848
542.562	179.73703
542.768	262.01407
542.974	378.09425
543.18	274.6747
543.386	378.09425
543.592	308.43963
543.798	253.57403
544.004	259.90403
544.21	209.26891
544.415	287.336
544.621	325.32385
544.827	276.78487
545.033	272.56455
545.239	293.6669
545.445	367.53931
545.651	337.98775
545.856	285.22573
546.062	266.2342
546.268	308.43963
546.474	302.10835
546.679	295.77723
546.885	274.6747
547.091	293.6669
547.297	359.09566
547.502	238.8047
547.708	287.336
547.914	295.77723
548.119	253.57403
548.325	342.2092
548.531	257.79401
548.736	346.43071
548.942	234.58507
549.147	337.98775
549.353	352.76311
549.559	367.53931
549.764	306.32919
549.97	333.76638
550.175	342.2092
550.381	413.98415
550.586	365.42837
550.792	378.09425
550.997	245.1343
551.203	308.43963
551.408	365.42837
551.614	371.76124
551.819	439.32102
552.025	454.1019
552.23	426.6523
552.435	430.87514
552.641	462.54846
552.846	485.77775
553.052	375.98323
553.257	451.9903
553.462	373.87222
553.668	363.31745
553.873	335.87706
554.078	375.98323
554.283	367.53931
554.489	540.69038
554.694	409.76156
554.899	422.42952
555.105	519.56899
555.31	350.65229
555.515	388.64961
555.72	494.22521
555.925	375.98323
556.131	454.1019
556.336	428.76371
556.541	447.76714
556.746	456.21352
556.951	401.31658
557.156	428.76371
557.361	437.20952
557.567	468.88354
557.772	513.23285
557.977	428.76371
558.182	536.46599
558.387	487.88959
558.592	494.22521
558.797	511.12083
559.002	502.6729
559.207	437.20952
559.412	509.00883
559.617	430.87514
559.822	532.24166
560.027	511.12083
560.232	530.12951
560.437	566.03788
560.642	578.71235
560.847	470.99526
561.051	563.92551
561.256	557.58849
561.461	570.26265
561.666	570.26265
561.871	561.81316
562.076	574.48747
562.281	635.75326
562.485	578.71235
562.69	544.91483
562.895	559.70082
563.1	604.06272
563.305	523.79316
563.509	561.81316
563.714	513.23285
563.919	587.16227
564.123	528.01738
564.328	633.64047
564.533	494.22521
564.737	688.57688
564.942	468.88354
565.147	614.62592
565.351	566.03788
565.556	585.04977
565.761	606.17534
565.965	587.16227
566.17	578.71235
566.374	623.07671
566.579	574.48747
566.784	747.74772
566.988	639.97888
567.193	671.67253
567.397	595.61239
567.602	663.22063
567.806	623.07671
568.011	610.4006
568.215	701.25563
568.42	692.80309
568.624	705.48196
568.828	701.25563
569.033	673.78553
569.237	703.36879
569.442	648.43026
569.646	743.52096
569.85	625.18944
570.055	654.76892
570.259	692.80309
570.463	792.13122
570.668	633.64047
570.872	745.63433
571.076	713.93477
571.281	773.10918
571.485	669.55954
571.689	758.31482
571.893	663.22063
572.098	866.113
572.302	637.86606
572.506	768.88217
572.71	809.04035
572.914	794.24483
573.119	866.113
573.323	935.87675
573.527	722.38775
573.731	792.13122
573.935	760.42827
574.139	770.99567
574.343	770.99567
574.547	912.62122
574.751	773.10918
574.955	946.44774
575.159	730.84091
575.364	887.25261
575.568	779.44977
575.772	823.83634
575.976	732.95422
576.18	899.93677
576.383	768.88217
576.587	950.67619
576.791	918.96355
576.995	844.97423
577.199	760.42827
577.403	866.113
577.607	849.20191
577.811	921.07767
578.015	825.95009
578.219	857.65739
578.422	895.70869
578.626	997.19094
578.83	893.59466
579.034	950.67619
579.238	906.27896
579.442	963.3617
579.645	870.34086
579.849	990.84783
580.053	908.39304
580.257	1035.25078
580.46	967.59026
580.664	1024.67841
580.868	899.93677
581.071	954.90467
581.275	840.74658
581.479	1035.25078
581.682	988.73347
581.886	999.30532
582.09	959.13317
582.293	971.81885
582.497	1009.87733
582.7	1014.10618
582.904	908.39304
583.107	1111.37596
583.311	1035.25078
583.515	1056.39597
583.718	967.59026
583.922	1011.99175
584.125	990.84783
584.329	1153.67046
584.532	902.05083
584.735	1157.90001
584.939	950.67619
585.142	1132.52299
585.346	1086.00015
585.549	1191.73692
585.753	1128.29355
585.956	1198.08145
586.159	1060.62508
586.363	1344.01253
586.566	990.84783
586.769	1170.58874
586.973	1166.35914
587.176	1221.34497
587.379	1157.90001
587.582	1267.87311
587.786	967.59026
587.989	1276.33291
588.192	1236.14923
588.395	1267.87311
588.599	1212.88546
588.802	1297.48258
589.005	1077.54171
589.208	1282.67779
589.411	1223.45986
589.615	1375.73791
589.818	1272.10301
590.021	1305.9425
590.224	1221.34497
590.427	1445.53442
590.63	1225.57474
590.833	1282.67779
591.036	1257.29842
591.239	1481.4903
591.442	1284.79275
591.645	1409.57856
591.848	1198.08145
592.051	1511.10094
592.254	1265.75817
592.457	1422.26885
592.66	1327.09245
592.863	1593.58674
593.066	1403.23343
593.269	1403.23343
593.472	1403.23343
593.675	1451.87957
593.878	1432.84411
594.081	1504.75582
594.284	1407.46352
594.486	1390.54317
594.689	1305.9425
594.892	1523.79118
595.095	1339.7825
595.298	1570.32172
595.5	1231.91943
595.703	1612.62159
595.906	1365.16275
596.109	1485.72039
596.311	1390.54317
596.514	1661.26542
596.717	1574.55174
596.92	1638.00113
597.122	1460.33978
597.325	1669.72509
597.528	1458.22473
597.73	1640.11608
597.933	1487.83544
598.136	1618.9665
598.338	1559.74665
598.541	1684.52939
598.743	1629.54132
598.946	1673.9549
599.148	1699.33356
599.351	1737.40069
599.554	1547.05652
599.756	1680.29961
599.959	1712.02272
600.161	1824.10468
600.363	1580.89675
600.566	1745.85991
600.768	1773.35194
600.971	1676.06981
601.173	1589.35675
601.376	1678.18471
601.578	1553.40159
601.78	1851.59467
601.983	1627.42636
602.185	1739.5155
602.388	1728.94142
602.59	1885.42739
602.792	1686.64428
602.995	1915.02992
603.197	1809.30205
603.399	1872.74027
603.601	1669.72509
603.804	1716.25242
604.006	1697.21869
604.208	1934.05954
604.41	1745.85991
604.613	1771.2372
604.815	1644.34597
605.017	1838.90708
605.219	1809.30205
605.421	1944.63136
605.623	1610.50661
605.826	2024.97215
606.028	1864.28209
606.23	2088.39228
606.432	1714.13757
606.634	1938.28829
606.836	1697.21869
607.038	2054.569
607.24	1881.19837
607.442	1925.60199
607.644	1893.88536
607.846	1995.37398
608.048	1788.15508
608.25	1881.19837
608.452	1745.85991
608.654	1908.68661
608.856	2008.05906
609.058	1959.43165
609.26	1790.26979
609.462	2014.40152
609.664	1864.28209
609.866	2033.42853
610.067	1923.48759
610.269	2105.30322
610.471	1853.70926
610.673	2075.70877
610.875	1944.63136
611.077	2181.39628
611.278	1855.82383
611.48	2194.07743
611.682	2077.8227
611.884	2291.28916
612.085	2008.05906
612.287	2092.62006
612.489	1936.17392
612.69	1957.31734
612.892	2050.34096
613.094	2206.75828
613.295	1974.23165
613.497	2005.9449
613.699	1857.93841
613.9	2096.84781
614.102	1929.83078
614.304	2185.62336
614.505	1887.54189
614.707	2092.62006
614.908	1950.97438
615.11	2126.4412
615.311	2084.16447
615.513	2143.35103
615.714	2109.53087
615.916	2261.705
616.117	1902.34325
616.319	2077.8227
616.52	2094.73394
616.722	2244.79895
616.923	1986.91712
617.124	2274.38415
617.326	1893.88536
617.527	2120.09989
617.729	2058.79701
617.93	2325.09738
618.131	2105.30322
618.333	1950.97438
618.534	2153.91942
618.735	2346.22626
618.937	2196.19093
619.138	2337.77482
619.339	2111.64469
619.54	2297.62839
619.742	2060.911
619.943	2424.39433
620.144	2128.55496
620.345	2456.08
620.546	2308.19358
620.748	2491.98746
620.949	2306.08056
621.15	2282.83673
621.351	2109.53087
621.552	2375.80501
621.753	2297.62839
621.954	2396.93148
622.155	2215.21201
622.356	2420.16939
622.558	2117.9861
622.759	2215.21201
622.96	2244.79895
623.161	2329.32323
623.362	2001.71655
623.563	2354.67753
623.764	2316.64555
623.965	2422.28187
624.166	2198.30441
624.366	2354.67753
624.567	2291.28916
624.768	2265.93142
624.969	2213.09859
625.17	2396.93148
625.371	2335.66194
625.572	2477.20243
625.773	2200.41789
625.973	2405.38178
626.174	2204.64483
626.375	2491.98746
626.576	2382.14306
626.777	2441.29366
626.977	2198.30441
627.178	2491.98746
627.379	2185.62336
627.58	2506.77195
627.78	2506.77195
627.981	2515.21998
628.182	2179.28272
628.382	2405.38178
628.583	2287.06296
628.784	2405.38178
628.984	2322.98444
629.185	2633.47267
629.386	2284.94985
629.586	2525.77976
629.787	2354.67753
629.987	2508.88397
630.188	2329.32323
630.388	2732.69056
630.589	2439.18128
630.79	2707.36104
630.99	2472.97803
631.191	2527.89168
631.391	2371.5796
631.591	2637.69528
631.792	2346.22626
631.992	2580.68592
632.193	2521.55588
632.393	2559.56911
632.594	2437.06889
632.794	2553.23383
632.994	2523.66783
633.195	2610.24744
633.395	2441.29366
633.595	2625.02731
633.796	2553.23383
633.996	2724.24759
634.196	2608.13598
634.397	2831.87927
634.597	2565.90427
634.797	2760.12872
634.997	2356.79032
635.198	2789.67498
635.398	2464.52911
635.598	2762.23926
635.798	2477.20243
635.998	2679.91861
636.199	2544.78663
636.399	2796.00598
636.599	2694.69557
636.799	2869.85836
636.999	2572.23934
637.199	2823.43886
637.399	2601.80153
637.599	2701.02836
637.799	2523.66783
637.999	2861.41896
638.199	2625.02731
638.399	2762.23926
638.599	2646.14035
638.799	2855.08926
638.999	2686.25167
639.199	2941.58397
639.399	2736.91196
639.599	3042.81447
639.799	2597.57851
639.999	2806.55736
640.199	2766.46029
640.399	2840.31946
640.599	2506.77195
640.799	2947.91189
640.998	2690.47365
641.198	2928.92773
641.398	2722.13682
641.598	2865.63869
641.798	2937.36528
641.997	2884.62676
642.197	2758.01818
642.397	3184.05548
642.597	2755.90761
642.796	2945.8026
642.996	2781.23347
643.196	2916.27097
643.395	2971.11312
643.595	2928.92773
643.795	2810.77782
643.994	3127.14608
644.194	2950.02117
644.394	3283.09135
644.593	2701.02836
644.793	3156.65613
644.992	2829.76919
645.192	3025.94515
645.392	3017.51012
645.591	3112.38987
645.791	2880.40729
645.99	3004.85712
646.19	2836.0994
646.389	3057.57431
646.589	2806.55736
646.788	2836.0994
646.987	2755.90761
647.187	2947.91189
647.386	2926.81831
647.586	3114.49795
647.785	2852.97933
647.984	3030.16257
648.184	2939.47464
648.383	3226.2029
648.582	2819.21857
648.782	3272.55738
648.981	2897.28484
649.18	3116.60601
649.38	2962.67652
649.579	3089.19997
649.778	2945.8026
649.977	3038.59723
650.177	2912.05193
650.376	3156.65613
650.575	2878.29753
650.774	3061.79127
650.973	3000.63933
651.173	3091.30822
651.372	2983.76757
651.571	3165.08699
651.77	3036.48859
651.969	3438.94363
652.168	3112.38987
652.367	3184.05548
652.566	2983.76757
652.765	3217.77395
652.964	3028.05387
653.163	3308.37114
653.362	3141.9015
653.561	3203.02263
653.76	2935.25592
653.959	3264.1299
654.158	3122.9301
654.357	3184.05548
654.556	3049.14021
654.755	3333.64847
654.954	3148.22501
655.153	3350.49864
655.352	3141.9015
655.551	3283.09135
655.749	3186.163
655.948	3278.87781
656.147	3278.87781
656.346	3299.94482
656.545	3156.65613
656.743	3384.19563
656.942	3251.48817
657.141	3426.31054
657.34	3125.0381
657.538	3367.34769
657.737	3468.41833
657.936	3546.29866
658.135	3236.73872
658.333	3451.57608
658.532	3316.79719
658.731	3464.20788
658.929	3253.59516
659.128	3379.98375
659.326	3344.17995
659.525	3603.11434
659.724	3175.6252
659.922	3443.15452
660.121	3074.44177
660.319	3478.94416
660.518	3108.17367
660.716	3398.93665
660.915	3388.40744
661.113	3712.49849
661.312	3125.0381
661.51	3504.20428
661.709	3445.25993
661.907	3287.30482
662.105	3358.9233
662.304	3535.77575
662.502	3342.07369
662.701	3468.41833
662.899	3251.48817
663.097	3584.17729
663.296	3190.37801
663.494	3487.36449
663.692	3342.07369
663.891	3455.78675
664.089	3150.33281
664.287	3455.78675
664.485	3262.02298
664.684	3634.67272
664.882	3411.57113
665.08	3434.73267
665.278	3308.37114
665.476	3506.30918
665.675	3308.37114
665.873	3733.52797
666.071	3375.7718
666.269	3729.32223
666.467	3571.55174
666.665	3798.70704
666.863	3573.65605
667.061	3603.11434
667.259	3316.79719
667.457	3544.19411
667.655	3518.93815
667.853	3838.64618
668.051	3293.62489
668.249	3710.39543
668.447	3411.57113
668.645	3611.53032
668.843	3371.55978
669.041	3561.02995
669.239	3238.84584
669.437	3449.47071
669.635	3436.83816
669.833	3687.26056
670.031	3506.30918
670.229	3649.39851
670.426	3411.57113
670.624	3802.91149
670.822	3514.72856
671.02	3680.95065
671.218	3302.05142
671.415	3632.56896
671.613	3384.19563
671.811	3571.55174
672.009	3409.46543
672.206	3636.77646
672.404	3367.34769
672.602	3554.71665
672.799	3312.5842
672.997	3582.07308
673.195	3537.88037
673.392	3647.29489
673.59	3499.99444
673.788	3489.46953
673.985	3323.11655
674.183	3657.81284
674.38	3430.52164
674.578	3529.46179
674.775	3651.50212
674.973	3485.25943
675.17	3516.83337
675.368	3548.40318
675.565	3521.04291
675.763	3691.46708
675.96	3573.65605
676.158	3695.67351
676.355	3443.15452
676.553	3729.32223
676.75	3443.15452
676.947	3723.01347
677.145	3472.62872
677.342	3844.95171
677.539	3586.28148
677.737	3680.95065
677.934	3521.04291
678.131	3884.88256
678.329	3464.20788
678.526	3499.99444
678.723	3563.13434
678.92	3550.50769
679.118	3476.83903
679.315	3687.26056
679.512	3499.99444
679.709	3731.42511
679.906	3417.88813
680.104	3590.48981
680.301	3535.77575
680.498	3744.04199
680.695	3594.69806
680.892	3594.69806
681.089	3619.946
681.286	3729.32223
681.483	3586.28148
681.68	3689.36383
681.877	3476.83903
682.075	3781.88843
682.272	3502.09937
682.469	3634.67272
682.665	3659.91637
682.862	3699.87987
683.059	3523.14766
683.256	3678.84731
683.453	3565.23872
683.65	3596.80216
683.847	3529.46179
684.044	3613.63427
684.241	3611.53032
684.438	3811.32017
684.635	3723.01347
684.831	3821.83057
685.028	3497.8895
685.225	3800.80928
685.422	3680.95065
685.619	3725.11641
685.815	3502.09937
686.012	3748.24746
686.209	3342.07369
686.405	3632.56896
686.602	3445.25993
686.799	3518.93815
686.996	3476.83903
687.192	3605.21836
687.389	3472.62872
687.586	3645.19124
687.782	3615.7382
687.979	3657.81284
688.175	3396.83085
688.372	3645.19124
688.568	3485.25943
688.765	3699.87987
688.962	3487.36449
689.158	3630.46518
689.355	3434.73267
689.551	3712.49849
689.748	3253.59516
689.944	3561.02995
690.14	3403.14822
690.337	3561.02995
690.533	3430.52164
690.73	3521.04291
690.926	3361.02943
691.123	3609.42635
691.319	3607.32237
691.515	3720.91051
691.712	3274.6642
691.908	3539.98497
692.104	3622.04988
692.301	3735.63082
692.497	3377.87779
692.693	3561.02995
692.889	3333.64847
693.086	3470.52353
693.282	3352.60483
693.478	3634.67272
693.674	3552.61218
693.87	3805.01369
694.067	3512.62374
694.263	3680.95065
694.459	3603.11434
694.655	3662.01988
694.851	3695.67351
695.047	3586.28148
695.243	3285.19809
695.439	3622.04988
695.635	3434.73267
695.831	3657.81284
696.027	3285.19809
696.224	3605.21836
696.42	3365.24162
696.615	3504.20428
696.811	3493.67955
697.007	3628.36138
697.203	3392.61918
697.399	3535.77575
697.595	3476.83903
697.791	3577.8646
697.987	3194.59295
698.183	3649.39851
698.379	3409.46543
698.575	3645.19124
698.77	3457.89206
698.966	3624.15373
699.162	3535.77575
699.358	3670.43375
699.554	3373.6658
699.749	3712.49849
699.945	3451.57608
700.141	3548.40318
700.337	3417.88813
700.532	3518.93815
700.728	3291.51822
700.924	3529.46179
701.119	3523.14766
701.315	3350.49864
701.511	3207.23738
701.706	3472.62872
701.902	3459.99735
702.097	3428.4161
702.293	3407.35971
702.489	3645.19124
702.684	3579.96885
702.88	3805.01369
703.075	3403.14822
703.271	3470.52353
703.466	3476.83903
703.662	3510.51891
703.857	3352.60483
704.053	3748.24746
704.248	3401.04244
704.443	3491.57455
704.639	3413.67681
704.834	3636.77646
705.03	3352.60483
705.225	3662.01988
705.42	3579.96885
705.616	3611.53032
705.811	3392.61918
706.006	3615.7382
706.202	3148.22501
706.397	3428.4161
706.592	3409.46543
706.787	3491.57455
706.983	3367.34769
707.178	3622.04988
707.373	3478.94416
707.568	3579.96885
707.763	3474.73388
707.959	3373.6658
708.154	3434.73267
708.349	3670.43375
708.544	3419.99376
708.739	3649.39851
708.934	3352.60483
709.129	3683.05397
709.324	3582.07308
709.519	3638.88019
709.714	3409.46543
709.909	3619.946
710.104	3468.41833
710.299	3668.33031
710.494	3398.93665
710.689	3628.36138
710.884	3251.48817
711.079	3628.36138
711.274	3312.5842
711.469	3622.04988
711.664	3514.72856
711.859	3445.25993
712.054	3409.46543
712.249	3712.49849
712.443	3544.19411
712.638	3569.44742
712.833	3325.22297
713.028	3615.7382
713.223	3396.83085
713.417	3611.53032
713.612	3321.01011
713.807	3645.19124
714.002	3407.35971
714.196	3510.51891
714.391	3401.04244
714.586	3662.01988
714.78	3470.52353
714.975	3693.5703
715.17	3352.60483
715.364	3653.60571
715.559	3603.11434
715.754	3632.56896
715.948	3640.98389
716.143	3624.15373
716.337	3476.83903
716.532	3613.63427
716.726	3481.04927
716.921	3504.20428
717.115	3367.34769
717.31	3624.15373
717.504	3405.25397
717.699	3607.32237
717.893	3403.14822
718.088	3529.46179
718.282	3455.78675
718.476	3430.52164
718.671	3367.34769
718.865	3617.84211
719.059	3327.32937
719.254	3529.46179
719.448	3211.45205
719.642	3434.73267
719.837	3245.16708
720.031	3451.57608
720.225	3358.9233
720.419	3426.31054
720.614	3333.64847
720.808	3464.20788
721.002	3365.24162
721.196	3472.62872
721.39	3394.72502
721.585	3472.62872
721.779	3188.27051
721.973	3384.19563
722.167	3232.52444
722.361	3321.01011
722.555	3160.87159
722.749	3268.34367
722.943	3251.48817
723.137	3321.01011
723.331	3106.06554
723.525	3299.94482
723.719	3226.2029
723.913	3333.64847
724.107	3224.09569
724.301	3468.41833
724.495	3108.17367
724.689	3468.41833
724.883	3245.16708
725.077	3243.06001
725.271	3232.52444
725.465	3346.2862
725.659	3196.7004
725.853	3453.68142
726.046	3451.57608
726.24	3293.62489
726.434	3144.00935
726.628	3472.62872
726.822	3316.79719
727.015	3470.52353
727.209	3198.80783
727.403	3445.25993
727.596	3358.9233
727.79	3226.2029
727.984	3156.65613
728.177	3624.15373
728.371	3394.72502
728.565	3367.34769
728.758	3342.07369
728.952	3401.04244
729.146	3299.94482
729.339	3451.57608
729.533	3361.02943
729.726	3293.62489
729.92	3156.65613
730.113	3270.45053
730.307	3310.47768
730.5	3394.72502
730.694	3268.34367
730.887	3426.31054
731.081	3190.37801
731.274	3344.17995
731.468	3291.51822
731.661	3190.37801
731.854	3177.73279
732.048	3495.78453
732.241	3205.13001
732.435	3392.61918
732.628	3302.05142
732.821	3367.34769
733.014	3316.79719
733.208	3472.62872
733.401	3413.67681
733.594	3333.64847
733.788	3091.30822
733.981	3196.7004
734.174	3162.9793
734.367	3401.04244
734.56	3293.62489
734.754	3502.09937
734.947	3285.19809
735.14	3449.47071
735.333	3327.32937
735.526	3476.83903
735.719	3321.01011
735.912	3563.13434
736.105	3283.09135
736.298	3106.06554
736.491	3137.68574
736.684	3335.7548
736.877	3257.80911
737.07	3221.98846
737.263	3207.23738
737.456	3405.25397
737.649	3158.76387
737.842	3453.68142
738.035	3243.06001
738.228	3257.80911
738.421	3165.08699
738.614	3217.77395
738.807	3459.99735
739	3259.91605
739.192	3125.0381
739.385	3468.41833
739.578	3215.66666
739.771	3310.47768
739.964	3196.7004
740.156	3411.57113
740.349	3203.02263
740.542	3329.43575
740.735	3190.37801
740.927	3297.83819
741.12	3243.06001
741.313	3417.88813
741.505	3215.66666
741.698	3262.02298
741.891	3308.37114
742.083	3367.34769
742.276	3325.22297
742.468	3293.62489
742.661	3253.59516
742.854	3377.87779
743.046	3122.9301
743.239	3304.15801
743.431	3173.51759
743.624	3358.9233
743.816	3127.14608
744.009	3346.2862
744.201	3365.24162
744.393	3403.14822
744.586	3078.65848
744.778	3394.72502
744.971	3076.55013
745.163	3270.45053
745.355	3207.23738
745.548	3236.73872
745.74	3084.98342
745.932	3101.84925
746.125	3131.36199
746.317	3074.44177
746.509	3021.72767
746.702	3154.54837
746.894	3038.59723
747.086	3291.51822
747.278	3108.17367
747.471	3061.79127
747.663	3004.85712
747.855	3234.63159
748.047	3074.44177
748.239	3198.80783
748.431	3253.59516
748.623	3228.3101
748.815	3196.7004
749.008	3384.19563
749.2	3287.30482
749.392	3089.19997
749.584	2973.22223
749.776	3200.91524
749.968	2941.58397
750.16	3232.52444
750.352	2998.53042
750.544	3190.37801
750.736	3141.9015
750.928	3295.73155
751.12	3097.63288
751.311	3240.95293
751.503	3283.09135
751.695	3207.23738
751.887	3131.36199
752.079	3114.49795
752.271	3139.79363
752.463	3253.59516
752.654	3127.14608
752.846	3108.17367
753.038	3097.63288
753.23	3342.07369
753.421	3106.06554
753.613	3076.55013
753.805	3053.35729
753.997	3036.48859
754.188	3108.17367
754.38	3051.24876
754.572	3055.46581
754.763	3055.46581
754.955	3030.16257
755.146	3068.11659
755.338	2975.33133
755.53	3017.51012
755.721	2793.89566
755.913	3165.08699
756.104	3017.51012
756.296	3211.45205
756.487	2956.34891
756.679	3110.28178
756.87	2983.76757
757.062	2865.63869
757.253	2865.63869
757.445	2996.42148
757.636	2954.23968
757.827	3139.79363
758.019	3049.14021
758.21	3192.48549
758.401	3084.98342
758.593	3061.79127
758.784	2836.0994
758.975	2958.45813
759.167	2954.23968
759.358	3106.06554
759.549	3118.71405
759.74	3232.52444
759.932	3070.225
760.123	3000.63933
760.314	2947.91189
760.505	3080.76681
760.696	2952.13043
760.888	2941.58397
761.079	2903.61368
761.27	3017.51012
761.461	2717.91523
761.652	2709.4719
761.843	2886.73648
762.034	2814.99822
762.225	2722.13682
762.416	2964.78569
762.607	2703.13927
762.798	2886.73648
762.989	2888.84618
763.18	2962.67652
763.371	2777.01263
763.562	2787.56462
763.753	2825.54898
763.944	3004.85712
764.135	2760.12872
764.326	3023.83642
764.517	2789.67498
764.708	2821.32872
764.899	2445.51838
765.089	2829.76919
765.28	2614.47032
765.471	2869.85836
765.662	2578.57429
765.853	2865.63869
766.043	2688.36266
766.234	2812.88803
766.425	2654.58522
766.615	2871.96817
766.806	2654.58522
766.997	2861.41896
767.187	2530.00359
767.378	2658.80758
767.569	2753.79704
767.759	2675.6965
767.95	2791.78533
768.141	2705.25016
768.331	2677.80756
768.522	2760.12872
768.712	2709.4719
768.903	2836.0994
769.093	2521.55588
769.284	2568.01597
769.474	2734.80127
769.665	2593.35543
769.855	2527.89168
770.046	2654.58522
770.236	2506.77195
770.426	2606.02451
770.617	2553.23383
770.807	2730.57984
770.998	2709.4719
771.188	2768.57078
771.378	2538.45111
771.569	2684.14066
771.759	2523.66783
771.949	2502.54787
772.139	2481.42678
772.33	2308.19358
772.52	2278.61046
772.71	2542.67481
772.9	2358.90311
773.09	2521.55588
773.281	2405.38178
773.471	2713.69359
773.661	2413.83191
773.851	2542.67481
774.041	2441.29366
774.231	2515.21998
774.421	2354.67753
774.611	2348.33909
774.802	2299.74145
774.992	2475.09023
775.182	2439.18128
775.372	2481.42678
775.562	2344.11341
775.752	2483.53894
775.942	2413.83191
776.131	2426.50679
776.321	2403.26922
776.511	2582.79754
776.701	2384.25572
776.891	2403.26922
777.081	2449.74306
777.271	2574.351
777.461	2350.45191
777.651	2519.44393
777.84	2263.81821
778.03	2369.46688
778.22	2137.00991
778.41	2371.5796
778.599	2215.21201
778.789	2342.00056
778.979	2223.6656
779.169	2318.75853
779.358	2236.34572
779.548	2498.32374
779.738	2348.33909
779.927	2303.96753
780.117	2210.98516
780.307	2342.00056
780.496	2126.4412
780.686	2342.00056
780.875	2075.70877
781.065	2230.0057
781.254	2208.87172
781.444	2299.74145
781.633	2198.30441
781.823	2348.33909
782.012	2020.74392
782.202	2139.12362
782.391	2194.07743
782.581	2282.83673
782.77	2181.39628
782.96	2221.55221
783.149	2168.71482
783.338	2206.75828
783.528	2373.69231
783.717	2259.59177
783.906	2060.911
784.096	2428.61923
784.285	2071.48087
784.474	2225.77897
784.663	1970.00311
784.853	2060.911
785.042	2194.07743
785.231	2168.71482
785.42	2098.96167
785.61	2177.16916
785.799	1876.96933
785.988	2172.94201
786.177	2022.85804
786.366	2098.96167
786.555	2122.21367
786.744	2172.94201
786.933	2084.16447
787.122	2031.31444
787.312	2109.53087
787.501	2065.13897
787.69	2117.9861
787.879	2160.26036
788.068	2058.79701
788.257	2113.7585
788.445	2067.25295
788.634	2077.8227
788.823	2043.99885
789.012	2041.8848
789.201	2096.84781
789.39	2101.07553
789.579	2052.45498
789.768	2008.05906
789.957	1870.62573
790.145	1957.31734
790.334	2005.9449
790.523	2096.84781
790.712	1974.23165
790.9	2219.43882
791.089	1963.66025
791.278	2077.8227
791.467	1843.1363
791.655	1902.34325
791.844	1883.31288
792.033	1976.34591
792.221	1855.82383
792.41	1982.68866
792.599	1756.43384
792.787	2043.99885
792.976	1931.94516
793.164	1919.25876
793.353	1881.19837
793.541	1982.68866
793.73	1771.2372
793.918	2027.08625
794.107	1773.35194
794.295	1906.57216
794.484	1902.34325
794.672	2016.51566
794.861	1826.21932
795.049	1991.14556
795.238	1783.92563
795.426	2075.70877
795.614	1851.59467
795.803	1900.22878
795.991	1745.85991
796.179	1895.99984
796.368	1868.51119
796.556	1841.02169
796.744	1824.10468
796.932	1906.57216
797.121	1686.64428
797.309	1771.2372
797.497	1786.04035
797.685	1965.77454
797.874	1739.5155
798.062	1845.2509
798.25	1722.59694
798.438	1879.08385
798.626	1703.56329
798.814	1944.63136
799.002	1845.2509
799.19	1684.52939
799.378	1741.63031
799.566	1779.69617
799.755	1602.04669
799.943	1726.8266
800.131	1686.64428
800.318	1737.40069
800.506	1745.85991
800.694	1767.00769
800.882	1657.03557
801.07	1703.56329
801.258	1712.02272
801.446	1891.77087
801.634	1781.8109
801.822	1813.5314
802.01	1686.64428
802.197	1627.42636
802.385	1502.64077
802.573	1783.92563
802.761	1815.64606
802.949	1851.59467
803.136	1796.61392
803.324	1739.5155
803.512	1754.31906
803.699	1817.76072
803.887	1745.85991
804.075	1786.04035
804.262	1502.64077
804.45	1777.58143
804.638	1771.2372
804.825	1845.2509
805.013	1720.4821
805.201	1855.82383
805.388	1686.64428
805.576	1819.87538
805.763	1686.64428
805.951	1724.71177
806.138	1640.11608
806.326	1760.66339
806.513	1644.34597
806.701	1686.64428
806.888	1705.67815
807.075	1900.22878
807.263	1657.03557
807.45	1807.18737
807.638	1621.08147
807.825	1697.21869
808.012	1769.12244
808.2	2010.17322
808.387	1697.21869
808.574	1838.90708
808.761	1688.75917
808.949	1866.39664
809.136	1629.54132
809.323	1974.23165
809.51	1703.56329
809.698	1893.88536
809.885	1547.05652
810.072	1714.13757
810.259	1595.70173
810.446	1750.08949
810.633	1661.26542
810.82	1843.1363
811.008	1906.57216
811.195	1974.23165
811.382	1830.44859
811.569	2029.20035
811.756	1754.31906
811.943	1974.23165
812.13	1849.48009
812.317	1885.42739
812.504	1618.9665
812.691	2043.99885
812.878	1771.2372
813.064	1773.35194
813.251	1779.69617
813.438	1946.7457
813.625	1707.79301
813.812	1838.90708
813.999	1724.71177
814.186	1813.5314
814.372	1773.35194
814.559	1866.39664
814.746	1587.24175
814.933	1747.9747
815.12	1728.94142
815.306	1912.91549
815.493	1612.62159
815.68	1893.88536
815.866	1654.92065
816.053	1864.28209
816.24	1695.10381
816.426	1881.19837
816.613	1695.10381
816.799	2033.42853
816.986	1678.18471
817.173	1908.68661
817.359	1654.92065
817.546	1950.97438
817.732	1551.28657
817.919	1953.0887
818.105	1731.05625
818.292	1898.11431
818.478	1853.70926
818.665	1872.74027
818.851	1893.88536
819.037	1824.10468
819.224	1678.18471
819.41	1745.85991
819.597	1648.57585
819.783	1866.39664
819.969	1728.94142
820.156	1851.59467
820.342	1796.61392
820.528	1783.92563
820.714	1688.75917
820.901	1900.22878
821.087	1809.30205
821.273	1851.59467
821.459	1821.99003
821.646	1942.51701
821.832	1686.64428
822.018	1972.11738
822.204	1648.57585
822.39	1756.43384
822.576	1625.3114
822.762	1771.2372
822.948	1701.44843
823.134	1815.64606
823.32	1771.2372
823.507	1919.25876
823.693	1834.67785
823.879	1695.10381
824.065	1648.57585
824.25	1678.18471
824.436	1688.75917
824.622	1834.67785
824.808	1618.9665
824.994	1663.38034
825.18	1451.87957
825.366	1796.61392
825.552	1521.67614
825.738	1754.31906
825.923	1538.59641
826.109	1733.17107
826.295	1367.27778
826.481	1614.73656
826.667	1722.59694
826.852	1557.63163
827.038	1437.07421
827.224	1699.33356
827.409	1411.69361
827.595	1627.42636
827.781	1477.2602
827.966	1682.4145
828.152	1481.4903
828.338	1712.02272
828.523	1568.20671
828.709	1566.0917
828.894	1570.32172
829.08	1618.9665
829.266	1386.31309
829.451	1525.90622
829.637	1559.74665
829.822	1566.0917
830.008	1428.614
830.193	1540.71144
830.378	1500.52573
830.564	1775.46669
830.749	1519.56111
830.935	1678.18471
831.12	1570.32172
831.305	1638.00113
831.491	1500.52573
831.676	1580.89675
831.861	1405.34847
832.047	1563.97668
832.232	1415.92371
832.417	1551.28657
832.602	1377.85294
832.788	1453.99463
832.973	1360.9327
833.158	1392.65821
833.343	1259.41335
833.528	1502.64077
833.714	1369.39281
833.899	1703.56329
834.084	1358.81767
834.269	1494.18059
834.454	1373.62287
834.639	1633.77123
834.824	1316.51745
835.009	1508.9859
835.194	1377.85294
835.379	1517.44607
835.564	1344.01253
835.749	1496.29563
835.934	1371.50784
836.119	1504.75582
836.304	1318.63245
836.489	1407.46352
836.674	1297.48258
836.859	1456.10968
837.044	1255.18349
837.228	1589.35675
837.413	1212.88546
837.598	1473.03009
837.783	1189.62209
837.968	1485.72039
838.152	1193.85176
838.337	1413.80866
838.522	1147.32618
838.707	1253.06856
838.891	1202.31115
839.076	1208.65573
839.261	1299.59756
839.445	1231.91943
839.63	1238.26414
839.815	1415.92371
839.999	1164.24435
840.184	1293.25263
840.368	1138.86719
840.553	1324.97745
840.737	1102.91728
840.922	1403.23343
841.106	1105.03195
841.291	1231.91943
841.475	1054.28143
841.66	1136.75245
841.844	1136.75245
842.029	1113.49065
842.213	1179.04797
842.397	1229.80453
842.582	1119.83472
842.766	1227.68963
842.951	1039.47978
843.135	1206.54086
843.319	1162.12957
843.504	1151.5557
843.688	1115.60533
843.872	1179.04797
844.056	1153.67046
844.241	1229.80453
844.425	1166.35914
844.609	1221.34497
844.793	1113.49065
844.977	1149.44094
845.161	959.13317
845.346	961.24743
845.53	1043.70879
845.714	1088.11478
845.898	1035.25078
846.082	1113.49065
846.266	988.73347
846.45	1206.54086
846.634	931.6484
846.818	992.96219
847.002	893.59466
847.186	906.27896
847.37	809.04035
847.554	1026.79287
847.738	878.79667
847.922	1102.91728
848.106	916.84943
848.29	1079.65631
848.473	1054.28143
848.657	1054.28143
848.841	992.96219
849.025	1105.03195
849.209	809.04035
849.392	997.19094
849.576	904.16489
849.76	965.47598
849.944	870.34086
850.127	1088.11478
850.311	948.56196
850.495	1001.41971
850.678	984.50478
850.862	967.59026
851.046	976.04747
851.229	1026.79287
851.413	916.84943
851.596	1045.82331
851.78	790.01762
851.964	1050.05236
852.147	806.92668
852.331	971.81885
852.514	878.79667
852.698	973.93315
852.881	815.38144
853.065	809.04035
853.248	842.8604
853.431	1022.56395
853.615	866.113
853.798	889.36662
853.982	794.24483
854.165	937.99093
854.348	760.42827
854.532	806.92668
854.715	792.13122
854.898	918.96355
855.081	751.97453
855.265	773.10918
855.448	724.50103
855.631	851.31577
855.814	768.88217
855.997	866.113
856.181	764.6552
856.364	815.38144
856.547	806.92668
856.73	836.51897
856.913	758.31482
857.096	847.08807
857.279	777.33623
857.462	680.12461
857.645	684.35073
857.828	823.83634
858.011	739.29423
858.194	792.13122
858.377	680.12461
858.56	697.02933
858.743	705.48196
858.926	787.90403
859.109	857.65739
859.292	842.8604
859.475	646.31739
859.658	802.69936
859.841	633.64047
860.023	828.06384
860.206	604.06272
860.389	663.22063
860.572	557.58849
860.755	654.76892
860.937	684.35073
861.12	785.79045
861.303	737.18088
861.486	735.06755
861.668	663.22063
861.851	749.86112
862.034	671.67253
862.216	747.74772
862.399	572.37505
862.581	730.84091
862.764	606.17534
862.947	739.29423
863.129	697.02933
863.312	663.22063
863.494	574.48747
863.677	663.22063
863.859	528.01738
864.042	739.29423
864.224	570.26265
864.406	690.68998
864.589	517.45693
864.771	604.06272
864.954	523.79316
865.136	616.7386
865.318	578.71235
865.501	648.43026
865.683	477.33052
865.865	502.6729
866.048	521.68107
866.23	576.59991
866.412	479.44231
866.594	511.12083
866.777	401.31658
866.959	473.107
867.141	496.33711
867.323	675.89855
867.505	405.53904
867.687	610.4006
867.869	532.24166
868.052	616.7386
868.234	555.47618
868.416	587.16227
868.598	536.46599
868.78	639.97888
868.962	473.107
869.144	572.37505
869.326	511.12083
869.508	466.77183
869.69	511.12083
869.872	523.79316
870.054	557.58849
870.236	597.72496
870.417	413.98415
870.599	604.06272
870.781	485.77775
870.963	570.26265
871.145	530.12951
871.327	618.85129
871.508	443.54405
871.69	504.78487
871.872	519.56899
872.054	568.15026
872.235	397.09419
872.417	502.6729
872.599	513.23285
872.78	544.91483
872.962	449.87871
873.144	490.00145
873.325	418.2068
873.507	572.37505
873.689	561.81316
873.87	650.54313
874.052	413.98415
874.233	612.51326
874.415	460.4368
874.596	515.34488
874.778	468.88354
874.959	479.44231
875.141	445.65559
875.322	618.85129
875.503	511.12083
875.685	530.12951
875.866	422.42952
876.048	511.12083
876.229	460.4368
876.41	492.11332
876.592	492.11332
876.773	536.46599
876.954	443.54405
877.136	477.33052
877.317	485.77775
877.498	525.90526
877.679	460.4368
877.86	426.6523
878.042	468.88354
878.223	515.34488
878.404	460.4368
878.585	585.04977
878.766	595.61239
878.947	487.88959
879.128	561.81316
879.309	500.56096
879.49	498.44903
879.672	563.92551
879.853	462.54846
880.034	532.24166
880.215	356.9848
880.396	411.87285
880.576	418.2068
880.757	542.8026
880.938	521.68107
881.119	593.49984
881.3	443.54405
881.481	538.57818
881.662	443.54405
881.843	485.77775
882.023	411.87285
882.204	487.88959
882.385	369.65026
882.566	536.46599
882.747	409.76156
882.927	551.2516
883.108	380.20529
883.289	502.6729
883.469	445.65559
883.65	604.06272
883.831	454.1019
884.011	591.3873
884.192	445.65559
884.373	456.21352
884.553	485.77775
884.734	500.56096
884.914	424.5409
885.095	473.107
885.275	418.2068
885.456	456.21352
885.636	494.22521
885.817	604.06272
885.997	428.76371
886.178	551.2516
886.358	540.69038
886.538	481.5541
886.719	464.66014
886.899	566.03788
887.08	568.15026
887.26	479.44231
887.44	557.58849
887.621	722.38775
887.801	451.9903
887.981	494.22521
888.161	519.56899
888.342	517.45693
888.522	561.81316
888.702	540.69038
888.882	456.21352
889.062	544.91483
889.242	504.78487
889.423	555.47618
889.603	547.02707
889.783	490.00145
889.963	502.6729
890.143	468.88354
890.323	422.42952
890.503	532.24166
890.683	490.00145
890.863	578.71235
891.043	479.44231
891.223	597.72496
891.403	483.66592
891.583	511.12083
891.763	544.91483
891.943	553.36388
892.122	519.56899
892.302	481.5541
892.482	470.99526
892.662	519.56899
892.842	435.09805
893.022	422.42952
893.201	470.99526
893.381	428.76371
893.561	405.53904
893.741	418.2068
893.92	361.20655
894.1	547.02707
894.28	441.43252
894.459	424.5409
894.639	418.2068
894.819	439.32102
894.998	430.87514
895.178	481.5541
895.357	447.76714
895.537	506.89684
895.716	477.33052
895.896	544.91483
896.075	428.76371
896.255	511.12083
896.434	407.65029
896.614	547.02707
896.793	388.64961
896.973	521.68107
897.152	443.54405
897.331	553.36388
897.511	394.98302
897.69	458.32515
897.87	346.43071
898.049	496.33711
898.228	468.88354
898.407	401.31658
898.587	445.65559
898.766	401.31658
898.945	422.42952
899.124	445.65559
899.304	403.4278
899.483	483.66592
899.662	422.42952
899.841	437.20952
900.02	361.20655
900.199	447.76714
900.378	468.88354
900.557	435.09805
900.737	375.98323
900.916	363.31745
901.095	394.98302
901.274	456.21352
901.453	359.09566
901.632	435.09805
901.811	293.6669
901.989	443.54405
902.168	291.55658
902.347	367.53931
902.526	384.42741
902.705	331.65572
902.884	369.65026
903.063	314.77108
903.242	272.56455
903.42	278.89506
903.599	283.11549
903.778	363.31745
903.957	333.76638
904.135	329.54508
904.314	234.58507
904.493	359.09566
904.672	291.55658
904.85	333.76638
905.029	316.8816
905.207	367.53931
905.386	274.6747
905.565	335.87706
905.743	145.99124
905.922	245.1343
906.1	240.91455
906.279	304.21876
906.457	287.336
906.636	299.99796
906.814	262.01407
906.993	251.46407
907.171	238.8047
907.35	283.11549
907.528	247.24421
907.707	268.3443
907.885	156.53622
908.063	255.68401
908.242	224.03632
908.42	278.89506
908.598	198.72135
908.777	173.40929
908.955	262.01407
909.133	226.14603
909.311	240.91455
909.49	198.72135
909.668	232.47528
909.846	236.69488
910.024	245.1343
910.202	325.32385
910.38	251.46407
910.559	219.81696
910.737	266.2342
910.915	221.92663
911.093	160.75436
911.271	190.28367
911.449	154.42718
911.627	207.15936
911.805	148.10019
911.983	181.84631
912.161	205.04983
912.339	207.15936
912.517	302.10835
912.695	190.28367
912.872	219.81696
913.05	367.53931
913.228	278.89506
913.406	249.35413
913.584	318.99213
913.762	209.26891
913.939	215.59768
914.117	207.15936
914.295	183.95562
914.473	192.39306
914.65	304.21876
914.828	308.43963
915.006	181.84631
915.184	175.51851
915.361	173.40929
915.539	247.24421
915.716	167.08173
915.894	289.44628
916.072	133.33796
916.249	270.45441
916.427	183.95562
916.604	253.57403
916.782	190.28367
916.959	162.86346
917.137	169.1909
917.314	202.94032
917.492	251.46407
917.669	207.15936
917.847	173.40929
918.024	285.22573
918.201	205.04983
918.379	293.6669
918.556	245.1343
918.733	194.50247
918.911	139.6645
919.088	215.59768
919.265	133.33796
919.442	196.6119
919.62	167.08173
919.797	266.2342
919.974	181.84631
920.151	215.59768
920.328	175.51851
920.506	198.72135
920.683	240.91455
920.86	169.1909
921.037	108.03372
921.214	173.40929
921.391	183.95562
921.568	274.6747
921.745	139.6645
921.922	135.44678
922.099	137.55563
922.276	164.97259
922.453	200.83082
922.63	74.29967
922.807	211.37848
922.984	211.37848
923.161	177.62776
923.338	171.30008
923.514	266.2342
923.691	179.73703
923.868	198.72135
924.045	148.10019
924.222	148.10019
924.399	131.22915
924.575	236.69488
924.752	80.62436
924.929	215.59768
925.105	173.40929
925.282	164.97259
925.459	179.73703
925.635	114.35949
925.812	158.64528
925.989	135.44678
926.165	89.05761
926.342	169.1909
926.518	30.03253
926.695	101.70815
926.871	127.01161
927.048	116.46812
927.224	105.92518
927.401	84.84094
927.577	156.53622
927.754	114.35949
927.93	141.77339
928.107	148.10019
928.283	97.49122
928.459	63.75895
928.636	127.01161
928.812	164.97259
928.988	97.49122
929.165	122.79415
929.341	145.99124
929.517	137.55563
929.693	49.00291
929.87	127.01161
930.046	154.42718
930.222	91.16598
930.398	84.84094
930.574	139.6645
930.751	105.92518
930.927	78.51611
931.103	156.53622
931.279	80.62436
931.455	80.62436
931.631	156.53622
931.807	116.46812
931.983	162.86346
932.159	116.46812
932.335	91.16598
932.511	110.14229
932.687	120.68545
932.863	70.08331
933.039	122.79415
933.215	84.84094
933.391	57.4348
933.566	76.40788
933.742	114.35949
933.918	108.03372
934.094	40.5714
934.27	74.29967
934.445	89.05761
934.621	74.29967
934.797	114.35949
934.973	34.24801
935.148	110.14229
935.324	36.35578
935.5	55.32679
935.675	108.03372
935.851	40.5714
936.027	97.49122
936.202	59.54283
936.378	72.19148
936.553	57.4348
936.729	42.67924
936.904	80.62436
937.08	124.90287
937.255	13.17157
937.431	55.32679
937.606	143.8823
937.782	82.73264
937.957	-1.58052
938.133	32.14026
938.308	36.35578
938.483	30.03253
938.659	63.75895
938.834	13.17157
939.009	124.90287
939.185	91.16598
939.36	-18.43861
939.535	74.29967
939.71	67.97517
939.886	-1.58052
940.061	63.75895
940.236	57.4348
940.411	40.5714
940.586	21.60186
940.761	46.895
940.937	15.2791
941.112	99.59967
941.287	25.81715
941.462	42.67924
941.637	32.14026
941.812	80.62436
941.987	0.52684
942.162	65.86705
942.337	30.03253
942.512	72.19148
942.687	59.54283
942.862	95.38278
943.037	-3.68787
943.212	46.895
943.386	76.40788
943.561	105.92518
943.736	25.81715
943.911	42.67924
944.086	-33.18815
944.26	44.78711
944.435	65.86705
944.61	65.86705
944.785	30.03253
944.959	89.05761
945.134	61.65088
945.309	13.17157
945.483	34.24801
945.658	-12.11701
945.833	46.895
946.007	-24.75999
946.182	15.2791
946.357	72.19148
946.531	116.46812
946.706	63.75895
946.88	19.49425
947.055	-3.68787
947.229	23.70949
947.404	72.19148
947.578	46.895
947.752	15.2791
947.927	13.17157
948.101	74.29967
948.276	-10.00976
948.45	57.4348
948.624	15.2791
948.799	57.4348
948.973	99.59967
949.147	15.2791
949.321	42.67924
949.496	-35.29512
949.67	15.2791
949.844	21.60186
950.018	63.75895
950.193	4.74166
950.367	4.74166
950.541	46.895
950.715	4.74166
950.889	91.16598
951.063	17.38667
951.237	34.24801
951.411	46.895
951.585	76.40788
951.759	49.00291
951.933	36.35578
952.107	59.54283
952.281	91.16598
952.455	-12.11701
952.629	23.70949
952.803	110.14229
952.977	30.03253
953.151	4.74166
953.325	-37.40208
953.499	84.84094
953.672	-18.43861
953.846	11.06405
954.02	21.60186
954.194	80.62436
954.368	72.19148
954.541	74.29967
954.715	76.40788
954.889	42.67924
955.062	40.5714
955.236	38.46358
955.41	40.5714
955.583	38.46358
955.757	25.81715
955.93	6.8491
956.104	-41.61591
956.278	59.54283
956.451	30.03253
956.625	72.19148
956.798	51.11085
956.972	6.8491
957.145	53.21881
957.319	49.00291
957.492	89.05761
957.665	74.29967
957.839	76.40788
958.012	8.95656
958.185	65.86705
958.359	61.65088
958.532	49.00291
958.705	95.38278
958.879	80.62436
959.052	30.03253
959.225	23.70949
959.398	-12.11701
959.572	27.92483
959.745	2.63424
959.918	122.79415
960.091	21.60186
960.264	101.70815
960.438	23.70949
960.611	40.5714
960.784	40.5714
960.957	-3.68787
961.13	19.49425
961.303	4.74166
961.476	84.84094
961.649	63.75895
961.822	38.46358
961.995	76.40788
962.168	-60.57691
962.341	49.00291
962.514	-81.64228
962.686	82.73264
962.859	-20.54576
963.032	42.67924
963.205	13.17157
963.378	129.12037
963.551	40.5714
963.723	72.19148
963.896	38.46358
964.069	15.2791
964.242	21.60186
964.414	4.74166
964.587	27.92483
964.76	13.17157
964.932	4.74166
965.105	25.81715
965.278	82.73264
965.45	80.62436
965.623	-1.58052
965.795	95.38278
965.968	21.60186
966.14	49.00291
966.313	38.46358
966.485	27.92483
966.658	-16.33143
966.83	40.5714
967.003	25.81715
967.175	42.67924
967.348	8.95656
967.52	-10.00976
967.692	21.60186
967.865	74.29967
968.037	97.49122
968.209	34.24801
968.382	183.95562
968.554	46.895
968.726	21.60186
968.898	38.46358
969.071	-26.86706
969.243	23.70949
969.415	-1.58052
969.587	46.895
969.759	0.52684
969.932	-47.93647
970.104	84.84094
970.276	8.95656
970.448	-1.58052
970.62	55.32679
970.792	30.03253
970.964	11.06405
971.136	-31.08114
971.308	105.92518
971.48	38.46358
971.652	30.03253
971.824	-14.22423
971.996	6.8491
972.168	72.19148
972.339	80.62436
972.511	-12.11701
972.683	21.60186
972.855	25.81715
973.027	63.75895
973.199	-10.00976
973.37	-35.29512
973.542	63.75895
973.714	23.70949
973.886	-7.90249
974.057	61.65088
974.229	8.95656
974.401	21.60186
974.572	57.4348
974.744	0.52684
974.915	0.52684
975.087	61.65088
975.259	80.62436
975.43	101.70815
975.602	-3.68787
975.773	97.49122
975.945	65.86705
976.116	21.60186
976.288	0.52684
976.459	82.73264
976.63	-10.00976
976.802	-26.86706
976.973	-7.90249
977.145	-26.86706
977.316	-7.90249
977.487	30.03253
977.659	74.29967
977.83	84.84094
978.001	46.895
978.172	32.14026
978.344	-12.11701
978.515	72.19148
978.686	17.38667
978.857	-10.00976
979.028	13.17157
979.2	-7.90249
979.371	13.17157
979.542	40.5714
979.713	55.32679
979.884	46.895
980.055	42.67924
980.226	97.49122
980.397	89.05761
980.568	-50.04327
980.739	23.70949
980.91	-12.11701
981.081	34.24801
981.252	8.95656
981.423	34.24801
981.594	-20.54576
981.765	23.70949
981.936	-3.68787
982.106	13.17157
982.277	11.06405
982.448	32.14026
982.619	13.17157
982.79	38.46358
982.96	114.35949
983.131	13.17157
983.302	25.81715
983.472	38.46358
983.643	40.5714
983.814	51.11085
983.984	19.49425
984.155	36.35578
984.326	11.06405
984.496	13.17157
984.667	-5.79519
984.837	6.8491
985.008	-3.68787
985.178	32.14026
985.349	72.19148
985.519	44.78711
985.69	49.00291
985.86	55.32679
986.031	-62.68356
986.201	67.97517
986.371	49.00291
986.542	-20.54576
986.712	23.70949
986.882	-5.79519
987.053	-20.54576
987.223	-35.29512
987.393	67.97517
987.563	13.17157
987.734	127.01161
987.904	-16.33143
988.074	-16.33143
988.244	-64.79019
988.414	51.11085
988.585	-5.79519
988.755	-7.90249
988.925	-3.68787
989.095	15.2791
989.265	89.05761
989.435	-52.15005
989.605	21.60186
989.775	89.05761
989.945	44.78711
990.115	40.5714
990.285	-16.33143
990.455	51.11085
990.625	13.17157
990.795	-28.97412
990.965	34.24801
991.134	-3.68787
991.304	63.75895
991.474	-52.15005
991.644	46.895
991.814	61.65088
991.984	-18.43861
992.153	38.46358
992.323	89.05761
992.493	63.75895
992.662	-47.93647
992.832	30.03253
993.002	8.95656
993.171	34.24801
993.341	55.32679
993.511	30.03253
993.68	63.75895
993.85	36.35578
994.019	65.86705
994.189	32.14026
994.358	32.14026
994.528	-5.79519
994.697	61.65088
994.867	8.95656
995.036	-20.54576
995.206	49.00291
995.375	-39.50901
995.544	167.08173
995.714	21.60186
995.883	-7.90249
996.052	0.52684
996.222	42.67924
996.391	49.00291
996.56	4.74166
996.73	27.92483
996.899	40.5714
997.068	21.60186
997.237	27.92483
997.406	-1.58052
997.576	-16.33143
997.745	8.95656
997.914	38.46358
998.083	-20.54576
998.252	127.01161
998.421	4.74166
998.59	21.60186
998.759	42.67924
998.928	91.16598
999.097	23.70949
999.266	19.49425
999.435	67.97517
999.604	-3.68787
999.773	-20.54576
999.942	23.70949
1000.111	57.4348
1000.28	17.38667
1000.448	-18.43861
1000.617	55.32679
1000.786	80.62436
1000.955	-130.08275
1001.124	-41.61591
1001.292	32.14026
1001.461	55.32679
1001.63	105.92518
1001.798	8.95656
1001.967	93.27437
1002.136	-33.18815
1002.304	-75.32294
1002.473	8.95656
1002.642	-3.68787
1002.81	-45.82964
1002.979	27.92483
1003.147	21.60186
1003.316	46.895
1003.484	25.81715
1003.653	-37.40208
1003.821	82.73264
1003.99	-20.54576
1004.158	-3.68787
1004.327	-87.96139
1004.495	42.67924
1004.663	13.17157
1004.832	57.4348
1005	25.81715
1005.168	21.60186
1005.337	108.03372
1005.505	40.5714
1005.673	-14.22423
1005.842	-24.75999
1006.01	25.81715
1006.178	-33.18815
1006.346	13.17157
1006.514	59.54283
1006.683	63.75895
1006.851	25.81715
1007.019	4.74166
1007.187	-3.68787
1007.355	-20.54576
1007.523	23.70949
1007.691	99.59967
1007.859	13.17157
1008.027	13.17157
1008.195	0.52684
1008.363	6.8491
1008.531	27.92483
1008.699	76.40788
1008.867	-60.57691
1009.035	4.74166
1009.203	51.11085
1009.37	8.95656
1009.538	-43.72279
1009.706	27.92483
1009.874	13.17157
1010.042	2.63424
1010.209	-3.68787
1010.377	32.14026
1010.545	42.67924
1010.713	13.17157
1010.88	-58.47023
1011.048	61.65088
1011.216	51.11085
1011.383	11.06405
1011.551	-12.11701
1011.718	2.63424
1011.886	118.57677
1012.054	-7.90249
1012.221	38.46358
1012.389	27.92483
1012.556	30.03253
1012.724	-28.97412
1012.891	0.52684
1013.058	-41.61591
1013.226	-35.29512
1013.393	-35.29512
1013.561	-3.68787
1013.728	-5.79519
1013.895	15.2791
1014.063	-35.29512
1014.23	-12.11701
1014.397	40.5714
1014.565	38.46358
1014.732	15.2791
1014.899	46.895
1015.066	91.16598
1015.233	30.03253
1015.401	11.06405
1015.568	-1.58052
1015.735	70.08331
1015.902	46.895
1016.069	4.74166
1016.236	25.81715
1016.403	13.17157
1016.57	76.40788
1016.737	-54.2568
1016.904	-37.40208
1017.071	0.52684
1017.238	55.32679
1017.405	30.03253
1017.572	4.74166
1017.739	53.21881
1017.906	-5.79519
1018.073	63.75895
1018.24	-35.29512
1018.407	46.895
1018.573	76.40788
1018.74	23.70949
1018.907	-10.00976
1019.074	13.17157
1019.241	-54.2568
1019.407	51.11085
1019.574	51.11085
1019.741	38.46358
1019.907	-33.18815
1020.074	6.8491
1020.241	40.5714
1020.407	38.46358
1020.574	32.14026
1020.74	40.5714
1020.907	-3.68787
1021.073	-18.43861
1021.24	-5.79519
1021.406	65.86705
1021.573	55.32679
1021.739	-1.58052
1021.906	-41.61591
1022.072	-54.2568
1022.239	-41.61591
1022.405	-3.68787
1022.571	38.46358
1022.738	21.60186
1022.904	124.90287
1023.07	25.81715
1023.237	-64.79019
1023.403	-10.00976
1023.569	-24.75999
1023.735	23.70949
1023.902	30.03253
1024.068	-12.11701
1024.234	-20.54576
1024.4	0.52684
1024.566	-1.58052
1024.732	15.2791
1024.898	-31.08114
1025.065	40.5714
1025.231	8.95656
1025.397	42.67924
1025.563	55.32679
1025.729	53.21881
1025.895	-43.72279
1026.061	74.29967
1026.227	-12.11701
1026.392	67.97517
1026.558	4.74166
1026.724	55.32679
1026.89	86.94927
1027.056	-1.58052
1027.222	-35.29512
1027.388	65.86705
1027.553	-16.33143
1027.719	-12.11701
1027.885	42.67924
1028.051	38.46358
1028.216	21.60186
1028.382	-20.54576
1028.548	15.2791
1028.713	19.49425
1028.879	-12.11701
1029.045	15.2791
1029.21	17.38667
1029.376	6.8491
1029.541	0.52684
1029.707	-1.58052
1029.873	4.74166
1030.038	8.95656
1030.204	6.8491
1030.369	25.81715
1030.534	-52.15005
1030.7	-1.58052
1030.865	91.16598
1031.031	-28.97412
1031.196	-37.40208
1031.361	25.81715
1031.527	4.74166
1031.692	80.62436
1031.857	65.86705
1032.023	-5.79519
1032.188	80.62436
1032.353	32.14026
1032.518	23.70949
1032.684	-35.29512
1032.849	23.70949
1033.014	0.52684
1033.179	17.38667
1033.344	27.92483
1033.509	38.46358
1033.674	49.00291
1033.839	-47.93647
1034.004	21.60186
1034.17	30.03253
1034.335	34.24801
1034.5	8.95656
1034.664	0.52684
1034.829	0.52684
1034.994	13.17157
1035.159	25.81715
1035.324	57.4348
1035.489	-12.11701
1035.654	-16.33143
1035.819	32.14026
1035.984	34.24801
1036.148	-1.58052
1036.313	-16.33143
1036.478	51.11085
1036.643	36.35578
1036.807	-28.97412
1036.972	8.95656
1037.137	13.17157
1037.301	101.70815
1037.466	-3.68787
1037.631	-18.43861
1037.795	51.11085
1037.96	-87.96139
1038.124	59.54283
1038.289	0.52684
1038.454	-50.04327
1038.618	21.60186
1038.783	-7.90249
1038.947	42.67924
1039.111	49.00291
1039.276	6.8491
1039.44	-39.50901
1039.605	51.11085
1039.769	46.895
1039.933	65.86705
1040.098	8.95656
1040.262	-18.43861
1040.426	-24.75999
1040.591	-28.97412
1040.755	-41.61591
1040.919	99.59967
1041.083	46.895
1041.248	4.74166
1041.412	95.38278
1041.576	82.73264
1041.74	11.06405
1041.904	38.46358
1042.068	76.40788
1042.232	17.38667
1042.397	11.06405
1042.561	76.40788
1042.725	-33.18815
1042.889	30.03253
1043.053	65.86705
1043.217	32.14026
1043.381	55.32679
1043.544	-58.47023
1043.708	131.22915
1043.872	-10.00976
1044.036	-5.79519
1044.2	32.14026
1044.364	13.17157
1044.528	97.49122
1044.691	8.95656
1044.855	72.19148
1045.019	8.95656
1045.183	44.78711
1045.346	-41.61591
1045.51	4.74166
1045.674	-18.43861
1045.837	-3.68787
1046.001	8.95656
1046.165	-18.43861
1046.328	30.03253
1046.492	13.17157
1046.655	36.35578
1046.819	46.895
1046.983	23.70949
1047.146	-18.43861
1047.31	46.895
1047.473	15.2791
1047.636	78.51611
1047.8	4.74166
1047.963	-83.74867
1048.127	61.65088
1048.29	-5.79519
