Data from mixed_try6.1_USB4F045381__20__00304.txt Node

Date: Thu Apr 03 20:32:51 EDT 2025
User: mmckonesweet
Spectrometer: USB4F04538
Trigger mode: 4
Integration Time (sec): 2.700000E-3
Scans to average: 1
Electric dark correction enabled: true
Nonlinearity correction enabled: true
Boxcar width: 0
XAxis mode: Wavelengths
Number of Pixels in Spectrum: 3648
>>>>>Begin Spectral Data<<<<<
345.52	25.11459
345.736	25.11459
345.952	25.11459
346.168	16.68414
346.384	-61.27913
346.6	-8.60492
346.816	37.76098
347.032	37.76098
347.248	-2.28298
347.464	33.54542
347.68	-19.141
347.896	-12.81942
348.112	-61.27913
348.328	-4.39031
348.544	20.89932
348.76	8.25407
348.975	-29.67646
349.191	-92.87609
349.407	6.14661
349.623	-25.46235
349.839	-21.24814
350.055	1.93177
350.27	4.03918
350.486	-19.141
350.702	46.19237
350.918	63.05626
351.133	25.11459
351.349	1.93177
351.565	-35.99745
351.781	-21.24814
351.996	-54.95905
352.212	-54.95905
352.428	-4.39031
352.644	-33.89048
352.859	-4.39031
353.075	-17.03383
353.291	20.89932
353.506	-12.81942
353.722	4.03918
353.938	-48.63874
354.153	-17.03383
354.369	-33.89048
354.584	-21.24814
354.8	-35.99745
355.016	1.93177
355.231	-84.4508
355.447	67.27246
355.662	-19.141
355.878	29.32996
356.093	-4.39031
356.309	16.68414
356.524	4.03918
356.74	-40.21131
356.955	-6.49763
357.171	-6.49763
357.386	-35.99745
357.602	-67.59898
357.817	-29.67646
358.033	31.43768
358.248	8.25407
358.464	46.19237
358.679	-4.39031
358.895	50.4082
359.11	10.36155
359.325	37.76098
359.541	-63.38577
359.756	20.89932
359.972	41.97663
360.187	20.89932
360.402	-29.67646
360.618	-48.63874
360.833	65.16435
361.048	79.92161
361.264	-38.10439
361.479	-69.70555
361.694	58.84015
361.909	58.84015
362.125	-59.17246
362.34	1.93177
362.555	12.46906
362.77	-99.19478
362.986	14.57659
363.201	25.11459
363.416	-4.39031
363.631	-12.81942
363.847	-12.81942
364.062	6.14661
364.277	20.89932
364.492	-17.03383
364.707	8.25407
364.922	-65.49239
365.138	44.08449
365.353	-6.49763
365.568	-19.141
365.783	31.43768
365.998	54.62413
366.213	-46.53192
366.428	-12.81942
366.643	65.16435
366.858	-33.89048
367.073	-42.31821
367.288	-21.24814
367.503	29.32996
367.718	8.25407
367.933	8.25407
368.148	-10.71218
368.363	4.03918
368.578	10.36155
368.793	-12.81942
369.008	63.05626
369.223	39.86879
369.438	14.57659
369.653	46.19237
369.868	35.65319
370.083	8.25407
370.298	-38.10439
370.513	-25.46235
370.728	58.84015
370.943	12.46906
371.157	23.00695
371.372	-71.81209
371.587	29.32996
371.802	-4.39031
372.017	-10.71218
372.232	-10.71218
372.446	10.36155
372.661	-42.31821
372.876	-25.46235
373.091	63.05626
373.306	-29.67646
373.52	-46.53192
373.735	-99.19478
373.95	12.46906
374.165	-8.60492
374.379	-21.24814
374.594	-6.49763
374.809	-86.55716
375.023	-31.78348
375.238	23.00695
375.453	-59.17246
375.667	67.27246
375.882	-19.141
376.097	71.48875
376.311	14.57659
376.526	-4.39031
376.741	-21.24814
376.955	-10.71218
377.17	-38.10439
377.384	12.46906
377.599	-78.13156
377.813	33.54542
378.028	-46.53192
378.242	-10.71218
378.457	-52.8523
378.672	-35.99745
378.886	12.46906
379.101	67.27246
379.315	14.57659
379.53	-21.24814
379.744	-29.67646
379.958	63.05626
380.173	-42.31821
380.387	6.14661
380.602	4.03918
380.816	6.14661
381.031	-59.17246
381.245	-6.49763
381.459	20.89932
381.674	14.57659
381.888	-12.81942
382.103	-12.81942
382.317	-38.10439
382.531	4.03918
382.746	-2.28298
382.96	23.00695
383.174	-54.95905
383.388	-12.81942
383.603	-8.60492
383.817	-17.03383
384.031	-33.89048
384.246	-57.06577
384.46	16.68414
384.674	-65.49239
384.888	-0.17561
385.103	63.05626
385.317	27.22227
385.531	6.14661
385.745	-40.21131
385.959	25.11459
386.174	96.7884
386.388	41.97663
386.602	6.14661
386.816	-2.28298
387.03	-19.141
387.244	-12.81942
387.458	39.86879
387.672	-44.42508
387.887	4.03918
388.101	-19.141
388.315	39.86879
388.529	6.14661
388.743	16.68414
388.957	-44.42508
389.171	37.76098
389.385	39.86879
389.599	27.22227
389.813	-54.95905
390.027	-4.39031
390.241	-12.81942
390.455	14.57659
390.669	4.03918
390.883	-12.81942
391.097	67.27246
391.311	29.32996
391.525	-35.99745
391.738	-29.67646
391.952	-6.49763
392.166	33.54542
392.38	25.11459
392.594	-0.17561
392.808	29.32996
393.022	44.08449
393.236	41.97663
393.449	44.08449
393.663	41.97663
393.877	1.93177
394.091	-12.81942
394.305	-2.28298
394.518	-38.10439
394.732	-2.28298
394.946	41.97663
395.16	-0.17561
395.373	65.16435
395.587	8.25407
395.801	67.27246
396.015	-4.39031
396.228	-42.31821
396.442	54.62413
396.656	20.89932
396.869	37.76098
397.083	41.97663
397.297	-10.71218
397.51	16.68414
397.724	-21.24814
397.938	-29.67646
398.151	-17.03383
398.365	12.46906
398.578	-76.0251
398.792	46.19237
399.005	14.57659
399.219	-4.39031
399.433	-50.74553
399.646	4.03918
399.86	33.54542
400.073	-54.95905
400.287	-73.91861
400.5	54.62413
400.714	-4.39031
400.927	-2.28298
401.141	-46.53192
401.354	14.57659
401.567	14.57659
401.781	-21.24814
401.994	-17.03383
402.208	8.25407
402.421	6.14661
402.635	-12.81942
402.848	46.19237
403.061	-4.39031
403.275	-29.67646
403.488	-8.60492
403.701	-46.53192
403.915	4.03918
404.128	48.30027
404.341	48.30027
404.555	44.08449
404.768	-38.10439
404.981	-21.24814
405.195	-25.46235
405.408	75.70514
405.621	-21.24814
405.834	-23.35526
406.048	-80.238
406.261	-54.95905
406.474	16.68414
406.687	-14.92664
406.9	31.43768
407.114	-4.39031
407.327	-54.95905
407.54	8.25407
407.753	-52.8523
407.966	20.89932
408.179	-71.81209
408.392	-42.31821
408.605	-35.99745
408.819	18.79172
409.032	-50.74553
409.245	-2.28298
409.458	-48.63874
409.671	41.97663
409.884	-19.141
410.097	4.03918
410.31	31.43768
410.523	-48.63874
410.736	-42.31821
410.949	-12.81942
411.162	48.30027
411.375	-12.81942
411.588	8.25407
411.801	-44.42508
412.014	12.46906
412.227	-4.39031
412.44	16.68414
412.653	29.32996
412.865	1.93177
413.078	-19.141
413.291	20.89932
413.504	4.03918
413.717	-12.81942
413.93	-19.141
414.143	50.4082
414.356	12.46906
414.568	46.19237
414.781	-19.141
414.994	-4.39031
415.207	48.30027
415.42	14.57659
415.632	12.46906
415.845	54.62413
416.058	54.62413
416.271	-12.81942
416.483	-10.71218
416.696	-52.8523
416.909	-10.71218
417.121	-12.81942
417.334	33.54542
417.547	107.33087
417.759	16.68414
417.972	20.89932
418.185	-46.53192
418.397	-63.38577
418.61	-63.38577
418.823	-27.56942
419.035	29.32996
419.248	-12.81942
419.46	77.81336
419.673	63.05626
419.885	-46.53192
420.098	1.93177
420.311	25.11459
420.523	37.76098
420.736	4.03918
420.948	12.46906
421.161	-27.56942
421.373	-12.81942
421.586	37.76098
421.798	14.57659
422.01	-46.53192
422.223	8.25407
422.435	58.84015
422.648	63.05626
422.86	-63.38577
423.073	29.32996
423.285	20.89932
423.497	-17.03383
423.71	-0.17561
423.922	46.19237
424.134	-8.60492
424.347	-10.71218
424.559	33.54542
424.771	54.62413
424.984	-10.71218
425.196	23.00695
425.408	-12.81942
425.621	73.59693
425.833	-65.49239
426.045	33.54542
426.257	-50.74553
426.47	33.54542
426.682	-12.81942
426.894	23.00695
427.106	-21.24814
427.318	16.68414
427.531	23.00695
427.743	-33.89048
427.955	107.33087
428.167	-4.39031
428.379	63.05626
428.591	-69.70555
428.804	4.03918
429.016	39.86879
429.228	29.32996
429.44	41.97663
429.652	-12.81942
429.864	-35.99745
430.076	33.54542
430.288	48.30027
430.5	4.03918
430.712	29.32996
430.924	50.4082
431.136	4.03918
431.348	8.25407
431.56	8.25407
431.772	-12.81942
431.984	37.76098
432.196	67.27246
432.408	124.19996
432.62	29.32996
432.832	12.46906
433.044	-29.67646
433.256	16.68414
433.468	33.54542
433.679	-6.49763
433.891	-38.10439
434.103	-71.81209
434.315	4.03918
434.527	20.89932
434.739	6.14661
434.95	-12.81942
435.162	16.68414
435.374	58.84015
435.586	-61.27913
435.798	-29.67646
436.009	-118.14944
436.221	16.68414
436.433	-42.31821
436.645	-12.81942
436.856	16.68414
437.068	-10.71218
437.28	18.79172
437.491	29.32996
437.703	69.38059
437.915	-10.71218
438.126	-38.10439
438.338	-33.89048
438.55	25.11459
438.761	-19.141
438.973	-10.71218
439.184	37.76098
439.396	41.97663
439.608	105.22233
439.819	-2.28298
440.031	58.84015
440.242	-27.56942
440.454	-19.141
440.665	-0.17561
440.877	33.54542
441.088	96.7884
441.3	-12.81942
441.511	-8.60492
441.723	12.46906
441.934	-33.89048
442.146	29.32996
442.357	20.89932
442.569	-63.38577
442.78	6.14661
442.991	-19.141
443.203	75.70514
443.414	-10.71218
443.626	-27.56942
443.837	37.76098
444.048	-38.10439
444.26	-8.60492
444.471	-25.46235
444.682	73.59693
444.894	-46.53192
445.105	88.35483
445.316	8.25407
445.528	25.11459
445.739	48.30027
445.95	1.93177
446.161	-42.31821
446.373	29.32996
446.584	-33.89048
446.795	48.30027
447.006	41.97663
447.217	-38.10439
447.429	-54.95905
447.64	20.89932
447.851	18.79172
448.062	20.89932
448.273	-4.39031
448.484	10.36155
448.695	6.14661
448.907	-12.81942
449.118	71.48875
449.329	-46.53192
449.54	1.93177
449.751	16.68414
449.962	-0.17561
450.173	-14.92664
450.384	-42.31821
450.595	20.89932
450.806	37.76098
451.017	25.11459
451.228	37.76098
451.439	37.76098
451.65	-42.31821
451.861	23.00695
452.072	39.86879
452.283	-23.35526
452.494	25.11459
452.705	56.73213
452.915	58.84015
453.126	-0.17561
453.337	25.11459
453.548	-92.87609
453.759	-69.70555
453.97	-31.78348
454.181	25.11459
454.391	50.4082
454.602	1.93177
454.813	-12.81942
455.024	65.16435
455.235	113.65661
455.445	50.4082
455.656	-82.34441
455.867	-59.17246
456.078	-2.28298
456.288	20.89932
456.499	-4.39031
456.71	16.68414
456.921	33.54542
457.131	48.30027
457.342	-27.56942
457.553	46.19237
457.763	18.79172
457.974	-46.53192
458.184	46.19237
458.395	27.22227
458.606	39.86879
458.816	67.27246
459.027	23.00695
459.237	65.16435
459.448	20.89932
459.659	69.38059
459.869	-21.24814
460.08	-4.39031
460.29	20.89932
460.501	41.97663
460.711	-19.141
460.922	-8.60492
461.132	20.89932
461.343	-21.24814
461.553	20.89932
461.764	-4.39031
461.974	88.35483
462.184	-8.60492
462.395	-14.92664
462.605	20.89932
462.816	12.46906
463.026	-12.81942
463.236	75.70514
463.447	-4.39031
463.657	-12.81942
463.867	-19.141
464.078	-19.141
464.288	50.4082
464.498	-57.06577
464.709	-27.56942
464.919	37.76098
465.129	79.92161
465.339	27.22227
465.55	-23.35526
465.76	-0.17561
465.97	12.46906
466.18	92.57157
466.391	-35.99745
466.601	-33.89048
466.811	12.46906
467.021	46.19237
467.231	63.05626
467.441	-42.31821
467.651	58.84015
467.862	-35.99745
468.072	29.32996
468.282	14.57659
468.492	88.35483
468.702	-10.71218
468.912	29.32996
469.122	58.84015
469.332	-4.39031
469.542	-12.81942
469.752	84.13817
469.962	-35.99745
470.172	31.43768
470.382	29.32996
470.592	101.00532
470.802	143.17933
471.012	71.48875
471.222	111.54801
471.432	-29.67646
471.642	14.57659
471.852	44.08449
472.062	-4.39031
472.272	65.16435
472.482	73.59693
472.691	-10.71218
472.901	113.65661
473.111	88.35483
473.321	-4.39031
473.531	50.4082
473.741	58.84015
473.95	4.03918
474.16	60.94819
474.37	71.48875
474.58	31.43768
474.79	58.84015
474.999	82.02988
475.209	37.76098
475.419	69.38059
475.628	109.43943
475.838	96.7884
476.048	63.05626
476.258	101.00532
476.467	88.35483
476.677	90.46319
476.886	84.13817
477.096	109.43943
477.306	96.7884
477.515	90.46319
477.725	77.81336
477.935	65.16435
478.144	111.54801
478.354	77.81336
478.563	122.09124
478.773	73.59693
478.982	82.02988
479.192	48.30027
479.401	90.46319
479.611	136.85268
479.82	113.65661
480.03	134.74384
480.239	147.39721
480.449	109.43943
480.658	147.39721
480.868	149.50617
481.077	147.39721
481.287	160.05133
481.496	143.17933
481.705	185.36184
481.915	117.87389
482.124	149.50617
482.333	143.17933
482.543	79.92161
482.752	109.43943
482.961	149.50617
483.171	183.25252
483.38	168.48784
483.589	111.54801
483.799	155.83321
484.008	176.92467
484.217	273.97131
484.426	290.85314
484.636	198.0182
484.845	231.77202
485.054	172.70621
485.263	246.5409
485.472	244.431
485.682	269.75104
485.891	257.09068
486.1	345.72712
486.309	240.21127
486.518	290.85314
486.727	225.4428
486.936	233.8818
487.146	254.98069
487.355	299.2945
487.564	307.73615
487.773	339.39489
487.982	240.21127
488.191	379.50161
488.4	309.84661
488.609	295.07378
488.818	366.83566
489.027	309.84661
489.236	299.2945
489.445	362.61382
489.654	383.72372
489.863	354.17033
490.072	352.0595
490.281	409.05781
490.49	307.73615
490.698	379.50161
490.907	328.84154
491.116	436.5057
491.325	377.39057
491.534	349.94869
491.743	468.17963
491.952	487.18564
492.16	501.96892
492.369	501.96892
492.578	419.61437
492.787	476.6266
492.996	544.21075
493.204	628.71068
493.413	533.64976
493.622	609.69639
493.831	571.67092
494.039	603.35852
494.248	463.95624
494.457	635.049
494.665	561.10904
494.874	622.37247
495.083	575.89576
495.291	645.61311
495.5	632.93621
495.709	645.61311
495.917	687.87252
496.126	670.9682
496.335	706.89075
496.543	649.83884
496.752	700.55124
496.96	753.38348
497.169	641.38743
497.377	814.67687
497.586	687.87252
497.794	873.8641
498.003	706.89075
498.211	759.72379
498.42	681.53331
498.628	780.85881
498.837	848.4973
499.045	833.70058
499.254	804.10846
499.462	886.54795
499.671	856.95276
499.879	1068.37849
500.087	880.20598
500.296	865.40836
500.504	892.88998
500.713	856.95276
500.921	939.40039
501.129	933.05785
501.338	899.23209
501.546	1051.46204
501.754	941.51459
501.962	1043.00395
502.171	1004.94371
502.379	1186.80231
502.587	1045.11847
502.795	1038.77494
503.004	1026.08805
503.212	1144.50651
503.42	1036.66044
503.628	1112.78575
503.837	1028.20252
504.045	1279.85784
504.253	1161.42464
504.461	1273.51298
504.669	1296.77759
504.877	1256.59344
505.085	1178.34303
505.294	1237.55917
505.502	1161.42464
505.71	1309.46748
505.918	1281.9728
506.126	1231.21446
506.334	1256.59344
506.542	1474.44013
506.75	1229.09956
506.958	1351.76759
507.166	1288.3177
507.374	1389.83816
507.582	1362.34271
507.79	1465.97992
507.998	1375.0329
508.206	1446.94445
508.414	1271.39803
508.622	1580.19175
508.83	1341.19251
509.037	1506.16584
509.245	1355.99764
509.453	1605.57166
509.661	1499.82071
509.869	1690.16909
510.077	1571.73173
510.285	1704.9732
510.492	1660.56045
510.7	1728.23648
510.908	1497.70566
511.116	1603.45668
511.324	1611.9166
511.531	1603.45668
511.739	1601.3417
511.947	1825.51444
512.155	1548.46654
512.362	1804.3678
512.57	1664.79029
512.778	1630.95129
512.985	1614.03157
513.193	1770.53228
513.401	1762.07324
513.608	1821.28515
513.816	1846.66063
514.024	1795.90902
514.231	1721.89199
514.439	1863.57724
514.646	1707.08806
514.854	1888.95155
515.061	1838.20221
515.269	1977.75541
515.477	1869.92089
515.684	1950.2696
515.892	2026.38155
516.099	1992.55503
516.307	1821.28515
516.514	2117.2815
516.722	1863.57724
516.929	2091.91543
517.136	1933.35475
517.344	2045.40821
517.551	2058.09234
517.759	2055.97834
517.966	2011.58266
518.173	2218.73435
518.381	1956.61257
518.588	2271.56659
518.796	2208.16724
519.003	2277.90607
519.21	2182.80531
519.418	2379.32616
519.625	2311.71525
519.832	2379.32616
520.039	2339.18341
520.247	2531.41152
520.454	2288.4717
520.661	2339.18341
520.868	2261.00059
521.076	2392.00206
521.283	2349.74764
521.49	2516.62797
521.697	2299.03709
521.904	2394.11468
522.112	2381.43884
522.319	2594.76313
522.526	2322.28012
522.733	2658.10385
522.94	2449.03895
523.147	2628.54623
523.354	2353.97326
523.561	2734.0977
523.768	2548.30632
523.975	2670.77065
524.183	2480.72272
524.39	2873.37471
524.597	2717.21163
524.804	2753.09351
525.011	2883.92352
525.218	2734.0977
525.425	2691.88096
525.632	2841.72614
525.838	2662.32617
526.045	2909.2392
526.252	2835.39605
526.459	2985.17359
526.666	2907.12964
526.873	3132.76728
527.08	2818.51518
527.287	2985.17359
527.494	2786.86117
527.701	2902.91048
527.907	2814.29482
528.114	3200.21277
528.321	2964.08263
528.528	3107.47096
528.735	2966.1918
528.941	2942.99019
529.148	2970.41008
529.355	3278.17555
529.562	2961.97346
529.768	3320.30796
529.975	3063.19691
530.182	3214.96423
530.388	3065.30536
530.595	3383.49366
530.802	3221.28604
531.008	3476.13731
531.215	3240.25057
531.422	3455.08498
531.628	3303.45582
531.835	3459.29559
532.042	3358.22126
532.248	3408.76352
532.455	3265.53449
532.661	3446.66354
532.868	3476.13731
533.074	3655.0081
533.281	3332.94635
533.487	3730.72415
533.694	3417.18625
533.9	3728.62127
534.107	3606.62104
534.313	3730.72415
534.52	3375.0698
534.726	3631.8677
534.933	3585.58008
535.139	3655.0081
535.345	3690.766
535.552	3833.74176
535.758	3791.69944
535.965	3722.31249
536.171	3686.55947
536.377	3873.67463
536.584	3705.48823
536.79	3764.36772
536.996	3722.31249
537.203	3900.99297
537.409	3806.41515
537.615	3934.61088
537.821	3913.60029
538.028	3896.79037
538.234	3905.19549
538.44	4182.38096
538.646	4064.8311
538.853	3997.63049
539.059	3976.62599
539.265	4157.19724
539.471	3997.63049
539.677	4239.03318
539.883	4125.71333
540.09	4150.90083
540.296	4014.43262
540.502	4058.53194
540.708	4245.32692
540.914	4341.8067
541.12	4276.79271
541.326	4423.56895
541.532	4199.16842
541.738	4467.58101
541.944	4215.95452
542.15	4484.34497
542.356	4381.64372
542.562	4450.81565
542.768	4369.06446
542.974	4452.9114
543.18	4526.24868
543.386	4385.83664
543.592	4396.31854
543.798	4706.33325
544.004	4404.70367
544.21	4488.53574
544.415	4434.04889
544.621	4702.14712
544.827	4404.70367
545.033	4729.35535
545.239	4612.12357
545.445	4746.09698
545.651	4578.61587
545.856	4777.48363
546.062	4829.78336
546.268	4752.37472
546.474	4620.4996
546.679	4727.26254
546.885	4626.78139
547.091	4693.77459
547.297	4781.66813
547.502	4944.79256
547.708	4754.46725
547.914	4840.2416
548.119	4746.09698
548.325	4865.33905
548.531	4664.46789
548.736	4984.50688
548.942	4779.57589
549.147	5118.22011
549.353	4959.42512
549.559	5103.59985
549.764	5059.73224
549.97	5099.42242
550.175	4921.79626
550.381	5020.0337
550.586	5080.62285
550.792	5195.47973
550.997	5205.91777
551.203	5243.4899
551.408	5149.54542
551.614	5220.53005
551.819	5245.57702
552.025	5278.96774
552.23	5095.2449
552.435	5354.07495
552.641	5404.12955
552.846	5404.12955
553.052	5266.44692
553.257	5483.35498
553.462	5412.47067
553.668	5406.21486
553.873	5197.56738
554.078	5399.95885
554.283	5326.9564
554.489	5533.3746
554.694	5387.44618
554.899	5489.60818
555.105	5529.20682
555.31	5581.29733
555.515	5714.5819
555.72	5772.8635
555.925	5506.28232
556.131	5793.67388
556.336	5610.46159
556.541	5762.45743
556.746	5745.80649
556.951	5731.23567
557.156	5470.84796
557.361	5866.4916
557.567	5693.76256
557.772	6009.96191
557.977	5662.52912
558.182	5876.89178
558.387	5654.1993
558.592	5970.46679
558.797	5916.40705
559.002	6018.27559
559.207	5716.6637
559.412	5899.77008
559.617	5575.04725
559.822	5801.99737
560.027	5579.21399
560.232	6030.7454
560.437	5974.62457
560.642	6061.91621
560.847	6028.66715
561.051	6066.07192
561.256	5864.4115
561.461	6180.31705
561.666	6147.08943
561.871	6302.79199
562.076	5987.09735
562.281	6279.96386
562.485	6003.7264
562.69	6095.15925
562.895	5957.99288
563.1	6003.7264
563.305	5955.91381
563.509	6240.52679
563.714	5889.37121
563.919	6255.05722
564.123	6014.11879
564.328	6327.69218
564.533	6219.76704
564.737	6400.29852
564.942	6242.60263
565.147	6574.43749
565.351	6261.2842
565.556	6412.74246
565.761	6394.07624
565.965	6373.33379
566.17	6275.81299
566.374	6275.81299
566.579	6564.07665
566.784	6518.4821
566.988	6499.82655
567.193	6578.58166
567.397	6454.21619
567.602	6717.35817
567.806	6319.39249
568.011	6634.51896
568.215	6572.36537
568.42	6613.8034
568.624	6526.77285
568.828	6636.59039
569.033	6462.50982
569.237	6752.55371
569.442	6783.60311
569.646	6607.58828
569.85	6580.65371
570.055	6818.78622
570.259	6611.73172
570.463	6876.72052
570.668	6700.79327
570.872	6785.67289
571.076	6735.99193
571.281	6951.18133
571.485	6684.2269
571.689	6735.99193
571.893	6742.20277
572.098	6893.2699
572.302	6944.97738
572.506	7108.28046
572.71	6783.60311
572.914	6833.27147
573.119	6634.51896
573.323	6901.54405
573.527	7054.55061
573.731	7089.68337
573.935	6824.99432
574.139	7058.68421
574.343	6874.65174
574.547	7093.81622
574.751	7081.41742
574.955	7205.36926
575.159	7240.47442
575.364	7081.41742
575.568	6820.85561
575.772	7120.67751
575.976	7164.06088
576.18	7259.05693
576.383	7155.79814
576.587	7519.0259
576.791	7089.68337
576.995	7246.66879
577.199	7236.34474
577.403	7271.44427
577.607	7226.02013
577.811	7376.70478
578.015	7242.53924
578.219	7508.71623
578.422	7584.99506
578.626	7580.87263
578.83	7292.08808
579.034	7558.19773
579.238	7438.5962
579.442	7708.62841
579.645	7318.92175
579.849	7578.81138
580.053	7420.03082
580.257	7655.06333
580.46	7580.87263
580.664	7786.89022
580.868	7657.12379
581.071	7694.20845
581.275	7690.08827
581.479	7727.16684
581.682	7578.81138
581.886	7823.95106
582.09	7681.84766
582.293	7702.44855
582.497	7725.1071
582.7	7758.06045
582.904	7605.60593
583.107	7891.87845
583.311	7762.17924
583.515	7968.01274
583.718	8023.55251
583.922	7965.95542
584.125	7685.96801
584.329	7910.40019
584.532	8064.68353
584.735	8136.6434
584.939	8124.30917
585.142	8151.03243
585.346	7875.41327
585.549	8151.03243
585.753	8023.55251
585.956	8292.81502
586.159	8103.75052
586.363	8070.85249
586.566	8251.7283
586.769	7922.74709
586.973	7893.9365
587.176	8257.89181
587.379	7970.07003
587.582	8342.10874
587.786	7918.63154
587.989	8202.41382
588.192	7881.58787
588.395	8144.86582
588.599	8148.97691
588.802	8212.68861
589.005	8264.05514
589.208	8292.81502
589.411	8081.13368
589.615	8457.08395
589.818	8385.23154
590.021	8598.6674
590.224	8395.49762
590.427	8333.8939
590.63	8136.6434
590.833	8629.43454
591.036	8420.13423
591.239	8686.85532
591.442	8654.04523
591.645	8846.73721
591.848	8660.19748
592.051	8543.27592
592.254	8356.48396
592.457	8820.09791
592.66	8621.23038
592.863	8840.58995
593.066	8563.79288
593.269	8934.83018
593.472	8772.95936
593.675	8813.94995
593.878	8752.46133
594.081	8902.05526
594.284	8686.85532
594.486	8904.10382
594.689	8729.91139
594.892	8703.25859
595.095	8936.87846
595.298	8981.93617
595.5	8783.20769
595.703	9061.79031
595.906	8826.24571
596.109	8988.07975
596.311	8949.16778
596.514	9047.45947
596.717	9090.44944
596.92	9329.82717
597.122	9256.19706
597.325	9155.94334
597.528	9098.63714
597.73	9303.241
597.933	9045.41214
598.136	9489.28599
598.338	9076.1203
598.541	9301.1958
598.743	9258.24263
598.946	9286.87889
599.148	9313.46678
599.351	9213.23615
599.554	9432.05574
599.756	9378.90199
599.959	9366.63417
600.161	9511.76586
600.363	9432.05574
600.566	9423.87895
600.768	9378.90199
600.971	9605.75177
601.173	9501.54798
601.376	9730.33429
601.578	9399.34704
601.78	9591.45172
601.983	9252.10586
602.185	9485.19853
602.388	9581.23692
602.59	9430.01157
602.792	9524.02679
602.995	9550.59018
603.197	9515.8529
603.399	9752.7939
603.601	9470.89193
603.804	9450.45256
604.006	9566.93555
604.208	9620.05105
604.41	9611.88013
604.613	9415.70191
604.815	9517.8964
605.017	9767.08543
605.219	9450.45256
605.421	9658.85955
605.623	9673.15601
605.826	9875.26881
606.028	9732.37615
606.23	9652.73227
606.432	9603.70895
606.634	9918.12238
606.836	9705.83078
607.038	9905.87916
607.24	9789.54205
607.442	9891.59474
607.644	9628.22173
607.846	10054.80281
608.048	9624.13642
608.25	9832.40872
608.452	9803.83167
608.654	9809.95557
608.856	9928.32465
609.058	10071.11856
609.26	9828.32646
609.462	9946.68783
609.664	9918.12238
609.866	10060.92132
610.067	9899.75735
610.269	10130.2556
610.471	9967.08998
610.673	10232.18856
610.875	10179.18772
611.077	10085.3941
611.278	9940.5669
611.48	10315.74814
611.682	9979.33058
611.884	10111.90399
612.085	9838.53199
612.287	10490.94714
612.489	9973.21034
612.69	10313.71037
612.892	10028.28777
613.094	9997.69049
613.295	9914.04136
613.497	10181.22639
613.699	10044.605
613.9	10042.5654
614.102	10052.76327
614.304	10130.2556
614.505	10340.20034
614.707	10230.15023
614.908	10140.45045
615.11	10093.55124
615.311	10132.2946
615.513	9909.96029
615.714	10022.16857
615.916	10366.68807
616.117	10173.07164
616.319	10285.18019
616.52	10221.99681
616.722	10160.83911
616.923	10497.057
617.124	10464.46973
617.326	9869.14634
617.527	10415.58265
617.729	10122.09947
617.93	10354.46324
618.131	10028.28777
618.333	10266.83796
618.534	10274.9902
618.735	10474.65361
618.937	10126.17756
619.138	10501.13018
619.339	10097.62973
619.54	10419.65686
619.742	10437.99015
619.943	10303.52132
620.144	10378.91242
620.345	10550.00436
620.546	10387.06173
620.748	10356.50074
620.949	10138.41151
621.15	10641.62401
621.351	10175.11035
621.552	10769.84989
621.753	10197.53521
621.954	10391.1363
622.155	10274.9902
622.356	10444.10102
622.558	10490.94714
622.759	10672.15834
622.96	10659.94494
623.161	10385.02442
623.362	10433.91618
623.563	10594.79933
623.764	10440.02712
623.965	10843.10058
624.166	10541.85917
624.366	10747.46468
624.567	10503.16675
624.768	10847.16962
624.969	10391.1363
625.17	10617.19456
625.371	10405.3969
625.572	10550.00436
625.773	10554.07688
625.973	10714.9018
626.174	10511.3129
626.375	10755.60492
626.576	10330.01216
626.777	10643.65972
626.977	10594.79933
627.178	10745.42959
627.379	10446.13795
627.58	10647.7311
627.78	10558.14936
627.981	10600.90727
628.182	10590.72731
628.382	10804.44239
628.583	10672.15834
628.784	10708.79592
628.984	10639.58829
629.185	10690.47762
629.386	10460.39609
629.586	10861.41089
629.787	10810.54659
629.987	11083.09617
630.188	10863.44531
630.388	11095.29521
630.589	10666.05169
630.79	10908.19966
630.99	10682.33584
631.191	10826.82396
631.391	10942.77878
631.591	10912.26796
631.792	10649.76677
631.992	10948.88064
632.193	10816.65069
632.393	10954.9824
632.594	10810.54659
632.794	10836.99694
632.994	11072.93
633.195	11072.93
633.395	10794.26848
633.595	11125.79111
633.796	10796.30328
633.996	10948.88064
634.196	10841.06604
634.397	11249.78324
634.597	10961.08405
634.797	11276.20278
634.997	10975.32085
635.198	11119.69213
635.398	10952.94849
635.598	11144.0875
635.798	10708.79592
635.998	10834.96236
636.199	10989.55711
636.399	11192.87367
636.599	11054.63021
636.799	11215.23197
636.999	10802.40763
637.199	11050.56348
637.399	10965.15177
637.599	11129.85705
637.799	11018.02798
637.999	11392.02214
638.199	11072.93
638.399	11192.87367
638.599	10845.13511
638.799	11109.52693
638.999	11385.92719
639.199	11192.87367
639.399	11131.89001
639.599	11617.47438
639.799	10969.21943
639.999	11274.17057
640.199	10828.85858
640.399	11316.84487
640.599	10920.40443
640.799	11485.46701
640.998	11131.89001
641.198	11257.91251
641.398	11300.58852
641.598	11201.00411
641.798	11286.36368
641.997	11221.32947
642.197	11355.45112
642.397	11436.71572
642.597	11339.19629
642.796	11753.50315
642.996	11477.34218
643.196	11448.90406
643.395	11333.10057
643.595	11469.21719
643.795	11316.84487
643.994	11735.23295
644.194	11314.81286
644.394	11349.35563
644.593	11347.32378
644.793	11777.86234
644.992	11607.32136
645.192	11587.01463
645.392	11854.9916
645.591	11887.46344
645.791	11446.8727
645.99	11625.59663
646.19	11367.64181
646.389	11556.5528
646.589	11560.6145
646.788	11623.56608
646.987	11333.10057
647.187	11710.87156
647.386	11733.20288
647.586	11656.05378
647.785	11721.02229
647.984	11899.63983
648.184	11359.51472
648.383	11688.53918
648.582	11327.00476
648.782	11844.84371
648.981	12021.38761
649.18	11635.74924
649.38	11607.32136
649.579	11887.46344
649.778	11915.87455
649.977	11999.06935
650.177	11611.38259
650.376	11664.17535
650.575	11686.50891
650.774	11798.1607
650.973	11684.47863
651.173	11828.60665
651.372	11844.84371
651.571	11930.0795
651.77	11838.75488
651.969	11944.28406
652.168	12025.44537
652.367	11682.44834
652.566	11690.56944
652.765	11972.69197
652.964	11840.7845
653.163	11988.92436
653.362	11930.0795
653.561	11966.6047
653.76	11891.52227
653.959	11950.3716
654.158	11891.52227
654.357	11834.69561
654.556	11844.84371
654.755	12104.56554
654.954	11928.05025
655.153	12199.9001
655.352	12283.05104
655.551	11956.45907
655.749	12130.93633
655.948	12175.56093
656.147	12088.33672
656.346	12171.5043
656.545	11919.93315
656.743	12096.45119
656.942	11875.28675
657.141	12226.26635
657.34	12084.27944
657.538	12461.48165
657.737	12088.33672
657.936	12514.18988
658.135	12163.39094
658.333	12299.27421
658.532	12331.7192
658.731	12299.27421
658.929	12001.09832
659.128	11938.19644
659.326	12289.13478
659.525	12331.7192
659.724	12299.27421
659.922	12218.15379
660.121	12035.58965
660.319	12212.06929
660.518	11930.0795
660.716	12210.04111
660.915	12151.22069
661.113	12402.68646
661.312	12147.16388
661.51	12082.25078
661.709	12082.25078
661.907	12439.18068
662.105	12224.23822
662.304	12339.83017
662.502	12378.35577
662.701	12201.92832
662.899	12400.65894
663.097	12258.71543
663.296	12132.9648
663.494	12587.16337
663.692	12017.32982
663.891	12274.93928
664.089	12094.42258
664.287	12033.56081
664.485	12025.44537
664.684	12218.15379
664.882	12108.62267
665.08	12337.80244
665.278	12331.7192
665.476	12410.79648
665.675	12392.54879
665.873	12333.74695
666.071	12427.01618
666.269	12599.32484
666.467	12278.99517
666.665	12601.35172
666.863	12187.73065
667.061	12386.46611
667.259	12057.90635
667.457	12272.91133
667.655	12228.29447
667.853	12619.59345
668.051	12672.28899
668.249	12435.12588
668.447	12331.7192
668.645	12319.55254
668.843	12299.27421
669.041	12986.35553
669.239	12242.49112
669.437	12475.67276
669.635	12276.96723
669.833	12364.16242
670.031	12061.96384
670.229	12341.8579
670.426	12137.02172
670.624	12475.67276
670.822	12356.05178
671.02	12366.19006
671.218	12400.65894
671.415	12274.93928
671.613	12418.90638
671.811	12309.41346
672.009	12341.8579
672.206	12493.918
672.404	12317.52474
672.602	12313.46911
672.799	12254.6594
672.997	12378.35577
673.195	12126.87937
673.392	12370.24532
673.59	12224.23822
673.788	12250.60333
673.985	12025.44537
674.183	12208.01292
674.38	12242.49112
674.578	12670.26232
674.775	12295.21846
674.973	12471.61819
675.17	12609.45922
675.368	12560.81277
675.565	12278.99517
675.763	12449.31758
675.96	12372.27295
676.158	12502.02683
676.355	12418.90638
676.553	12747.2719
676.75	12147.16388
676.947	12386.46611
677.145	12495.94521
677.342	12629.72752
677.539	12358.07945
677.737	12611.48607
677.934	12199.9001
678.131	12546.62355
678.329	12199.9001
678.526	12554.73172
678.723	12435.12588
678.92	12797.93156
679.118	12281.02311
679.315	12449.31758
679.512	12406.74148
679.709	12240.46305
679.906	12134.99326
680.104	12475.67276
680.301	12112.67976
680.498	12080.22212
680.695	11988.92436
680.892	12276.96723
681.089	12134.99326
681.286	11968.6338
681.483	12159.33422
681.68	12368.2177
681.877	12354.0241
682.075	12445.26284
682.272	11859.0507
682.469	12599.32484
682.665	12354.0241
682.862	12321.58033
683.059	12457.42698
683.256	12248.57529
683.453	12372.27295
683.65	12283.05104
683.847	12325.6359
684.044	12226.26635
684.241	12414.85144
684.438	12753.35125
684.635	12210.04111
684.831	12475.67276
685.028	12157.30585
685.225	12362.13477
685.422	12183.6741
685.619	12212.06929
685.815	12021.38761
686.012	12179.61753
686.209	11869.19829
686.405	12499.99963
686.602	11962.54647
686.799	12305.35778
686.996	12049.7913
687.192	11940.22565
687.389	11822.51762
687.586	12104.56554
687.782	12258.71543
687.979	12104.56554
688.175	12291.16268
688.372	12266.82741
688.568	12384.43854
688.765	12402.68646
688.962	11923.99172
689.158	12120.79387
689.355	12025.44537
689.551	12329.69144
689.748	12287.10687
689.944	12155.27747
690.14	11708.84139
690.337	12003.12728
690.533	11806.27981
690.73	11865.13928
690.926	12120.79387
691.123	11891.52227
691.319	12025.44537
691.515	11990.95338
691.712	11891.52227
691.908	12037.61848
692.104	11852.96204
692.301	11997.04037
692.497	11842.81411
692.693	11822.51762
692.889	11589.04534
693.086	11688.53918
693.282	11542.33656
693.478	11997.04037
693.674	11999.06935
693.87	11899.63983
694.067	11785.98179
694.263	12088.33672
694.459	11706.81121
694.655	11932.10875
694.851	11877.31622
695.047	12126.87937
695.243	11976.75012
695.439	12076.16478
695.635	11972.69197
695.831	12005.15624
696.027	11838.75488
696.224	12023.4165
696.42	11692.59969
696.615	12029.50311
696.811	11838.75488
697.007	12104.56554
697.203	11611.38259
697.399	11863.10976
697.595	11729.14272
697.791	11757.5631
697.987	11649.96251
698.183	11818.45822
698.379	11656.05378
698.575	11885.43401
698.77	11487.49819
698.966	11905.72791
699.162	11867.16879
699.358	11822.51762
699.554	11714.93188
699.749	11980.80823
699.945	11834.69561
700.141	11733.20288
700.337	11576.86092
700.532	11603.26008
700.728	11475.31095
700.924	11623.56608
701.119	11560.6145
701.315	11448.90406
701.511	11245.71854
701.706	11946.31325
701.902	11452.96677
702.097	11544.36748
702.293	11714.93188
702.489	11589.04534
702.684	11704.78102
702.88	11836.72525
703.075	11658.08419
703.271	11806.27981
703.466	11637.77974
703.662	11670.26643
703.857	11591.07605
704.053	11820.48792
704.248	11712.90173
704.443	11875.28675
704.639	11631.68822
704.834	11727.11263
705.03	11436.71572
705.225	11438.74714
705.42	11398.11699
705.616	11737.263
705.811	11469.21719
706.006	11893.55167
706.202	11536.24375
706.397	11603.26008
706.592	11601.22943
706.787	11672.29677
706.983	11377.80045
707.178	11509.84058
707.373	11493.59169
707.568	11621.53552
707.763	11217.26448
707.959	11574.83015
708.154	11664.17535
708.349	11361.54651
708.544	11647.93207
708.739	11643.87117
708.934	11294.49222
709.129	11302.6206
709.324	11528.11987
709.519	11854.9916
709.714	11353.4193
709.909	11593.10674
710.104	11363.57829
710.299	11517.9648
710.494	11436.71572
710.689	11420.46406
710.884	10916.33622
711.079	11517.9648
711.274	11428.58997
711.469	11611.38259
711.664	11310.74881
711.859	11446.8727
712.054	11436.71572
712.249	11420.46406
712.443	11184.74306
712.638	11373.73703
712.833	11176.61229
713.028	11591.07605
713.223	11070.89673
713.417	11584.9839
713.612	11389.9905
713.807	11595.13743
714.002	11402.18019
714.196	11526.08887
714.391	11172.54684
714.586	11211.16692
714.78	11087.16256
714.975	11517.9648
715.17	11329.03671
715.364	11605.29072
715.559	11739.29305
715.754	11656.05378
715.948	11859.0507
716.143	11465.15465
716.337	11347.32378
716.532	11385.92719
716.726	11379.83215
716.921	11497.65397
717.115	11270.10612
717.31	11367.64181
717.504	11408.2749
717.699	11400.14859
717.893	11119.69213
718.088	11327.00476
718.282	11302.6206
718.476	11268.07387
718.671	11308.71678
718.865	11083.09617
719.059	11257.91251
719.254	11207.10182
719.448	11046.49669
719.642	11140.02171
719.837	11095.29521
720.031	11205.06926
720.225	11198.97151
720.419	10928.54072
720.614	10877.68593
720.808	11144.0875
721.002	10867.51412
721.196	11087.16256
721.39	10893.96024
721.585	10845.13511
721.779	10839.0315
721.973	10895.99448
722.167	10767.81493
722.361	10741.35937
722.555	10804.44239
722.749	10967.18561
722.943	10680.30036
723.137	10769.84989
723.331	10891.92599
723.525	10918.37033
723.719	10623.30209
723.913	10824.78933
724.107	10729.14844
724.301	10979.38841
724.495	10729.14844
724.689	11154.25179
724.883	10845.13511
725.077	10912.26796
725.271	10836.99694
725.465	10763.74497
725.659	10855.30756
725.853	10965.15177
726.046	10739.32425
726.24	10780.02451
726.434	10397.24806
726.628	10932.60879
726.822	10643.65972
727.015	11030.22912
727.209	10615.15869
727.403	10690.47762
727.596	10696.58383
727.79	10830.89319
727.984	10932.60879
728.177	10940.74481
728.371	10440.02712
728.565	10989.55711
728.758	10737.28911
728.952	11026.16212
729.146	10651.80242
729.339	11009.89367
729.533	10535.75015
729.726	10794.26848
729.92	10741.35937
730.113	10761.70998
730.307	10598.87131
730.5	10861.41089
730.694	11066.83017
730.887	10782.05939
731.081	10863.44531
731.274	11146.12038
731.468	10794.26848
731.661	10749.49976
731.854	10855.30756
732.048	10885.82318
732.241	10718.97233
732.435	11040.39644
732.628	10763.74497
732.821	10902.09712
733.014	11046.49669
733.208	11135.95588
733.401	10843.10058
733.594	10879.72026
733.788	10725.07803
733.981	10934.64281
734.174	10938.71082
734.367	10749.49976
734.56	10737.28911
734.754	10928.54072
734.947	10757.63995
735.14	10598.87131
735.333	10631.44529
735.526	10957.01629
735.719	10765.77996
735.912	10625.33791
736.105	10615.15869
736.298	10598.87131
736.491	10472.61686
736.684	10584.61919
736.877	10527.6046
737.07	10629.40951
737.263	10460.39609
737.456	10780.02451
737.649	10582.58312
737.842	10655.8737
738.035	10729.14844
738.228	10651.80242
738.421	10834.96236
738.614	10674.19386
738.807	10492.98377
739	10775.95469
739.192	10765.77996
739.385	10651.80242
739.578	10607.0151
739.771	10887.85746
739.964	10580.54705
740.156	10828.85858
740.349	10586.65524
740.542	10641.62401
740.735	10535.75015
740.927	10444.10102
741.12	10480.76378
741.313	10541.85917
741.505	10478.72706
741.698	10523.53175
741.891	10607.0151
742.083	10513.34941
742.276	10623.30209
742.468	10684.3713
742.661	10753.56988
742.854	10751.53482
743.046	10228.1119
743.239	10456.3224
743.431	10598.87131
743.624	10468.54332
743.816	10440.02712
744.009	10454.28554
744.201	10456.3224
744.393	10501.13018
744.586	10346.31309
744.778	10356.50074
744.971	10238.30344
745.163	10376.87506
745.355	10450.21177
745.548	10462.43292
745.74	10209.76626
745.932	10272.95216
746.125	10492.98377
746.317	10647.7311
746.509	10158.80031
746.702	10688.44219
746.894	10289.25609
747.086	10484.83716
747.278	10539.82284
747.471	10444.10102
747.663	10368.72549
747.855	10562.22178
748.047	10213.84316
748.239	10126.17756
748.431	10081.31545
748.623	10240.34171
748.815	10209.76626
749.008	10197.53521
749.2	10346.31309
749.392	10488.91049
749.584	10144.5283
749.776	10501.13018
749.968	10242.37997
750.16	10537.7865
750.352	10338.16273
750.544	10360.57571
750.736	10281.10423
750.928	10411.50839
751.12	10144.5283
751.311	10230.15023
751.503	10244.41821
751.695	10158.80031
751.887	10285.18019
752.079	10315.74814
752.271	10228.1119
752.463	10382.9871
752.654	9930.36507
752.846	10071.11856
753.038	9850.77813
753.23	9948.72811
753.421	9903.83857
753.613	10150.64496
753.805	10148.60608
753.997	10083.35478
754.188	10048.68417
754.38	10005.85008
754.572	10130.2556
754.763	10058.88183
754.955	9622.09375
755.146	10067.03971
755.338	10056.84233
755.53	9840.57305
755.721	9850.77813
755.913	10054.80281
756.104	9932.40546
756.296	9922.20333
756.487	9791.58347
756.679	10187.3423
756.87	9550.59018
757.062	9854.86006
757.253	9746.66874
757.445	9701.74665
757.636	9930.36507
757.827	9934.44584
758.019	9711.95686
758.21	9720.12476
758.401	9681.32507
758.593	9611.88013
758.784	9703.78872
758.975	9730.33429
759.167	9897.71672
759.358	9801.79034
759.549	10038.48615
759.74	9771.16859
759.932	9773.21014
760.123	9654.77471
760.314	9693.5782
760.505	9801.79034
760.696	9754.8356
760.888	9773.21014
761.079	9677.24057
761.27	9726.25052
761.461	9716.04084
761.652	9415.70191
761.843	9248.0146
762.034	9440.23226
762.225	9352.32097
762.416	9466.80418
762.607	9423.87895
762.798	9497.46071
762.989	9587.36585
763.18	9546.50368
763.371	9301.1958
763.562	9456.58454
763.753	9556.71981
763.944	9470.89193
764.135	9190.72984
764.326	9344.14164
764.517	9274.60661
764.708	9205.05227
764.899	9225.51145
765.089	9378.90199
765.28	9358.4553
765.471	9509.72232
765.662	9063.83751
765.853	9043.36479
766.043	8981.93617
766.234	9106.82456
766.425	8881.56861
766.615	9078.16737
766.806	9198.91419
766.997	9184.5914
767.187	8856.98228
767.378	9153.89692
767.569	8900.00667
767.759	9061.79031
767.95	9147.75756
768.141	9223.46561
768.331	9010.60482
768.522	8994.22316
768.712	8953.26407
768.903	8990.12757
769.093	9006.50951
769.284	8957.3603
769.474	8881.56861
769.665	8963.50451
769.855	8885.66609
770.046	9125.24526
770.236	8983.98405
770.426	8881.56861
770.617	8877.47107
770.807	9029.03286
770.998	8824.19647
771.188	8926.63688
771.378	8631.48554
771.569	8815.99929
771.759	8662.2482
771.949	8537.12046
772.139	8645.84197
772.33	8596.61611
772.52	8547.37946
772.71	8818.04861
772.9	8477.6089
773.09	8571.99914
773.281	8377.01833
773.471	8516.60103
773.661	8645.84197
773.851	8678.65324
774.041	8633.53651
774.231	8514.54899
774.421	8393.44444
774.611	8502.23631
774.802	8374.96498
774.992	8682.75432
775.182	8588.41076
775.372	8756.56108
775.562	8327.73256
775.752	8576.10216
775.942	8151.03243
776.131	8358.53748
776.321	8037.94929
776.511	8465.29416
776.701	8081.13368
776.891	8173.64178
777.081	8395.49762
777.271	8134.58775
777.461	8557.63799
777.651	8580.2051
777.84	8259.94627
778.03	8142.81025
778.22	8358.53748
778.41	8416.02832
778.599	7906.28439
778.789	8354.43041
778.979	8313.35543
779.169	8087.30215
779.358	8136.6434
779.548	8218.85325
779.738	8227.07248
779.927	8062.62717
780.117	7955.66854
780.307	7900.11054
780.496	7815.7159
780.686	7998.87
780.875	7910.40019
781.065	8056.45798
781.254	8025.60925
781.444	8095.5265
781.633	7840.42038
781.823	8066.73987
782.012	7922.74709
782.202	8114.0301
782.391	7758.06045
782.581	8105.80648
782.77	7801.30357
782.96	8116.08595
783.149	7568.50483
783.338	7972.1273
783.528	7906.28439
783.717	8040.00589
783.906	7716.86792
784.096	7821.8923
784.285	7828.06852
784.474	7718.92775
784.663	7688.02815
784.853	7640.63952
785.042	7589.1174
785.231	7395.27426
785.42	7646.82128
785.61	7760.11985
785.799	7574.68882
785.988	7626.21467
786.177	7263.18613
786.366	7613.84968
786.555	7727.16684
786.744	7949.49617
786.933	7494.28179
787.122	7815.7159
787.312	7578.81138
787.501	7725.1071
787.69	7560.2592
787.879	7760.11985
788.068	7351.94272
788.257	7420.03082
788.445	7329.24141
788.634	7603.54494
788.823	7306.53744
789.012	7438.5962
789.201	7178.51982
789.39	7314.79373
789.579	7164.06088
789.768	7411.77898
789.957	7097.94897
790.145	7221.89013
790.334	7073.15111
790.523	7230.15004
790.712	7469.53458
790.9	7477.784
791.089	7246.66879
791.278	7304.47331
791.467	7345.75172
791.655	7226.02013
791.844	7168.19212
792.033	7230.15004
792.221	7029.74711
792.41	7331.30527
792.599	6992.53579
792.787	7401.46369
792.976	7087.61692
793.164	7062.81772
793.353	7052.48377
793.541	7106.21421
793.73	7176.45433
793.918	7199.17357
794.107	7031.81419
794.295	7106.21421
794.484	6907.74942
794.672	7190.91234
794.861	7157.86386
795.049	6899.47555
795.238	7035.94828
795.426	7048.35003
795.614	6878.78927
795.803	6874.65174
795.991	6818.78622
796.179	6709.0759
796.368	6752.55371
796.556	6868.44528
796.744	6659.37458
796.932	7011.14236
797.121	6682.156
797.309	6924.29609
797.497	6733.9216
797.685	7114.47909
797.874	6949.11337
798.062	6953.24927
798.25	6833.27147
798.438	6926.36432
798.626	6617.9467
798.814	6593.08554
799.002	6769.11403
799.19	6762.90408
799.378	6613.8034
799.566	6663.51686
799.755	6700.79327
799.943	6727.71048
800.131	6646.94718
800.318	6696.65181
800.506	6412.74246
800.694	6477.02277
800.882	6644.87587
801.07	6617.9467
801.258	6746.34321
801.446	6804.29985
801.634	6433.48049
801.822	6733.9216
802.01	6555.78757
802.197	6514.33658
802.385	6230.14721
802.573	6547.49811
802.761	6576.50959
802.949	6742.20277
803.136	6377.48247
803.324	6711.1465
803.512	6510.19098
803.699	6545.42569
803.887	6553.71524
804.075	6775.32377
804.262	6462.50982
804.45	6738.06223
804.638	6464.58317
804.825	6858.10072
805.013	6665.58797
805.201	6717.35817
805.388	6735.99193
805.576	6613.8034
805.763	6518.4821
805.951	6404.4466
806.138	6271.66202
806.326	6653.16099
806.513	6427.25932
806.701	6667.65905
806.888	6611.73172
807.075	6783.60311
807.263	6584.79775
807.45	6884.99539
807.638	6640.73317
807.825	6680.08507
808.012	6325.61729
808.2	6555.78757
808.387	6831.20221
808.574	6899.47555
808.761	6696.65181
808.949	6727.71048
809.136	6588.94169
809.323	6717.35817
809.51	6543.35324
809.698	6659.37458
809.885	6551.64289
810.072	6723.56963
810.259	6429.33307
810.446	6630.37603
810.633	6593.08554
810.82	6758.764
811.008	6907.74942
811.195	6704.93463
811.382	6626.23301
811.569	6922.22783
811.756	6733.9216
811.943	6980.1304
812.13	7048.35003
812.317	6969.79195
812.504	6779.46349
812.691	6738.06223
812.878	6651.08974
813.064	6526.77285
813.251	6767.04407
813.438	6928.43253
813.625	6818.78622
813.812	6733.9216
813.999	6634.51896
814.186	6671.80115
814.372	6557.85987
814.559	6849.82467
814.746	6404.4466
814.933	6402.37257
815.12	6661.44573
815.306	6586.86973
815.493	6638.66179
815.68	7042.14926
815.866	6673.87217
816.053	6851.89371
816.24	6812.57791
816.426	6818.78622
816.613	6868.44528
816.799	6967.7242
816.986	6762.90408
817.173	6735.99193
817.359	6454.21619
817.546	6576.50959
817.732	6593.08554
817.919	6884.99539
818.105	6495.68062
818.292	6588.94169
818.478	6460.43644
818.665	6862.23861
818.851	6750.48357
819.037	6798.09107
819.224	6591.01363
819.41	6663.51686
819.597	6526.77285
819.783	6696.65181
819.969	6611.73172
820.156	6628.30453
820.342	6787.74264
820.528	6584.79775
820.714	6429.33307
820.901	6319.39249
821.087	6246.75426
821.273	6777.39364
821.459	6555.78757
821.646	6646.94718
821.832	6617.9467
822.018	6688.36863
822.204	6358.81268
822.39	6535.06323
822.576	6369.18502
822.762	6418.96411
822.948	6489.46155
823.134	6593.08554
823.32	6300.71683
823.507	6545.42569
823.693	6132.55046
823.879	6252.98152
824.065	6313.16748
824.25	6246.75426
824.436	6155.3969
824.622	6464.58317
824.808	6203.15755
824.994	6207.31006
825.18	6223.91917
825.366	6277.88844
825.552	6288.26533
825.738	6636.59039
825.923	6012.04036
826.109	6501.89948
826.295	6018.27559
826.481	6373.33379
826.667	6128.39626
826.852	6290.34064
827.038	6032.82361
827.224	6024.5106
827.409	5847.76981
827.595	6082.69381
827.781	5997.49069
827.966	6263.35981
828.152	5935.12184
828.338	6194.85224
828.523	5991.25476
828.709	6277.88844
828.894	5908.08876
829.08	5889.37121
829.266	5908.08876
829.451	5978.78226
829.637	5864.4115
829.822	6145.01251
830.008	5978.78226
830.193	6045.29244
830.378	6076.46078
830.564	6140.85859
830.749	5658.36426
830.935	5953.83472
831.12	5793.67388
831.305	6107.62383
831.491	5743.72501
831.676	6007.88343
831.861	5741.64352
832.047	5962.15095
832.232	5541.70988
832.417	5614.62753
832.602	5404.12955
832.788	5810.32048
832.973	5537.54229
833.158	5575.04725
833.343	5587.5472
833.528	5820.72384
833.714	5745.80649
833.899	5860.25122
834.084	5481.27054
834.269	5752.05077
834.454	5633.37312
834.639	5839.4484
834.824	5564.62997
835.009	5639.62122
835.194	5504.19814
835.379	5708.33634
835.564	5550.04479
835.749	5616.71047
835.934	5322.78397
836.119	5595.88004
836.304	5433.32182
836.489	5500.0297
836.674	5312.35247
836.859	5477.10158
837.044	5445.83138
837.228	5372.84701
837.413	5331.12875
837.598	5502.11393
837.783	5510.45063
837.968	5606.29555
838.152	5285.22783
838.337	5485.43941
838.522	5287.31448
838.707	5597.96319
838.891	5197.56738
839.076	5274.79422
839.261	5141.19251
839.445	5587.5472
839.63	5228.87941
839.815	5245.57702
839.999	5199.65501
840.184	5333.21488
840.368	5017.94407
840.553	5495.86116
840.737	5103.59985
840.922	5475.01706
841.106	5164.1621
841.291	5128.66246
841.475	5118.22011
841.66	5038.83931
841.844	5070.17783
842.029	5247.66411
842.213	4953.15416
842.397	5124.48559
842.582	4963.60564
842.766	4978.23675
842.951	5045.10743
843.135	4961.51539
843.319	4905.06994
843.504	4953.15416
843.688	4969.87626
843.872	5095.2449
844.056	5174.60189
844.241	5172.51398
844.425	4890.43321
844.609	5005.40581
844.793	4957.33482
844.977	4892.52424
845.161	4877.88654
845.346	4988.68685
845.53	4620.4996
845.714	5095.2449
845.898	4752.37472
846.082	4992.86673
846.266	4794.22109
846.45	4969.87626
846.634	4771.20671
846.818	4917.61482
847.002	4461.29417
847.186	4660.28086
847.37	4555.57602
847.554	4670.74827
847.738	4633.06298
847.922	4607.93542
848.106	4660.28086
848.29	4660.28086
848.473	4620.4996
848.657	4748.18958
848.841	4545.10247
849.025	4547.19722
849.209	4480.15411
849.392	4660.28086
849.576	4511.58339
849.76	4536.72323
849.944	4318.73959
850.127	4586.99333
850.311	4287.28024
850.495	4239.03318
850.678	4148.80199
850.862	4459.19851
851.046	4293.57249
851.229	4396.31854
851.413	4274.69514
851.596	4410.99229
851.78	4446.62409
851.964	4549.29195
852.147	4304.05916
852.331	4438.24071
852.514	4352.29089
852.698	4278.89026
852.881	4262.10927
853.065	4455.00712
853.248	4335.51593
853.431	4469.67659
853.615	4274.69514
853.798	4232.73926
853.982	4140.40641
854.165	4207.56164
854.348	3957.7202
854.532	4178.18388
854.715	3905.19549
854.898	4291.4751
855.081	3783.29003
855.265	4192.87328
855.448	3842.14928
855.631	4008.13197
855.814	3905.19549
855.997	4222.24895
856.181	3932.50991
856.364	4167.69082
856.547	4054.33239
856.73	4041.73327
856.913	3997.63049
857.096	4102.62213
857.279	3871.57308
857.462	3806.41515
857.645	3638.17895
857.828	4008.13197
858.011	3728.62127
858.194	3800.10853
858.377	3442.45271
858.56	3764.36772
858.743	3615.03689
858.926	3825.33393
859.109	3703.38511
859.292	4010.23221
859.475	3724.41543
859.658	3768.57281
859.841	3537.17883
860.023	3663.42221
860.206	3476.13731
860.389	3528.76023
860.572	3448.76892
860.755	3625.55629
860.937	3480.34756
861.12	3724.41543
861.303	3604.51702
861.486	3680.24954
861.668	3627.66011
861.851	3655.0081
862.034	3480.34756
862.216	3720.20952
862.399	3612.93296
862.581	3526.65553
862.764	3185.4605
862.947	3459.29559
863.129	3354.00895
863.312	3431.92533
863.494	3187.56801
863.677	3425.60869
863.859	3073.73898
864.042	3459.29559
864.224	3273.96193
864.406	3299.24261
864.589	3284.49584
864.771	3457.19029
864.954	3345.58412
865.136	3412.97492
865.318	3217.07152
865.501	3360.32739
865.683	3118.01137
865.865	3139.091
866.048	3023.1335
866.23	3206.53492
866.412	3191.783
866.594	3151.73801
866.777	3096.93015
866.959	3231.82206
867.141	2966.1918
867.323	3105.36283
867.505	3139.091
867.687	3267.64138
867.869	2888.14295
868.052	3122.22743
868.234	3046.32879
868.416	2915.5678
868.598	2995.7185
868.78	3206.53492
868.962	3096.93015
869.144	3145.41458
869.326	3008.3719
869.508	3067.41378
869.69	2949.31808
869.872	3021.02475
870.054	2894.47198
870.236	2892.36231
870.417	2814.29482
870.599	3160.16902
870.781	2951.42734
870.963	3075.84735
871.145	2812.18462
871.327	3122.22743
871.508	2822.73548
871.69	2987.2826
871.872	2717.21163
872.054	3067.41378
872.235	2763.64628
872.417	2999.93636
872.599	2685.548
872.78	2961.97346
872.962	2803.74369
873.144	2921.89626
873.325	2700.32472
873.507	2911.34875
873.689	2888.14295
873.87	3014.69839
874.052	2636.99152
874.233	2951.42734
874.415	2803.74369
874.596	3023.1335
874.778	2805.85395
874.959	3004.15416
875.141	2837.50609
875.322	2955.64583
875.503	2810.07441
875.685	3037.89435
875.866	2750.98292
876.048	2795.30254
876.229	2582.09366
876.41	2784.75079
876.592	2666.54844
876.773	3018.91598
876.954	2786.86117
877.136	2835.39605
877.317	2801.63342
877.498	3006.26304
877.679	2643.32535
877.86	3067.41378
878.042	2630.65757
878.223	2907.12964
878.404	2812.18462
878.585	2915.5678
878.766	2856.49587
878.947	3082.17235
879.128	2894.47198
879.309	2957.75506
879.49	2890.25264
879.672	2989.3916
879.853	2729.87626
880.034	2997.82744
880.215	2696.10287
880.396	2879.70404
880.576	2784.75079
880.757	2991.50058
880.938	2791.08188
881.119	2921.89626
881.3	2894.47198
881.481	2949.31808
881.662	2757.31466
881.843	3025.24224
882.023	2797.41285
882.204	2945.0995
882.385	2624.32352
882.566	3044.2202
882.747	2755.20409
882.927	2845.94613
883.108	2617.98935
883.289	2873.37471
883.469	2480.72272
883.65	2708.76828
883.831	2544.08269
884.011	2810.07441
884.192	2831.17591
884.373	2999.93636
884.553	2869.15508
884.734	3092.71372
884.914	2750.98292
885.095	3223.39328
885.275	2896.58162
885.456	2795.30254
885.636	2896.58162
885.817	2892.36231
885.997	2860.71566
886.178	2879.70404
886.358	2860.71566
886.538	2949.31808
886.719	2881.81379
886.899	2961.97346
887.08	2919.78679
887.26	3044.2202
887.44	2995.7185
887.621	3259.21374
887.801	2786.86117
887.981	3223.39328
888.161	2793.19222
888.342	2810.07441
888.522	2911.34875
888.702	2820.62534
888.882	2750.98292
889.062	2835.39605
889.242	2634.88022
889.423	2788.97153
889.603	2607.43216
889.783	2932.44341
889.963	2645.4366
890.143	2951.42734
890.323	2514.51598
890.503	2928.22459
890.683	2708.76828
890.863	2974.6283
891.043	2875.4845
891.223	2972.5192
891.403	2573.64711
891.583	3042.1116
891.763	2717.21163
891.943	3075.84735
892.122	2795.30254
892.302	3029.45967
892.482	2658.10385
892.662	2757.31466
892.842	2696.10287
893.022	2801.63342
893.201	2601.0977
893.381	2757.31466
893.561	2588.42845
893.741	2843.83614
893.92	2913.45828
894.1	2835.39605
894.28	2643.32535
894.459	2860.71566
894.639	2598.98619
894.819	2951.42734
894.998	2696.10287
895.178	2736.2084
895.357	2531.41152
895.537	2793.19222
895.716	2565.20037
895.896	2742.54041
896.075	2472.27396
896.255	2573.64711
896.434	2609.54362
896.614	2738.31908
896.793	2303.26319
896.973	2535.63529
897.152	2396.22728
897.331	2552.52991
897.511	2525.07578
897.69	2801.63342
897.87	2468.04951
898.049	2425.80264
898.228	2370.87536
898.407	2387.77681
898.587	2277.90607
898.766	2634.88022
898.945	2400.45246
899.124	2379.32616
899.304	2290.5848
899.483	2535.63529
899.662	2265.22702
899.841	2617.98935
900.02	2227.18788
900.199	2438.47715
900.378	2294.81097
900.557	2362.42439
900.737	2066.54829
900.916	2174.35106
901.095	2125.73662
901.274	2311.71525
901.453	2123.62285
901.632	2332.84475
901.811	2083.45983
901.989	2184.91885
902.168	1848.77522
902.347	2102.48476
902.526	1728.23648
902.705	1931.24037
902.884	1901.63843
903.063	2077.11806
903.242	1825.51444
903.42	2180.69176
903.599	1800.13841
903.778	2003.126
903.957	1791.6796
904.135	1880.49353
904.314	1711.31777
904.493	1823.3998
904.672	1747.26977
904.85	1804.3678
905.029	1802.25311
905.207	1992.55503
905.386	1859.34812
905.565	1975.64116
905.743	1654.21567
905.922	1753.61414
906.1	1339.07749
906.279	1652.10074
906.457	1544.23649
906.636	1552.69659
906.814	1491.36052
906.993	1474.44013
907.171	1468.09497
907.35	1573.84674
907.528	1360.22769
907.707	1677.47974
907.885	1305.23751
908.063	1590.76675
908.242	1385.60808
908.42	1529.43128
908.598	1440.5993
908.777	1425.79394
908.955	1339.07749
909.133	1489.24548
909.311	1288.3177
909.49	1347.53755
909.668	1188.91714
909.846	1408.87355
910.024	1303.12252
910.202	1415.21869
910.38	1161.42464
910.559	1444.8294
910.737	1322.15744
910.915	1364.45774
911.093	1294.66261
911.271	1410.9886
911.449	1298.89256
911.627	1330.61746
911.805	1087.4099
911.983	1375.0329
912.161	1292.54764
912.339	1487.13043
912.517	1474.44013
912.695	1442.71435
912.872	1362.34271
913.05	1355.99764
913.228	1360.22769
913.406	1360.22769
913.584	1379.26297
913.762	1660.56045
913.939	1396.18328
914.117	1614.03157
914.295	1349.65257
914.473	1609.80162
914.65	1377.14793
914.828	1415.21869
915.006	1258.70837
915.184	1364.45774
915.361	1375.0329
915.539	1398.29832
915.716	1290.43267
915.894	1597.11172
916.072	1290.43267
916.249	1339.07749
916.427	1165.65421
916.604	1400.41337
916.782	1148.73602
916.959	1292.54764
917.137	1195.26165
917.314	1290.43267
917.492	1284.08777
917.669	1320.04245
917.847	1081.06605
918.024	1284.08777
918.201	1138.16228
918.379	1339.07749
918.556	1131.81809
918.733	1131.81809
918.911	964.77122
919.088	1178.34303
919.265	1121.24452
919.442	1256.59344
919.62	1119.12982
919.797	1334.84747
919.974	1114.90044
920.151	1023.97359
920.328	954.19992
920.506	1068.37849
920.683	968.99979
920.86	1081.06605
921.037	869.63621
921.214	1026.08805
921.391	928.82952
921.568	1159.30986
921.745	909.80243
921.922	1051.46204
922.099	971.11408
922.276	983.8
922.453	985.91434
922.63	1030.31699
922.807	835.81437
922.984	1072.60766
923.161	933.05785
923.338	916.14472
923.514	958.42842
923.691	933.05785
923.868	859.06665
924.045	918.25884
924.222	774.5182
924.399	895.00401
924.575	738.58978
924.752	960.54268
924.929	730.13647
925.105	983.8
925.282	916.14472
925.459	933.05785
925.635	799.88117
925.812	941.51459
925.989	738.58978
926.165	875.97805
926.342	776.63172
926.518	831.58679
926.695	668.85521
926.871	825.2455
927.048	630.82344
927.224	747.04326
927.401	613.9217
927.577	734.3631
927.754	654.06461
927.93	799.88117
928.107	692.09872
928.283	757.61034
928.459	704.77757
928.636	816.79058
928.812	571.67092
928.988	613.9217
929.165	628.71068
929.341	761.83724
929.517	626.59793
929.693	757.61034
929.87	654.06461
930.046	645.61311
930.222	548.43524
930.398	685.75944
930.574	514.64087
930.751	599.13334
930.927	527.31334
931.103	603.35852
931.279	523.08913
931.455	628.71068
931.631	537.87412
931.807	539.98631
931.983	451.28643
932.159	501.96892
932.335	516.75291
932.511	599.13334
932.687	402.72406
932.863	537.87412
933.039	394.2793
933.215	425.9485
933.391	303.51529
933.566	425.9485
933.742	396.39047
933.918	400.61285
934.094	311.95708
934.27	409.05781
934.445	284.52232
934.621	358.39204
934.797	278.19166
934.973	387.9459
935.148	307.73615
935.324	303.51529
935.5	303.51529
935.675	276.08147
935.851	326.73092
936.027	265.53084
936.202	244.431
936.378	238.10143
936.553	305.62571
936.729	252.87071
936.904	191.68993
937.08	191.68993
937.255	130.52622
937.431	217.0041
937.606	181.14322
937.782	147.39721
937.957	109.43943
938.133	105.22233
938.308	138.96154
938.483	162.16043
938.659	145.28826
938.834	134.74384
939.009	101.00532
939.185	149.50617
939.36	107.33087
939.535	109.43943
939.71	98.89685
939.886	105.22233
940.061	107.33087
940.236	20.89932
940.411	77.81336
940.586	124.19996
940.761	58.84015
940.937	119.98255
941.112	73.59693
941.287	94.67998
941.462	39.86879
941.637	60.94819
941.812	39.86879
941.987	94.67998
942.162	50.4082
942.337	96.7884
942.512	-4.39031
942.687	29.32996
942.862	4.03918
943.037	65.16435
943.212	92.57157
943.386	82.02988
943.561	50.4082
943.736	130.52622
943.911	88.35483
944.086	67.27246
944.26	37.76098
944.435	63.05626
944.61	107.33087
944.785	79.92161
944.959	105.22233
945.134	107.33087
945.309	84.13817
945.483	29.32996
945.658	69.38059
945.833	105.22233
946.007	37.76098
946.182	37.76098
946.357	54.62413
946.531	33.54542
946.706	48.30027
946.88	132.63502
947.055	96.7884
947.229	69.38059
947.404	84.13817
947.578	73.59693
947.752	107.33087
947.927	138.96154
948.101	44.08449
948.276	107.33087
948.45	58.84015
948.624	96.7884
948.799	77.81336
948.973	92.57157
949.147	63.05626
949.321	-35.99745
949.496	46.19237
949.67	69.38059
949.844	96.7884
950.018	84.13817
950.193	98.89685
950.367	82.02988
950.541	105.22233
950.715	60.94819
950.889	90.46319
951.063	82.02988
951.237	54.62413
951.411	88.35483
951.585	96.7884
951.759	124.19996
951.933	128.41744
952.107	69.38059
952.281	46.19237
952.455	73.59693
952.629	141.07043
952.803	92.57157
952.977	113.65661
953.151	147.39721
953.325	119.98255
953.499	75.70514
953.672	92.57157
953.846	41.97663
954.02	94.67998
954.194	98.89685
954.368	-10.71218
954.541	75.70514
954.715	122.09124
954.889	105.22233
955.062	77.81336
955.236	84.13817
955.41	77.81336
955.583	67.27246
955.757	84.13817
955.93	117.87389
956.104	33.54542
956.278	65.16435
956.451	67.27246
956.625	35.65319
956.798	20.89932
956.972	37.76098
957.145	126.30869
957.319	107.33087
957.492	115.76524
957.665	67.27246
957.839	88.35483
958.012	56.73213
958.185	-21.24814
958.359	77.81336
958.532	92.57157
958.705	29.32996
958.879	149.50617
959.052	63.05626
959.225	46.19237
959.398	143.17933
959.572	96.7884
959.745	149.50617
959.918	122.09124
960.091	185.36184
960.264	90.46319
960.438	35.65319
960.611	113.65661
960.784	143.17933
960.957	113.65661
961.13	105.22233
961.303	94.67998
961.476	90.46319
961.649	84.13817
961.822	50.4082
961.995	54.62413
962.168	96.7884
962.341	46.19237
962.514	39.86879
962.686	46.19237
962.859	50.4082
963.032	103.11382
963.205	50.4082
963.378	151.61516
963.551	157.94226
963.723	84.13817
963.896	14.57659
964.069	128.41744
964.242	160.05133
964.414	113.65661
964.587	75.70514
964.76	60.94819
964.932	117.87389
965.105	-29.67646
965.278	101.00532
965.45	-14.92664
965.623	138.96154
965.795	115.76524
965.968	50.4082
966.14	124.19996
966.313	8.25407
966.485	12.46906
966.658	12.46906
966.83	96.7884
967.003	113.65661
967.175	73.59693
967.348	63.05626
967.52	107.33087
967.692	130.52622
967.865	50.4082
968.037	96.7884
968.209	48.30027
968.382	39.86879
968.554	4.03918
968.726	14.57659
968.898	65.16435
969.071	113.65661
969.243	48.30027
969.415	71.48875
969.587	44.08449
969.759	-12.81942
969.932	63.05626
970.104	56.73213
970.276	79.92161
970.448	63.05626
970.62	75.70514
970.792	37.76098
970.964	54.62413
971.136	25.11459
971.308	92.57157
971.48	75.70514
971.652	37.76098
971.824	54.62413
971.996	41.97663
972.168	46.19237
972.339	63.05626
972.511	37.76098
972.683	56.73213
972.855	56.73213
973.027	8.25407
973.199	71.48875
973.37	4.03918
973.542	58.84015
973.714	37.76098
973.886	79.92161
974.057	1.93177
974.229	46.19237
974.401	41.97663
974.572	33.54542
974.744	58.84015
974.915	69.38059
975.087	46.19237
975.259	39.86879
975.43	71.48875
975.602	37.76098
975.773	122.09124
975.945	105.22233
976.116	113.65661
976.288	8.25407
976.459	54.62413
976.63	46.19237
976.802	23.00695
976.973	-10.71218
977.145	84.13817
977.316	37.76098
977.487	-46.53192
977.659	58.84015
977.83	90.46319
978.001	86.24649
978.172	12.46906
978.344	67.27246
978.515	31.43768
978.686	65.16435
978.857	124.19996
979.028	84.13817
979.2	92.57157
979.371	71.48875
979.542	54.62413
979.713	58.84015
979.884	48.30027
980.055	4.03918
980.226	54.62413
980.397	-23.35526
980.568	25.11459
980.739	27.22227
980.91	46.19237
981.081	41.97663
981.252	29.32996
981.423	-2.28298
981.594	92.57157
981.765	67.27246
981.936	105.22233
982.106	71.48875
982.277	31.43768
982.448	-12.81942
982.619	46.19237
982.79	-0.17561
982.96	37.76098
983.131	-10.71218
983.302	25.11459
983.472	75.70514
983.643	20.89932
983.814	8.25407
983.984	12.46906
984.155	-38.10439
984.326	23.00695
984.496	12.46906
984.667	63.05626
984.837	75.70514
985.008	33.54542
985.178	-31.78348
985.349	12.46906
985.519	16.68414
985.69	25.11459
985.86	4.03918
986.031	50.4082
986.201	20.89932
986.371	71.48875
986.542	84.13817
986.712	103.11382
986.882	4.03918
987.053	71.48875
987.223	4.03918
987.393	92.57157
987.563	58.84015
987.734	14.57659
987.904	-35.99745
988.074	-12.81942
988.244	-10.71218
988.414	-50.74553
988.585	84.13817
988.755	79.92161
988.925	37.76098
989.095	82.02988
989.265	37.76098
989.435	37.76098
989.605	-8.60492
989.775	79.92161
989.945	20.89932
990.115	52.51615
990.285	4.03918
990.455	46.19237
990.625	-6.49763
990.795	65.16435
990.965	77.81336
991.134	-4.39031
991.304	46.19237
991.474	4.03918
991.644	39.86879
991.814	14.57659
991.984	111.54801
992.153	-38.10439
992.323	54.62413
992.493	16.68414
992.662	75.70514
992.832	-4.39031
993.002	31.43768
993.171	39.86879
993.341	20.89932
993.511	33.54542
993.68	37.76098
993.85	-21.24814
994.019	37.76098
994.189	31.43768
994.358	84.13817
994.528	138.96154
994.697	-2.28298
994.867	25.11459
995.036	-21.24814
995.206	50.4082
995.375	98.89685
995.544	37.76098
995.714	48.30027
995.883	-50.74553
996.052	-21.24814
996.222	12.46906
996.391	-4.39031
996.56	48.30027
996.73	-29.67646
996.899	31.43768
997.068	-2.28298
997.237	82.02988
997.406	8.25407
997.576	41.97663
997.745	33.54542
997.914	-6.49763
998.083	-4.39031
998.252	27.22227
998.421	-21.24814
998.59	50.4082
998.759	-19.141
998.928	14.57659
999.097	29.32996
999.266	-4.39031
999.435	-17.03383
999.604	12.46906
999.773	31.43768
999.942	10.36155
1000.111	-50.74553
1000.28	48.30027
1000.448	-2.28298
1000.617	63.05626
1000.786	20.89932
1000.955	4.03918
1001.124	29.32996
1001.292	12.46906
1001.461	27.22227
1001.63	12.46906
1001.798	12.46906
1001.967	-10.71218
1002.136	46.19237
1002.304	79.92161
1002.473	-19.141
1002.642	56.73213
1002.81	33.54542
1002.979	-12.81942
1003.147	4.03918
1003.316	1.93177
1003.484	29.32996
1003.653	-50.74553
1003.821	12.46906
1003.99	29.32996
1004.158	4.03918
1004.327	-2.28298
1004.495	-69.70555
1004.663	-29.67646
1004.832	-10.71218
1005	-14.92664
1005.168	48.30027
1005.337	58.84015
1005.505	10.36155
1005.673	-14.92664
1005.842	23.00695
1006.01	63.05626
1006.178	29.32996
1006.346	-17.03383
1006.514	107.33087
1006.683	-14.92664
1006.851	54.62413
1007.019	71.48875
1007.187	37.76098
1007.355	16.68414
1007.523	37.76098
1007.691	12.46906
1007.859	-21.24814
1008.027	-88.66349
1008.195	-21.24814
1008.363	-8.60492
1008.531	12.46906
1008.699	63.05626
1008.867	1.93177
1009.035	50.4082
1009.203	-4.39031
1009.37	65.16435
1009.538	4.03918
1009.706	37.76098
1009.874	-50.74553
1010.042	1.93177
1010.209	-73.91861
1010.377	46.19237
1010.545	65.16435
1010.713	39.86879
1010.88	16.68414
1011.048	-42.31821
1011.216	33.54542
1011.383	37.76098
1011.551	-63.38577
1011.718	-19.141
1011.886	31.43768
1012.054	-21.24814
1012.221	-21.24814
1012.389	20.89932
1012.556	12.46906
1012.724	-21.24814
1012.891	4.03918
1013.058	73.59693
1013.226	8.25407
1013.393	-21.24814
1013.561	-21.24814
1013.728	16.68414
1013.895	-6.49763
1014.063	-40.21131
1014.23	-8.60492
1014.397	12.46906
1014.565	46.19237
1014.732	-8.60492
1014.899	12.46906
1015.066	-10.71218
1015.233	-44.42508
1015.401	12.46906
1015.568	-27.56942
1015.735	-2.28298
1015.902	-17.03383
1016.069	29.32996
1016.236	-0.17561
1016.403	16.68414
1016.57	46.19237
1016.737	20.89932
1016.904	56.73213
1017.071	-23.35526
1017.238	41.97663
1017.405	79.92161
1017.572	54.62413
1017.739	-65.49239
1017.906	-0.17561
1018.073	16.68414
1018.24	-25.46235
1018.407	-52.8523
1018.573	12.46906
1018.74	27.22227
1018.907	12.46906
1019.074	4.03918
1019.241	-42.31821
1019.407	37.76098
1019.574	-6.49763
1019.741	33.54542
1019.907	-46.53192
1020.074	48.30027
1020.241	4.03918
1020.407	33.54542
1020.574	20.89932
1020.74	37.76098
1020.907	8.25407
1021.073	-19.141
1021.24	73.59693
1021.406	-40.21131
1021.573	46.19237
1021.739	33.54542
1021.906	-54.95905
1022.072	-17.03383
1022.239	14.57659
1022.405	44.08449
1022.571	-25.46235
1022.738	-23.35526
1022.904	-33.89048
1023.07	31.43768
1023.237	-29.67646
1023.403	-10.71218
1023.569	23.00695
1023.735	-19.141
1023.902	-80.238
1024.068	-4.39031
1024.234	-0.17561
1024.4	67.27246
1024.566	39.86879
1024.732	25.11459
1024.898	-29.67646
1025.065	25.11459
1025.231	31.43768
1025.397	-4.39031
1025.563	-84.4508
1025.729	-14.92664
1025.895	37.76098
1026.061	113.65661
1026.227	-38.10439
1026.392	39.86879
1026.558	-21.24814
1026.724	12.46906
1026.89	-10.71218
1027.056	29.32996
1027.222	-44.42508
1027.388	-54.95905
1027.553	90.46319
1027.719	-10.71218
1027.885	-27.56942
1028.051	-12.81942
1028.216	18.79172
1028.382	-17.03383
1028.548	54.62413
1028.713	37.76098
1028.879	-19.141
1029.045	-12.81942
1029.21	4.03918
1029.376	23.00695
1029.541	20.89932
1029.707	67.27246
1029.873	-4.39031
1030.038	8.25407
1030.204	6.14661
1030.369	-21.24814
1030.534	12.46906
1030.7	-4.39031
1030.865	6.14661
1031.031	25.11459
1031.196	-14.92664
1031.361	-8.60492
1031.527	63.05626
1031.692	-23.35526
1031.857	4.03918
1032.023	6.14661
1032.188	-0.17561
1032.353	25.11459
1032.518	20.89932
1032.684	-0.17561
1032.849	-12.81942
1033.014	-80.238
1033.179	4.03918
1033.344	-42.31821
1033.509	65.16435
1033.674	-33.89048
1033.839	-10.71218
1034.004	-17.03383
1034.17	-12.81942
1034.335	16.68414
1034.5	8.25407
1034.664	12.46906
1034.829	46.19237
1034.994	-14.92664
1035.159	20.89932
1035.324	-2.28298
1035.489	-33.89048
1035.654	20.89932
1035.819	12.46906
1035.984	6.14661
1036.148	-12.81942
1036.313	20.89932
1036.478	56.73213
1036.643	-44.42508
1036.807	-42.31821
1036.972	-23.35526
1037.137	20.89932
1037.301	20.89932
1037.466	58.84015
1037.631	46.19237
1037.795	50.4082
1037.96	39.86879
1038.124	39.86879
1038.289	4.03918
1038.454	-80.238
1038.618	-0.17561
1038.783	-4.39031
1038.947	-71.81209
1039.111	-10.71218
1039.276	12.46906
1039.44	58.84015
1039.605	16.68414
1039.769	-40.21131
1039.933	37.76098
1040.098	37.76098
1040.262	-27.56942
1040.426	12.46906
1040.591	33.54542
1040.755	48.30027
1040.919	8.25407
1041.083	16.68414
1041.248	29.32996
1041.412	-21.24814
1041.576	58.84015
1041.74	-12.81942
1041.904	-29.67646
1042.068	16.68414
1042.232	44.08449
1042.397	-8.60492
1042.561	35.65319
1042.725	-19.141
1042.889	71.48875
1043.053	-14.92664
1043.217	56.73213
1043.381	-42.31821
1043.544	92.57157
1043.708	-25.46235
1043.872	-38.10439
1044.036	-8.60492
1044.2	8.25407
1044.364	-21.24814
1044.528	16.68414
1044.691	-54.95905
1044.855	48.30027
1045.019	-52.8523
1045.183	-29.67646
1045.346	-25.46235
1045.51	-21.24814
1045.674	-88.66349
1045.837	88.35483
1046.001	-59.17246
1046.165	10.36155
1046.328	-69.70555
1046.492	-12.81942
1046.655	18.79172
1046.819	6.14661
1046.983	14.57659
1047.146	-14.92664
1047.31	6.14661
1047.473	-44.42508
1047.636	16.68414
1047.8	-12.81942
1047.963	-31.78348
1048.127	18.79172
1048.29	71.48875
