Data from mixed_try6.1_USB4F045381__17__00301.txt Node

Date: Thu Apr 03 20:32:37 EDT 2025
User: mmckonesweet
Spectrometer: USB4F04538
Trigger mode: 4
Integration Time (sec): 2.700000E-3
Scans to average: 1
Electric dark correction enabled: true
Nonlinearity correction enabled: true
Boxcar width: 0
XAxis mode: Wavelengths
Number of Pixels in Spectrum: 3648
>>>>>Begin Spectral Data<<<<<
345.52	12.64469
345.736	12.64469
345.952	12.64469
346.168	-63.21022
346.384	-37.92881
346.6	-80.06246
346.816	-12.64382
347.032	12.64469
347.248	16.85977
347.464	-10.53658
347.68	12.64469
347.896	4.2148
348.112	42.15228
348.328	-65.31684
348.544	-6.32202
348.76	14.75222
348.975	71.66443
349.191	0
349.407	8.4297
349.623	-58.9969
349.839	-33.71489
350.055	-42.14263
350.27	-37.92881
350.486	-8.42931
350.702	25.29023
350.918	61.12386
351.133	-75.84956
351.349	63.23193
351.565	25.29023
351.781	-27.39383
351.996	-14.75104
352.212	-67.42343
352.428	-46.35635
352.644	-50.56997
352.859	16.85977
353.075	-48.46317
353.291	-27.39383
353.506	33.72107
353.722	-82.16888
353.938	-48.46317
354.153	12.64469
354.369	-84.27527
354.584	-63.21022
354.8	-14.75104
355.016	-109.5499
355.231	-99.01926
355.447	-35.82187
355.662	-44.2495
355.878	14.75222
356.093	42.15228
356.309	-50.56997
356.524	-33.71489
356.74	-54.78349
356.955	80.0973
357.171	-46.35635
357.386	-8.42931
357.602	-31.6079
357.817	16.85977
358.033	-31.6079
358.248	-75.84956
358.464	-23.17966
358.679	-63.21022
358.895	-12.64382
359.11	-48.46317
359.325	6.32224
359.541	-33.71489
359.756	-42.14263
359.972	-12.64382
360.187	-12.64382
360.402	23.18258
360.618	-50.56997
360.833	-6.32202
361.048	-25.28676
361.264	-69.53
361.479	-33.71489
361.694	-29.50088
361.909	-50.56997
362.125	-46.35635
362.34	-14.75104
362.555	12.64469
362.77	-16.85823
362.986	-46.35635
363.201	-25.28676
363.416	8.4297
363.631	-31.6079
363.847	-56.89021
364.062	-8.42931
364.277	-8.42931
364.492	23.18258
364.707	-94.80682
364.922	-8.42931
365.138	-16.85823
365.353	-23.17966
365.568	8.4297
365.783	-25.28676
365.998	-52.67674
366.213	-6.32202
366.428	-8.42931
366.643	8.4297
366.858	-29.50088
367.073	-6.32202
367.288	-75.84956
367.503	0
367.718	-4.2147
367.933	-65.31684
368.148	2.10739
368.363	-27.39383
368.578	-50.56997
368.793	4.2148
369.008	-23.17966
369.223	-14.75104
369.438	-73.74306
369.653	-50.56997
369.868	-56.89021
370.083	-37.92881
370.298	-16.85823
370.513	-23.17966
370.728	-31.6079
370.943	-42.14263
371.157	-18.9654
371.372	-37.92881
371.587	18.96735
371.802	2.10739
372.017	16.85977
372.232	-14.75104
372.446	-25.28676
372.661	16.85977
372.876	-8.42931
373.091	2.10739
373.306	-8.42931
373.52	-113.76198
373.735	-33.71489
373.95	-48.46317
374.165	-88.48797
374.379	-16.85823
374.594	-109.5499
374.809	-54.78349
375.023	-58.9969
375.238	-2.10736
375.453	-52.67674
375.667	-23.17966
375.882	-42.14263
376.097	69.55627
376.311	-37.92881
376.526	33.72107
376.741	0
376.955	35.82884
377.17	33.72107
377.384	-14.75104
377.599	-50.56997
377.813	-31.6079
378.028	50.58386
378.242	-21.07254
378.457	-63.21022
378.672	4.2148
378.886	-42.14263
379.101	-21.07254
379.315	-54.78349
379.53	29.5056
379.744	-67.42343
379.958	-16.85823
380.173	-63.21022
380.387	-25.28676
380.602	-33.71489
380.816	10.53718
381.031	-23.17966
381.245	-33.71489
381.459	-12.64382
381.674	-8.42931
381.888	16.85977
382.103	25.29023
382.317	-29.50088
382.531	-31.6079
382.746	-8.42931
382.96	-16.85823
383.174	-75.84956
383.388	-90.59428
383.603	-25.28676
383.817	2.10739
384.031	-23.17966
384.246	-16.85823
384.46	-40.03573
384.674	42.15228
384.888	-23.17966
385.103	50.58386
385.317	-8.42931
385.531	-14.75104
385.745	50.58386
385.959	16.85977
386.174	-71.63655
386.388	16.85977
386.602	23.18258
386.816	-2.10736
387.03	-75.84956
387.244	-14.75104
387.458	-109.5499
387.672	-25.28676
387.887	-46.35635
388.101	29.5056
388.315	-16.85823
388.529	-58.9969
388.743	16.85977
388.957	-6.32202
389.171	-101.12544
389.385	-58.9969
389.599	-42.14263
389.813	-8.42931
390.027	21.07496
390.241	-63.21022
390.455	-6.32202
390.669	-56.89021
390.883	-63.21022
391.097	-23.17966
391.311	-90.59428
391.525	-54.78349
391.738	-29.50088
391.952	42.15228
392.166	16.85977
392.38	-101.12544
392.594	-67.42343
392.808	-8.42931
393.022	-12.64382
393.236	-16.85823
393.449	-80.06246
393.663	-23.17966
393.877	-56.89021
394.091	10.53718
394.305	80.0973
394.518	8.4297
394.732	-37.92881
394.946	-21.07254
395.16	-10.53658
395.373	6.32224
395.587	-25.28676
395.801	18.96735
396.015	-40.03573
396.228	-75.84956
396.442	-67.42343
396.656	-92.70056
396.869	-16.85823
397.083	2.10739
397.297	-6.32202
397.51	4.2148
397.724	4.2148
397.938	-56.89021
398.151	42.15228
398.365	-33.71489
398.578	2.10739
398.792	-50.56997
399.005	0
399.219	-42.14263
399.433	-67.42343
399.646	-92.70056
399.86	-31.6079
400.073	2.10739
400.287	-16.85823
400.5	-16.85823
400.714	-16.85823
400.927	-65.31684
401.141	-73.74306
401.354	-23.17966
401.567	52.69182
401.781	-23.17966
401.994	-16.85823
402.208	-6.32202
402.421	-58.9969
402.635	16.85977
402.848	-103.2316
403.061	-29.50088
403.275	40.04444
403.488	-23.17966
403.701	-12.64382
403.915	-65.31684
404.128	27.39791
404.341	-21.07254
404.555	-73.74306
404.768	-18.9654
404.981	-12.64382
405.195	-23.17966
405.408	-42.14263
405.621	-44.2495
405.834	6.32224
406.048	-105.33773
406.261	-16.85823
406.474	-23.17966
406.687	-65.31684
406.9	-58.9969
407.114	-23.17966
407.327	-25.28676
407.54	50.58386
407.753	-37.92881
407.966	-12.64382
408.179	8.4297
408.392	-16.85823
408.605	-31.6079
408.819	33.72107
409.032	-42.14263
409.245	-25.28676
409.458	-33.71489
409.671	-52.67674
409.884	-12.64382
410.097	-33.71489
410.31	10.53718
410.523	-42.14263
410.736	-33.71489
410.949	-12.64382
411.162	16.85977
411.375	4.2148
411.588	27.39791
411.801	-58.9969
412.014	21.07496
412.227	0
412.44	-16.85823
412.653	-50.56997
412.865	23.18258
413.078	-84.27527
413.291	-25.28676
413.504	59.01582
413.717	-80.06246
413.93	-4.2147
414.143	-16.85823
414.356	-40.03573
414.568	25.29023
414.781	-2.10736
414.994	-16.85823
415.207	-12.64382
415.42	-56.89021
415.632	-50.56997
415.845	-33.71489
416.058	-33.71489
416.271	-2.10736
416.483	-33.71489
416.696	-21.07254
416.909	-27.39383
417.121	18.96735
417.334	31.61332
417.547	29.5056
417.759	21.07496
417.972	-35.82187
418.185	25.29023
418.397	-8.42931
418.61	10.53718
418.823	12.64469
419.035	42.15228
419.248	-48.46317
419.46	-16.85823
419.673	-65.31684
419.885	-56.89021
420.098	-12.64382
420.311	-12.64382
420.523	4.2148
420.736	-4.2147
420.948	-65.31684
421.161	16.85977
421.373	-12.64382
421.586	-50.56997
421.798	-33.71489
422.01	-23.17966
422.223	-14.75104
422.435	-31.6079
422.648	8.4297
422.86	12.64469
423.073	8.4297
423.285	0
423.497	12.64469
423.71	18.96735
423.922	107.50658
424.134	-2.10736
424.347	-16.85823
424.559	-14.75104
424.771	46.36803
424.984	29.5056
425.196	-6.32202
425.408	-52.67674
425.621	33.72107
425.833	21.07496
426.045	29.5056
426.257	-107.44383
426.47	-77.95602
426.682	-56.89021
426.894	16.85977
427.106	6.32224
427.318	-42.14263
427.531	40.04444
427.743	44.26014
427.955	4.2148
428.167	-50.56997
428.379	-54.78349
428.591	-75.84956
428.804	54.79979
429.016	-21.07254
429.228	31.61332
429.44	8.4297
429.652	-33.71489
429.864	-21.07254
430.076	-16.85823
430.288	-4.2147
430.5	-52.67674
430.712	-48.46317
430.924	31.61332
431.136	-21.07254
431.348	-12.64382
431.56	0
431.772	-63.21022
431.984	54.79979
432.196	-33.71489
432.408	2.10739
432.62	-46.35635
432.832	-25.28676
433.044	88.53052
433.256	-14.75104
433.468	-40.03573
433.679	-12.64382
433.891	-21.07254
434.103	-31.6079
434.315	0
434.527	27.39791
434.739	-42.14263
434.95	10.53718
435.162	-4.2147
435.374	-16.85823
435.586	16.85977
435.798	40.04444
436.009	-73.74306
436.221	35.82884
436.433	-54.78349
436.645	-37.92881
436.856	4.2148
437.068	0
437.28	-84.27527
437.491	8.4297
437.703	52.69182
437.915	16.85977
438.126	59.01582
438.338	52.69182
438.55	21.07496
438.761	46.36803
438.973	33.72107
439.184	-33.71489
439.396	25.29023
439.608	-21.07254
439.819	31.61332
440.031	-14.75104
440.242	-14.75104
440.454	-16.85823
440.665	10.53718
440.877	67.44814
441.088	-65.31684
441.3	-35.82187
441.511	-58.9969
441.723	-113.76198
441.934	-33.71489
442.146	-16.85823
442.357	-16.85823
442.569	18.96735
442.78	0
442.991	-44.2495
443.203	42.15228
443.414	-56.89021
443.626	35.82884
443.837	-12.64382
444.048	-31.6079
444.26	-16.85823
444.471	48.47593
444.682	-6.32202
444.894	42.15228
445.105	-33.71489
445.316	-37.92881
445.528	-80.06246
445.739	18.96735
445.95	-16.85823
446.161	-86.38163
446.373	-12.64382
446.584	-29.50088
446.795	2.10739
447.006	-14.75104
447.217	-25.28676
447.429	0
447.64	8.4297
447.851	-42.14263
448.062	-14.75104
448.273	-27.39383
448.484	-6.32202
448.695	-21.07254
448.907	71.66443
449.118	-82.16888
449.329	2.10739
449.54	6.32224
449.751	59.01582
449.962	-58.9969
450.173	-92.70056
450.384	-21.07254
450.595	-27.39383
450.806	-35.82187
451.017	-12.64382
451.228	-21.07254
451.439	18.96735
451.65	-54.78349
451.861	2.10739
452.072	-8.42931
452.283	-33.71489
452.494	-50.56997
452.705	35.82884
452.915	-65.31684
453.126	-23.17966
453.337	27.39791
453.548	-63.21022
453.759	-8.42931
453.97	0
454.181	-25.28676
454.391	12.64469
454.602	-37.92881
454.813	-16.85823
455.024	21.07496
455.235	-33.71489
455.445	-73.74306
455.656	67.44814
455.867	-63.21022
456.078	46.36803
456.288	2.10739
456.499	21.07496
456.71	-25.28676
456.921	-33.71489
457.131	-88.48797
457.342	77.98905
457.553	33.72107
457.763	-29.50088
457.974	-27.39383
458.184	-42.14263
458.395	16.85977
458.606	67.44814
458.816	-18.9654
459.027	37.93663
459.237	-25.28676
459.448	-50.56997
459.659	-33.71489
459.869	44.26014
460.08	0
460.29	-21.07254
460.501	-10.53658
460.711	44.26014
460.922	-33.71489
461.132	-14.75104
461.343	50.58386
461.553	-73.74306
461.764	10.53718
461.974	-58.9969
462.184	-21.07254
462.395	-48.46317
462.605	-56.89021
462.816	-29.50088
463.026	-23.17966
463.236	-12.64382
463.447	-14.75104
463.657	4.2148
463.867	-50.56997
464.078	0
464.288	-50.56997
464.498	-90.59428
464.709	-18.9654
464.919	-12.64382
465.129	-16.85823
465.339	-46.35635
465.55	-48.46317
465.76	-4.2147
465.97	-82.16888
466.18	8.4297
466.391	-56.89021
466.601	-33.71489
466.811	-46.35635
467.021	-56.89021
467.231	-6.32202
467.441	67.44814
467.651	-67.42343
467.862	0
468.072	50.58386
468.282	21.07496
468.492	16.85977
468.702	-33.71489
468.912	35.82884
469.122	52.69182
469.332	10.53718
469.542	-58.9969
469.752	-12.64382
469.962	8.4297
470.172	-40.03573
470.382	56.90779
470.592	-75.84956
470.802	-42.14263
471.012	-6.32202
471.222	4.2148
471.432	12.64469
471.642	-14.75104
471.852	12.64469
472.062	-75.84956
472.272	25.29023
472.482	25.29023
472.691	8.4297
472.901	-37.92881
473.111	8.4297
473.321	-33.71489
473.531	-2.10736
473.741	111.72373
473.95	29.5056
474.16	42.15228
474.37	84.31387
474.58	63.23193
474.79	-12.64382
474.999	-14.75104
475.209	42.15228
475.419	-8.42931
475.628	-23.17966
475.838	-61.10358
476.048	-21.07254
476.258	-8.42931
476.467	-6.32202
476.677	16.85977
476.886	-14.75104
477.096	31.61332
477.306	29.5056
477.515	2.10739
477.725	-73.74306
477.935	99.07256
478.144	-75.84956
478.354	77.98905
478.563	-6.32202
478.773	23.18258
478.982	37.93663
479.192	21.07496
479.401	-58.9969
479.611	86.42218
479.82	29.5056
480.03	59.01582
480.239	37.93663
480.449	-31.6079
480.658	94.85568
480.868	37.93663
481.077	59.01582
481.287	-23.17966
481.496	8.4297
481.705	4.2148
481.915	84.31387
482.124	-16.85823
482.333	18.96735
482.543	67.44814
482.752	12.64469
482.961	-4.2147
483.171	35.82884
483.38	35.82884
483.589	82.20557
483.799	61.12386
484.008	-23.17966
484.217	92.74727
484.426	33.72107
484.636	67.44814
484.845	33.72107
485.054	122.26697
485.263	71.66443
485.472	59.01582
485.682	88.53052
485.891	2.10739
486.1	54.79979
486.309	170.77278
486.518	137.02842
486.727	40.04444
486.936	67.44814
487.146	77.98905
487.355	48.47593
487.564	67.44814
487.773	130.70195
487.982	71.66443
488.191	25.29023
488.4	130.70195
488.609	37.93663
488.818	33.72107
489.027	33.72107
489.236	67.44814
489.445	168.6636
489.654	80.0973
489.863	105.39804
490.072	52.69182
490.281	124.37568
490.49	75.88082
490.698	92.74727
490.907	67.44814
491.116	105.39804
491.325	94.85568
491.534	179.20971
491.743	101.18103
491.952	75.88082
492.16	92.74727
492.369	134.91958
492.578	80.0973
492.787	189.75633
492.996	208.74152
493.204	212.96067
493.413	80.0973
493.622	69.55627
493.831	189.75633
494.039	164.4453
494.248	122.26697
494.457	149.68192
494.665	185.53762
494.874	134.91958
495.083	185.53762
495.291	137.02842
495.5	130.70195
495.709	101.18103
495.917	143.35507
496.126	122.26697
496.335	166.55444
496.543	172.88198
496.752	111.72373
496.96	210.85109
497.169	202.41294
497.377	118.04961
497.586	172.88198
497.794	185.53762
498.003	166.55444
498.211	185.53762
498.42	236.16742
498.628	267.81677
498.837	215.07028
499.045	172.88198
499.254	246.71673
499.462	242.49695
499.671	227.72833
499.879	212.96067
500.087	126.48442
500.296	215.07028
500.504	261.48656
500.713	284.69817
500.921	253.04654
501.129	265.70668
501.338	202.41294
501.546	267.81677
501.754	219.28955
501.962	297.36
502.171	206.63197
502.379	231.94784
502.587	261.48656
502.795	257.26651
503.004	295.24965
503.212	310.02248
503.42	331.12806
503.628	358.56795
503.837	322.68561
504.045	293.13931
504.253	339.57079
504.461	324.7962
504.669	337.46008
504.877	312.13296
505.085	278.36751
505.294	265.70668
505.502	324.7962
505.71	324.7962
505.918	348.0138
506.126	360.67883
506.334	312.13296
506.542	451.4624
506.75	345.90302
506.958	455.68561
507.166	320.57505
507.374	331.12806
507.582	331.12806
507.79	495.80913
507.998	333.23872
508.206	354.34623
508.414	426.12445
508.622	421.90167
508.83	303.69116
509.037	352.2354
509.245	381.78858
509.453	502.14492
509.661	426.12445
509.869	409.23374
510.077	358.56795
510.285	512.70485
510.492	379.67753
510.7	451.4624
510.908	493.69724
511.116	411.34503
511.324	493.69724
511.531	438.79314
511.739	434.57018
511.947	481.02615
512.155	514.81688
512.362	481.02615
512.57	402.9
512.778	426.12445
512.985	557.06041
513.193	523.26513
513.401	483.13796
513.608	582.40916
513.816	407.12248
514.024	533.82578
514.231	445.1277
514.439	582.40916
514.646	514.81688
514.854	582.40916
515.061	504.25687
515.269	573.95937
515.477	527.48935
515.684	552.83581
515.892	563.39742
516.099	713.40647
516.307	588.74665
516.514	700.72734
516.722	595.08425
516.929	751.44618
517.136	504.25687
517.344	618.32312
517.551	652.12779
517.759	734.53922
517.966	603.53457
518.173	675.37029
518.381	652.12779
518.588	819.08044
518.796	692.27481
519.003	728.19928
519.21	759.89991
519.418	738.76589
519.625	711.29325
519.832	865.58452
520.039	823.3079
520.247	812.73931
520.454	734.53922
520.661	797.94367
520.868	700.72734
521.076	867.69844
521.283	770.4673
521.49	800.0573
521.697	728.19928
521.904	802.17095
522.112	749.33277
522.319	878.26818
522.526	846.55961
522.733	831.76294
522.94	848.67345
523.147	865.58452
523.354	886.72411
523.561	846.55961
523.768	857.12892
523.975	897.29422
524.183	876.15421
524.39	979.74753
524.597	903.63637
524.804	1064.32556
525.011	1015.692
525.218	897.29422
525.425	1005.11991
525.632	1015.692
525.838	977.6332
526.045	1072.78387
526.252	979.74753
526.459	1081.24227
526.666	977.6332
526.873	1182.7489
527.08	1019.92089
527.287	1320.2187
527.494	988.20488
527.701	1140.45325
527.907	1047.4092
528.114	1127.76487
528.321	1072.78387
528.528	1184.86372
528.735	1089.70075
528.941	1201.78244
529.148	1098.15931
529.355	1138.33851
529.562	1138.33851
529.768	1271.57427
529.975	948.03341
530.182	1193.32305
530.388	1129.87959
530.595	1275.80418
530.802	1193.32305
531.008	1280.03409
531.215	1354.05887
531.422	1373.09412
531.628	1252.53983
531.835	1265.22943
532.042	1269.45932
532.248	1379.43922
532.455	1246.19506
532.661	1379.43922
532.868	1387.89937
533.074	1315.9887
533.281	1442.8906
533.487	1436.54545
533.694	1337.13873
533.9	1597.28797
534.107	1411.16485
534.313	1457.69597
534.52	1474.61638
534.726	1546.52777
534.933	1428.08524
535.139	1504.22705
535.345	1375.20915
535.552	1470.38628
535.758	1343.48377
535.965	1512.68723
536.171	1487.30668
536.377	1656.50684
536.584	1512.68723
536.79	1597.28797
536.996	1521.14738
537.203	1698.80484
537.409	1633.24249
537.615	1648.04711
537.821	1588.828
538.028	1825.69066
538.234	1643.81723
538.44	1931.41657
538.646	1736.87199
538.853	1711.49401
539.059	1616.32279
539.265	1834.14919
539.471	1681.88578
539.677	1914.50131
539.883	1817.23206
540.09	1832.03457
540.296	1679.77088
540.502	1935.64533
540.708	1802.42933
540.914	1918.73016
541.12	1931.41657
541.326	1999.07382
541.532	1762.24947
541.738	1937.7597
541.944	1931.41657
542.15	2054.0405
542.356	2028.67183
542.562	2174.52719
542.768	1994.84542
542.974	2113.23005
543.18	2013.87298
543.386	2005.41636
543.592	1853.18061
543.798	2242.15733
544.004	2087.86381
544.21	2147.04999
544.415	1994.84542
544.621	2123.799
544.827	2070.95238
545.033	2292.87398
545.239	2121.68522
545.445	2182.98144
545.651	2081.52208
545.856	2309.77833
546.062	2104.77476
546.268	2223.13725
546.474	2172.41361
546.679	2307.66532
546.885	2197.77604
547.091	2261.17669
547.297	2121.68522
547.502	2324.56914
547.708	2265.40312
547.914	2166.07282
548.119	2290.76089
548.325	2457.66422
548.531	2151.27734
548.736	2400.62851
548.942	2278.08217
549.147	2571.71142
549.353	2354.14933
549.559	2464.00104
549.764	2586.49283
549.97	2565.37635
550.175	2398.51592
550.381	2499.90779
550.586	2371.05142
550.792	2599.16215
550.997	2385.84021
551.203	2664.61324
551.408	2647.72378
551.614	2573.82309
551.819	2474.56218
552.025	2692.05687
552.23	2554.81766
552.435	2626.61083
552.641	2516.80396
552.846	2746.93758
553.052	2616.05389
553.257	2774.37457
553.462	2725.83067
553.668	2704.72244
553.873	2632.94484
554.078	2787.03703
554.283	2751.1588
554.489	2848.23194
554.694	2706.83332
554.899	3002.22101
555.105	2730.05215
555.31	2820.80118
555.515	2799.699
555.72	2947.38457
555.925	2727.94142
556.131	3065.48106
556.336	2789.14739
556.541	2915.74359
556.746	2884.09933
556.951	3004.3299
557.156	2689.9459
557.361	3145.59023
557.567	2898.86706
557.772	3120.29508
557.977	3086.56464
558.182	3107.64664
558.387	3031.74409
558.592	3101.3222
558.797	2960.04003
559.002	3067.58949
559.207	2995.89425
559.412	2993.7853
559.617	2998.00319
559.822	3295.20489
560.027	3088.67291
560.232	3126.61908
560.437	3050.72162
560.642	3248.8544
560.847	3111.86285
561.051	3261.49625
561.256	3221.46165
561.461	3375.2453
561.666	3054.93868
561.871	3404.72753
562.076	3158.23693
562.281	3225.6761
562.485	3303.63137
562.69	3328.90916
562.895	3135.05086
563.1	3425.78415
563.305	3113.97093
563.509	3406.83328
563.714	3139.26666
563.919	3371.03327
564.123	3236.21194
564.328	3417.36172
564.533	3356.29062
564.737	3415.25606
564.942	3419.46735
565.147	3535.24959
565.351	3383.66915
565.556	3406.83328
565.761	3406.83328
565.965	3606.79637
566.17	3288.88485
566.374	3617.31614
566.579	3522.62147
566.784	3674.11472
566.988	3661.49401
567.193	3718.28179
567.397	3425.78415
567.602	3644.66532
567.806	3425.78415
568.011	3680.42482
568.215	3817.10095
568.42	3604.69236
568.624	3583.65124
568.828	3716.17879
569.033	3518.41195
569.237	3821.30506
569.442	3606.79637
569.646	3779.26041
569.85	3535.24959
570.055	3749.82449
570.259	3766.64549
570.463	3745.61905
570.668	3917.97767
570.872	3800.28372
571.076	3741.41353
571.281	3867.54505
571.485	3787.66997
571.689	3875.95129
571.893	3800.28372
572.098	3766.64549
572.302	3632.04302
572.506	3924.28093
572.71	3733.00226
572.914	3825.50909
573.119	3833.91692
573.323	4018.80795
573.527	3724.59068
573.731	3890.66143
573.935	3985.20307
574.139	4077.60382
574.343	3943.18963
574.547	4056.60716
574.751	3949.49216
574.955	4119.59091
575.159	4027.20835
575.364	4104.89638
575.568	3924.28093
575.772	4018.80795
575.976	3943.18963
576.18	4012.50744
576.383	4224.5219
576.587	4241.30594
576.791	4044.00817
576.995	4348.27201
577.199	3995.70516
577.403	4247.59961
577.607	4281.16258
577.811	4281.16258
578.015	4190.94973
578.219	4455.18177
578.422	4104.89638
578.626	4476.13779
578.83	4167.86571
579.034	4268.57711
579.238	4186.75282
579.442	4409.07079
579.645	4266.47945
579.849	4538.99264
580.053	4348.27201
580.257	4222.4238
580.46	4390.20416
580.664	4486.61498
580.868	4165.76704
581.071	4415.35928
581.275	4459.37315
581.479	4377.62543
581.682	4383.9149
581.886	4549.46651
582.09	4323.10856
582.293	4677.20289
582.497	4409.07079
582.7	4664.64235
582.904	4423.74362
583.107	4631.14362
583.311	4358.75587
583.515	4679.29623
583.718	4463.56444
583.922	4844.59904
584.125	4658.36178
584.329	4760.91909
584.532	4568.31808
584.735	4875.96962
584.939	4564.129
585.142	4750.45654
585.346	4551.56122
585.549	4739.99343
585.753	4731.62253
585.956	4898.97144
586.159	4777.65799
586.363	5020.20783
586.566	4844.59904
586.769	4834.14103
586.973	4861.33065
587.176	4838.3243
587.379	4773.4734
587.582	4970.05044
587.786	4739.99343
587.989	5001.40036
588.192	4852.96503
588.395	5009.75947
588.599	4980.50099
588.802	5089.15252
589.005	4857.14788
589.208	5201.91659
589.411	4999.31053
589.615	5229.05336
589.818	5082.88586
590.021	5270.79452
590.224	4909.4259
590.427	5126.74807
590.63	5093.33017
590.833	5105.86258
591.036	5147.63124
591.239	5454.34435
591.442	5120.48267
591.645	5322.95782
591.848	5264.53394
592.051	5316.699
592.254	5089.15252
592.457	5335.47484
592.66	5126.74807
592.863	5279.14163
593.066	5333.38873
593.269	5420.98517
593.472	5335.47484
593.675	5556.46936
593.878	5266.62082
594.081	5412.64444
594.284	5466.85249
594.486	5521.04463
594.689	5260.36011
594.892	5477.27529
595.095	5450.17478
595.298	5385.53445
595.5	5204.00417
595.703	5696.0181
595.906	5531.46438
596.109	5587.72081
596.311	5548.13474
596.514	5681.44333
596.717	5675.19665
596.92	5671.03208
597.122	5566.8871
597.325	5683.52551
597.528	5658.53779
597.73	5760.54959
597.933	5760.54959
598.136	5877.06511
598.338	5435.58055
598.541	6014.292
598.743	5650.2078
598.946	5916.58035
599.148	5479.35978
599.351	5631.46393
599.554	5735.57235
599.756	5727.24584
599.959	5787.60443
600.161	5662.70265
600.363	5800.08994
600.566	5945.69139
600.768	5816.73595
600.971	6026.76208
601.173	5833.38046
601.376	5902.02309
601.578	5829.21948
601.78	6003.89961
601.983	5864.58484
602.185	5933.21579
602.388	5696.0181
602.59	5852.10373
602.792	5827.13895
602.995	6118.18344
603.197	5843.78251
603.399	6182.56662
603.601	5693.93606
603.804	5864.58484
604.006	5947.77057
604.208	6153.49314
604.41	5933.21579
604.613	6124.41506
604.815	6018.44878
605.017	6275.98595
605.219	6039.23131
605.421	5810.49387
605.623	5858.34439
605.826	6124.41506
606.028	6211.63549
606.23	6311.26535
606.432	6101.56476
606.634	6315.41543
606.836	5999.7425
607.038	6199.17797
607.24	6195.02527
607.442	6099.48732
607.644	6141.03167
607.846	6224.09218
608.048	6240.69978
608.25	6329.93995
608.452	5989.34929
608.654	6497.92634
608.856	6149.33941
609.058	6423.28458
609.26	6201.25428
609.462	6197.10163
609.664	6402.54541
609.866	6410.84136
610.067	6240.69978
610.269	6408.7674
610.471	6468.90257
610.673	6251.07876
610.875	6174.26038
611.077	6464.75594
611.278	6406.69343
611.48	6605.68918
611.682	6307.11518
611.884	6721.6717
612.085	6377.65533
612.287	6645.04848
612.489	6531.09081
612.69	6497.92634
612.892	6234.4721
613.094	6632.62013
613.295	6138.95467
613.497	6497.92634
613.699	6296.73936
613.9	6192.94889
614.102	6319.56541
614.304	6518.65483
614.505	6402.54541
614.707	6622.26253
614.908	6402.54541
615.11	6781.70579
615.311	6568.39374
615.513	6564.24934
615.714	6605.68918
615.916	6493.78037
616.117	6174.26038
616.319	6624.3341
616.52	6568.39374
616.722	6626.40564
616.923	6406.69343
617.124	6727.88302
617.326	6547.67081
617.527	6827.23608
617.729	6458.53583
617.93	6771.35646
618.131	6489.6343
618.333	6703.03652
618.534	6605.68918
618.735	6812.75037
618.937	6564.24934
619.138	6636.763
619.339	6694.75361
619.54	6781.70579
619.742	6634.69158
619.943	6903.7849
620.144	6616.0477
620.345	6852.06613
620.546	6754.79634
620.748	6775.49626
620.949	6640.90579
621.15	6729.95341
621.351	6462.6826
621.552	6603.61741
621.753	6589.11435
621.954	6777.56613
622.155	6435.72697
622.356	6953.42159
622.558	6705.10718
622.759	6796.1939
622.96	6655.40481
623.161	6947.21772
623.362	6597.40195
623.563	6767.21657
623.764	6827.23608
623.965	6916.1953
624.166	6881.03039
624.366	6947.21772
624.567	6887.23644
624.768	6781.70579
624.969	6674.04475
625.17	6787.91512
625.371	6858.27314
625.572	6905.85336
625.773	6816.88926
625.973	6889.30508
626.174	6800.33316
626.375	7176.62645
626.576	6816.88926
626.777	7093.98842
626.977	6868.61768
627.178	7027.85226
627.379	6775.49626
627.58	6943.08169
627.78	6825.16676
627.981	6986.50549
628.182	6771.35646
628.382	7114.65127
628.583	6941.01364
628.784	7071.2567
628.984	6715.46018
629.185	7085.72265
629.386	6686.47034
629.586	7201.41093
629.787	6978.23506
629.987	7071.2567
630.188	6986.50549
630.388	7122.91578
630.589	7027.85226
630.79	7056.78965
630.99	6986.50549
631.191	7180.75742
631.391	7186.9537
631.591	7215.86706
631.792	6978.23506
631.992	7381.00343
632.193	7102.25382
632.393	7250.97032
632.594	7286.0672
632.794	7077.45653
632.994	7168.36425
633.195	7407.82485
633.395	7021.65082
633.595	7133.24593
633.796	7193.14979
633.996	7548.06191
634.196	7151.83878
634.397	7490.32932
634.597	7230.32212
634.797	7358.30549
634.997	7193.14979
635.198	7465.58162
635.398	7151.83878
635.598	7500.63995
635.798	7426.39138
635.998	7317.02975
636.199	7304.64532
636.399	7325.2856
636.599	7170.42983
636.799	7284.00285
636.999	6945.14972
637.199	7246.84085
637.399	7093.98842
637.599	7424.32852
637.799	7168.36425
637.999	7477.95586
638.199	7368.62306
638.399	7325.2856
638.599	7339.73249
638.799	7407.82485
638.999	7564.55384
639.199	7682.01934
639.399	7341.79625
639.599	7791.18002
639.799	7517.13583
639.999	7543.93871
640.199	7339.73249
640.399	7603.71669
640.599	7195.21511
640.799	7770.58817
640.998	7607.83865
641.198	7636.68996
641.398	7581.0444
641.598	7640.81124
641.798	7508.88806
641.997	7649.05354
642.197	7605.77768
642.397	7671.71811
642.597	7414.01389
642.796	7663.47674
642.996	7550.12347
643.196	7622.26483
643.395	7727.33849
643.595	7815.88747
643.795	7556.30804
643.994	7735.57724
644.194	7679.95914
644.394	7739.69649
644.593	7640.81124
644.793	7752.05373
644.992	7883.81754
645.192	7618.14317
645.392	7770.58817
645.591	8029.89407
645.791	7694.38012
645.99	7803.53412
646.19	7304.64532
646.389	7735.57724
646.589	7764.41021
646.788	7881.75938
646.987	7721.1592
647.187	7852.94303
647.386	7620.20401
647.586	8017.55356
647.785	7949.66763
647.984	7865.29339
648.184	7749.99424
648.383	7820.00509
648.582	7931.14942
648.782	8099.80988
648.981	7729.39821
649.18	7976.41323
649.38	7914.68739
649.579	7970.24147
649.778	7844.70905
649.977	8034.00741
650.177	8052.51645
650.376	8182.03403
650.575	7815.88747
650.774	8009.32614
650.973	7883.81754
651.173	7935.26472
651.372	7828.24007
651.571	8075.13638
651.77	7887.93379
651.969	7865.29339
652.168	7741.75608
652.367	8140.92595
652.566	8126.53624
652.765	8173.81305
652.964	7992.87034
653.163	8108.03374
653.362	8175.86832
653.561	7914.68739
653.76	7869.41001
653.959	8050.45997
654.158	8264.22634
654.357	8068.96755
654.556	8075.13638
654.755	8317.63444
654.954	7857.0599
655.153	7957.89741
655.352	8027.83737
655.551	8216.96963
655.749	8342.27987
655.948	8393.61554
656.147	8145.03712
656.346	8473.6751
656.545	8225.18894
656.743	8264.22634
656.942	8206.69505
657.141	8315.58053
657.34	8167.64711
657.538	8461.36014
657.737	8188.19955
657.936	8621.40131
658.135	8124.48049
658.333	8379.24277
658.532	8253.95403
658.731	8276.55246
658.929	8241.62661
659.128	8290.93205
659.326	8360.76211
659.525	8327.90371
659.724	8206.69505
659.922	8494.1985
660.121	8307.36468
660.319	8149.14821
660.518	8085.41736
660.716	8373.08273
660.915	8229.29847
661.113	8506.51162
661.312	8233.40793
661.51	8364.86906
661.709	8609.09452
661.907	8459.30758
662.105	8436.72816
662.304	8405.9343
662.502	8371.02934
662.701	8444.93913
662.899	8227.24372
663.097	8578.32459
663.296	8492.14624
663.494	8520.87607
663.692	8200.53006
663.891	8403.88122
664.089	8223.13414
664.287	8479.83232
664.485	8309.41867
664.684	8752.63216
664.882	8282.71526
665.08	8498.30295
665.278	8340.2262
665.476	8477.77993
665.675	8588.5817
665.873	8383.34938
666.071	8122.42471
666.269	8578.32459
666.467	8527.03198
666.665	8602.94087
666.863	8256.00853
667.061	8639.86023
667.259	8321.74221
667.457	8660.36838
667.655	8561.91224
667.853	8615.248
668.051	8338.1725
668.249	8471.62265
668.447	8371.02934
668.645	8338.1725
668.843	8475.72752
669.041	8633.70742
669.239	8366.92251
669.437	8795.67588
669.635	8428.51689
669.833	8682.9252
670.031	8379.24277
670.229	8633.70742
670.426	8680.87467
670.624	8600.88962
670.822	8623.45237
671.02	8637.80931
671.218	8290.93205
671.415	8578.32459
671.613	8301.20259
671.811	8494.1985
672.009	8379.24277
672.206	8701.37911
672.404	8219.02449
672.602	8416.1994
672.799	8541.3951
672.997	8395.66871
673.195	8453.14979
673.392	8744.43244
673.59	8356.65508
673.788	8584.47892
673.985	8177.92358
674.183	8463.41268
674.38	8245.73583
674.578	8687.0262
674.775	8543.4469
674.973	8713.68089
675.17	8438.78093
675.368	8537.29145
675.565	8578.32459
675.763	8748.53233
675.96	8436.72816
676.158	8635.75838
676.355	8309.41867
676.553	8643.96201
676.75	8274.49816
676.947	8904.27454
677.145	8522.92806
677.342	8695.22797
677.539	8479.83232
677.737	8594.73574
677.934	8455.2024
678.131	8584.47892
678.329	8500.35515
678.526	8750.58225
678.723	8459.30758
678.92	8738.28246
679.118	8602.94087
679.315	8744.43244
679.512	8422.35823
679.709	8566.01544
679.906	8543.4469
680.104	8855.10405
680.301	8321.74221
680.498	8654.21613
680.695	8239.57197
680.892	8461.36014
681.089	8568.06701
681.286	8592.68442
681.483	8288.87788
681.68	8453.14979
681.877	8715.73112
682.075	8631.65645
682.272	8668.57112
682.469	8637.80931
682.665	8366.92251
682.862	8682.9252
683.059	8412.09342
683.256	8744.43244
683.453	8368.97593
683.65	8375.1361
683.847	8422.35823
684.044	8604.9921
684.241	8371.02934
684.438	8711.63064
684.635	8625.50342
684.831	8787.47769
685.028	8395.66871
685.225	8687.0262
685.422	8403.88122
685.619	8529.08391
685.815	8292.98619
686.012	8477.77993
686.209	8354.60154
686.405	8551.65391
686.602	8387.4559
686.799	8373.08273
686.996	8584.47892
687.192	8424.41114
687.389	8444.93913
687.586	8785.4281
687.782	8449.0445
687.979	8631.65645
688.175	8295.04032
688.372	8481.88469
688.568	8446.99182
688.765	8438.78093
688.962	8173.81305
689.158	8282.71526
689.355	8149.14821
689.551	8315.58053
689.748	8422.35823
689.944	8387.4559
690.14	8276.55246
690.337	8557.80896
690.533	8325.8499
690.73	8329.95751
690.926	8190.25468
691.123	8233.40793
691.319	8332.01129
691.515	8377.18944
691.712	8276.55246
691.908	8344.33353
692.104	8186.1444
692.301	8373.08273
692.497	8251.89951
692.693	8471.62265
692.889	7935.26472
693.086	8192.3098
693.282	8009.32614
693.478	8332.01129
693.674	8155.31469
693.87	8422.35823
694.067	8186.1444
694.263	8208.75
694.459	8110.08965
694.655	8251.89951
694.851	8186.1444
695.047	8284.76949
695.243	8108.03374
695.439	8216.96963
695.635	8126.53624
695.831	8371.02934
696.027	7910.57168
696.224	8266.28074
696.42	8149.14821
696.615	8440.83368
696.811	8352.54798
697.007	8338.1725
697.203	8159.42557
697.399	8430.56974
697.595	8260.11747
697.791	8190.25468
697.987	8249.84497
698.183	8444.93913
698.379	8071.02385
698.575	8395.66871
698.77	8157.37014
698.966	8288.87788
699.162	8153.25921
699.358	8473.6751
699.554	7877.64301
699.749	8346.38717
699.945	8350.4944
700.141	8295.04032
700.337	8344.33353
700.532	8161.48099
700.728	8200.53006
700.924	8075.13638
701.119	7865.29339
701.315	8077.19262
701.511	8003.15537
701.706	8576.27312
701.902	8058.68576
702.097	8095.69783
702.293	8023.72391
702.489	8276.55246
702.684	8274.49816
702.88	8204.64007
703.075	7945.55262
703.271	8177.92358
703.466	8046.34695
703.662	8245.73583
703.857	8071.02385
704.053	8471.62265
704.248	8247.79041
704.443	8362.8156
704.639	8019.61036
704.834	8256.00853
705.03	8081.30503
705.225	8145.03712
705.42	8091.5857
705.616	8338.1725
705.811	7980.52763
706.006	8206.69505
706.202	8042.23385
706.397	8116.25727
706.592	8112.14555
706.787	8157.37014
706.983	7912.62955
707.178	8407.98736
707.373	7999.04142
707.568	8062.79854
707.763	7877.64301
707.959	8182.03403
708.154	8060.74216
708.349	8264.22634
708.544	8134.75905
708.739	8095.69783
708.934	8192.3098
709.129	8027.83737
709.324	8064.8549
709.519	8151.20372
709.714	7859.11831
709.909	8110.08965
710.104	7887.93379
710.299	8036.06405
710.494	7990.81327
710.689	8017.55356
710.884	7904.39796
711.079	8075.13638
711.274	7778.82516
711.469	7964.06953
711.664	7894.108
711.859	8005.21231
712.054	7797.35716
712.249	8015.49674
712.443	7651.11406
712.638	7922.91857
712.833	7714.97973
713.028	8134.75905
713.223	7548.06191
713.417	8091.5857
713.612	7931.14942
713.807	7968.18418
714.002	8145.03712
714.196	7984.64194
714.391	7531.5686
714.586	8038.12068
714.78	7885.87567
714.975	7931.14942
715.17	7723.21899
715.364	8089.52961
715.559	8093.64178
715.754	8329.95751
715.948	8124.48049
716.143	8196.41997
716.337	8019.61036
716.532	8247.79041
716.726	8021.66714
716.921	8021.66714
717.115	7754.11319
717.31	8233.40793
717.504	7976.41323
717.699	8190.25468
717.893	7729.39821
718.088	8091.5857
718.282	8058.68576
718.476	8142.98155
718.671	7642.87185
718.865	7966.12687
719.059	7595.47252
719.254	7855.00148
719.448	7651.11406
719.642	7871.46829
719.837	7706.74014
720.031	8050.45997
720.225	7459.39421
720.419	7696.44018
720.614	7527.44506
720.808	7916.74522
721.002	7609.89959
721.196	7842.6505
721.39	7690.25995
721.585	7916.74522
721.779	7877.64301
721.973	7675.83867
722.167	7630.50789
722.361	7630.50789
722.555	7529.50684
722.749	7706.74014
722.943	7533.63034
723.137	7723.21899
723.331	7634.62929
723.525	7813.82863
723.719	7523.32143
723.913	7760.29147
724.107	7477.95586
724.301	7665.53712
724.495	7444.95615
724.689	7651.11406
724.883	7556.30804
725.077	7727.33849
725.271	7587.22801
725.465	7749.99424
725.659	7434.64261
725.853	7589.28917
726.046	7461.4567
726.24	7607.83865
726.434	7325.2856
726.628	7774.70671
726.822	7459.39421
727.015	7933.20708
727.209	7416.07686
727.403	7737.63687
727.596	7581.0444
727.79	7535.69206
727.984	7424.32852
728.177	7634.62929
728.371	7374.81334
728.565	7486.20492
728.758	7381.00343
728.952	7630.50789
729.146	7574.8606
729.339	7828.24007
729.533	7292.2601
729.726	7828.24007
729.92	7564.55384
730.113	7597.53359
730.307	7630.50789
730.5	7729.39821
730.694	7721.1592
730.887	7583.10562
731.081	7626.3864
731.274	7416.07686
731.468	7341.79625
731.661	7708.80007
731.854	7492.39149
732.048	7813.82863
732.241	7723.21899
732.435	7663.47674
732.628	7513.01199
732.821	7624.32562
733.014	7496.51576
733.208	7661.41635
733.401	7508.88806
733.594	7482.08043
733.788	7696.44018
733.981	7498.57787
734.174	7463.51917
734.367	7564.55384
734.56	7459.39421
734.754	7706.74014
734.947	7614.02142
735.14	7762.35085
735.333	7581.0444
735.526	7548.06191
735.719	7407.82485
735.912	7601.65568
736.105	7438.76809
736.298	7611.96052
736.491	7207.60655
736.684	7607.83865
736.877	7482.08043
737.07	7614.02142
737.263	7203.47616
737.456	7620.20401
737.649	7566.61523
737.842	7523.32143
738.035	7560.43098
738.228	7535.69206
738.421	7609.89959
738.614	7733.51758
738.807	7519.19772
739	7801.47515
739.192	7477.95586
739.385	7556.30804
739.578	7486.20492
739.771	7766.46956
739.964	7459.39421
740.156	7558.36952
740.349	7659.35593
740.542	7782.94353
740.735	7638.75061
740.927	7469.70645
741.12	7267.48729
741.313	7675.83867
741.505	7469.70645
741.698	7492.39149
741.891	7537.75375
742.083	7671.71811
742.276	7607.83865
742.468	7642.87185
742.661	7519.19772
742.854	7692.32004
743.046	7222.06222
743.239	7477.95586
743.431	7488.26713
743.624	7381.00343
743.816	7284.00285
744.009	7521.25959
744.201	7222.06222
744.393	7263.35818
744.586	7321.15772
744.778	7465.58162
744.971	7473.8312
745.163	7593.41142
745.355	7354.17831
745.548	7401.63562
745.74	7199.34568
745.932	7238.58166
746.125	7502.70201
746.317	7257.16435
746.509	7077.45653
746.702	7186.9537
746.894	7244.77609
747.086	7343.85998
747.278	7457.33169
747.471	7434.64261
747.663	7335.60492
747.855	7269.55181
748.047	7201.41093
748.239	7228.25718
748.431	7226.19221
748.623	7277.80968
748.815	7240.64649
749.008	7232.38704
749.2	7271.61631
749.392	7294.32436
749.584	7302.58118
749.776	7428.45422
749.968	7253.03502
750.16	7242.7113
750.352	7079.52309
750.544	7176.62645
750.736	7199.34568
750.928	7110.51888
751.12	7062.98995
751.311	7027.85226
751.503	7304.64532
751.695	7217.93214
751.887	7050.58915
752.079	7279.87409
752.271	7034.0535
752.463	7015.44918
752.654	7155.97028
752.846	7058.85644
753.038	6858.27314
753.23	7027.85226
753.421	7021.65082
753.613	7122.91578
753.805	7281.93848
753.997	7069.19005
754.188	6986.50549
754.38	7186.9537
754.572	6938.94557
754.763	6978.23506
754.955	6707.17783
755.146	6998.91047
755.338	6729.95341
755.53	6874.82414
755.721	6686.47034
755.913	6794.12424
756.104	6792.05456
756.296	7015.44918
756.487	7093.98842
756.679	7180.75742
756.87	6903.7849
757.062	6976.1674
757.253	6953.42159
757.445	6930.67306
757.636	6899.64792
757.827	7300.517
758.019	6926.53667
758.21	6976.1674
758.401	6874.82414
758.593	6891.37369
758.784	6657.47601
758.975	6663.68946
759.167	6831.37465
759.358	6969.96427
759.549	6688.5412
759.74	6920.33191
759.932	6775.49626
760.123	6823.09742
760.314	6773.42637
760.505	7044.38845
760.696	6485.48814
760.888	6845.85893
761.079	6601.54561
761.27	6976.1674
761.461	6671.97374
761.652	6682.32857
761.843	6616.0477
762.034	6864.47993
762.225	6763.07658
762.416	6796.1939
762.607	6497.92634
762.798	6576.68226
762.989	6630.54865
763.18	6642.97715
763.371	6518.65483
763.562	6624.3341
763.753	6729.95341
763.944	6705.10718
764.135	6721.6717
764.326	6761.00656
764.517	6522.80025
764.708	6582.89841
764.899	6406.69343
765.089	6224.09218
765.28	6226.16821
765.471	6356.91103
765.662	6141.03167
765.853	6423.28458
766.043	6153.49314
766.234	6466.82927
766.425	6292.58886
766.615	6396.3232
766.806	6502.07223
766.997	6464.75594
767.187	6199.17797
767.378	6348.61265
767.569	6377.65533
767.759	6516.58208
767.95	6375.581
768.141	6342.38863
768.331	6207.48308
768.522	6182.56662
768.712	6207.48308
768.903	6394.24909
769.093	6348.61265
769.284	6192.94889
769.474	6267.68393
769.665	6199.17797
769.855	6302.96492
770.046	6192.94889
770.236	5997.6639
770.426	6203.33057
770.617	6114.02891
770.807	6109.87429
770.998	6282.21221
771.188	6332.01479
771.378	6126.49222
771.569	6176.33697
771.759	6051.69969
771.949	6032.9968
772.139	6082.86695
772.33	5949.84973
772.52	5954.00798
772.71	5985.19184
772.9	5983.11308
773.09	5912.42125
773.281	6273.91048
773.471	6084.94458
773.661	6032.9968
773.851	6020.52714
774.041	5841.70215
774.231	6209.5593
774.421	5993.50664
774.611	6240.69978
774.802	6057.93357
774.992	6118.18344
775.182	5870.82508
775.372	5926.97768
775.562	5633.54668
775.752	5818.8166
775.942	5885.38481
776.131	5912.42125
776.321	5702.26407
776.511	5737.65391
776.701	5820.89722
776.891	6018.44878
777.081	5835.46092
777.271	5885.38481
777.461	5843.78251
777.651	5812.57459
777.84	5673.11438
778.03	5666.86741
778.22	5737.65391
778.41	6016.3704
778.599	5629.38116
778.789	5802.17077
778.979	5650.2078
779.169	5608.55216
779.358	5543.96729
779.548	5658.53779
779.738	5491.86622
779.927	5712.67356
780.117	5656.45533
780.307	5531.46438
780.496	5506.45601
780.686	5693.93606
780.875	5475.19077
781.065	5758.46828
781.254	5558.55295
781.444	5710.59171
781.633	5535.63211
781.823	5596.05363
782.012	5410.55919
782.202	5579.38761
782.391	5289.57499
782.581	5491.86622
782.77	5356.33465
782.96	5418.90002
783.149	5268.70768
783.338	5368.84942
783.528	5208.17927
783.717	5591.88727
783.906	5264.53394
784.096	5375.10648
784.285	5235.31513
784.474	5116.30562
784.663	5312.52633
784.853	5291.6616
785.042	5199.82898
785.231	5352.16288
785.42	5168.51209
785.61	5368.84942
785.799	5078.70797
785.988	5208.17927
786.177	5057.81715
786.366	5208.17927
786.555	5293.74818
786.744	5291.6616
786.933	5110.03987
787.122	5383.44891
787.312	5061.9955
787.501	5226.96605
787.69	4949.14761
787.879	5149.71943
788.068	4903.15329
788.257	5095.41897
788.445	4926.15184
788.634	5099.59648
788.823	4861.33065
789.012	4892.69849
789.201	4863.422
789.39	5043.19219
789.579	5135.10162
789.768	5166.42411
789.957	4840.4159
790.145	5016.02855
790.334	4857.14788
790.523	4995.13079
790.712	5005.57996
790.9	5126.74807
791.089	4708.6007
791.278	4907.33505
791.467	4965.87005
791.655	5066.17376
791.844	4878.06081
792.033	4924.06117
792.221	4786.02689
792.41	4970.05044
792.599	4647.8937
792.787	5022.29743
792.976	4773.4734
793.164	4932.42369
793.353	4990.95096
793.541	4924.06117
793.73	4990.95096
793.918	5043.19219
794.107	4760.91909
794.295	4815.31519
794.484	4769.28872
794.672	4756.73414
794.861	4633.23746
795.049	4815.31519
795.238	4497.09162
795.426	4733.71529
795.614	4595.54495
795.803	4595.54495
795.991	4645.80002
796.179	4612.29807
796.368	4576.69598
796.556	4733.71529
796.744	4497.09162
796.932	4783.9347
797.121	4660.45532
797.309	4798.57957
797.497	4769.28872
797.685	4417.45539
797.874	4606.01582
798.062	4664.64235
798.25	4513.85309
798.438	4631.14362
798.626	4350.36883
798.814	4610.20401
799.002	4404.87836
799.19	4660.45532
799.378	4597.63917
799.566	4316.81721
799.755	4411.16698
799.943	4723.25127
800.131	4589.26216
800.318	4756.73414
800.506	4538.99264
800.694	4714.87965
800.882	4371.33577
801.07	4798.57957
801.258	4379.72194
801.446	4601.82754
801.634	4532.70805
801.822	4792.30333
802.01	4541.08746
802.197	4639.51884
802.385	4446.79874
802.573	4698.13532
802.761	4622.76805
802.949	4742.0861
803.136	4494.99633
803.324	4639.51884
803.512	4484.51959
803.699	4614.39211
803.887	4474.04229
804.075	4710.6937
804.262	4775.5657
804.45	4800.6716
804.638	4436.31947
804.825	4645.80002
805.013	4476.13779
805.201	4606.01582
805.388	4358.75587
805.576	4497.09162
805.763	4480.32873
805.951	4658.36178
806.138	4450.9903
806.326	4635.33128
806.513	4497.09162
806.701	4455.18177
806.888	4469.85122
807.075	4706.50767
807.263	4455.18177
807.45	4706.50767
807.638	4484.51959
807.825	4731.62253
808.012	4513.85309
808.2	4505.47253
808.387	4656.26821
808.574	4591.35645
808.761	4702.32154
808.949	4518.04323
809.136	4518.04323
809.323	4723.25127
809.51	4438.41537
809.698	4666.73583
809.885	4480.32873
810.072	4538.99264
810.259	4404.87836
810.446	4480.32873
810.633	4396.49324
810.82	4838.3243
811.008	4555.75057
811.195	4601.82754
811.382	4635.33128
811.569	4790.21121
811.756	4706.50767
811.943	4865.51333
812.13	4660.45532
812.317	4714.87965
812.504	4834.14103
812.691	4832.04936
812.878	4471.94676
813.064	4656.26821
813.251	4499.18688
813.438	4769.28872
813.625	4622.76805
813.812	4641.61259
813.999	4683.48286
814.186	4626.95588
814.372	4392.30054
814.559	4536.8978
814.746	4339.88454
814.933	4411.16698
815.12	4557.84521
815.306	4802.76361
815.493	4538.99264
815.68	4811.13142
815.866	4262.28408
816.053	4719.0655
816.24	4580.8848
816.426	4765.10395
816.613	4352.46562
816.799	4652.081
816.986	4618.58012
817.173	4698.13532
817.359	4362.94925
817.546	4637.42507
817.732	4245.50174
817.919	4710.6937
818.105	4482.42417
818.292	4503.37733
818.478	4415.35928
818.665	4635.33128
818.851	4572.50708
819.037	4585.07352
819.224	4262.28408
819.41	4375.5289
819.597	4371.33577
819.783	4450.9903
819.969	4474.04229
820.156	4681.38956
820.342	4482.42417
820.528	4773.4734
820.714	4474.04229
820.901	4781.84248
821.087	4434.22355
821.273	4528.51821
821.459	4591.35645
821.646	4719.0655
821.832	4400.68584
822.018	4499.18688
822.204	4283.26008
822.39	4482.42417
822.576	4308.42845
822.762	4670.92272
822.948	4291.64988
823.134	4520.13828
823.32	4224.5219
823.507	4536.8978
823.693	4211.93297
823.879	4339.88454
824.065	4090.20082
824.25	4436.31947
824.436	4148.97689
824.622	4515.94817
824.808	4207.73649
824.994	4197.24492
825.18	4071.30504
825.366	4386.01134
825.552	4211.93297
825.738	4390.20416
825.923	4197.24492
826.109	4253.89308
826.295	4079.70337
826.481	4172.063
826.667	4077.60382
826.852	4415.35928
827.038	4245.50174
827.224	4457.27747
827.409	3993.60479
827.595	4264.38178
827.781	4180.45731
827.966	4415.35928
828.152	4230.81608
828.338	4304.23393
828.523	4020.90809
828.709	4276.96751
828.894	4002.00617
829.08	4159.47089
829.266	3878.0528
829.451	3972.59989
829.637	3909.57303
829.822	4054.50738
830.008	3695.14771
830.193	4178.35876
830.378	3892.7628
830.564	4228.71804
830.749	3888.56004
830.935	4086.0019
831.12	3962.09668
831.305	4071.30504
831.491	3926.38198
831.676	3955.79451
831.861	4014.60763
832.047	3917.97767
832.232	3812.89676
832.417	3848.62985
832.602	3869.64664
832.788	3949.49216
832.973	3693.0445
833.158	4136.3834
833.343	3808.69249
833.528	4044.00817
833.714	3756.13251
833.899	4037.70839
834.084	3859.1385
834.269	4010.40723
834.454	3917.97767
834.639	3859.1385
834.824	3810.79464
835.009	3878.0528
835.194	3741.41353
835.379	3959.99598
835.564	3549.98156
835.749	3785.56761
835.934	3655.18339
836.119	3957.89526
836.304	3598.38022
836.489	3852.83337
836.674	3434.2063
836.859	3758.23515
837.044	3509.99269
837.228	3777.15797
837.413	3486.83823
837.598	3823.40709
837.783	3539.45882
837.968	3735.10511
838.152	3512.09754
838.337	3533.14495
838.522	3463.68156
838.707	3625.73161
838.891	3204.60317
839.076	3484.73317
839.261	3503.67806
839.445	3657.28695
839.63	3371.03327
839.815	3585.75543
839.999	3314.16408
840.184	3358.39677
840.368	3514.20236
840.553	3564.71263
840.737	3231.99765
840.922	3455.26042
841.106	3288.88485
841.291	3326.80277
841.475	3337.33454
841.66	3404.72753
841.844	3107.64664
842.029	3484.73317
842.213	3307.8445
842.397	3406.83328
842.582	3366.82118
842.766	3362.60901
842.951	3080.23973
843.135	3507.88783
843.319	3303.63137
843.504	3305.73794
843.688	3137.15877
843.872	3328.90916
844.056	3305.73794
844.241	3358.39677
844.425	3261.49625
844.609	3333.12188
844.793	3147.69805
844.977	3326.80277
845.161	2812.36047
845.346	3187.74364
845.53	3071.8063
845.714	3139.26666
845.898	3109.75475
846.082	3303.63137
846.266	2957.93082
846.45	3088.67291
846.634	3151.91365
846.818	3092.8894
847.002	3008.54764
847.186	3213.03254
847.37	2987.45835
847.554	3044.39592
847.738	2911.52454
847.922	3187.74364
848.106	2894.64778
848.29	2926.29095
848.473	2972.69496
848.657	3031.74409
848.841	2850.3419
849.025	3050.72162
849.209	2875.66032
849.392	3008.54764
849.576	2890.42844
849.76	3067.58949
849.944	2926.29095
850.127	2987.45835
850.311	2732.16288
850.495	3016.98293
850.678	2839.79196
850.862	3189.85114
851.046	2806.0298
851.229	2928.40038
851.413	2816.58086
851.596	2981.13127
851.78	2708.94419
851.964	2860.89149
852.147	2571.71142
852.331	2875.66032
852.514	2746.93758
852.698	2879.87985
852.881	2776.48502
853.065	2934.72857
853.248	2628.72218
853.431	2831.35175
853.615	2662.5021
853.798	2825.02145
853.982	2466.11329
854.165	2867.22107
854.348	2487.23519
854.532	2660.39095
854.715	2394.29073
854.898	2664.61324
855.081	2476.67438
855.265	2535.81128
855.448	2324.56914
855.631	2569.59974
855.814	2436.54079
855.997	2594.93909
856.181	2466.11329
856.364	2580.15801
856.547	2385.84021
856.73	2493.57154
856.913	2394.29073
857.096	2561.15291
857.279	2379.50222
857.462	2307.66532
857.645	2202.003
857.828	2476.67438
858.011	2320.34325
858.194	2434.42839
858.377	2206.22992
858.56	2451.32731
858.743	2250.61047
858.926	2377.38954
859.109	2316.11731
859.292	2354.14933
859.475	2371.05142
859.658	2464.00104
859.841	2242.15733
860.023	2193.54905
860.206	2147.04999
860.389	2307.66532
860.572	2140.70891
860.755	2455.55193
860.937	2180.86789
861.12	2210.4568
861.303	2199.88952
861.486	2368.93869
861.668	2109.00242
861.851	2267.51632
862.034	2066.72445
862.216	2271.74269
862.399	2130.14027
862.581	2333.02082
862.764	2157.61831
862.947	2256.95023
863.129	2013.87298
863.312	1994.84542
863.494	1925.07339
863.677	2104.77476
863.859	1931.41657
864.042	2011.75884
864.224	2001.188
864.406	2079.40815
864.589	2007.53052
864.771	2022.32951
864.954	1865.86801
865.136	2098.43321
865.318	1865.86801
865.501	1861.63889
865.683	1884.89876
865.865	2054.0405
866.048	1734.75718
866.23	1889.12776
866.412	1690.34533
866.594	1694.57509
866.777	1889.12776
866.959	1910.27244
867.141	1800.31464
867.323	1922.95898
867.505	1681.88578
867.687	1901.81463
867.869	1681.88578
868.052	1865.86801
868.234	1588.828
868.416	1736.87199
868.598	1652.27698
868.78	1749.5608
868.962	1694.57509
869.144	1988.50279
869.326	1815.1174
869.508	1834.14919
869.69	1631.12754
869.872	1745.33121
870.054	1758.01993
870.236	1770.70851
870.417	1658.62177
870.599	1728.41272
870.781	1557.10288
870.963	1937.7597
871.145	1791.85583
871.327	1969.47454
871.508	1724.18306
871.69	1760.1347
871.872	1652.27698
872.054	1810.88806
872.235	1734.75718
872.417	1779.16748
872.599	1483.07658
872.78	1753.79037
872.962	1567.67796
873.144	1677.65598
873.325	1656.50684
873.507	1829.91994
873.689	1563.44793
873.87	1840.49304
874.052	1512.68723
874.233	1834.14919
874.415	1654.39191
874.596	1810.88806
874.778	1580.368
874.959	1717.83855
875.141	1548.64279
875.322	1741.10161
875.503	1533.83759
875.685	1658.62177
875.866	1637.4724
876.048	1673.42618
876.229	1650.16205
876.41	1563.44793
876.592	1373.09412
876.773	1817.23206
876.954	1531.72256
877.136	1715.72371
877.317	1563.44793
877.498	1842.60765
877.679	1624.78266
877.86	1914.50131
878.042	1550.75782
878.223	1717.83855
878.404	1485.19163
878.585	1525.37746
878.766	1654.39191
878.947	1825.69066
879.128	1605.74791
879.309	1889.12776
879.49	1669.19636
879.672	1880.66974
879.853	1593.05799
880.034	1635.35745
880.215	1464.04112
880.396	1639.58735
880.576	1546.52777
880.757	1774.938
880.938	1491.53678
881.119	1726.29789
881.3	1698.80484
881.481	1876.4407
881.662	1787.6264
881.843	1768.59375
882.023	1675.54108
882.204	1751.67558
882.385	1622.6677
882.566	1749.5608
882.747	1656.50684
882.927	1690.34533
883.108	1504.22705
883.289	1878.55522
883.469	1561.33292
883.65	1703.03457
883.831	1569.79297
884.011	1764.36423
884.192	1635.35745
884.373	1836.26381
884.553	1622.6677
884.734	1880.66974
884.914	1730.52754
885.095	1832.03457
885.275	1726.29789
885.456	1901.81463
885.636	1728.41272
885.817	1808.77338
885.997	1622.6677
886.178	1889.12776
886.358	1624.78266
886.538	1645.93217
886.719	1728.41272
886.899	1781.28222
887.08	1808.77338
887.26	1762.24947
887.44	1633.24249
887.621	1958.90308
887.801	1813.00273
887.981	1944.10277
888.161	1827.8053
888.342	1724.18306
888.522	1538.06766
888.702	1624.78266
888.882	1580.368
889.062	1768.59375
889.242	1677.65598
889.423	1626.89762
889.603	1633.24249
889.783	1707.2643
889.963	1703.03457
890.143	1732.64236
890.323	1641.70229
890.503	1743.21641
890.683	1648.04711
890.863	1793.97054
891.043	1571.90798
891.223	1696.68997
891.403	1774.938
891.583	1870.0971
891.763	1618.43776
891.943	1724.18306
892.122	1711.49401
892.302	1648.04711
892.482	1578.253
892.662	1741.10161
892.842	1483.07658
893.022	1745.33121
893.201	1584.598
893.381	1588.828
893.561	1461.92607
893.741	1836.26381
893.92	1533.83759
894.1	1696.68997
894.28	1580.368
894.459	1760.1347
894.639	1571.90798
894.819	1711.49401
894.998	1571.90798
895.178	1791.85583
895.357	1455.58092
895.537	1667.08145
895.716	1584.598
895.896	1639.58735
896.075	1478.84648
896.255	1525.37746
896.434	1631.12754
896.614	1772.82326
896.793	1588.828
896.973	1715.72371
897.152	1377.32418
897.331	1694.57509
897.511	1538.06766
897.69	1622.6677
897.87	1451.35081
898.049	1362.51897
898.228	1269.45932
898.407	1406.93476
898.587	1229.27581
898.766	1569.79297
898.945	1258.88462
899.124	1339.25374
899.304	1347.71381
899.483	1485.19163
899.662	1267.34438
899.841	1459.81102
900.02	1233.5056
900.199	1476.73143
900.378	1284.26401
900.557	1406.93476
900.737	1131.99431
900.916	1440.77555
901.095	1193.32305
901.274	1385.78433
901.453	1288.49394
901.632	1347.71381
901.811	1275.80418
901.989	1299.06881
902.168	1174.28964
902.347	1356.17389
902.526	1157.37131
902.705	1182.7489
902.884	1241.96523
903.063	1148.91225
903.242	1066.44013
903.42	1138.33851
903.599	1123.53545
903.778	1066.44013
903.957	992.4336
904.135	1106.61795
904.314	977.6332
904.493	1038.95115
904.672	971.29028
904.85	1060.09644
905.029	916.3209
905.207	1174.28964
905.386	971.29028
905.565	954.37611
905.743	819.08044
905.922	929.0057
906.1	905.75044
906.279	920.54914
906.457	840.21813
906.636	958.60461
906.814	804.2846
906.993	895.18018
907.171	802.17095
907.35	922.66327
907.528	753.55959
907.707	918.43502
907.885	740.87925
908.063	863.47061
908.242	726.08599
908.42	797.94367
908.598	715.51969
908.777	903.63637
908.955	753.55959
909.133	819.08044
909.311	728.19928
909.49	671.14428
909.668	641.5635
909.846	810.62562
910.024	685.93553
910.202	738.76589
910.38	690.1617
910.559	595.08425
910.737	747.21937
910.915	711.29325
911.093	692.27481
911.271	838.10432
911.449	654.24069
911.627	738.76589
911.805	523.26513
911.983	814.85301
912.161	726.08599
912.339	848.67345
912.517	762.01336
912.695	717.63293
912.872	683.82246
913.05	766.24031
913.228	660.57945
913.406	776.80785
913.584	740.87925
913.762	823.3079
913.939	730.31258
914.117	734.53922
914.295	732.42589
914.473	850.78731
914.65	635.22506
914.828	637.33786
915.006	685.93553
915.184	844.44577
915.361	713.40647
915.539	721.85944
915.716	611.98509
915.894	652.12779
916.072	616.21043
916.249	660.57945
916.427	662.69239
916.604	702.8405
916.782	658.46652
916.959	626.77399
917.137	641.5635
917.314	747.21937
917.492	643.67633
917.669	590.85917
917.847	616.21043
918.024	544.38677
918.201	669.03129
918.379	669.03129
918.556	609.87244
918.733	561.28507
918.911	497.92105
919.088	584.52165
919.265	586.63414
919.442	645.78918
919.62	607.75981
919.797	527.48935
919.974	529.60148
920.151	688.04861
920.328	552.83581
920.506	645.78918
920.683	548.61126
920.86	455.68561
921.037	500.03297
921.214	506.36885
921.391	424.01305
921.568	584.52165
921.745	586.63414
921.922	580.2967
922.099	464.13222
922.276	550.72353
922.453	521.15305
922.63	531.71362
922.807	424.01305
922.984	525.37723
923.161	478.91436
923.338	571.84695
923.514	449.35082
923.691	567.62216
923.868	421.90167
924.045	440.90465
924.222	457.79724
924.399	510.59283
924.575	464.13222
924.752	472.57906
924.929	428.23586
925.105	497.92105
925.282	373.34447
925.459	485.24979
925.635	500.03297
925.812	483.13796
925.989	443.01617
926.165	432.45872
926.342	297.36
926.518	381.78858
926.695	329.01742
926.871	409.23374
927.048	358.56795
927.224	411.34503
927.401	356.45708
927.577	392.34408
927.754	333.23872
927.93	356.45708
928.107	274.14716
928.283	428.23586
928.459	360.67883
928.636	364.90064
928.812	367.01157
928.988	426.12445
929.165	345.90302
929.341	390.23295
929.517	295.24965
929.693	348.0138
929.87	312.13296
930.046	377.56649
930.222	267.81677
930.398	379.67753
930.574	299.47036
930.751	339.57079
930.927	269.92688
931.103	219.28955
931.279	312.13296
931.455	333.23872
931.631	215.07028
931.807	324.7962
931.983	185.53762
932.159	307.91202
932.335	295.24965
932.511	206.63197
932.687	202.41294
932.863	339.57079
933.039	263.59661
933.215	219.28955
933.391	143.35507
933.566	215.07028
933.742	248.82665
933.918	215.07028
934.094	168.6636
934.27	303.69116
934.445	244.60683
934.621	174.9912
934.797	156.00896
934.973	126.48442
935.148	94.85568
935.324	200.30345
935.5	118.04961
935.675	162.33619
935.851	172.88198
936.027	111.72373
936.202	160.22709
936.378	153.89993
936.553	96.96411
936.729	118.04961
936.904	73.77262
937.08	88.53052
937.255	101.18103
937.431	105.39804
937.606	118.04961
937.782	71.66443
937.957	109.61514
938.133	56.90779
938.308	69.55627
938.483	151.79091
938.659	109.61514
938.834	109.61514
939.009	54.79979
939.185	27.39791
939.36	44.26014
939.535	-16.85823
939.71	52.69182
939.886	56.90779
940.061	27.39791
940.236	-12.64382
940.411	50.58386
940.586	92.74727
940.761	84.31387
940.937	16.85977
941.112	4.2148
941.287	35.82884
941.462	50.58386
941.637	50.58386
941.812	8.4297
941.987	122.26697
942.162	-12.64382
942.337	71.66443
942.512	-14.75104
942.687	50.58386
942.862	4.2148
943.037	12.64469
943.212	27.39791
943.386	-61.10358
943.561	-8.42931
943.736	21.07496
943.911	0
944.086	25.29023
944.26	33.72107
944.435	10.53718
944.61	-33.71489
944.785	42.15228
944.959	10.53718
945.134	29.5056
945.309	37.93663
945.483	54.79979
945.658	16.85977
945.833	8.4297
946.007	8.4297
946.182	42.15228
946.357	50.58386
946.531	-42.14263
946.706	-14.75104
946.88	59.01582
947.055	21.07496
947.229	67.44814
947.404	-42.14263
947.578	105.39804
947.752	-6.32202
947.927	10.53718
948.101	21.07496
948.276	44.26014
948.45	0
948.624	61.12386
948.799	4.2148
948.973	8.4297
949.147	8.4297
949.321	6.32224
949.496	-25.28676
949.67	59.01582
949.844	16.85977
950.018	2.10739
950.193	-48.46317
950.367	-42.14263
950.541	0
950.715	59.01582
950.889	37.93663
951.063	18.96735
951.237	33.72107
951.411	-14.75104
951.585	-40.03573
951.759	4.2148
951.933	35.82884
952.107	44.26014
952.281	-37.92881
952.455	8.4297
952.629	52.69182
952.803	73.77262
952.977	-14.75104
953.151	16.85977
953.325	16.85977
953.499	2.10739
953.672	37.93663
953.846	63.23193
954.02	-31.6079
954.194	59.01582
954.368	8.4297
954.541	59.01582
954.715	35.82884
954.889	-23.17966
955.062	54.79979
955.236	8.4297
955.41	42.15228
955.583	50.58386
955.757	12.64469
955.93	-2.10736
956.104	54.79979
956.278	31.61332
956.451	-31.6079
956.625	44.26014
956.798	33.72107
956.972	50.58386
957.145	46.36803
957.319	69.55627
957.492	61.12386
957.665	-25.28676
957.839	67.44814
958.012	33.72107
958.185	99.07256
958.359	21.07496
958.532	84.31387
958.705	2.10739
958.879	63.23193
959.052	16.85977
959.225	42.15228
959.398	50.58386
959.572	-31.6079
959.745	25.29023
959.918	-6.32202
960.091	-44.2495
960.264	16.85977
960.438	-8.42931
960.611	101.18103
960.784	63.23193
960.957	12.64469
961.13	92.74727
961.303	12.64469
961.476	40.04444
961.649	-46.35635
961.822	67.44814
961.995	59.01582
962.168	54.79979
962.341	0
962.514	12.64469
962.686	-33.71489
962.859	44.26014
963.032	52.69182
963.205	63.23193
963.378	33.72107
963.551	25.29023
963.723	29.5056
963.896	12.64469
964.069	25.29023
964.242	23.18258
964.414	69.55627
964.587	54.79979
964.76	80.0973
964.932	4.2148
965.105	27.39791
965.278	23.18258
965.45	12.64469
965.623	-16.85823
965.795	33.72107
965.968	10.53718
966.14	-12.64382
966.313	-25.28676
966.485	25.29023
966.658	8.4297
966.83	-4.2147
967.003	-12.64382
967.175	77.98905
967.348	46.36803
967.52	37.93663
967.692	94.85568
967.865	50.58386
968.037	-14.75104
968.209	-8.42931
968.382	8.4297
968.554	-4.2147
968.726	2.10739
968.898	59.01582
969.071	8.4297
969.243	61.12386
969.415	-16.85823
969.587	14.75222
969.759	-2.10736
969.932	96.96411
970.104	-4.2147
970.276	16.85977
970.448	86.42218
970.62	42.15228
970.792	-31.6079
970.964	27.39791
971.136	37.93663
971.308	-25.28676
971.48	16.85977
971.652	35.82884
971.824	44.26014
971.996	21.07496
972.168	16.85977
972.339	77.98905
972.511	-31.6079
972.683	73.77262
972.855	6.32224
973.027	75.88082
973.199	2.10739
973.37	-16.85823
973.542	8.4297
973.714	6.32224
973.886	52.69182
974.057	29.5056
974.229	10.53718
974.401	-25.28676
974.572	-12.64382
974.744	-56.89021
974.915	42.15228
975.087	73.77262
975.259	46.36803
975.43	-12.64382
975.602	-16.85823
975.773	46.36803
975.945	16.85977
976.116	16.85977
976.288	-33.71489
976.459	-21.07254
976.63	8.4297
976.802	8.4297
976.973	25.29023
977.145	-27.39383
977.316	16.85977
977.487	-48.46317
977.659	-16.85823
977.83	-56.89021
978.001	-56.89021
978.172	50.58386
978.344	-37.92881
978.515	-14.75104
978.686	-14.75104
978.857	35.82884
979.028	56.90779
979.2	8.4297
979.371	-33.71489
979.542	67.44814
979.713	16.85977
979.884	0
980.055	25.29023
980.226	10.53718
980.397	71.66443
980.568	21.07496
980.739	-25.28676
980.91	8.4297
981.081	25.29023
981.252	33.72107
981.423	-12.64382
981.594	42.15228
981.765	-6.32202
981.936	-56.89021
982.106	8.4297
982.277	-12.64382
982.448	-46.35635
982.619	-16.85823
982.79	4.2148
982.96	-67.42343
983.131	37.93663
983.302	-21.07254
983.472	-10.53658
983.643	52.69182
983.814	25.29023
983.984	-25.28676
984.155	18.96735
984.326	-23.17966
984.496	-14.75104
984.667	14.75222
984.837	-12.64382
985.008	-14.75104
985.178	-25.28676
985.349	-35.82187
985.519	77.98905
985.69	67.44814
985.86	-84.27527
986.031	8.4297
986.201	56.90779
986.371	67.44814
986.542	33.72107
986.712	52.69182
986.882	-44.2495
987.053	6.32224
987.223	-42.14263
987.393	0
987.563	-14.75104
987.734	10.53718
987.904	-14.75104
988.074	-31.6079
988.244	-37.92881
988.414	16.85977
988.585	-8.42931
988.755	25.29023
988.925	-14.75104
989.095	-8.42931
989.265	-61.10358
989.435	44.26014
989.605	-65.31684
989.775	2.10739
989.945	42.15228
990.115	-67.42343
990.285	-35.82187
990.455	-44.2495
990.625	23.18258
990.795	-12.64382
990.965	0
991.134	-29.50088
991.304	-42.14263
991.474	8.4297
991.644	4.2148
991.814	29.5056
991.984	-33.71489
992.153	18.96735
992.323	50.58386
992.493	-23.17966
992.662	-56.89021
992.832	8.4297
993.002	-80.06246
993.171	-29.50088
993.341	8.4297
993.511	44.26014
993.68	-50.56997
993.85	54.79979
994.019	-21.07254
994.189	4.2148
994.358	12.64469
994.528	2.10739
994.697	37.93663
994.867	-33.71489
995.036	77.98905
995.206	27.39791
995.375	0
995.544	31.61332
995.714	-4.2147
995.883	-21.07254
996.052	16.85977
996.222	-2.10736
996.391	-33.71489
996.56	35.82884
996.73	-25.28676
996.899	2.10739
997.068	-14.75104
997.237	50.58386
997.406	4.2148
997.576	25.29023
997.745	-50.56997
997.914	-56.89021
998.083	-8.42931
998.252	40.04444
998.421	16.85977
998.59	2.10739
998.759	18.96735
998.928	-101.12544
999.097	-54.78349
999.266	-42.14263
999.435	-63.21022
999.604	16.85977
999.773	0
999.942	-65.31684
1000.111	21.07496
1000.28	16.85977
1000.448	-75.84956
1000.617	25.29023
1000.786	-75.84956
1000.955	16.85977
1001.124	-67.42343
1001.292	-33.71489
1001.461	27.39791
1001.63	-42.14263
1001.798	-14.75104
1001.967	-58.9969
1002.136	16.85977
1002.304	-29.50088
1002.473	-33.71489
1002.642	35.82884
1002.81	-46.35635
1002.979	16.85977
1003.147	-117.97394
1003.316	-16.85823
1003.484	8.4297
1003.653	-6.32202
1003.821	-84.27527
1003.99	-58.9969
1004.158	2.10739
1004.327	-16.85823
1004.495	-10.53658
1004.663	-25.28676
1004.832	50.58386
1005	-42.14263
1005.168	2.10739
1005.337	0
1005.505	-8.42931
1005.673	-50.56997
1005.842	35.82884
1006.01	-58.9969
1006.178	-33.71489
1006.346	21.07496
1006.514	-31.6079
1006.683	10.53718
1006.851	-21.07254
1007.019	2.10739
1007.187	25.29023
1007.355	16.85977
1007.523	10.53718
1007.691	21.07496
1007.859	-46.35635
1008.027	37.93663
1008.195	2.10739
1008.363	35.82884
1008.531	-33.71489
1008.699	-25.28676
1008.867	12.64469
1009.035	-21.07254
1009.203	-92.70056
1009.37	10.53718
1009.538	56.90779
1009.706	-8.42931
1009.874	-65.31684
1010.042	-42.14263
1010.209	-46.35635
1010.377	-80.06246
1010.545	-73.74306
1010.713	12.64469
1010.88	42.15228
1011.048	52.69182
1011.216	-14.75104
1011.383	-31.6079
1011.551	59.01582
1011.718	-25.28676
1011.886	-8.42931
1012.054	-16.85823
1012.221	-21.07254
1012.389	-42.14263
1012.556	-4.2147
1012.724	-23.17966
1012.891	16.85977
1013.058	67.44814
1013.226	2.10739
1013.393	-67.42343
1013.561	-35.82187
1013.728	10.53718
1013.895	-29.50088
1014.063	-33.71489
1014.23	-31.6079
1014.397	-14.75104
1014.565	4.2148
1014.732	-25.28676
1014.899	-33.71489
1015.066	27.39791
1015.233	12.64469
1015.401	-61.10358
1015.568	10.53718
1015.735	31.61332
1015.902	-12.64382
1016.069	-31.6079
1016.236	-14.75104
1016.403	18.96735
1016.57	-21.07254
1016.737	-21.07254
1016.904	0
1017.071	-50.56997
1017.238	59.01582
1017.405	-18.9654
1017.572	8.4297
1017.739	-6.32202
1017.906	-63.21022
1018.073	18.96735
1018.24	-90.59428
1018.407	12.64469
1018.573	-16.85823
1018.74	-40.03573
1018.907	-80.06246
1019.074	-37.92881
1019.241	-8.42931
1019.407	-16.85823
1019.574	-75.84956
1019.741	-80.06246
1019.907	-54.78349
1020.074	-8.42931
1020.241	4.2148
1020.407	29.5056
1020.574	25.29023
1020.74	33.72107
1020.907	16.85977
1021.073	52.69182
1021.24	-8.42931
1021.406	-4.2147
1021.573	-48.46317
1021.739	-50.56997
1021.906	-33.71489
1022.072	-6.32202
1022.239	-25.28676
1022.405	-42.14263
1022.571	10.53718
1022.738	-46.35635
1022.904	-8.42931
1023.07	-80.06246
1023.237	50.58386
1023.403	29.5056
1023.569	-31.6079
1023.735	25.29023
1023.902	-94.80682
1024.068	-58.9969
1024.234	-2.10736
1024.4	35.82884
1024.566	37.93663
1024.732	18.96735
1024.898	-40.03573
1025.065	-50.56997
1025.231	-71.63655
1025.397	-23.17966
1025.563	25.29023
1025.729	-21.07254
1025.895	-40.03573
1026.061	-6.32202
1026.227	-80.06246
1026.392	-31.6079
1026.558	-46.35635
1026.724	-67.42343
1026.89	-48.46317
1027.056	-42.14263
1027.222	-99.01926
1027.388	21.07496
1027.553	-84.27527
1027.719	-23.17966
1027.885	-33.71489
1028.051	-50.56997
1028.216	-101.12544
1028.382	-90.59428
1028.548	-40.03573
1028.713	-46.35635
1028.879	-31.6079
1029.045	25.29023
1029.21	-14.75104
1029.376	-25.28676
1029.541	-58.9969
1029.707	-2.10736
1029.873	-25.28676
1030.038	-23.17966
1030.204	-23.17966
1030.369	14.75222
1030.534	-29.50088
1030.7	-58.9969
1030.865	-33.71489
1031.031	2.10739
1031.196	-21.07254
1031.361	-2.10736
1031.527	-75.84956
1031.692	25.29023
1031.857	-54.78349
1032.023	-42.14263
1032.188	-67.42343
1032.353	-25.28676
1032.518	0
1032.684	50.58386
1032.849	-6.32202
1033.014	-29.50088
1033.179	29.5056
1033.344	61.12386
1033.509	10.53718
1033.674	-42.14263
1033.839	69.55627
1034.004	0
1034.17	-63.21022
1034.335	-29.50088
1034.5	-80.06246
1034.664	-4.2147
1034.829	-56.89021
1034.994	-2.10736
1035.159	59.01582
1035.324	4.2148
1035.489	10.53718
1035.654	8.4297
1035.819	4.2148
1035.984	-12.64382
1036.148	-40.03573
1036.313	-33.71489
1036.478	-94.80682
1036.643	-29.50088
1036.807	-21.07254
1036.972	-54.78349
1037.137	8.4297
1037.301	12.64469
1037.466	0
1037.631	-46.35635
1037.795	-44.2495
1037.96	50.58386
1038.124	-18.9654
1038.289	-37.92881
1038.454	-33.71489
1038.618	-52.67674
1038.783	12.64469
1038.947	21.07496
1039.111	-42.14263
1039.276	-12.64382
1039.44	-29.50088
1039.605	-14.75104
1039.769	48.47593
1039.933	4.2148
1040.098	0
1040.262	-33.71489
1040.426	-42.14263
1040.591	59.01582
1040.755	-6.32202
1040.919	-37.92881
1041.083	12.64469
1041.248	-8.42931
1041.412	-23.17966
1041.576	31.61332
1041.74	0
1041.904	-16.85823
1042.068	-50.56997
1042.232	-29.50088
1042.397	0
1042.561	-23.17966
1042.725	-46.35635
1042.889	-16.85823
1043.053	-37.92881
1043.217	-42.14263
1043.381	-90.59428
1043.544	-88.48797
1043.708	-33.71489
1043.872	-42.14263
1044.036	-58.9969
1044.2	-73.74306
1044.364	16.85977
1044.528	-80.06246
1044.691	-50.56997
1044.855	-21.07254
1045.019	-69.53
1045.183	2.10739
1045.346	16.85977
1045.51	-25.28676
1045.674	-35.82187
1045.837	-8.42931
1046.001	-25.28676
1046.165	37.93663
1046.328	-80.06246
1046.492	-6.32202
1046.655	-25.28676
1046.819	37.93663
1046.983	8.4297
1047.146	-4.2147
1047.31	-46.35635
1047.473	10.53718
1047.636	-44.2495
1047.8	-8.42931
1047.963	-2.10736
1048.127	-42.14263
1048.29	0
