Data from absorb_only_2.23.25_USB4F045381__8__0113.txt Node

Date: Sun Feb 23 19:13:11 EST 2025
User: ssocol
Spectrometer: USB4F04538
Trigger mode: 4
Integration Time (sec): 2.600000E-3
Scans to average: 1
Electric dark correction enabled: true
Nonlinearity correction enabled: true
Boxcar width: 0
XAxis mode: Wavelengths
Number of Pixels in Spectrum: 3648
>>>>>Begin Spectral Data<<<<<
345.52	-36.17303
345.736	-36.17303
345.952	-36.17303
346.168	-44.60065
346.384	-53.02787
346.6	31.26204
346.816	31.26204
347.032	10.18593
347.248	-19.31659
347.464	-65.66794
347.68	41.80097
347.896	-29.85205
348.112	39.69314
348.328	-23.53085
348.544	-15.10224
348.76	-10.88778
348.975	10.18593
349.191	-17.20943
349.407	-4.56592
349.623	56.55646
349.839	3.86356
350.055	10.18593
350.27	1.75615
350.486	-42.49378
350.702	10.18593
350.918	37.58533
351.133	12.29343
351.349	12.29343
351.565	8.07845
351.781	-15.10224
351.996	16.50851
352.212	58.66448
352.428	71.31307
352.644	-6.67324
352.859	1.75615
353.075	22.83131
353.291	52.34049
353.506	10.18593
353.722	-31.95906
353.938	52.34049
354.153	43.90883
354.369	-44.60065
354.584	18.61609
354.8	37.58533
355.016	-53.02787
355.231	12.29343
355.447	1.75615
355.662	16.50851
355.878	-42.49378
356.093	60.77252
356.309	1.75615
356.524	-15.10224
356.74	31.26204
356.955	-15.10224
357.171	-109.90091
357.386	20.72369
357.602	16.50851
357.817	-6.67324
358.033	-40.38689
358.248	18.61609
358.464	27.04663
358.679	12.29343
358.895	77.63768
359.11	22.83131
359.325	145.11251
359.541	67.09678
359.756	39.69314
359.972	12.29343
360.187	35.47754
360.402	43.90883
360.618	14.40096
360.833	-21.42373
361.048	-23.53085
361.264	12.29343
361.479	73.42125
361.694	-4.56592
361.909	62.88058
362.125	-31.95906
362.34	29.15432
362.555	-6.67324
362.77	64.98867
362.986	54.44846
363.201	-21.42373
363.416	64.98867
363.631	-6.67324
363.847	24.93896
364.062	-0.35123
364.277	111.37229
364.492	43.90883
364.707	73.42125
364.922	27.04663
365.138	60.77252
365.353	77.63768
365.568	48.12461
365.783	69.20492
365.998	3.86356
366.213	56.55646
366.428	39.69314
366.643	73.42125
366.858	5.97099
367.073	54.44846
367.288	10.18593
367.503	-29.85205
367.718	8.07845
367.933	3.86356
368.148	69.20492
368.363	14.40096
368.578	-0.35123
368.793	43.90883
369.008	33.36978
369.223	18.61609
369.438	86.0708
369.653	86.0708
369.868	52.34049
370.083	12.29343
370.298	98.72115
370.513	37.58533
370.728	-19.31659
370.943	77.63768
371.157	31.26204
371.372	77.63768
371.587	12.29343
371.802	37.58533
372.017	77.63768
372.232	1.75615
372.446	20.72369
372.661	64.98867
372.876	96.6127
373.091	18.61609
373.306	18.61609
373.52	-2.45859
373.735	12.29343
373.95	46.01671
374.165	-29.85205
374.379	-34.06606
374.594	3.86356
374.809	3.86356
375.023	67.09678
375.238	48.12461
375.453	56.55646
375.667	-12.99502
375.882	64.98867
376.097	20.72369
376.311	-17.20943
376.526	39.69314
376.741	107.15516
376.955	22.83131
377.17	48.12461
377.384	39.69314
377.599	5.97099
377.813	1.75615
378.028	-19.31659
378.242	90.28749
378.457	-74.09415
378.672	10.18593
378.886	-2.45859
379.101	46.01671
379.315	94.50427
379.53	35.47754
379.744	48.12461
379.958	113.4809
380.173	46.01671
380.387	27.04663
380.602	8.07845
380.816	14.40096
381.031	-74.09415
381.245	94.50427
381.459	-53.02787
381.674	39.69314
381.888	20.72369
382.103	35.47754
382.317	86.0708
382.531	-10.88778
382.746	8.07845
382.96	27.04663
383.174	81.85419
383.388	-6.67324
383.603	5.97099
383.817	48.12461
384.031	33.36978
384.246	58.66448
384.46	18.61609
384.674	1.75615
384.888	54.44846
385.103	5.97099
385.317	35.47754
385.531	-2.45859
385.745	48.12461
385.959	14.40096
386.174	56.55646
386.388	-29.85205
386.602	-19.31659
386.816	48.12461
387.03	-6.67324
387.244	113.4809
387.458	33.36978
387.672	35.47754
387.887	12.29343
388.101	31.26204
388.315	18.61609
388.529	62.88058
388.743	27.04663
388.957	8.07845
389.171	73.42125
389.385	31.26204
389.599	79.74592
389.813	-15.10224
390.027	46.01671
390.241	35.47754
390.455	10.18593
390.669	8.07845
390.883	12.29343
391.097	83.96248
391.311	-6.67324
391.525	27.04663
391.738	-15.10224
391.952	35.47754
392.166	-8.78052
392.38	37.58533
392.594	90.28749
392.808	56.55646
393.022	58.66448
393.236	10.18593
393.449	37.58533
393.663	-34.06606
393.877	-6.67324
394.091	77.63768
394.305	-12.99502
394.518	56.55646
394.732	16.50851
394.946	50.23254
395.16	-27.74501
395.373	-2.45859
395.587	-23.53085
395.801	-6.67324
396.015	52.34049
396.228	1.75615
396.442	41.80097
396.656	73.42125
396.869	-34.06606
397.083	102.93811
397.297	-6.67324
397.51	86.0708
397.724	-40.38689
397.938	-0.35123
398.151	5.97099
398.365	37.58533
398.578	14.40096
398.792	18.61609
399.005	31.26204
399.219	64.98867
399.433	14.40096
399.646	-6.67324
399.86	-23.53085
400.073	50.23254
400.287	43.90883
400.5	29.15432
400.714	27.04663
400.927	22.83131
401.141	56.55646
401.354	35.47754
401.567	35.47754
401.781	56.55646
401.994	1.75615
402.208	60.77252
402.421	-15.10224
402.635	10.18593
402.848	69.20492
403.061	60.77252
403.275	-27.74501
403.488	64.98867
403.701	-59.34802
403.915	-15.10224
404.128	56.55646
404.341	77.63768
404.555	-48.81431
404.768	8.07845
404.981	52.34049
405.195	39.69314
405.408	-42.49378
405.621	77.63768
405.834	50.23254
406.048	81.85419
406.261	-23.53085
406.474	29.15432
406.687	39.69314
406.9	64.98867
407.114	79.74592
407.327	77.63768
407.54	-44.60065
407.753	39.69314
407.966	60.77252
408.179	43.90883
408.392	41.80097
408.605	96.6127
408.819	35.47754
409.032	75.52945
409.245	-4.56592
409.458	117.69816
409.671	-31.95906
409.884	-4.56592
410.097	92.39587
410.31	31.26204
410.523	39.69314
410.736	3.86356
410.949	60.77252
411.162	24.93896
411.375	-19.31659
411.588	107.15516
411.801	-31.95906
412.014	39.69314
412.227	37.58533
412.44	60.77252
412.653	-86.73269
412.865	96.6127
413.078	79.74592
413.291	50.23254
413.504	81.85419
413.717	98.72115
413.93	94.50427
414.143	69.20492
414.356	96.6127
414.568	29.15432
414.781	12.29343
414.994	94.50427
415.207	98.72115
415.42	94.50427
415.632	86.0708
415.845	43.90883
416.058	75.52945
416.271	107.15516
416.483	128.24171
416.696	60.77252
416.909	119.80683
417.121	77.63768
417.334	60.77252
417.547	54.44846
417.759	5.97099
417.972	-38.27997
418.185	71.31307
418.397	37.58533
418.61	52.34049
418.823	43.90883
419.035	105.04662
419.248	54.44846
419.46	-6.67324
419.673	71.31307
419.885	-21.42373
420.098	48.12461
420.311	43.90883
420.523	88.17913
420.736	18.61609
420.948	52.34049
421.161	33.36978
421.373	37.58533
421.586	27.04663
421.798	79.74592
422.01	73.42125
422.223	119.80683
422.435	52.34049
422.648	86.0708
422.86	56.55646
423.073	60.77252
423.285	60.77252
423.497	79.74592
423.71	138.7858
423.922	77.63768
424.134	27.04663
424.347	157.7665
424.559	60.77252
424.771	102.93811
424.984	43.90883
425.196	-17.20943
425.408	79.74592
425.621	153.54842
425.833	94.50427
426.045	92.39587
426.257	31.26204
426.47	14.40096
426.682	145.11251
426.894	88.17913
427.106	52.34049
427.318	149.33043
427.531	69.20492
427.743	54.44846
427.955	102.93811
428.167	98.72115
428.379	128.24171
428.591	119.80683
428.804	98.72115
429.016	111.37229
429.228	69.20492
429.44	119.80683
429.652	126.13296
429.864	124.02423
430.076	79.74592
430.288	124.02423
430.5	90.28749
430.712	35.47754
430.924	117.69816
431.136	111.37229
431.348	136.67694
431.56	98.72115
431.772	168.31207
431.984	52.34049
432.196	109.26371
432.408	183.07674
432.62	60.77252
432.832	134.5681
433.044	170.42125
433.256	140.89469
433.468	170.42125
433.679	145.11251
433.891	124.02423
434.103	216.8283
434.315	151.43941
434.527	229.48645
434.739	130.35049
434.95	168.31207
435.162	143.00359
435.374	132.45929
435.586	183.07674
435.798	170.42125
436.009	193.62355
436.221	180.96744
436.433	145.11251
436.645	178.85816
436.856	248.47499
437.068	231.59621
437.28	164.09378
437.491	214.71868
437.703	176.7489
437.915	178.85816
438.126	170.42125
438.338	195.73297
438.55	299.11864
438.761	273.79547
438.973	193.62355
439.184	214.71868
439.396	237.92561
439.608	221.0476
439.819	237.92561
440.031	191.51415
440.242	199.95188
440.454	271.68532
440.665	206.28038
440.877	231.59621
441.088	252.69488
441.3	221.0476
441.511	206.28038
441.723	324.44443
441.934	223.15728
442.146	237.92561
442.357	305.44984
442.569	271.68532
442.78	256.91485
442.991	330.77629
443.203	326.55503
443.414	326.55503
443.626	282.23623
443.837	322.33385
444.048	273.79547
444.26	259.02486
444.471	339.219
444.682	349.77279
444.894	330.77629
445.105	332.88694
445.316	339.219
445.528	337.1083
445.739	282.23623
445.95	305.44984
446.161	311.78121
446.373	349.77279
446.584	229.48645
446.795	280.12601
447.006	316.00221
447.217	282.23623
447.429	273.79547
447.64	305.44984
447.851	307.56028
448.062	330.77629
448.273	318.11274
448.484	372.99264
448.695	419.43842
448.907	394.10337
449.118	372.99264
449.329	288.56699
449.54	410.99314
449.751	372.99264
449.962	383.5478
450.173	362.43791
450.384	396.21454
450.595	527.13733
450.806	417.32708
451.017	408.88187
451.228	478.56239
451.439	446.88733
451.65	421.54978
451.861	451.11047
452.072	425.77255
452.283	487.00965
452.494	518.68897
452.705	544.03473
452.915	476.45062
453.126	487.00965
453.337	457.4453
453.548	537.6981
453.759	558.82068
453.97	651.77565
454.181	554.59606
454.391	586.28206
454.602	630.64738
454.813	584.16957
455.024	774.34207
455.235	501.79293
455.445	649.66276
455.656	569.38248
455.867	643.32419
456.078	544.03473
456.288	658.11436
456.499	634.87293
456.71	713.05426
456.921	672.90511
457.131	780.68268
457.342	681.35723
457.553	748.98054
457.763	626.42187
457.974	806.04598
458.184	746.86714
458.395	831.41065
458.606	905.3981
458.816	1019.56848
459.027	880.02982
459.237	896.94188
459.448	877.91585
459.659	930.7675
459.869	951.90949
460.08	1040.71324
460.29	1102.03617
460.501	1078.77523
460.711	1049.1713
460.922	964.59503
461.132	1148.55979
461.343	1104.15084
461.553	1129.52714
461.764	1036.48424
461.974	1102.03617
462.184	1127.41242
462.395	1277.56664
462.605	1457.34346
462.816	1112.60953
463.026	1357.93641
463.236	1493.29932
463.447	1406.58225
463.657	1379.08671
463.867	1582.1305
464.078	1470.03377
464.288	1501.7595
464.498	1590.5905
464.709	1550.40531
464.919	1552.52034
465.129	1689.99285
465.339	1647.69462
465.55	1683.64819
465.76	1747.09354
465.97	1626.54513
466.18	1658.26928
466.391	1827.45286
466.601	1742.86394
466.811	1956.43638
467.021	1848.59901
467.231	1988.15042
467.441	1956.43638
467.651	2182.62918
467.862	2144.58402
468.072	2326.32992
468.282	2294.63488
468.492	2218.55824
468.702	2529.12363
468.912	2404.50155
469.122	2457.31218
469.332	2638.92687
469.542	2495.33162
469.752	2719.14653
469.962	2706.48151
470.172	2681.15005
470.382	2942.81441
470.592	2835.22021
470.802	2845.7703
471.012	3113.61958
471.222	3105.18715
471.432	3195.8223
471.642	3172.63942
471.852	3271.67953
472.062	3105.18715
472.272	3440.17181
472.482	3290.64043
472.691	3715.82828
472.901	3482.27724
473.111	3553.83979
473.321	3726.34312
473.531	3833.5666
473.741	3799.93335
473.95	4024.75827
474.16	3841.97412
474.37	4070.9551
474.58	4037.3584
474.79	4536.54866
474.999	4339.53506
475.209	4238.85836
475.419	4350.01936
475.628	4549.11739
475.838	4452.73676
476.048	4708.25186
476.258	4626.6069
476.467	4959.25093
476.677	4892.34999
476.886	5172.33999
477.096	5145.19499
477.306	5082.53771
477.515	5099.24836
477.725	5118.04607
477.935	5226.61817
478.144	5441.48788
478.354	5239.14166
478.563	5662.35558
478.773	5643.61295
478.982	5537.36864
479.192	5889.19789
479.401	5693.58905
479.611	5828.87272
479.82	6047.19732
480.03	6051.35336
480.239	6020.18075
480.449	6144.83943
480.658	6429.16026
480.868	6437.45501
481.077	6590.84097
481.287	6518.30937
481.496	6934.46467
481.705	6911.71386
481.915	7062.64549
482.124	6831.02977
482.333	7052.31153
482.543	6955.14486
482.752	7165.95437
482.961	7062.64549
483.171	7475.54982
483.38	7209.32752
483.589	7663.13335
483.799	7749.65099
484.008	7914.34442
484.217	7945.20969
484.426	7996.64157
484.636	7947.26721
484.845	7879.35817
485.054	7893.765
485.263	8140.58335
485.472	8169.35989
485.682	8274.15577
485.891	8465.12312
486.1	8444.59701
486.309	8403.53904
486.518	8688.73492
486.727	8807.63104
486.936	9102.56032
487.146	8772.78855
487.355	8770.73883
487.564	8963.33384
487.773	9118.93462
487.982	8992.00472
488.191	9215.11158
488.4	9059.5725
488.609	9303.07057
488.818	9354.19536
489.027	9611.7099
489.236	9462.54605
489.445	9703.61855
489.654	9442.10601
489.863	9913.87132
490.072	9623.9662
490.281	9948.55809
490.49	10058.71187
490.698	10211.63484
490.907	9932.23543
491.116	10299.27578
491.325	10193.28821
491.534	10289.08626
491.743	10411.33862
491.952	10517.25268
492.16	10604.80951
492.369	10702.52031
492.578	10621.09661
492.787	10814.44645
492.996	10757.47037
493.204	11011.7578
493.413	10999.55606
493.622	11245.54917
493.831	10987.35392
494.039	11318.70753
494.248	11479.20413
494.457	11387.78954
494.665	11412.16869
494.874	11456.86015
495.083	11712.73255
495.291	11499.51583
495.5	11613.24398
495.709	11613.24398
495.917	11718.82299
496.126	11787.84247
496.335	11783.78278
496.543	11946.14415
496.752	12080.05307
496.96	12491.72184
497.169	12144.96642
497.377	12343.71664
497.586	12213.92845
497.794	12240.29404
498.003	12301.13309
498.211	12485.64013
498.42	12246.37824
498.628	12447.12127
498.837	12716.70551
499.045	12903.12374
499.254	12830.18306
499.462	12722.78512
499.671	12955.79883
499.879	13300.13152
500.087	12941.61742
500.296	13040.88205
500.504	12886.9153
500.713	13077.34361
500.921	13699.00138
501.129	13241.40177
501.338	13089.49712
501.546	13684.8307
501.754	13200.89637
501.962	13632.19533
502.171	13445.92823
502.379	13478.32473
502.587	13429.72961
502.795	13723.29362
503.004	13705.07448
503.212	13931.78431
503.42	13879.15844
503.628	13988.45635
503.837	13919.64004
504.045	14008.69589
504.253	13976.31251
504.461	13875.11022
504.669	14312.2622
504.877	14445.81801
505.085	14099.77084
505.294	14453.91208
505.502	14312.2622
505.71	14538.89854
505.918	14233.33937
506.126	14381.06455
506.334	14263.69464
506.542	14704.8184
506.75	14405.34728
506.958	14779.68255
507.166	14753.37906
507.374	14561.15652
507.582	14828.24252
507.79	14977.96698
507.998	14795.86926
508.206	15131.73603
508.414	15172.20144
508.622	15317.87719
508.83	15052.82837
509.037	15542.46396
509.245	14805.98592
509.453	15374.52919
509.661	15149.94546
509.869	15461.53108
510.077	15097.34041
510.285	15582.93079
510.492	15696.23958
510.7	15811.57474
510.908	15431.18149
511.116	15429.15818
511.324	15390.71552
511.531	15671.9589
511.739	15356.31959
511.947	15629.46802
512.155	15514.13734
512.362	15621.37456
512.57	15825.73895
512.778	15742.77793
512.985	15866.20842
513.193	15924.89
513.401	16062.4926
513.608	16181.88867
513.816	16187.9598
514.024	16086.7761
514.231	16068.56346
514.439	16230.45819
514.646	16224.38694
514.854	16418.67489
515.061	16074.63432
515.269	16285.1001
515.477	16424.74667
515.684	16590.71592
515.892	16451.05793
516.099	16898.40662
516.307	16748.6029
516.514	16983.43656
516.722	16529.99381
516.929	16884.23541
517.136	16653.4642
517.344	16987.48572
517.551	16866.01546
517.759	16651.44003
517.966	17135.28755
518.173	17066.44652
518.381	17317.52981
518.588	17032.0272
518.796	17153.51072
519.003	17100.86663
519.21	17202.10698
519.418	17420.81113
519.625	17313.47972
519.832	17339.8055
520.039	17542.3289
520.247	17761.09021
520.454	17487.6445
520.661	17864.40775
520.868	17487.6445
521.076	18060.93864
521.283	17615.24508
521.49	17939.36923
521.697	17586.88829
521.904	18121.72817
522.112	17704.37061
522.319	18152.12416
522.526	17915.05688
522.733	18152.12416
522.94	18206.83902
523.147	18466.26489
523.354	18229.13102
523.561	18683.17668
523.768	18190.62693
523.975	18533.15819
524.183	18443.96805
524.39	18596.00118
524.597	18409.5102
524.804	18666.95743
525.011	18664.93005
525.218	18610.19205
525.425	18804.82905
525.632	18954.8867
525.838	18885.93857
526.045	18571.67442
526.252	19056.28947
526.459	19137.41899
526.666	18922.43994
526.873	19036.0081
527.08	18924.46783
527.287	18924.46783
527.494	18829.16124
527.701	19482.29271
527.907	19332.15655
528.114	19364.6165
528.321	19809.01913
528.528	19721.74618
528.735	19691.30395
528.941	19455.9158
529.148	19488.37979
529.355	20048.55223
529.562	19553.31098
529.768	19813.07852
529.975	19326.07043
530.182	19922.68856
530.388	19890.21023
530.595	19926.74842
530.802	19715.65765
531.008	19865.85219
531.215	20038.40134
531.422	20422.17831
531.628	19886.15052
531.835	20016.06974
532.042	20342.97395
532.248	20235.34749
532.455	20477.01583
532.661	20393.74524
532.868	20375.46727
533.074	20452.64322
533.281	20676.08134
533.487	21114.97861
533.694	20609.0446
533.9	21432.07843
534.107	20789.85102
534.313	21304.00708
534.52	20915.82546
534.726	21279.61434
534.933	21218.63504
535.139	21192.21181
535.345	20696.3964
535.552	21240.9937
535.758	21539.83328
535.965	21570.33195
536.171	21383.28747
536.377	21686.235
536.584	21127.17293
536.79	21334.49881
536.996	21511.36865
537.203	21688.2685
537.409	21340.59727
537.615	21806.21819
537.821	21659.79985
538.028	21834.69076
538.234	21608.96488
538.44	21706.57018
538.646	21796.0496
538.853	21773.67904
539.059	21779.78005
539.265	22170.31669
539.471	22005.54197
539.677	22080.80638
539.883	21830.6232
540.09	22109.28615
540.296	22056.39573
540.502	22693.28
540.708	22520.28917
540.914	22341.21999
541.12	22322.90768
541.326	22381.91507
541.532	22679.03274
541.738	22902.93795
541.944	22705.49208
542.15	22992.51161
542.356	22695.31534
542.562	23163.53379
542.768	22890.72387
542.974	22756.37709
543.18	23165.56991
543.386	23090.23571
543.592	23375.30737
543.798	23448.62162
544.004	23383.4532
544.21	23593.22541
544.415	23230.72741
544.621	23550.45366
544.827	23167.60603
545.033	23858.03233
545.239	23430.29268
545.445	24137.15107
545.651	23471.02401
545.856	23843.77223
546.062	23778.585
546.268	23925.26045
546.474	23487.31689
546.679	23813.21534
546.885	23228.69119
547.091	23605.44615
547.297	22996.58329
547.502	23737.84451
547.708	23646.18276
547.914	23762.28866
548.119	23794.88153
548.325	23819.32667
548.531	23623.77747
548.736	24181.97793
548.942	24212.54246
549.147	23933.40952
549.353	23829.51227
549.559	24167.7147
549.764	24071.95073
549.97	24012.86538
550.175	24296.08861
550.381	24503.95437
550.586	24298.12638
550.792	24982.95985
550.997	24789.30328
551.203	24614.01176
551.408	24834.14817
551.614	25035.96424
551.819	24903.45617
552.025	24899.37916
552.23	24638.46996
552.435	24781.14979
552.641	25015.57775
552.846	24976.84405
553.052	24956.45823
553.257	25141.97761
553.462	25084.89273
553.668	25015.57775
553.873	24946.2654
554.078	25201.10305
554.283	25374.41225
554.489	25321.39839
554.694	25358.10014
554.899	25755.74487
555.105	25388.68546
555.31	25541.619
555.515	25404.99782
555.72	25698.64254
555.925	25331.59325
556.131	25892.38863
556.336	25303.04777
556.541	25937.25855
556.746	25696.6032
556.951	25543.65819
557.156	25529.3839
557.361	25584.44244
557.567	25843.44065
557.772	26022.92175
557.977	25927.06077
558.182	26016.80284
558.387	26075.95292
558.592	26163.66093
558.797	26228.93408
559.002	26104.50867
559.207	26000.48584
559.412	25976.01056
559.617	25772.0601
559.822	26414.56397
560.027	26475.76359
560.232	26437.00366
560.437	26498.20381
560.642	26428.84375
560.847	26779.74251
561.051	26453.32356
561.256	26432.9237
561.461	26563.48555
561.666	26616.52813
561.871	26577.76614
562.076	26638.96953
562.281	26736.8978
562.485	26379.88482
562.69	26494.12376
562.895	26302.36844
563.1	26857.27266
563.305	26608.36766
563.509	26875.63537
563.714	27361.2678
563.919	26836.86978
564.123	26863.39355
564.328	26751.1793
564.533	26765.46087
564.737	26736.8978
564.942	26916.44182
565.147	26965.4103
565.351	27279.6436
565.556	27057.22838
565.761	26920.52249
565.965	27185.77836
566.17	27314.33363
566.374	27332.69909
566.579	27210.26467
566.784	27165.37324
566.988	27312.29303
567.193	27620.43805
567.397	27332.69909
567.602	27757.17362
567.806	27279.6436
568.011	27853.09577
568.215	27881.66882
568.42	27816.35932
568.624	27579.62251
568.828	27634.7236
569.033	27651.05002
569.237	28236.80959
569.442	27585.74481
569.646	27459.21954
569.85	27761.25536
570.055	28306.20883
570.259	28202.11045
570.463	27838.80933
570.668	27832.68658
570.872	28000.04529
571.076	28177.61712
571.281	27840.85024
571.485	27904.11924
571.689	28420.51619
571.893	28342.95012
572.098	28557.28118
572.302	27830.64567
572.506	28381.73296
572.71	28357.23849
572.914	28630.76881
573.119	28657.30635
573.323	28532.78561
573.527	28518.4966
573.731	29022.72571
573.935	28706.29918
574.139	28275.59137
574.343	27838.80933
574.547	28206.19268
574.751	28881.86179
574.955	28626.68613
575.159	28718.54749
575.364	28675.67859
575.568	28747.12701
575.772	28473.58861
575.976	28434.80485
576.18	28771.6239
576.383	28920.64991
576.587	29259.55156
576.791	28867.57152
576.995	29120.72092
577.199	29161.55296
577.403	28822.65958
577.607	29202.38542
577.811	29245.25995
578.015	28659.3477
578.219	28945.14787
578.422	29284.05159
578.626	29314.67683
578.83	29294.25998
579.034	29565.81275
579.238	29273.84323
579.442	29772.04213
579.645	29310.59345
579.849	29547.43641
580.053	29555.60366
580.257	29304.46839
580.46	29602.5657
580.664	29475.97368
580.868	29594.39835
581.071	29576.02187
581.275	30010.9555
581.479	29786.33566
581.682	29829.21659
581.886	30102.84937
582.09	29761.83249
582.293	30288.6864
582.497	30168.19755
582.7	30450.02551
582.904	30439.81394
583.107	30537.84625
583.311	30129.39692
583.515	30443.89857
583.718	30468.4064
583.922	30529.67678
584.125	30345.86901
584.329	30023.20788
584.532	30170.23969
584.735	30221.29382
584.939	29743.45522
585.142	30206.99859
585.346	30552.14287
585.549	30762.51478
585.753	30292.77084
585.956	30883.02547
586.159	30635.88148
586.363	31091.37752
586.566	31322.21688
586.769	30948.38922
586.973	30405.09486
587.176	30719.62228
587.379	31015.7971
587.582	30748.21722
587.786	30637.92391
587.989	30876.89769
588.192	31007.62637
588.395	31493.82729
588.599	31477.48295
588.802	31365.11842
589.005	31385.54797
589.208	31467.26778
589.411	30592.9907
589.615	30885.06807
589.818	31156.74599
590.021	31332.43147
590.224	31320.17397
590.427	31403.9347
590.63	31843.21404
590.833	31638.88808
591.036	31647.06078
591.239	31906.5588
591.442	31473.39688
591.645	31604.15443
591.848	31743.09207
592.051	31565.33506
592.254	31412.10662
592.457	31504.04256
592.66	31115.89051
592.863	31800.30409
593.066	32043.47147
593.269	31673.62224
593.472	32037.34087
593.675	32174.262
593.878	31612.32701
594.081	31920.8627
594.284	31385.54797
594.486	32253.9666
594.689	32229.44177
594.892	31724.7028
595.095	32129.30182
595.298	32311.19238
595.5	32462.44015
595.703	33008.26535
595.906	32204.91724
596.109	32043.47147
596.311	32347.98127
596.514	32172.21834
596.717	32292.7982
596.92	32347.98127
597.122	32848.79251
597.325	32595.30307
597.528	32801.77145
597.73	33286.35981
597.933	32609.61197
598.136	32515.58415
598.338	32192.65509
598.541	32523.76029
598.743	32771.10625
598.946	32705.68903
599.148	32944.88322
599.351	32818.12645
599.554	32750.6631
599.756	33043.02438
599.959	32957.15053
600.161	32538.06862
600.363	33008.26535
600.566	33088.00781
600.768	33317.03519
600.971	33478.6032
601.173	32932.616
601.376	33153.44061
601.578	33423.38165
601.78	33562.46242
601.983	33325.21541
602.185	33722.01415
602.388	33255.68508
602.59	33214.78644
602.792	33364.07206
602.995	33151.39579
603.197	33038.93504
603.399	33255.68508
603.601	33116.63431
603.804	33276.13483
604.006	33122.76863
604.208	32848.79251
604.41	32891.72595
604.613	33290.44983
604.815	33470.42209
605.017	33494.96556
605.219	33515.4188
605.421	33359.98184
605.623	33509.2828
605.826	33705.64896
606.028	33257.73004
606.23	33609.5077
606.432	33513.37346
606.634	34264.23561
606.836	33619.73516
607.038	33613.59867
607.24	33572.68951
607.442	33734.28817
607.644	33486.78435
607.846	33758.83658
608.048	34108.70489
608.25	33719.96849
608.452	33523.60018
608.654	33374.29767
608.856	33202.51707
609.058	33454.06001
609.26	34028.90132
609.462	33799.75165
609.664	33695.42083
609.866	33515.4188
610.067	33237.28055
610.269	33353.84652
610.471	33120.72385
610.673	33452.01477
610.875	33627.91718
611.077	33531.78161
611.278	33478.6032
611.48	33967.51766
611.682	33677.01039
611.884	34460.72703
612.085	33871.35627
612.287	34456.63309
612.489	34071.87179
612.69	34350.19618
612.892	33897.95334
613.094	34407.50703
613.295	33840.66807
613.497	33932.735
613.699	34305.16837
613.9	34006.3936
614.102	33793.61431
614.304	33137.08214
614.505	32842.65925
614.707	33218.87625
614.908	33550.19001
615.11	33848.85152
615.311	33617.68966
615.513	33274.08984
615.714	33589.05302
615.916	33828.393
616.117	34063.68681
616.319	34178.28176
616.52	34143.49279
616.722	34604.02521
616.923	34792.39108
617.124	34747.34378
617.326	33957.28736
617.527	34129.16823
617.729	34286.74844
617.93	33973.65588
618.131	34620.40343
618.333	33394.74912
618.534	34227.39743
618.735	34491.4321
618.937	33844.75979
619.138	33865.21857
619.339	34032.99367
619.54	33883.63177
619.742	34069.82554
619.943	33756.79086
620.144	33922.50499
620.345	34628.59264
620.546	34552.84499
620.748	34644.97126
620.949	34411.60078
621.15	34331.77548
621.351	34217.16482
621.552	33942.96509
621.753	33969.56373
621.954	34411.60078
622.155	34131.21459
622.356	34223.30438
622.558	34129.16823
622.759	34225.3509
622.96	34184.4211
623.161	34311.30841
623.362	34219.21134
623.563	34700.2511
623.764	34294.93503
623.965	34419.78833
624.166	33977.74805
624.366	33844.75979
624.567	33789.52276
624.768	34311.30841
624.969	33668.82806
625.17	34088.24191
625.371	34362.47682
625.572	34051.40946
625.773	34188.51401
625.973	34616.30885
626.174	34520.09099
626.375	34425.92903
626.576	34575.36397
626.777	34671.58709
626.977	34475.05595
627.178	34522.13809
627.379	34372.71079
627.58	35165.13833
627.78	34509.85558
627.981	34384.99169
628.182	34337.91568
628.382	34653.16067
628.583	34393.17903
628.784	34131.21459
628.984	33617.68966
629.185	34724.82091
629.386	34161.91035
629.586	34692.0613
629.787	34651.11331
629.987	34397.27272
630.188	34299.02835
630.388	34636.78192
630.589	34163.95676
630.79	34673.63449
630.99	34049.36325
631.191	34491.4321
631.391	34601.97795
631.591	34536.46786
631.792	34364.5236
631.992	35163.08985
632.193	34894.77921
632.393	34628.59264
632.594	34440.25748
632.794	34683.87156
632.994	34522.13809
633.195	34317.44849
633.395	34473.00895
633.595	34100.51965
633.796	34112.79753
633.996	34816.96323
634.196	34880.44421
634.397	35279.86096
634.597	34948.02544
634.797	35099.58929
634.997	34339.96242
635.198	34663.39753
635.398	34348.14942
635.598	34778.05762
635.798	34655.20803
635.998	34675.6819
636.199	34708.44096
636.399	35429.43324
636.599	35085.25108
636.799	35099.58929
636.999	34599.9307
637.199	34718.6784
637.399	34765.77197
637.599	35130.3148
637.799	34499.62028
637.999	35322.88588
638.199	35017.65975
638.399	34849.72707
638.599	35150.79906
638.799	35083.20279
638.999	34816.96323
639.199	34814.91553
639.399	35277.81221
639.599	34829.24954
639.799	34301.07502
639.999	34624.49803
640.199	34739.15358
640.399	34874.3007
640.599	34370.66399
640.799	35370.01093
640.998	34780.10524
641.198	35306.49518
641.398	34945.97745
641.598	35394.59896
641.798	35503.20481
641.997	35589.2801
642.197	35271.66598
642.397	35749.15896
642.597	35511.40206
642.796	35245.03284
642.996	34716.6309
643.196	34683.87156
643.395	34417.74144
643.595	35189.72048
643.795	35202.01181
643.994	35312.64166
644.194	35394.59896
644.394	35552.38956
644.593	35531.89555
644.793	35691.76279
644.992	35396.64799
645.192	35540.0931
645.392	35486.81055
645.591	35240.93551
645.791	35708.16126
645.99	35699.96199
646.19	35410.99138
646.389	35523.69809
646.589	35199.96324
646.788	34835.39275
646.987	35058.62359
647.187	35193.81757
647.386	35449.92468
647.586	35634.37085
647.785	35611.82515
647.984	35343.37471
648.184	36167.46328
648.383	35980.83741
648.582	35628.22196
648.782	35794.25893
648.981	35345.42362
649.18	36233.10158
649.38	36173.61661
649.579	36202.33286
649.778	35658.96688
649.977	36138.74845
650.177	35335.17912
650.376	35263.47108
650.575	35492.95836
650.774	35872.16518
650.973	35554.43899
651.173	35841.41176
651.372	35417.13862
651.571	36276.18005
651.77	35743.00916
651.969	36233.10158
652.168	35732.75962
652.367	35935.72625
652.566	36120.28953
652.765	36382.86216
652.964	35609.77558
653.163	36112.08572
653.362	35861.9139
653.561	35224.54637
653.76	35169.23531
653.959	35439.6789
654.158	36177.71886
654.357	35816.80992
654.556	35093.44432
654.755	36425.95006
654.954	35902.91986
655.153	35316.73933
655.352	35310.59283
655.551	35392.54993
655.749	35376.15787
655.948	35687.66323
656.147	35251.17888
656.346	35583.13156
656.545	35601.57732
656.743	36157.20785
656.942	36239.25548
657.141	36432.1057
657.34	36149.00362
657.538	35765.55864
657.737	36066.96643
657.936	35870.11491
658.135	36071.06807
658.333	35781.95868
658.532	35640.51978
658.731	35925.4741
658.929	35812.70969
659.128	35378.20686
659.326	35732.75962
659.525	36179.77
659.724	35693.81258
659.922	35529.84618
660.121	35124.16961
660.319	35556.48843
660.518	35595.42869
660.716	35495.00764
660.915	36631.16884
661.113	36384.9139
661.312	35687.66323
661.51	35970.58463
661.709	36272.07723
661.907	36087.47485
662.105	35882.4166
662.304	36025.95134
662.502	36409.5353
662.701	36499.82147
662.899	35790.15883
663.097	36069.01724
663.296	35925.4741
663.494	35997.24216
663.692	35935.72625
663.891	35993.14094
664.089	35523.69809
664.287	35689.71301
664.485	35773.75862
664.684	35538.0437
664.882	36011.59661
665.08	35529.84618
665.278	36015.69793
665.476	35199.96324
665.675	35505.25412
665.873	36056.71244
666.071	36097.72927
666.269	35714.31078
666.467	35687.66323
666.665	35556.48843
666.863	35146.70217
667.061	35501.15551
667.259	35732.75962
667.457	36366.44844
667.655	35859.86366
667.853	36036.2049
668.051	36194.1281
668.249	36577.80579
668.447	36430.05381
668.645	36341.82861
668.843	36444.41715
669.041	36253.6148
669.239	35839.36157
669.437	35249.13019
669.635	36132.59543
669.833	35751.2089
670.031	36044.40784
670.229	35638.47013
670.426	35950.07951
670.624	35490.90909
670.822	35542.14249
671.02	35622.07312
671.218	35663.0663
671.415	36144.90153
671.613	35435.58062
671.811	35249.13019
672.009	35417.13862
672.206	35265.5198
672.404	35388.45188
672.602	35306.49518
672.799	35560.58731
672.997	35986.98915
673.195	35513.45139
673.392	35441.72804
673.59	35216.35192
673.788	34960.31346
673.985	35226.59499
674.183	35550.34014
674.38	35540.0931
674.578	35570.83462
674.775	35786.05874
674.973	35507.30343
675.17	35138.50845
675.368	35501.15551
675.565	35570.83462
675.763	35919.32288
675.96	36040.30636
676.158	35950.07951
676.355	35113.92773
676.553	35347.47254
676.75	34728.91594
676.947	34569.22238
677.145	34049.36325
677.342	34690.01386
677.539	34657.2554
677.737	35265.5198
677.934	35136.46003
678.131	35279.86096
678.329	34931.64166
678.526	34739.15358
678.723	34737.10604
678.92	34880.44421
679.118	34454.58612
679.315	34585.60003
679.512	34362.47682
679.709	34708.44096
679.906	34581.50559
680.104	35333.13024
680.301	34907.06653
680.498	34520.09099
680.695	34929.59371
680.892	35140.55687
681.089	34862.01381
681.286	34882.49205
681.483	34182.37465
681.68	34810.82013
681.877	34859.96601
682.075	34700.2511
682.272	34409.5539
682.469	34776.01
682.665	35036.09325
682.862	34771.91477
683.059	34534.42074
683.256	34425.92903
683.453	34481.19698
683.65	34513.94973
683.847	34569.22238
684.044	34589.69449
684.241	34245.81637
684.438	34747.34378
684.635	33936.82702
684.831	34722.7734
685.028	34233.53704
685.225	34354.28971
685.422	34000.25521
685.619	34530.3265
685.815	34133.26094
686.012	34186.46755
686.209	34159.86394
686.405	34372.71079
686.602	33938.87304
686.799	33883.63177
686.996	34702.29856
687.192	34331.77548
687.389	34057.54812
687.586	34217.16482
687.782	34231.4905
687.979	34440.25748
688.175	33836.57637
688.372	33893.86144
688.568	33891.8155
688.765	34096.42706
688.962	34268.32882
689.158	33924.55099
689.355	33930.68899
689.551	33814.07225
689.748	33460.19577
689.944	33983.88632
690.14	33818.16387
690.337	33844.75979
690.533	33707.6946
690.73	33225.01099
690.926	33871.35627
691.123	33233.19069
691.319	33402.92978
691.515	33057.33715
691.712	32908.08185
691.908	32785.41661
692.104	32223.31061
692.301	32599.39131
692.497	32863.10353
692.693	32848.79251
692.889	33188.20294
693.086	33329.30553
693.282	33701.5577
693.478	33636.09925
693.674	33517.46414
693.87	34000.25521
694.067	33584.96213
694.263	33135.03734
694.459	32562.59745
694.655	32897.8594
694.851	32636.18595
695.047	32936.70507
695.243	33118.67908
695.439	33173.88894
695.635	33329.30553
695.831	33472.46736
696.027	33124.81341
696.224	33308.85503
696.42	32574.86198
696.615	32634.14178
696.811	32953.06142
697.007	32811.9933
697.203	32738.39732
697.399	32472.66003
697.595	32405.20984
697.791	32029.16675
697.987	31818.69397
698.183	32448.13241
698.379	31673.62224
698.575	32325.49909
698.77	32143.60723
698.966	31963.77498
699.162	31673.62224
699.358	31935.1667
699.554	32286.66684
699.749	32625.96514
699.945	32740.44161
700.141	31971.94884
700.337	32499.23199
700.532	32713.86604
700.728	32728.17591
700.924	32515.58415
701.119	32343.89358
701.315	32159.95638
701.511	32088.42979
701.706	32585.0825
701.902	32241.70414
702.097	32460.39618
702.293	32350.02512
702.489	31982.16621
702.684	31739.00556
702.88	32174.262
703.075	32131.34545
703.271	31575.55062
703.466	31749.22187
703.662	31943.34046
703.857	31998.51411
704.053	32196.74247
704.248	31886.12481
704.443	31910.64562
704.639	32184.48036
704.834	32423.60511
705.03	31830.95397
705.225	32127.2582
705.42	31589.85249
705.616	31706.31367
705.811	31256.84445
706.006	31305.87362
706.202	30954.51714
706.397	31422.32156
706.592	31452.96663
706.787	31812.56399
706.983	31800.30409
707.178	32237.61668
707.373	31700.18399
707.568	31681.79505
707.763	31277.27317
707.959	31561.24885
708.154	31734.91905
708.349	30938.17604
708.544	31518.34401
708.739	31334.47439
708.934	30872.81252
709.129	31122.0188
709.324	30272.34869
709.519	30801.32279
709.714	31040.30945
709.909	31348.77489
710.104	30803.36533
710.299	30688.98515
710.494	30827.87592
710.689	31262.97305
710.884	31095.463
711.079	31193.51643
711.274	30660.39075
711.469	31334.47439
711.664	31279.31604
711.859	30995.37031
712.054	31181.25956
712.249	30860.55701
712.443	30911.62193
712.638	31036.22405
712.833	30733.91972
713.028	30711.45235
713.223	30523.54969
713.417	30852.38671
713.612	30840.13129
713.807	30566.43955
714.002	30484.74506
714.196	30674.68792
714.391	30127.3548
714.586	30302.98196
714.78	30298.89751
714.975	30729.83473
715.17	30748.21722
715.364	30993.32764
715.559	30883.02547
715.754	29976.24064
715.948	30045.67069
716.143	30439.81394
716.337	30405.09486
716.532	30358.12255
716.726	30215.16729
716.921	30466.36407
717.115	30115.10206
717.31	30599.11792
717.504	30135.52331
717.699	30331.57327
717.893	30049.75485
718.088	30059.96527
718.282	29569.8964
718.476	29882.30794
718.671	29839.42641
718.865	30111.01783
719.059	29900.68589
719.254	30088.55461
719.448	30211.08294
719.642	29943.56813
719.837	29586.23101
720.031	29557.64548
720.225	28941.06486
720.419	29318.76022
720.614	29022.72571
720.808	29584.18918
721.002	28912.48396
721.196	29096.22189
721.39	29026.8088
721.585	29016.60109
721.779	28983.9366
721.973	29339.1772
722.167	29037.01653
722.361	29157.46974
722.555	29331.01039
722.749	29069.68145
722.943	29220.76016
723.137	29184.01076
723.331	28789.99667
723.525	29365.71943
723.719	28661.38906
723.913	28767.54108
724.107	28640.97554
724.301	28861.44714
724.495	28645.05823
724.689	29010.47648
724.883	28483.79492
725.077	29098.26347
725.271	29218.71852
725.465	29024.76725
725.659	28851.23985
725.853	28653.22364
726.046	28469.50609
726.24	28518.4966
726.434	28773.66532
726.628	28692.00954
726.822	28455.2173
727.015	28671.59586
727.209	28604.23146
727.403	28977.81204
727.596	28863.4886
727.79	28934.94037
727.984	29349.38573
728.177	29155.42813
728.371	29155.42813
728.565	28883.90326
728.758	28845.11549
728.952	28508.29019
729.146	28555.23988
729.339	28622.60345
729.533	28643.01688
729.726	28428.68113
729.92	28524.62045
730.113	28730.79583
730.307	28663.43042
730.5	28941.06486
730.694	28683.84406
730.887	28659.3477
731.081	28722.63026
731.274	28710.38195
731.468	28677.71996
731.661	28485.83619
731.854	28567.48772
732.048	28600.1488
732.241	28463.38232
732.435	28396.02147
732.628	28477.67113
732.821	28328.6618
733.014	28651.18229
733.208	28718.54749
733.401	28247.01528
733.594	28214.35717
733.788	27844.93208
733.981	27481.66723
734.174	27765.3371
734.367	27940.85658
734.56	28142.91852
734.754	28249.05643
734.947	28298.04415
735.14	28075.56331
735.333	28463.38232
735.526	27924.52882
735.719	28218.43942
735.912	28165.37052
736.105	28657.30635
736.298	28142.91852
736.491	28259.26215
736.684	28077.60436
736.877	28269.4679
737.07	28545.03338
737.263	28110.2613
737.456	28022.49644
737.649	28224.5628
737.842	28481.75366
738.035	28042.90668
738.228	28071.48122
738.421	27998.00429
738.614	27993.92228
738.807	27726.56071
739	27620.43805
739.192	27418.40596
739.385	27106.19916
739.578	27540.84821
739.771	27463.30093
739.964	27471.46371
740.156	27861.25947
740.349	27577.58175
740.542	27744.92842
740.735	27624.51963
740.927	27877.58694
741.12	27826.56385
741.313	27832.68658
741.505	27732.68327
741.698	27212.30521
741.891	27010.29879
742.083	27287.80593
742.276	26893.9982
742.468	27395.95871
742.661	27171.49476
742.854	27191.89992
743.046	26812.38652
743.239	26932.76455
743.431	26889.91756
743.624	26612.44789
743.816	26945.00666
744.009	26947.04702
744.201	26365.60531
744.393	26859.31296
744.586	26783.82299
744.778	26369.68516
744.971	26567.56571
745.163	26673.65206
745.355	26732.81739
745.548	27063.34968
745.74	26891.95788
745.932	27132.72533
746.125	27185.77836
746.317	26859.31296
746.509	26655.29067
746.702	26993.97562
746.894	26861.35325
747.086	26575.72605
747.278	26779.74251
747.471	26867.47415
747.663	26659.37097
747.855	26759.34018
748.047	26536.96465
748.239	27102.11824
748.431	26971.53142
748.623	26718.53599
748.815	26467.60356
749.008	26296.24883
749.2	26524.72432
749.392	26177.93928
749.584	25927.06077
749.776	26934.8049
749.968	26396.20436
750.16	26849.11149
750.352	26777.70227
750.544	26804.22548
750.736	26575.72605
750.928	26402.32421
751.12	25821.00652
751.311	26233.01371
751.503	26296.24883
751.695	25955.61468
751.887	25808.76981
752.079	26171.81998
752.271	26041.27856
752.463	26286.04951
752.654	25922.98166
752.846	26583.88641
753.038	26789.94372
753.23	26553.28517
753.421	25986.20856
753.613	25721.07542
753.805	26416.60393
753.997	26212.61563
754.188	26653.25052
754.38	26573.68596
754.572	25965.8126
754.763	26396.20436
754.955	25861.79602
755.146	25767.98128
755.338	26047.39752
755.53	26100.42925
755.721	25649.69889
755.913	25682.32786
756.104	25706.79992
756.296	25959.69384
756.487	25716.9967
756.679	25576.28553
756.87	25439.66202
757.062	25254.11363
757.253	25633.38459
757.445	25337.7102
757.636	25366.25618
757.827	25386.64642
758.019	25017.61639
758.21	25470.24858
758.401	25419.27124
758.593	25441.70111
758.784	25588.52091
758.975	24984.99845
759.167	24836.18661
759.358	24742.42123
759.549	24895.30215
759.74	25011.50048
759.932	24483.57418
760.123	25070.62179
760.314	24658.85205
760.505	24581.4014
760.696	24367.41203
760.888	24404.0939
761.079	24585.47766
761.27	24834.14817
761.461	24434.66278
761.652	24349.07141
761.843	24230.88147
762.034	24069.91326
762.225	23880.44136
762.416	23943.59593
762.607	23925.26045
762.798	24141.22618
762.989	24196.2413
763.18	24650.69918
763.371	24330.73101
763.562	24420.39723
763.753	24446.89049
763.944	24791.34166
764.135	23980.26758
764.326	24876.95573
764.517	24418.35931
764.708	24377.60136
764.899	23961.93164
765.089	24202.35422
765.28	23837.6608
765.471	24059.72598
765.662	23697.10521
765.853	23574.89449
766.043	23477.13381
766.234	23458.80448
766.425	23346.79738
766.615	23336.61539
766.806	23075.98381
766.997	23485.28027
767.187	23411.96399
767.378	23680.80982
767.569	23356.97945
767.759	23468.98741
767.95	23941.55864
768.141	23440.4754
768.331	23593.22541
768.522	23452.69476
768.712	23373.27092
768.903	23130.95634
769.093	22699.38603
769.284	22894.79522
769.474	23061.73206
769.665	23236.8361
769.855	23540.27011
770.046	23244.98106
770.236	22890.72387
770.426	23057.66016
770.617	22902.93795
770.807	22522.32421
770.998	22280.18011
771.188	22335.11585
771.378	22225.24705
771.569	22520.28917
771.759	22398.19351
771.949	22168.28229
772.139	22937.54518
772.33	22320.873
772.52	22611.86937
772.71	23078.01978
772.9	22406.33281
773.09	22746.19991
773.281	22540.6397
773.471	22512.14906
773.661	22430.75108
773.851	22369.70639
774.041	21911.97725
774.231	21977.0649
774.421	21730.97291
774.611	21678.10104
774.802	21519.50132
774.992	21783.84742
775.182	21859.09642
775.372	21806.21819
775.562	21824.5219
775.752	21728.93933
775.942	21289.77791
776.131	21446.30957
776.321	20820.32725
776.511	21041.81574
776.701	21206.43962
776.891	21267.41819
777.081	21133.27015
777.271	21267.41819
777.461	21708.60372
777.651	21680.13452
777.84	21769.61172
778.03	21245.05896
778.22	21275.54894
778.41	21442.24351
778.599	21375.15587
778.789	21190.17928
778.979	21367.02433
779.169	21064.1705
779.358	21017.42929
779.548	21190.17928
779.738	20757.34407
779.927	20824.39082
780.117	20899.5698
780.307	20765.47071
780.496	20574.5123
780.686	20777.66079
780.875	20401.86889
781.065	20592.79396
781.254	20649.67239
781.444	20519.66935
781.633	20479.04691
781.823	20879.2506
782.012	20643.57812
782.202	20537.95
782.391	20621.23277
782.581	20592.79396
782.77	20298.29738
782.96	20036.37117
783.149	19587.80741
783.338	19847.58406
783.528	20087.1266
783.717	20326.72769
783.906	20397.80706
784.096	20271.89855
784.285	20125.70248
784.474	19926.74842
784.663	20271.89855
784.853	19802.93006
785.042	19916.59879
785.231	20257.68408
785.42	19811.04882
785.61	19788.7224
785.799	19492.43787
785.988	20188.64533
786.177	19324.04173
786.366	19157.70239
786.555	19350.41514
786.744	19512.72849
786.933	19279.41139
787.122	19748.1302
787.312	19711.59866
787.501	19656.80389
787.69	19528.96129
787.879	19756.24851
788.068	19309.84095
788.257	19455.9158
788.445	19366.64528
788.634	19496.49596
788.823	19165.81586
789.012	19419.39507
789.201	19232.75452
789.39	19224.64051
789.579	19121.19256
789.768	19419.39507
789.957	19171.90101
790.145	19019.78331
790.334	18934.60735
790.523	19064.40213
790.712	18885.93857
790.9	19165.81586
791.089	18668.98483
791.278	18484.5081
791.467	18385.18768
791.655	18776.44222
791.844	18529.10393
792.033	18563.56562
792.221	18506.80578
792.41	18632.49237
792.599	18168.33569
792.787	18614.24662
792.976	18766.30426
793.164	18685.2041
793.353	18443.96805
793.541	18985.30647
793.73	18626.41042
793.918	18565.59282
794.107	18174.41508
794.295	18129.83369
794.484	18249.39687
794.672	18675.06702
794.861	18393.29512
795.049	18770.35943
795.238	18135.91286
795.426	18042.70241
795.614	17769.19323
795.803	18060.93864
795.991	17876.56334
796.179	18133.88647
796.368	17755.01299
796.556	17915.05688
796.744	17805.65747
796.932	17872.51147
797.121	17451.18951
797.309	17981.91707
797.497	17911.00487
797.685	18221.02479
797.874	17987.99546
798.062	18279.79634
798.25	17789.45101
798.438	18239.2639
798.626	17641.57696
798.814	17574.73557
799.002	17388.40829
799.19	17258.80471
799.378	17309.42964
799.566	17694.24239
799.755	17552.4559
799.943	17548.40509
800.131	17497.77106
800.318	17771.21899
800.506	17584.86283
800.694	17777.2963
800.882	17485.61919
801.07	17807.6833
801.258	17451.18951
801.446	17797.55421
801.634	16944.97006
801.822	17208.18162
802.01	17234.5054
802.197	17238.55526
802.385	17121.11414
802.573	17386.38314
802.761	17285.12944
802.949	17388.40829
803.136	17351.95603
803.324	17299.30451
803.512	17400.55926
803.699	17906.95287
803.887	17511.94839
804.075	17323.60496
804.262	17349.93094
804.45	17617.27059
804.638	17353.98113
804.825	17414.73553
805.013	17503.84704
805.201	17704.37061
805.388	17592.96469
805.576	17398.53409
805.763	17445.11378
805.951	17487.6445
806.138	17370.18204
806.326	17574.73557
806.513	17194.00749
806.701	17086.69355
806.888	16712.16619
807.075	17064.42183
807.263	16677.75444
807.45	17279.05446
807.638	17060.37246
807.825	17248.67995
808.012	17256.77975
808.2	17141.36192
808.387	17135.28755
808.574	17303.35455
808.761	17333.73027
808.949	17080.61941
809.136	17364.10667
809.323	17335.75535
809.51	16835.64934
809.698	17054.29843
809.885	17157.56035
810.072	17279.05446
810.259	17254.7548
810.446	17360.05645
810.633	17098.8419
810.82	17505.87237
811.008	17540.30351
811.195	17702.34496
811.382	17546.37969
811.569	17742.85862
811.756	17034.05185
811.943	17297.27949
812.13	16892.33323
812.317	17096.81717
812.504	17092.76771
812.691	17131.23799
812.878	16920.67592
813.064	17056.32311
813.251	17147.43631
813.438	17663.85821
813.625	17477.51801
813.812	17139.33713
813.999	17370.18204
814.186	17145.41151
814.372	17108.9656
814.559	17601.0666
814.746	17234.5054
814.933	17649.67919
815.12	17491.69511
815.306	17212.2314
815.493	17070.4959
815.68	16855.89336
815.866	16677.75444
816.053	17246.655
816.24	16841.72252
816.426	16969.26458
816.613	17402.58443
816.799	17349.93094
816.986	17384.35799
817.173	17621.32162
817.359	17291.20445
817.546	17459.29053
817.732	17208.18162
817.919	17441.0633
818.105	17372.20716
818.292	17264.87961
818.478	17240.58019
818.665	17384.35799
818.851	17228.43064
819.037	17226.40573
819.224	17200.0821
819.41	17131.23799
819.597	16789.08906
819.783	16971.28914
819.969	16576.54726
820.156	16556.30649
820.342	16513.80158
820.528	16689.89969
820.714	16653.4642
820.901	16509.75354
821.087	16546.18618
821.273	16728.36019
821.459	16839.69813
821.646	17185.90804
821.832	16853.86895
822.018	16787.06473
822.204	16084.75247
822.39	16254.74332
822.576	16189.98352
822.762	16527.96978
822.948	15843.95015
823.134	16214.26824
823.32	16238.5532
823.507	16610.95707
823.693	16208.19703
823.879	16015.94982
824.065	15750.87161
824.25	16026.06775
824.436	15744.80135
824.622	16141.4148
824.808	16242.60072
824.994	16272.95734
825.18	16169.74644
825.366	16374.14903
825.552	16011.90266
825.738	15987.6198
825.923	15665.88875
826.109	15799.43404
826.295	15554.60398
826.481	15930.96057
826.667	15429.15818
826.852	15941.07822
827.038	15718.49699
827.224	15716.47359
827.409	15680.05245
827.595	16007.8555
827.781	15783.2465
827.966	15698.26298
828.152	15501.9974
828.338	15971.43134
828.523	15645.65498
828.709	16013.92624
828.894	15817.64511
829.08	15845.97362
829.266	15350.24973
829.451	15756.94188
829.637	15414.99508
829.822	15716.47359
830.008	15145.89892
830.193	15352.27301
830.378	15356.31959
830.564	15194.45742
830.749	15044.73527
830.935	15240.99267
831.12	14951.66422
831.305	15251.10904
831.491	14860.61562
831.676	15184.34106
831.861	15275.38834
832.047	15323.94703
832.232	15554.60398
832.417	15414.99508
832.602	15489.85748
832.788	15445.34462
832.973	15350.24973
833.158	15190.41087
833.343	14751.35571
833.528	14688.6314
833.714	14601.6252
833.899	14984.03684
834.084	14567.22685
834.269	14716.95861
834.454	14423.55918
834.639	14745.28565
834.824	14680.53788
835.009	14445.81801
835.194	14551.03927
835.379	14508.5465
835.564	14494.38212
835.749	14810.03258
835.934	14340.59282
836.119	14455.9356
836.304	14146.31848
836.489	14273.81297
836.674	14194.88874
836.859	14413.44147
837.044	14377.01741
837.228	14330.47478
837.413	14103.8185
837.598	14255.59994
837.783	13939.88044
837.968	14381.06455
838.152	13737.46388
838.337	13885.23075
838.522	13854.86895
838.707	14150.36605
838.891	13931.78431
839.076	14209.05484
839.261	13978.33649
839.445	14146.31848
839.63	13812.36136
839.815	13777.94952
839.999	13429.72961
840.184	13901.42345
840.368	13660.53773
840.553	14028.93518
840.737	13972.26455
840.922	14079.53236
841.106	13875.11022
841.291	13935.83238
841.475	13583.60682
841.66	14168.58
841.844	13360.88269
842.029	13551.21337
842.213	13721.26928
842.397	13595.75413
842.582	13247.47743
842.766	13713.17191
842.951	13281.90543
843.135	13458.07703
843.319	13332.53261
843.504	13557.28721
843.688	13528.94234
843.872	13555.2626
844.056	13682.8063
844.241	13504.64617
844.425	13381.13226
844.609	13470.22569
844.793	13340.63271
844.977	13379.10733
845.161	13225.19982
845.346	13389.23198
845.53	13287.98083
845.714	13375.05744
845.898	12807.89422
846.082	13103.67599
846.266	13075.31801
846.45	13046.95909
846.634	12562.67086
846.818	12503.88508
847.002	12659.95995
847.186	12809.9205
847.37	12359.93814
847.554	12339.66119
847.738	12224.06921
847.922	12505.91227
848.106	12473.47653
848.29	12710.62585
848.473	12708.59928
848.657	12957.82472
848.841	12645.77283
849.025	12761.2881
849.209	12514.02095
849.392	12599.15593
849.576	12451.176
849.76	12554.5628
849.944	12507.93945
850.127	12388.32471
850.311	11909.61748
850.495	12023.24742
850.678	11899.47071
850.862	12149.02325
851.046	11972.52288
851.229	12043.53585
851.413	12059.76604
851.596	12021.21854
851.78	11909.61748
851.964	12138.88113
852.147	11820.31878
852.331	11871.05866
852.514	11722.88324
852.698	11923.82261
852.881	11761.45386
853.065	11948.17333
853.248	11771.6035
853.431	11980.63915
853.615	11426.38921
853.798	11328.86738
853.982	11599.02955
854.165	11842.64498
854.348	11580.7532
854.532	11605.12151
854.715	11314.64353
854.898	11215.06259
855.081	11168.31195
855.265	11080.89352
855.448	11007.6906
855.631	11196.76952
855.814	11117.48969
855.997	11458.89147
856.181	11160.18083
856.364	11176.44289
856.547	11101.22516
856.73	11156.11521
856.913	10733.0492
857.096	11009.7242
857.279	11032.09315
857.462	11005.65698
857.645	10897.85919
857.828	11202.86731
858.011	10948.71114
858.194	11158.14803
858.377	10962.94843
858.56	11044.29383
858.743	10851.06907
858.926	11237.41965
859.109	10722.8732
859.292	10981.25269
859.475	10627.20406
859.658	10641.45437
859.841	10439.85737
860.023	10543.7258
860.206	10325.76698
860.389	10912.09845
860.572	10337.99293
860.755	10594.62967
860.937	10592.59366
861.12	10667.91762
861.303	10649.59713
861.486	10498.92388
861.668	10374.66791
861.851	10315.57833
862.034	10229.98037
862.216	10395.04105
862.399	9981.20062
862.581	10042.39543
862.764	9934.27581
862.947	10103.57742
863.129	9952.63861
863.312	9952.63861
863.494	9926.11419
863.677	10042.39543
863.859	10121.92955
864.042	10354.29345
864.224	10046.47462
864.406	10395.04105
864.589	9732.20599
864.771	9736.28967
864.954	9495.24675
865.136	9677.07038
865.318	9509.55202
865.501	9791.41335
865.683	9609.66713
865.865	9589.23855
866.048	9431.88539
866.23	9478.89691
866.412	9125.07471
866.594	9282.61775
866.777	9311.25123
866.959	9341.92635
867.141	9067.76124
867.323	9331.70173
867.505	9120.98134
867.687	9417.57584
867.869	9579.02367
868.052	9701.57648
868.234	9677.07038
868.416	9760.79045
868.598	9290.79908
868.78	9417.57584
868.962	9487.07196
869.144	9740.37328
869.326	9225.34096
869.508	9485.02822
869.69	9601.49588
869.872	9689.3237
870.054	9587.1956
870.236	9617.83812
870.417	9585.15264
870.599	9609.66713
870.781	9487.07196
870.963	9417.57584
871.145	9298.98014
871.327	9685.23932
871.508	9229.4326
871.69	9139.40096
871.872	8942.85251
872.054	9241.7071
872.235	8848.6155
872.417	9194.65154
872.599	8760.48994
872.78	9039.09942
872.962	8631.31462
873.144	9030.90971
873.325	8778.93761
873.507	8770.73883
873.689	8803.5322
873.87	9143.49403
874.052	8887.54407
874.233	9045.24153
874.415	8908.03019
874.596	8938.75604
874.778	8614.90614
874.959	8983.81339
875.141	8678.48236
875.322	9006.33887
875.503	8830.17339
875.685	9143.49403
875.866	8992.00472
876.048	9073.90262
876.229	8875.25154
876.41	9037.05202
876.592	8899.83596
876.773	9102.56032
876.954	8754.34039
877.136	8692.83582
877.317	8557.46702
877.498	8690.78538
877.679	8588.23981
877.86	8524.63803
878.042	8754.34039
878.223	8844.51738
878.404	8536.94947
878.585	8627.21261
878.766	8426.12188
878.947	8651.82354
879.128	8436.38603
879.309	8627.21261
879.49	8374.79387
879.672	8594.39386
879.853	8504.11746
880.034	8651.82354
880.215	8454.8603
880.396	8852.71355
880.576	8614.90614
880.757	8565.67351
880.938	8430.2276
881.119	8766.63933
881.3	8694.88624
881.481	8959.23771
881.662	8832.22259
881.843	9321.47669
882.023	8994.05251
882.204	9110.74761
882.385	8901.88454
882.566	9090.27886
882.747	8860.90944
882.927	9114.84115
883.108	8946.94892
883.289	9223.29512
883.469	8983.81339
883.65	8865.00727
883.831	8957.18962
884.011	9192.60545
884.192	8899.83596
884.373	9055.47802
884.553	8930.56287
884.734	9039.09942
884.914	8865.00727
885.095	8965.38187
885.275	8516.43003
885.456	8731.79064
885.636	8662.07731
885.817	8717.43963
885.997	8598.49646
886.178	8824.02569
886.358	8678.48236
886.538	8987.90909
886.719	8600.54774
886.899	9063.66691
887.08	8824.02569
887.26	8883.44663
887.44	8598.49646
887.621	8799.43328
887.801	8637.46749
887.981	8934.65949
888.161	8756.39026
888.342	8776.88794
888.522	8619.00837
888.702	8668.22934
888.882	8770.73883
889.062	8637.46749
889.242	8582.08559
889.423	9094.37275
889.603	8815.82851
889.783	9298.98014
889.963	8733.8407
890.143	8674.38121
890.323	8475.38545
890.503	9016.57703
890.683	8815.82851
890.863	9120.98134
891.043	8635.41655
891.223	8951.04525
891.403	8869.10503
891.583	8733.8407
891.763	8735.89076
891.943	8912.1272
892.122	8686.68445
892.302	8985.86125
892.482	8352.20572
892.662	8465.12312
892.842	8477.43786
893.022	8586.18842
893.201	8522.58606
893.381	8887.54407
893.561	8928.51453
893.741	8881.39788
893.92	8670.27998
894.1	8713.33918
894.28	8504.11746
894.459	8645.67106
894.639	8245.39339
894.819	8440.49156
894.998	8278.26437
895.178	8434.33324
895.357	8243.33879
895.537	8424.06899
895.716	8220.73685
895.896	8117.97047
896.075	8046.0042
896.255	8302.9143
896.434	8095.35516
896.614	8138.52774
896.793	7757.88883
896.973	8249.50254
897.152	7891.70694
897.331	8257.7206
897.511	8070.68113
897.69	8111.8029
897.87	7904.05497
898.049	7941.09459
898.228	7947.26721
898.407	8259.77507
898.587	7846.42449
898.766	7943.15215
898.945	7537.41014
899.124	7671.37473
899.304	7605.43418
899.483	7759.94824
899.662	7846.42449
899.841	7516.79218
900.02	7731.11462
900.199	7607.49515
900.378	7279.53002
900.557	7471.42511
900.737	7545.65672
900.916	7617.79969
901.095	7335.26095
901.274	7467.30031
901.453	7500.29627
901.632	7320.81373
901.811	7215.52288
901.989	7211.39266
902.168	7035.77603
902.347	7124.63751
902.526	7056.44518
902.705	7260.94949
902.884	6922.05548
903.063	7271.27223
903.242	7075.04551
903.42	7112.24072
903.599	6766.87157
903.778	6690.26689
903.957	6532.81796
904.135	6847.58317
904.314	6735.8194
904.493	6715.11509
904.672	6756.52142
904.85	6866.20401
905.029	6557.68718
905.207	6681.98342
905.386	6221.67011
905.565	6300.54389
905.743	6180.144
905.922	6121.99168
906.1	6111.60539
906.279	6182.22053
906.457	6011.86716
906.636	6385.60669
906.814	5934.94857
906.993	6161.45419
907.171	5776.85234
907.35	5909.99507
907.528	5493.60316
907.707	5839.27503
907.885	5479.01236
908.063	5781.01452
908.242	5485.26571
908.42	5737.30699
908.598	5576.95702
908.777	5789.33858
908.955	5629.03403
909.133	5866.31826
909.311	5541.53623
909.49	5681.0963
909.668	5343.47138
909.846	5372.6732
910.024	5230.79276
910.202	5593.62327
910.38	5576.95702
910.559	5368.50179
910.737	5251.66431
910.915	5410.21165
911.093	5464.42041
911.271	5608.20499
911.449	5395.61427
911.627	5610.288
911.805	5347.64335
911.983	5360.1587
912.161	5551.95482
912.339	5514.44516
912.517	5426.89296
912.695	5781.01452
912.872	5470.67425
913.05	5676.93186
913.228	5255.83834
913.406	5560.28926
913.584	5428.97802
913.762	5714.40841
913.939	5574.87363
914.117	5660.27316
914.295	5385.18686
914.473	5651.94325
914.65	5474.84335
914.828	5637.36498
915.006	5393.52883
915.184	5412.2969
915.361	5355.98701
915.539	5581.12372
915.716	5612.37099
915.894	5693.58905
916.072	5449.82731
916.249	5697.75311
916.427	5308.00584
916.604	5481.09684
916.782	5257.92532
916.959	5574.87363
917.137	5216.18128
917.314	5351.81522
917.492	5251.66431
917.669	5182.77932
917.847	5003.14187
918.024	4971.79223
918.201	4994.78248
918.379	5078.35981
918.556	5067.91467
918.733	5301.74651
918.911	4890.25895
919.088	4919.53133
919.265	4647.54476
919.442	4737.55195
919.62	4733.3665
919.797	5009.41118
919.974	4683.13397
920.151	4858.89071
920.328	4570.06351
920.506	4745.92259
920.683	4791.95465
920.86	4973.88237
921.037	4521.88413
921.214	4965.52168
921.391	4695.69332
921.568	5124.31155
921.745	4649.63842
921.922	4858.89071
922.099	4538.6435
922.276	4873.52987
922.453	4708.25186
922.63	4672.66723
922.807	4423.39428
922.984	4230.4664
923.161	4070.9551
923.338	4285.00798
923.514	3959.64586
923.691	4222.07411
923.868	4138.13254
924.045	4259.83674
924.222	3991.15432
924.399	4446.44944
924.575	4459.02387
924.752	4507.21851
924.929	4167.51593
925.105	4282.9105
925.282	3991.15432
925.459	3989.0539
925.635	3999.5558
925.812	4014.2576
925.989	3860.88989
926.165	4096.14914
926.342	3728.44603
926.518	3928.13283
926.695	3644.31471
926.871	3829.36272
927.048	3541.21264
927.224	3711.62222
927.401	3457.01485
927.577	3549.63081
927.754	3339.08979
927.93	3574.88355
928.107	3612.75763
928.283	3707.41607
928.459	3530.68952
928.636	3555.94425
928.812	3315.91949
928.988	3465.43593
929.165	3263.25202
929.341	3558.04869
929.517	3406.48232
929.693	3595.92545
929.87	3313.813
930.046	3486.48738
930.222	3336.98348
930.398	3457.01485
930.574	3315.91949
930.751	3364.36409
930.927	3225.3249
931.103	3185.28487
931.279	3265.35892
931.455	3355.9396
931.631	2997.6517
931.807	3219.00318
931.983	2864.75958
932.159	3195.8223
932.335	2799.34729
932.511	2928.04881
932.687	2885.85743
932.863	2909.06341
933.039	2706.48151
933.215	2845.7703
933.391	2653.70555
933.566	2837.33025
933.742	2434.07632
933.918	2767.69141
934.094	2524.89979
934.27	2522.78785
934.445	2305.20013
934.621	2396.05123
934.797	2015.63477
934.973	2229.12513
935.148	2119.21914
935.324	2286.1825
935.5	2114.99156
935.675	2066.37212
935.851	1882.43183
936.027	1738.63433
936.202	1728.06025
936.378	1730.17507
936.553	1472.14882
936.729	1592.70549
936.904	1400.23711
937.08	1343.13127
937.255	1245.84257
937.431	1396.00703
937.606	1205.65967
937.782	1338.90124
937.957	1186.62608
938.133	1235.26802
938.308	915.96855
938.483	1044.94226
938.659	1008.99632
938.834	806.04598
939.009	863.11829
939.185	869.46005
939.36	732.07367
939.535	806.04598
939.71	761.66112
939.886	816.61443
940.061	706.71465
940.236	761.66112
940.411	647.5499
940.586	613.74564
940.761	465.89196
940.937	592.61962
941.112	499.68099
941.287	677.13115
941.462	594.73216
941.637	491.23337
941.812	434.21827
941.987	563.04536
942.162	480.67419
942.337	558.82068
942.512	470.11538
942.687	518.68897
942.862	459.55694
943.037	518.68897
943.212	400.43691
943.386	552.48376
943.561	482.78599
943.736	436.32974
943.911	394.10337
944.086	440.55273
944.26	347.662
944.435	425.77255
944.61	375.10364
944.785	533.47375
944.959	394.10337
945.134	406.7706
945.309	343.44047
945.483	482.78599
945.658	425.77255
945.833	377.21465
946.007	381.43673
946.182	446.88733
946.357	404.65936
946.531	415.21575
946.706	332.88694
946.88	377.21465
947.055	419.43842
947.229	398.32572
947.404	432.10681
947.578	432.10681
947.752	309.67074
947.927	463.78027
948.101	398.32572
948.276	478.56239
948.45	330.77629
948.624	484.89782
948.799	493.34525
948.973	406.7706
949.147	377.21465
949.321	461.6686
949.496	360.32701
949.67	463.78027
949.844	432.10681
950.018	432.10681
950.193	360.32701
950.367	425.77255
950.541	461.6686
950.715	343.44047
950.889	311.78121
951.063	546.14697
951.237	413.10444
951.411	436.32974
951.585	417.32708
951.759	444.77578
951.933	389.88109
952.107	463.78027
952.281	370.88166
952.455	398.32572
952.629	368.7707
952.803	476.45062
952.977	400.43691
953.151	512.35284
953.325	478.56239
953.499	438.44123
953.672	461.6686
953.846	484.89782
954.02	518.68897
954.194	512.35284
954.368	493.34525
954.541	605.29508
954.715	533.47375
954.889	575.71972
955.062	601.06987
955.236	541.92251
955.41	474.33885
955.583	525.02522
955.757	468.00366
955.93	510.24083
956.104	417.32708
956.278	529.24946
956.451	525.02522
956.625	423.66115
956.798	413.10444
956.972	512.35284
957.145	419.43842
957.319	592.61962
957.492	569.38248
957.665	531.3616
957.839	444.77578
958.012	423.66115
958.185	432.10681
958.359	425.77255
958.532	406.7706
958.705	491.23337
958.879	470.11538
959.052	508.12883
959.225	487.00965
959.398	558.82068
959.572	476.45062
959.745	546.14697
959.918	391.99222
960.091	554.59606
960.264	487.00965
960.438	573.6073
960.611	484.89782
960.784	584.16957
960.957	444.77578
961.13	586.28206
961.303	402.54813
961.476	499.68099
961.649	468.00366
961.822	444.77578
961.995	448.99889
962.168	385.65888
962.341	406.7706
962.514	512.35284
962.686	423.66115
962.859	413.10444
963.032	448.99889
963.205	510.24083
963.378	370.88166
963.551	375.10364
963.723	402.54813
963.896	457.4453
964.069	351.8836
964.242	440.55273
964.414	394.10337
964.587	440.55273
964.76	391.99222
964.932	453.22206
965.105	398.32572
965.278	423.66115
965.45	351.8836
965.623	368.7707
965.795	356.10527
965.968	372.99264
966.14	419.43842
966.313	406.7706
966.485	347.662
966.658	468.00366
966.83	356.10527
967.003	478.56239
967.175	385.65888
967.348	318.11274
967.52	305.44984
967.692	423.66115
967.865	362.43791
968.037	339.219
968.209	389.88109
968.382	436.32974
968.554	339.219
968.726	364.54882
968.898	307.56028
969.071	400.43691
969.243	265.355
969.415	332.88694
969.587	341.32972
969.759	316.00221
969.932	307.56028
970.104	360.32701
970.276	299.11864
970.448	254.80485
970.62	337.1083
970.792	341.32972
970.964	305.44984
971.136	383.5478
971.308	233.70599
971.48	303.33942
971.652	305.44984
971.824	347.662
971.996	311.78121
972.168	282.23623
972.339	263.24494
972.511	299.11864
972.683	267.46509
972.855	334.99761
973.027	202.06136
973.199	214.71868
973.37	218.93794
973.542	349.77279
973.714	248.47499
973.886	313.8917
974.057	318.11274
974.229	246.36508
974.401	341.32972
974.572	263.24494
974.744	259.02486
974.915	221.0476
975.087	161.98467
975.259	233.70599
975.43	248.47499
975.602	284.34646
975.773	292.78759
975.945	233.70599
976.116	221.0476
976.288	292.78759
976.459	155.65745
976.63	237.92561
976.802	275.90563
976.973	240.03545
977.145	199.95188
977.316	231.59621
977.487	237.92561
977.659	339.219
977.83	155.65745
978.001	221.0476
978.172	263.24494
978.344	216.8283
978.515	225.26699
978.686	172.53045
978.857	117.69816
979.028	225.26699
979.2	206.28038
979.371	227.37671
979.542	176.7489
979.713	233.70599
979.884	128.24171
980.055	157.7665
980.226	145.11251
980.397	164.09378
980.568	187.2954
980.739	153.54842
980.91	166.20292
981.081	195.73297
981.252	189.40476
981.423	168.31207
981.594	124.02423
981.765	151.43941
981.936	134.5681
982.106	143.00359
982.277	210.49949
982.448	259.02486
982.619	149.33043
982.79	73.42125
982.96	138.7858
983.131	174.63967
983.302	166.20292
983.472	128.24171
983.643	187.2954
983.814	212.60907
983.984	96.6127
984.155	189.40476
984.326	134.5681
984.496	64.98867
984.667	187.2954
984.837	183.07674
985.008	100.82962
985.178	81.85419
985.349	136.67694
985.519	71.31307
985.69	124.02423
985.86	153.54842
986.031	100.82962
986.201	208.38993
986.371	180.96744
986.542	86.0708
986.712	83.96248
986.882	145.11251
987.053	138.7858
987.223	132.45929
987.393	94.50427
987.563	195.73297
987.734	100.82962
987.904	170.42125
988.074	81.85419
988.244	115.58952
988.414	77.63768
988.585	37.58533
988.755	52.34049
988.925	130.35049
989.095	119.80683
989.265	147.22146
989.435	56.55646
989.605	132.45929
989.775	24.93896
989.945	86.0708
990.115	29.15432
990.285	98.72115
990.455	189.40476
990.625	128.24171
990.795	115.58952
990.965	86.0708
991.134	3.86356
991.304	105.04662
991.474	212.60907
991.644	128.24171
991.814	147.22146
991.984	119.80683
992.153	1.75615
992.323	88.17913
992.493	166.20292
992.662	126.13296
992.832	102.93811
993.002	-12.99502
993.171	86.0708
993.341	90.28749
993.511	183.07674
993.68	39.69314
993.85	35.47754
994.019	58.66448
994.189	52.34049
994.358	105.04662
994.528	64.98867
994.697	105.04662
994.867	71.31307
995.036	52.34049
995.206	73.42125
995.375	130.35049
995.544	52.34049
995.714	-17.20943
995.883	27.04663
996.052	-10.88778
996.222	96.6127
996.391	96.6127
996.56	64.98867
996.73	29.15432
996.899	119.80683
997.068	73.42125
997.237	22.83131
997.406	46.01671
997.576	64.98867
997.745	107.15516
997.914	98.72115
998.083	111.37229
998.252	37.58533
998.421	73.42125
998.59	52.34049
998.759	119.80683
998.928	62.88058
999.097	31.26204
999.266	48.12461
999.435	-19.31659
999.604	62.88058
999.773	62.88058
999.942	115.58952
1000.111	56.55646
1000.28	124.02423
1000.448	31.26204
1000.617	136.67694
1000.786	52.34049
1000.955	88.17913
1001.124	56.55646
1001.292	35.47754
1001.461	109.26371
1001.63	111.37229
1001.798	102.93811
1001.967	94.50427
1002.136	39.69314
1002.304	46.01671
1002.473	41.80097
1002.642	22.83131
1002.81	18.61609
1002.979	3.86356
1003.147	-36.17303
1003.316	16.50851
1003.484	3.86356
1003.653	35.47754
1003.821	117.69816
1003.99	31.26204
1004.158	54.44846
1004.327	64.98867
1004.495	-6.67324
1004.663	46.01671
1004.832	16.50851
1005	37.58533
1005.168	102.93811
1005.337	121.91552
1005.505	5.97099
1005.673	16.50851
1005.842	73.42125
1006.01	60.77252
1006.178	79.74592
1006.346	39.69314
1006.514	35.47754
1006.683	69.20492
1006.851	5.97099
1007.019	43.90883
1007.187	29.15432
1007.355	69.20492
1007.523	39.69314
1007.691	-2.45859
1007.859	5.97099
1008.027	37.58533
1008.195	8.07845
1008.363	79.74592
1008.531	48.12461
1008.699	60.77252
1008.867	12.29343
1009.035	60.77252
1009.203	33.36978
1009.37	90.28749
1009.538	43.90883
1009.706	35.47754
1009.874	-10.88778
1010.042	77.63768
1010.209	77.63768
1010.377	52.34049
1010.545	-6.67324
1010.713	81.85419
1010.88	41.80097
1011.048	16.50851
1011.216	22.83131
1011.383	18.61609
1011.551	64.98867
1011.718	46.01671
1011.886	71.31307
1012.054	94.50427
1012.221	52.34049
1012.389	43.90883
1012.556	10.18593
1012.724	35.47754
1012.891	10.18593
1013.058	-15.10224
1013.226	20.72369
1013.393	83.96248
1013.561	60.77252
1013.728	-36.17303
1013.895	8.07845
1014.063	27.04663
1014.23	37.58533
1014.397	-6.67324
1014.565	-53.02787
1014.732	-15.10224
1014.899	56.55646
1015.066	69.20492
1015.233	-4.56592
1015.401	-36.17303
1015.568	35.47754
1015.735	90.28749
1015.902	35.47754
1016.069	60.77252
1016.236	-57.24133
1016.403	88.17913
1016.57	64.98867
1016.737	29.15432
1016.904	81.85419
1017.071	-29.85205
1017.238	140.89469
1017.405	73.42125
1017.572	20.72369
1017.739	86.0708
1017.906	10.18593
1018.073	69.20492
1018.24	56.55646
1018.407	35.47754
1018.573	22.83131
1018.74	18.61609
1018.907	33.36978
1019.074	-6.67324
1019.241	18.61609
1019.407	35.47754
1019.574	60.77252
1019.741	56.55646
1019.907	52.34049
1020.074	43.90883
1020.241	105.04662
1020.407	18.61609
1020.574	56.55646
1020.74	86.0708
1020.907	56.55646
1021.073	22.83131
1021.24	1.75615
1021.406	52.34049
1021.573	41.80097
1021.739	10.18593
1021.906	-44.60065
1022.072	79.74592
1022.239	22.83131
1022.405	52.34049
1022.571	33.36978
1022.738	1.75615
1022.904	-2.45859
1023.07	-40.38689
1023.237	77.63768
1023.403	1.75615
1023.569	107.15516
1023.735	27.04663
1023.902	18.61609
1024.068	-12.99502
1024.234	33.36978
1024.4	29.15432
1024.566	10.18593
1024.732	56.55646
1024.898	56.55646
1025.065	24.93896
1025.231	-2.45859
1025.397	35.47754
1025.563	71.31307
1025.729	-31.95906
1025.895	60.77252
1026.061	-19.31659
1026.227	12.29343
1026.392	-15.10224
1026.558	-2.45859
1026.724	-15.10224
1026.89	58.66448
1027.056	-17.20943
1027.222	90.28749
1027.388	-17.20943
1027.553	41.80097
1027.719	3.86356
1027.885	-46.70749
1028.051	54.44846
1028.216	10.18593
1028.382	18.61609
1028.548	46.01671
1028.713	52.34049
1028.879	-0.35123
1029.045	27.04663
1029.21	31.26204
1029.376	48.12461
1029.541	27.04663
1029.707	50.23254
1029.873	43.90883
1030.038	-34.06606
1030.204	22.83131
1030.369	29.15432
1030.534	64.98867
1030.7	10.18593
1030.865	20.72369
1031.031	43.90883
1031.196	-25.63794
1031.361	60.77252
1031.527	10.18593
1031.692	-6.67324
1031.857	-63.56133
1032.023	79.74592
1032.188	31.26204
1032.353	27.04663
1032.518	-57.24133
1032.684	5.97099
1032.849	24.93896
1033.014	-15.10224
1033.179	64.98867
1033.344	27.04663
1033.509	20.72369
1033.674	27.04663
1033.839	-40.38689
1034.004	64.98867
1034.17	56.55646
1034.335	3.86356
1034.5	102.93811
1034.664	-6.67324
1034.829	-6.67324
1034.994	35.47754
1035.159	5.97099
1035.324	62.88058
1035.489	24.93896
1035.654	-23.53085
1035.819	-27.74501
1035.984	1.75615
1036.148	41.80097
1036.313	-27.74501
1036.478	-6.67324
1036.643	67.09678
1036.807	-10.88778
1036.972	18.61609
1037.137	48.12461
1037.301	-27.74501
1037.466	37.58533
1037.631	35.47754
1037.795	-12.99502
1037.96	-10.88778
1038.124	12.29343
1038.289	18.61609
1038.454	48.12461
1038.618	43.90883
1038.783	69.20492
1038.947	22.83131
1039.111	52.34049
1039.276	35.47754
1039.44	-36.17303
1039.605	18.61609
1039.769	46.01671
1039.933	-44.60065
1040.098	50.23254
1040.262	1.75615
1040.426	46.01671
1040.591	27.04663
1040.755	-2.45859
1040.919	31.26204
1041.083	-6.67324
1041.248	48.12461
1041.412	48.12461
1041.576	22.83131
1041.74	27.04663
1041.904	-25.63794
1042.068	46.01671
1042.232	54.44846
1042.397	-2.45859
1042.561	-8.78052
1042.725	-74.09415
1042.889	10.18593
1043.053	5.97099
1043.217	69.20492
1043.381	-15.10224
1043.544	18.61609
1043.708	73.42125
1043.872	39.69314
1044.036	-15.10224
1044.2	5.97099
1044.364	-44.60065
1044.528	46.01671
1044.691	41.80097
1044.855	27.04663
1045.019	105.04662
1045.183	52.34049
1045.346	22.83131
1045.51	-8.78052
1045.674	-8.78052
1045.837	-15.10224
1046.001	-34.06606
1046.165	52.34049
1046.328	10.18593
1046.492	-0.35123
1046.655	35.47754
1046.819	37.58533
1046.983	27.04663
1047.146	77.63768
1047.31	27.04663
1047.473	-40.38689
1047.636	1.75615
1047.8	1.75615
1047.963	52.34049
1048.127	60.77252
1048.29	-4.56592
