Data from absorb_only_2.23.25_USB4F045381__52__0157.txt Node

Date: Sun Feb 23 19:22:13 EST 2025
User: ssocol
Spectrometer: USB4F04538
Trigger mode: 4
Integration Time (sec): 2.600000E-3
Scans to average: 1
Electric dark correction enabled: true
Nonlinearity correction enabled: true
Boxcar width: 0
XAxis mode: Wavelengths
Number of Pixels in Spectrum: 3648
>>>>>Begin Spectral Data<<<<<
345.52	-23.53085
345.736	-23.53085
345.952	-23.53085
346.168	-4.56592
346.384	16.50851
346.6	-53.02787
346.816	-19.31659
347.032	-71.98763
347.248	24.93896
347.464	33.36978
347.68	109.26371
347.896	-42.49378
348.112	22.83131
348.328	5.97099
348.544	29.15432
348.76	-59.34802
348.975	20.72369
349.191	-15.10224
349.407	62.88058
349.623	-6.67324
349.839	-4.56592
350.055	-23.53085
350.27	1.75615
350.486	-23.53085
350.702	22.83131
350.918	-19.31659
351.133	-44.60065
351.349	46.01671
351.565	-57.24133
351.781	24.93896
351.996	33.36978
352.212	31.26204
352.428	43.90883
352.644	-4.56592
352.859	-53.02787
353.075	-12.99502
353.291	50.23254
353.506	10.18593
353.722	-55.13461
353.938	5.97099
354.153	35.47754
354.369	31.26204
354.584	24.93896
354.8	-48.81431
355.016	-27.74501
355.231	-23.53085
355.447	14.40096
355.662	35.47754
355.878	62.88058
356.093	43.90883
356.309	-74.09415
356.524	-23.53085
356.74	-6.67324
356.955	-74.09415
357.171	14.40096
357.386	-10.88778
357.602	20.72369
357.817	27.04663
358.033	-69.8811
358.248	22.83131
358.464	-25.63794
358.679	-36.17303
358.895	20.72369
359.11	-10.88778
359.325	35.47754
359.541	-10.88778
359.756	-10.88778
359.972	22.83131
360.187	-19.31659
360.402	-53.02787
360.618	14.40096
360.833	1.75615
361.048	-55.13461
361.264	-12.99502
361.479	-0.35123
361.694	-36.17303
361.909	60.77252
362.125	27.04663
362.34	-10.88778
362.555	-29.85205
362.77	-44.60065
362.986	-6.67324
363.201	3.86356
363.416	8.07845
363.631	27.04663
363.847	18.61609
364.062	18.61609
364.277	-2.45859
364.492	43.90883
364.707	-2.45859
364.922	62.88058
365.138	-21.42373
365.353	-40.38689
365.568	-21.42373
365.783	46.01671
365.998	14.40096
366.213	10.18593
366.428	27.04663
366.643	18.61609
366.858	-82.51994
367.073	-21.42373
367.288	-23.53085
367.503	-6.67324
367.718	-76.20064
367.933	-23.53085
368.148	-27.74501
368.363	-2.45859
368.578	-46.70749
368.793	86.0708
369.008	58.66448
369.223	-6.67324
369.438	-44.60065
369.653	-27.74501
369.868	-15.10224
370.083	16.50851
370.298	-8.78052
370.513	1.75615
370.728	33.36978
370.943	8.07845
371.157	31.26204
371.372	20.72369
371.587	-21.42373
371.802	73.42125
372.017	-31.95906
372.232	-12.99502
372.446	-6.67324
372.661	-76.20064
372.876	-31.95906
373.091	-36.17303
373.306	29.15432
373.52	69.20492
373.735	1.75615
373.95	-21.42373
374.165	-23.53085
374.379	-4.56592
374.594	10.18593
374.809	29.15432
375.023	37.58533
375.238	22.83131
375.453	52.34049
375.667	35.47754
375.882	-23.53085
376.097	20.72369
376.311	35.47754
376.526	-48.81431
376.741	-6.67324
376.955	-6.67324
377.17	16.50851
377.384	1.75615
377.599	-10.88778
377.813	31.26204
378.028	-19.31659
378.242	56.55646
378.457	-15.10224
378.672	1.75615
378.886	-61.45468
379.101	5.97099
379.315	-17.20943
379.53	-19.31659
379.744	-53.02787
379.958	-15.10224
380.173	1.75615
380.387	10.18593
380.602	12.29343
380.816	56.55646
381.031	-27.74501
381.245	-6.67324
381.459	62.88058
381.674	48.12461
381.888	48.12461
382.103	14.40096
382.317	-50.9211
382.531	100.82962
382.746	-36.17303
382.96	-71.98763
383.174	-2.45859
383.388	86.0708
383.603	3.86356
383.817	33.36978
384.031	27.04663
384.246	12.29343
384.46	16.50851
384.674	-4.56592
384.888	22.83131
385.103	1.75615
385.317	102.93811
385.531	-31.95906
385.745	-23.53085
385.959	-36.17303
386.174	-69.8811
386.388	20.72369
386.602	-36.17303
386.816	1.75615
387.03	10.18593
387.244	-12.99502
387.458	62.88058
387.672	-10.88778
387.887	-40.38689
388.101	-10.88778
388.315	27.04663
388.529	-0.35123
388.743	5.97099
388.957	29.15432
389.171	-99.37029
389.385	-57.24133
389.599	-23.53085
389.813	-55.13461
390.027	33.36978
390.241	-46.70749
390.455	56.55646
390.669	71.31307
390.883	-36.17303
391.097	-25.63794
391.311	48.12461
391.525	-65.66794
391.738	-29.85205
391.952	-40.38689
392.166	-44.60065
392.38	-29.85205
392.594	5.97099
392.808	27.04663
393.022	-6.67324
393.236	24.93896
393.449	73.42125
393.663	43.90883
393.877	64.98867
394.091	37.58533
394.305	-44.60065
394.518	50.23254
394.732	12.29343
394.946	18.61609
395.16	43.90883
395.373	-12.99502
395.587	10.18593
395.801	-48.81431
396.015	52.34049
396.228	18.61609
396.442	-31.95906
396.656	-21.42373
396.869	10.18593
397.083	-10.88778
397.297	-6.67324
397.51	22.83131
397.724	-2.45859
397.938	50.23254
398.151	-6.67324
398.365	18.61609
398.578	62.88058
398.792	31.26204
399.005	-34.06606
399.219	-25.63794
399.433	-12.99502
399.646	31.26204
399.86	-12.99502
400.073	27.04663
400.287	-29.85205
400.5	33.36978
400.714	81.85419
400.927	5.97099
401.141	-19.31659
401.354	60.77252
401.567	5.97099
401.781	29.15432
401.994	31.26204
402.208	10.18593
402.421	35.47754
402.635	3.86356
402.848	-4.56592
403.061	60.77252
403.275	14.40096
403.488	90.28749
403.701	12.29343
403.915	-27.74501
404.128	-0.35123
404.341	14.40096
404.555	-6.67324
404.768	-2.45859
404.981	29.15432
405.195	10.18593
405.408	27.04663
405.621	-23.53085
405.834	-4.56592
406.048	10.18593
406.261	-4.56592
406.474	10.18593
406.687	20.72369
406.9	48.12461
407.114	-15.10224
407.327	-53.02787
407.54	-57.24133
407.753	-10.88778
407.966	33.36978
408.179	-65.66794
408.392	-0.35123
408.605	-12.99502
408.819	14.40096
409.032	24.93896
409.245	-59.34802
409.458	-6.67324
409.671	5.97099
409.884	-29.85205
410.097	20.72369
410.31	-57.24133
410.523	1.75615
410.736	-67.77453
410.949	24.93896
411.162	77.63768
411.375	35.47754
411.588	-6.67324
411.801	-8.78052
412.014	-2.45859
412.227	-40.38689
412.44	-15.10224
412.653	22.83131
412.865	73.42125
413.078	35.47754
413.291	3.86356
413.504	-10.88778
413.717	10.18593
413.93	20.72369
414.143	52.34049
414.356	-17.20943
414.568	29.15432
414.781	50.23254
414.994	14.40096
415.207	60.77252
415.42	-36.17303
415.632	-46.70749
415.845	8.07845
416.058	-65.66794
416.271	-4.56592
416.483	5.97099
416.696	-27.74501
416.909	41.80097
417.121	-36.17303
417.334	-74.09415
417.547	96.6127
417.759	37.58533
417.972	56.55646
418.185	5.97099
418.397	-17.20943
418.61	-21.42373
418.823	5.97099
419.035	77.63768
419.248	48.12461
419.46	56.55646
419.673	-40.38689
419.885	-15.10224
420.098	3.86356
420.311	5.97099
420.523	18.61609
420.736	56.55646
420.948	94.50427
421.161	52.34049
421.373	20.72369
421.586	-15.10224
421.798	-38.27997
422.01	-69.8811
422.223	22.83131
422.435	-10.88778
422.648	18.61609
422.86	31.26204
423.073	-48.81431
423.285	43.90883
423.497	31.26204
423.71	69.20492
423.922	86.0708
424.134	10.18593
424.347	-44.60065
424.559	29.15432
424.771	58.66448
424.984	-23.53085
425.196	-12.99502
425.408	-55.13461
425.621	43.90883
425.833	3.86356
426.045	37.58533
426.257	-6.67324
426.47	69.20492
426.682	-38.27997
426.894	69.20492
427.106	96.6127
427.318	14.40096
427.531	52.34049
427.743	-44.60065
427.955	20.72369
428.167	-27.74501
428.379	5.97099
428.591	-2.45859
428.804	62.88058
429.016	-63.56133
429.228	1.75615
429.44	14.40096
429.652	-27.74501
429.864	16.50851
430.076	39.69314
430.288	-29.85205
430.5	5.97099
430.712	-65.66794
430.924	-21.42373
431.136	41.80097
431.348	-23.53085
431.56	73.42125
431.772	39.69314
431.984	60.77252
432.196	111.37229
432.408	-0.35123
432.62	56.55646
432.832	60.77252
433.044	-48.81431
433.256	-53.02787
433.468	-71.98763
433.679	-80.41353
433.891	43.90883
434.103	5.97099
434.315	10.18593
434.527	-23.53085
434.739	-12.99502
434.95	73.42125
435.162	-8.78052
435.374	41.80097
435.586	-17.20943
435.798	-31.95906
436.009	22.83131
436.221	27.04663
436.433	1.75615
436.645	43.90883
436.856	56.55646
437.068	10.18593
437.28	18.61609
437.491	56.55646
437.703	-40.38689
437.915	10.18593
438.126	39.69314
438.338	-44.60065
438.55	5.97099
438.761	39.69314
438.973	27.04663
439.184	10.18593
439.396	-38.27997
439.608	58.66448
439.819	-25.63794
440.031	41.80097
440.242	52.34049
440.454	1.75615
440.665	5.97099
440.877	3.86356
441.088	90.28749
441.3	-34.06606
441.511	14.40096
441.723	1.75615
441.934	60.77252
442.146	-6.67324
442.357	18.61609
442.569	8.07845
442.78	-31.95906
442.991	54.44846
443.203	10.18593
443.414	27.04663
443.626	29.15432
443.837	29.15432
444.048	12.29343
444.26	-6.67324
444.471	1.75615
444.682	1.75615
444.894	-36.17303
445.105	-34.06606
445.316	18.61609
445.528	24.93896
445.739	8.07845
445.95	60.77252
446.161	-40.38689
446.373	31.26204
446.584	-0.35123
446.795	60.77252
447.006	-21.42373
447.217	81.85419
447.429	43.90883
447.64	37.58533
447.851	-46.70749
448.062	69.20492
448.273	-19.31659
448.484	22.83131
448.695	18.61609
448.907	-19.31659
449.118	60.77252
449.329	-46.70749
449.54	75.52945
449.751	-15.10224
449.962	-2.45859
450.173	43.90883
450.384	52.34049
450.595	107.15516
450.806	-21.42373
451.017	56.55646
451.228	10.18593
451.439	50.23254
451.65	-57.24133
451.861	12.29343
452.072	50.23254
452.283	35.47754
452.494	-36.17303
452.705	81.85419
452.915	3.86356
453.126	46.01671
453.337	60.77252
453.548	67.09678
453.759	71.31307
453.97	35.47754
454.181	1.75615
454.391	-15.10224
454.602	43.90883
454.813	75.52945
455.024	60.77252
455.235	18.61609
455.445	-46.70749
455.656	-19.31659
455.867	-12.99502
456.078	52.34049
456.288	8.07845
456.499	10.18593
456.71	43.90883
456.921	-53.02787
457.131	10.18593
457.342	-4.56592
457.553	14.40096
457.763	56.55646
457.974	52.34049
458.184	10.18593
458.395	-12.99502
458.606	18.61609
458.816	64.98867
459.027	-12.99502
459.237	-103.58262
459.448	27.04663
459.659	-6.67324
459.869	-69.8811
460.08	20.72369
460.29	62.88058
460.501	54.44846
460.711	16.50851
460.922	39.69314
461.132	18.61609
461.343	43.90883
461.553	27.04663
461.764	52.34049
461.974	64.98867
462.184	69.20492
462.395	8.07845
462.605	-55.13461
462.816	-23.53085
463.026	29.15432
463.236	46.01671
463.447	18.61609
463.657	77.63768
463.867	12.29343
464.078	69.20492
464.288	29.15432
464.498	94.50427
464.709	94.50427
464.919	-10.88778
465.129	-2.45859
465.339	56.55646
465.55	39.69314
465.76	-10.88778
465.97	-19.31659
466.18	-36.17303
466.391	-6.67324
466.601	43.90883
466.811	39.69314
467.021	5.97099
467.231	12.29343
467.441	10.18593
467.651	48.12461
467.862	86.0708
468.072	31.26204
468.282	111.37229
468.492	-6.67324
468.702	39.69314
468.912	56.55646
469.122	-25.63794
469.332	24.93896
469.542	73.42125
469.752	86.0708
469.962	69.20492
470.172	-48.81431
470.382	64.98867
470.592	18.61609
470.802	52.34049
471.012	77.63768
471.222	41.80097
471.432	56.55646
471.642	64.98867
471.852	27.04663
472.062	-19.31659
472.272	96.6127
472.482	88.17913
472.691	20.72369
472.901	71.31307
473.111	107.15516
473.321	60.77252
473.531	102.93811
473.741	96.6127
473.95	58.66448
474.16	60.77252
474.37	73.42125
474.58	10.18593
474.79	27.04663
474.999	119.80683
475.209	50.23254
475.419	107.15516
475.628	-6.67324
475.838	119.80683
476.048	105.04662
476.258	1.75615
476.467	60.77252
476.677	60.77252
476.886	119.80683
477.096	81.85419
477.306	105.04662
477.515	119.80683
477.725	79.74592
477.935	75.52945
478.144	130.35049
478.354	64.98867
478.563	86.0708
478.773	109.26371
478.982	170.42125
479.192	64.98867
479.401	170.42125
479.611	151.43941
479.82	136.67694
480.03	126.13296
480.239	155.65745
480.449	147.22146
480.658	191.51415
480.868	128.24171
481.077	147.22146
481.287	208.38993
481.496	180.96744
481.705	185.18606
481.915	140.89469
482.124	130.35049
482.333	145.11251
482.543	138.7858
482.752	178.85816
482.961	130.35049
483.171	149.33043
483.38	138.7858
483.589	111.37229
483.799	183.07674
484.008	204.17086
484.217	166.20292
484.426	174.63967
484.636	157.7665
484.845	208.38993
485.054	174.63967
485.263	178.85816
485.472	157.7665
485.682	178.85816
485.891	254.80485
486.1	191.51415
486.309	225.26699
486.518	288.56699
486.727	259.02486
486.936	240.03545
487.146	240.03545
487.355	275.90563
487.564	256.91485
487.773	221.0476
487.982	240.03545
488.191	275.90563
488.4	301.22902
488.609	242.1453
488.818	278.01581
489.027	292.78759
489.236	309.67074
489.445	250.58493
489.654	316.00221
489.863	398.32572
490.072	303.33942
490.281	425.77255
490.49	316.00221
490.698	254.80485
490.907	410.99314
491.116	406.7706
491.325	444.77578
491.534	349.77279
491.743	324.44443
491.952	423.66115
492.16	356.10527
492.369	330.77629
492.578	468.00366
492.787	368.7707
492.996	421.54978
493.204	351.8836
493.413	453.22206
493.622	474.33885
493.831	368.7707
494.039	377.21465
494.248	402.54813
494.457	495.45715
494.665	503.90488
494.874	419.43842
495.083	425.77255
495.291	535.58592
495.5	510.24083
495.709	501.79293
495.917	442.66424
496.126	533.47375
496.335	474.33885
496.543	622.19641
496.752	503.90488
496.96	577.83217
497.169	550.37148
497.377	603.18247
497.586	512.35284
497.794	630.64738
498.003	531.3616
498.211	656.00144
498.42	563.04536
498.628	632.76015
498.837	567.2701
499.045	702.4883
499.254	660.22729
499.462	668.67912
499.671	577.83217
499.879	793.36416
500.087	668.67912
500.296	588.39456
500.504	658.11436
500.713	772.22855
500.921	770.11505
501.129	719.39397
501.338	656.00144
501.546	727.84706
501.754	588.39456
501.962	848.32114
502.171	719.39397
502.379	882.1438
502.587	761.66112
502.795	915.96855
503.004	710.94105
503.212	721.50723
503.42	740.52702
503.628	803.93232
503.837	719.39397
504.045	850.435
504.253	778.56913
504.461	867.34612
504.669	753.20736
504.877	880.02982
505.085	797.5914
505.294	918.08266
505.502	795.47777
505.71	1002.65311
505.918	757.43422
506.126	960.36649
506.334	839.86582
506.542	960.36649
506.75	956.13798
506.958	973.05219
507.166	896.94188
507.374	994.19557
507.582	890.59979
507.79	1036.48424
507.998	934.99584
508.206	1104.15084
508.414	861.00439
508.622	1159.13363
508.83	1032.25526
509.037	922.31091
509.245	837.75202
509.453	1013.22517
509.661	903.28403
509.869	1142.21553
510.077	1006.88191
510.285	1127.41242
510.492	1011.11074
510.7	1176.05198
510.908	951.90949
511.116	1118.9536
511.324	941.33841
511.531	998.42433
511.739	1053.40037
511.947	1220.46377
512.155	1028.02631
512.362	1214.11914
512.57	1201.42996
512.778	1209.8894
512.985	1258.53213
513.193	1184.51125
513.401	1087.23368
513.608	1415.04244
513.816	1235.26802
514.024	1226.80843
514.231	1042.82774
514.439	1192.97058
514.646	1330.44121
514.854	1292.37139
515.061	1127.41242
515.269	1321.98119
515.477	1093.57758
515.684	1357.93641
515.892	1391.77694
516.099	1362.16646
516.307	1201.42996
516.514	1269.10683
516.722	1243.72766
516.929	1319.8662
517.136	1125.29771
517.344	1423.50263
517.551	1336.78623
517.759	1450.9983
517.966	1353.70636
518.173	1425.61768
518.381	1406.58225
518.588	1478.49398
518.796	1398.12207
519.003	1467.91872
519.21	1465.80367
519.418	1560.98041
519.625	1372.74161
519.832	1434.07789
520.039	1321.98119
520.247	1709.02668
520.454	1510.21968
520.661	1577.9005
520.868	1478.49398
521.076	1599.05046
521.283	1550.40531
521.49	1556.75038
521.697	1702.6821
521.904	1571.55548
522.112	1372.74161
522.319	1736.51952
522.526	1505.98959
522.733	1730.17507
522.94	1550.40531
523.147	1717.48608
523.354	1599.05046
523.561	1744.97874
523.768	1630.77505
523.975	1736.51952
524.183	1592.70549
524.39	1738.63433
524.597	1603.28043
524.804	1666.72896
525.011	1749.20833
525.218	1854.94276
525.425	1753.43791
525.632	1920.49217
525.838	1776.70029
526.045	1835.91138
526.252	1675.1886
526.459	1920.49217
526.666	1852.82818
526.873	1804.19157
527.08	1791.50337
527.287	1922.60658
527.494	1791.50337
527.701	1990.26464
527.907	1783.04449
528.114	1945.86473
528.321	1854.94276
528.528	1787.27394
528.735	1905.69114
528.941	1861.28647
529.148	1823.22358
529.355	2066.37212
529.562	1869.74468
529.768	2041.00394
529.975	1776.70029
530.182	2136.12919
530.388	1992.37885
530.595	2005.06399
530.802	1846.48442
531.008	2114.99156
531.215	2045.23204
531.422	2068.48609
531.628	2093.85316
531.835	2193.1968
532.042	2047.34608
532.248	2294.63488
532.455	2041.00394
532.661	2269.27731
532.868	2117.10535
533.074	2326.32992
533.281	2153.03873
533.487	2201.65075
533.694	2233.35183
533.9	2499.55578
534.107	2142.47033
534.313	2410.83917
534.52	2313.65216
534.726	2531.23553
534.933	2108.65012
535.139	2334.78157
535.345	2415.0642
535.552	2493.21952
535.758	2436.18873
535.965	2459.42446
536.171	2385.48811
536.377	2379.15011
536.584	2216.44483
536.79	2440.4135
536.996	2250.25826
537.203	2429.85148
537.409	2258.71126
537.615	2385.48811
537.821	2324.21699
538.028	2666.37251
538.234	2362.24833
538.44	2556.57746
538.646	2600.92174
538.853	2657.92792
539.059	2402.38898
539.265	2550.24214
539.471	2469.98572
539.677	2546.01853
539.883	2465.76125
540.09	2548.13034
540.296	2529.12363
540.502	2664.26138
540.708	2488.9953
540.914	2668.48362
541.12	2548.13034
541.326	2571.35947
541.532	2636.81558
541.738	2858.42995
541.944	2691.70505
542.15	2866.86943
542.356	2554.4657
542.562	2839.44029
542.768	2782.46453
542.974	2683.26107
543.18	2668.48362
543.386	2879.52823
543.592	2681.15005
543.798	2904.84427
544.004	2915.39201
544.21	2820.44949
544.415	2655.81674
544.621	2862.64972
544.827	2892.18651
545.033	2892.18651
545.239	2911.17296
545.445	2984.99784
545.651	2862.64972
545.856	3041.93588
546.062	2949.1423
546.268	2993.4338
546.474	2765.58091
546.679	2968.12518
546.885	2786.6853
547.091	3044.04449
547.297	2864.75958
547.502	3010.30501
547.708	2828.88998
547.914	3016.63146
548.119	2984.99784
548.325	3195.8223
548.531	2942.81441
548.736	3006.0873
548.942	2858.42995
549.147	2940.70508
549.353	2906.95385
549.559	3132.59162
549.764	2915.39201
549.97	3204.25194
550.175	3103.07901
550.381	3195.8223
550.586	2904.84427
550.792	3231.64646
550.997	3244.28914
551.203	3191.60737
551.408	3094.64626
551.614	3138.91534
551.819	3037.71863
552.025	3377.00029
552.23	3195.8223
552.435	3499.11739
552.641	3332.77082
552.846	3425.43322
553.052	3296.96043
553.257	3282.21353
553.462	3178.96222
553.668	3379.10627
553.873	3231.64646
554.078	3440.17181
554.283	3366.47017
554.489	3383.31816
554.694	3315.91949
554.899	3440.17181
555.105	3387.52999
555.31	3374.8943
555.515	3187.39239
555.72	3490.69746
555.925	3442.27726
556.131	3465.43593
556.336	3461.22543
556.541	3589.61308
556.746	3574.88355
556.951	3717.93129
557.156	3299.06706
557.361	3459.12015
557.567	3488.59243
557.772	3616.96548
557.977	3408.58805
558.182	3532.79418
558.387	3576.98782
558.592	3701.10671
558.797	3381.21222
559.002	3682.17759
559.207	3391.74174
559.412	3671.66074
559.617	3480.17214
559.822	3677.97091
560.027	3541.21264
560.232	3703.20985
560.437	3629.5886
560.642	3738.96028
560.847	3635.89991
561.051	3677.97091
561.256	3499.11739
561.461	3722.13724
561.666	3785.21721
561.871	3768.3976
562.076	3473.85673
562.281	3743.16584
562.485	3543.31721
562.69	3921.82968
562.895	3532.79418
563.1	3831.46467
563.305	3604.34169
563.509	3902.91914
563.714	3604.34169
563.919	3726.34312
564.123	3736.85747
564.328	3835.66851
564.533	3711.62222
564.737	3755.78207
564.942	3675.86754
565.147	3902.91914
565.351	3532.79418
565.556	3802.03557
565.761	3726.34312
565.965	3928.13283
566.17	3793.62655
566.374	3961.74657
566.579	3949.14203
566.784	3804.13778
566.988	3860.88989
567.193	4049.95778
567.397	3785.21721
567.602	4173.81184
567.806	3844.07595
568.011	4007.95695
568.215	3986.95346
568.42	4144.42933
568.624	3938.63768
568.828	3793.62655
569.033	3814.64852
569.237	3921.82968
569.442	3907.12162
569.646	4037.3584
569.85	3877.70255
570.055	4037.3584
570.259	3999.5558
570.463	4087.75146
570.668	4043.65818
570.872	3963.84726
571.076	4033.15844
571.281	4196.89519
571.485	4108.74504
571.689	4066.7558
571.893	4178.009
572.098	4096.14914
572.302	3989.0539
572.506	4339.53506
572.71	3986.95346
572.914	4073.05472
573.119	4056.25719
573.323	4058.35696
573.527	4106.64578
573.731	4171.71323
573.935	4165.41726
574.139	4408.72143
574.343	4064.65612
574.547	4232.56442
574.751	4211.58327
574.955	4404.52899
575.159	3982.75251
575.364	4341.63196
575.568	4016.35778
575.772	4465.31079
575.976	4230.4664
576.18	4299.68978
576.383	4278.71546
576.587	4563.77991
576.791	4146.52822
576.995	4542.83313
577.199	4285.00798
577.403	4366.79312
577.607	4402.43274
577.811	4565.87446
578.015	4326.95318
578.219	4329.05021
578.422	4159.1211
578.626	4305.98166
578.83	4165.41726
579.034	4473.69304
579.238	4329.05021
579.442	4222.07411
579.645	4425.49031
579.849	4490.45648
580.053	4360.50312
580.257	4421.29822
580.46	4498.83767
580.664	4417.10604
580.868	4228.36836
581.071	4523.97912
581.275	4222.07411
581.479	4630.79465
581.682	4398.24017
581.886	4724.99531
582.09	4490.45648
582.293	4676.854
582.497	4526.0741
582.7	4557.49611
582.904	4488.36112
583.107	4835.88407
583.311	4523.97912
583.515	4591.0074
583.718	4605.6668
583.922	4651.73206
584.125	4580.53573
584.329	4911.16825
584.532	4685.22725
584.735	4565.87446
584.939	4563.77991
585.142	4737.55195
585.346	4534.45379
585.549	4632.88849
585.753	4766.84761
585.956	4660.1064
586.159	4486.26575
586.363	4821.24205
586.566	4681.04067
586.769	4641.26364
586.973	4699.87959
587.176	4750.10778
587.379	4542.83313
587.582	4865.16477
587.786	4658.01285
587.989	4898.62295
588.192	4875.62108
588.395	5034.48632
588.599	4699.87959
588.802	4965.52168
589.005	4599.38433
589.208	4777.30927
589.411	4687.32051
589.615	4894.441
589.818	4743.82997
590.021	5063.73645
590.224	4706.15883
590.427	5051.20124
590.63	4877.71228
590.833	4986.42271
591.036	4875.62108
591.239	5153.54772
591.442	4791.95465
591.645	5176.51579
591.848	4785.67819
592.051	5065.82557
592.254	4934.16583
592.457	5170.25205
592.66	5003.14187
592.863	5205.74381
593.066	4821.24205
593.269	5216.18128
593.472	5034.48632
593.675	5067.91467
593.878	5053.2905
594.081	5105.51447
594.284	4961.3412
594.486	5205.74381
594.689	5166.07611
594.892	5155.63584
595.095	5280.88057
595.298	5138.9302
595.5	5051.20124
595.703	5303.83298
595.906	5113.86896
596.109	5391.44338
596.311	5001.05206
596.514	4984.33271
596.717	5149.3714
596.92	5207.83135
597.122	5199.48105
597.325	5220.3561
597.528	5118.04607
597.73	5412.2969
597.933	5201.56866
598.136	5289.22722
598.338	5364.33029
598.541	5435.23305
598.743	5132.66521
598.946	5272.53353
599.148	5268.35988
599.351	5406.04109
599.554	5318.43758
599.756	5424.80788
599.959	5243.31597
600.161	5506.10864
600.363	5226.61817
600.566	5414.38212
600.768	5285.05394
600.971	5468.58966
601.173	5153.54772
601.376	5447.74249
601.578	5176.51579
601.78	5601.95582
601.983	5243.31597
602.185	5501.94024
602.388	5314.26495
602.59	5395.61427
602.792	5449.82731
602.995	5368.50179
603.197	5483.18128
603.399	5566.53985
603.601	5393.52883
603.804	5393.52883
604.006	5401.87043
604.208	5481.09684
604.41	5689.42489
604.613	5720.65376
604.815	5526.94923
605.017	5589.45684
605.219	5358.07286
605.421	5493.60316
605.623	5489.43448
605.826	5760.20271
606.028	5435.23305
606.23	5468.58966
606.432	5499.85601
606.634	5576.95702
606.836	5476.92787
607.038	5606.12196
607.24	5585.29033
607.442	5662.35558
607.644	5360.1587
607.846	5703.99903
608.048	5501.94024
608.25	5583.20704
608.452	5220.3561
608.654	5633.19955
608.856	5514.44516
609.058	5720.65376
609.26	5376.84452
609.462	5770.60891
609.664	5397.69968
609.866	5422.72278
610.067	5422.72278
610.269	5501.94024
610.471	5257.92532
610.673	5610.288
610.875	5508.19281
611.077	5712.32658
611.278	5362.24451
611.48	5485.26571
611.682	5360.1587
611.884	5743.55156
612.085	5512.36107
612.287	5589.45684
612.489	5656.10825
612.69	5893.35751
612.892	5687.34278
613.094	5666.52035
613.295	5514.44516
613.497	5726.8989
613.699	5522.7813
613.9	5697.75311
614.102	5695.67109
614.304	5589.45684
614.505	5387.27239
614.707	5460.25107
614.908	5362.24451
615.11	5622.78557
615.311	5551.95482
615.513	5614.45395
615.714	5466.50505
615.916	5643.61295
616.117	5579.04038
616.319	5718.572
616.52	5764.36526
616.722	5812.22781
616.923	5743.55156
617.124	5918.31328
617.326	5587.3736
617.527	5647.77815
617.729	5460.25107
617.93	5651.94325
618.131	5664.43798
618.333	5637.36498
618.534	5529.03316
618.735	5714.40841
618.937	5568.62333
619.138	5612.37099
619.339	5468.58966
619.54	5764.36526
619.742	5697.75311
619.943	5531.11706
620.144	5576.95702
620.345	5833.03372
620.546	5685.26064
620.748	5845.51613
620.949	5647.77815
621.15	5826.79219
621.351	5747.71449
621.552	5972.37245
621.753	5556.12209
621.954	5841.35542
622.155	5564.45634
622.356	5720.65376
622.558	5651.94325
622.759	5793.50047
622.96	5554.03847
623.161	5710.24473
623.362	5287.14059
623.563	5880.87835
623.764	5545.70374
623.965	5597.78959
624.166	5481.09684
624.366	5668.6027
624.567	5456.08164
624.768	5843.43579
624.969	5456.08164
625.17	5797.66227
625.371	5597.78959
625.572	5781.01452
625.773	5620.7027
625.973	5697.75311
626.174	5699.83511
626.375	5795.58138
626.576	5706.08095
626.777	5726.8989
626.977	5984.84538
627.178	6005.63172
627.379	5778.93344
627.58	5835.11418
627.78	5818.46983
627.981	5849.67675
628.182	5839.27503
628.382	5803.90478
628.583	5751.87732
628.784	5845.51613
628.984	5370.58751
629.185	5926.63111
629.386	5907.91545
629.586	5860.07787
629.787	5645.69556
629.987	5731.06221
630.188	5664.43798
630.388	5870.47841
630.589	5760.20271
630.79	5964.05669
630.99	5631.1168
631.191	6026.4157
631.391	5726.8989
631.591	5808.06634
631.792	5676.93186
631.992	5918.31328
632.193	5953.66147
632.393	5753.9587
632.594	5789.33858
632.794	6020.18075
632.994	5651.94325
633.195	6094.98612
633.395	5820.55045
633.595	6028.49396
633.796	5708.16285
633.996	5887.11804
634.196	5993.1602
634.397	6030.57221
634.597	5612.37099
634.797	5920.39277
634.997	5668.6027
635.198	6009.7887
635.398	5716.49022
635.598	5966.13567
635.798	5805.98557
635.998	5749.79591
636.199	5679.01409
636.399	5947.42404
636.599	5631.1168
636.799	5951.58235
636.999	5606.12196
637.199	5537.36864
637.399	5986.92412
637.599	5934.94857
637.799	5799.74313
637.999	5955.74056
638.199	5706.08095
638.399	6124.06886
638.599	5826.79219
638.799	6057.58725
638.999	5670.68503
639.199	5914.15422
639.399	5799.74313
639.599	6113.6827
639.799	5710.24473
639.999	5903.75616
640.199	5778.93344
640.399	6090.83107
640.599	5604.0389
640.799	6236.20203
640.998	5937.02787
641.198	6146.91636
641.398	5685.26064
641.598	6225.82221
641.798	6207.13704
641.997	6082.52068
642.197	5930.78989
642.397	6111.60539
642.597	5947.42404
642.796	5860.07787
642.996	6084.59831
643.196	6192.60282
643.395	5909.99507
643.595	6053.43135
643.795	6080.44302
643.994	6103.29595
644.194	6126.14603
644.394	6065.89877
644.593	5801.82397
644.793	6088.7535
644.992	5770.60891
645.192	6103.29595
645.392	6053.43135
645.591	6259.03559
645.791	6194.67921
645.99	6250.73281
646.19	5897.51704
646.389	6130.30028
646.589	5837.19462
646.788	6067.97659
646.987	5743.55156
647.187	6043.04118
647.386	5839.27503
647.586	6151.07014
647.785	6047.19732
647.984	6283.9417
648.184	6047.19732
648.383	6188.44998
648.582	6026.4157
648.782	6312.99456
648.981	6097.06361
649.18	6225.82221
649.38	6153.147
649.579	6503.79965
649.778	6240.3538
649.977	6275.64004
650.177	6286.01705
650.376	6175.99088
650.575	6055.50931
650.774	6350.34151
650.973	6022.25909
651.173	6144.83943
651.372	6101.21852
651.571	6373.16093
651.77	6159.37743
651.969	6387.6809
652.168	6180.144
652.367	6294.31825
652.566	6151.07014
652.765	6200.90823
652.964	5907.91545
653.163	6101.21852
653.362	6001.47464
653.561	6263.18684
653.76	6007.71022
653.959	6063.82092
654.158	6117.83723
654.357	6128.22316
654.556	6142.76248
654.755	6402.19974
654.954	6009.7887
655.153	6097.06361
655.352	5893.35751
655.551	6190.52641
655.749	6084.59831
655.948	6283.9417
656.147	6001.47464
656.346	5953.66147
656.545	5943.26565
656.743	6408.42174
656.942	6333.7438
657.141	6325.44439
657.34	6005.63172
657.538	6317.1446
657.737	6167.68434
657.936	6412.56963
658.135	5968.21462
658.333	6271.48907
658.532	6121.99168
658.731	6242.42965
658.929	6092.9086
659.128	6296.39349
659.326	5797.66227
659.525	6292.24298
659.724	6175.99088
659.922	6250.73281
660.121	6244.50547
660.319	6240.3538
660.518	6059.66516
660.716	6186.37352
660.915	6205.06079
661.113	6373.16093
661.312	6105.37334
661.51	6427.08651
661.709	6261.11123
661.907	6495.50787
662.105	6366.93773
662.304	6385.60669
662.502	6281.86632
662.701	6681.98342
662.899	6350.34151
663.097	6383.53245
663.296	6383.53245
663.494	6684.05432
663.692	6315.06959
663.891	6190.52641
664.089	6167.68434
664.287	6329.59414
664.485	6084.59831
664.684	6277.71549
664.882	6078.36534
665.08	6422.93895
665.278	6034.72863
665.476	6327.51927
665.675	6136.53148
665.873	6252.80854
666.071	6057.58725
666.269	6175.99088
666.467	6155.22383
666.665	6283.9417
666.863	6163.53093
667.061	6202.98452
667.259	6167.68434
667.457	6128.22316
667.655	6167.68434
667.853	6113.6827
668.051	5876.71845
668.249	6101.21852
668.447	5835.11418
668.645	6408.42174
668.843	6209.21326
669.041	6342.04284
669.239	6080.44302
669.437	6308.84443
669.635	6234.12612
669.833	6259.03559
670.031	6111.60539
670.229	6211.28946
670.426	5945.34486
670.624	6202.98452
670.822	6094.98612
671.02	6205.06079
671.218	6080.44302
671.415	6144.83943
671.613	5926.63111
671.811	6097.06361
672.009	6055.50931
672.206	6250.73281
672.404	6007.71022
672.602	6379.38391
672.799	6219.59403
672.997	6470.6303
673.195	6184.29704
673.392	6400.12569
673.59	6180.144
673.788	6308.84443
673.985	6109.52807
674.183	6186.37352
674.38	6028.49396
674.578	6344.11755
674.775	6086.67592
674.973	6074.20991
675.17	6063.82092
675.368	6213.36564
675.565	6018.10239
675.763	5951.58235
675.96	5914.15422
676.158	6184.29704
676.355	5776.85234
676.553	5989.00284
676.75	5878.79841
676.947	5918.31328
677.145	5914.15422
677.342	5947.42404
677.539	5818.46983
677.737	6180.144
677.934	5989.00284
678.131	6275.64004
678.329	5993.1602
678.526	6342.04284
678.723	5947.42404
678.92	6310.91951
679.118	5837.19462
679.315	5984.84538
679.512	5633.19955
679.709	6146.91636
679.906	5810.14709
680.104	6053.43135
680.301	6055.50931
680.498	5968.21462
680.695	5955.74056
680.892	6099.14108
681.089	5922.47224
681.286	6209.21326
681.483	5949.50321
681.68	6171.83765
681.877	5595.70644
682.075	6009.7887
682.272	5710.24473
682.469	5853.83727
682.665	5670.68503
682.862	5826.79219
683.059	5795.58138
683.256	5862.15803
683.453	5905.83582
683.65	6115.75998
683.847	5728.98056
684.044	5885.03817
684.241	5837.19462
684.438	6059.66516
684.635	5608.20499
684.831	5918.31328
685.028	5758.12139
685.225	6028.49396
685.422	5885.03817
685.619	5964.05669
685.815	5695.67109
686.012	5899.59677
686.209	5512.36107
686.405	5876.71845
686.602	5604.0389
686.799	5597.78959
686.996	5672.76733
687.192	6043.04118
687.389	5795.58138
687.586	5891.27771
687.782	5606.12196
687.979	5930.78989
688.175	5618.61981
688.372	5766.4465
688.568	5476.92787
688.765	5830.95323
688.962	5714.40841
689.158	5685.26064
689.355	5801.82397
689.551	5845.51613
689.748	5618.61981
689.944	5874.63846
690.14	5714.40841
690.337	5801.82397
690.533	5583.20704
690.73	5385.18686
690.926	5435.23305
691.123	5610.288
691.319	5560.28926
691.515	5639.44766
691.712	5451.91211
691.908	5651.94325
692.104	5606.12196
692.301	5689.42489
692.497	5328.86874
692.693	5610.288
692.889	5335.12715
693.086	5639.44766
693.282	5635.28228
693.478	5668.6027
693.674	5422.72278
693.87	5776.85234
694.067	5560.28926
694.263	5670.68503
694.459	5376.84452
694.655	5493.60316
694.851	5360.1587
695.047	5629.03403
695.243	5345.55737
695.439	5495.68747
695.635	5293.40041
695.831	5597.78959
696.027	5462.33576
696.224	5847.59645
696.42	5593.62327
696.615	5581.12372
696.811	5285.05394
697.007	5512.36107
697.203	5243.31597
697.399	5506.10864
697.595	5393.52883
697.791	5474.84335
697.987	5330.9549
698.183	5487.3501
698.379	5318.43758
698.575	5606.12196
698.77	5214.09383
698.966	5631.1168
699.162	5268.35988
699.358	5597.78959
699.554	5251.66431
699.749	5493.60316
699.945	4936.25638
700.141	5345.55737
700.337	5318.43758
700.532	5328.86874
700.728	5464.42041
700.924	5420.63765
701.119	5341.38536
701.315	5308.00584
701.511	5195.30576
701.706	5501.94024
701.902	5247.49019
702.097	5516.52923
702.293	5387.27239
702.489	5393.52883
702.684	5387.27239
702.88	5353.90113
703.075	5034.48632
703.271	5310.09223
703.466	5143.10675
703.662	5303.83298
703.857	5120.13459
704.053	5368.50179
704.248	5049.11195
704.443	5239.14166
704.639	5074.18182
704.834	5372.6732
705.03	5316.35128
705.225	5468.58966
705.42	5280.88057
705.616	5318.43758
705.811	5134.75356
706.006	5297.57351
706.202	5113.86896
706.397	5136.8419
706.592	5099.24836
706.787	5330.9549
706.983	4986.42271
707.178	5297.57351
707.373	5153.54772
707.568	5462.33576
707.763	5128.48843
707.959	5389.3579
708.154	4917.44059
708.349	5322.61011
708.544	5155.63584
708.739	5226.61817
708.934	4975.97249
709.129	5155.63584
709.324	5053.2905
709.519	5170.25205
709.714	4867.25608
709.909	5403.95577
710.104	4969.70207
710.299	5299.66002
710.494	4942.5279
710.689	5268.35988
710.884	5197.39341
711.079	5214.09383
711.274	4921.62204
711.469	5086.71551
711.664	5088.80438
711.859	5324.69635
712.054	5247.49019
712.249	5151.45957
712.443	5168.16409
712.638	5272.53353
712.833	4944.61836
713.028	5287.14059
713.223	5042.84397
713.417	5103.42579
713.612	4932.07526
713.807	5228.70547
714.002	5028.21785
714.196	5155.63584
714.391	5021.94917
714.586	4955.07031
714.78	5051.20124
714.975	5001.05206
715.17	4944.61836
715.364	5147.28321
715.559	4925.80339
715.754	4971.79223
715.948	4858.89071
716.143	4837.9757
716.337	4959.25093
716.532	5080.44877
716.726	4683.13397
716.921	5080.44877
717.115	4890.25895
717.31	5038.66519
717.504	4917.44059
717.699	5028.21785
717.893	4737.55195
718.088	4980.15265
718.282	4687.32051
718.476	4766.84761
718.671	4601.47851
718.865	4798.23089
719.059	4892.34999
719.254	5078.35981
719.448	4804.50693
719.642	4888.1679
719.837	4511.4088
720.031	4693.60015
720.225	4626.6069
720.419	4883.98572
720.614	4733.3665
720.808	4842.15889
721.002	4492.55181
721.196	4817.0584
721.39	4406.62522
721.585	4668.48038
721.779	4616.13713
721.973	4802.41494
722.167	4469.50196
722.361	4823.33383
722.555	4557.49611
722.749	4687.32051
722.943	4456.92819
723.137	4624.51299
723.331	4373.08292
723.525	4689.41375
723.719	4490.45648
723.913	4599.38433
724.107	4435.97015
724.301	4511.4088
724.495	4406.62522
724.689	4658.01285
724.883	4364.69647
725.077	4662.19993
725.271	4448.54524
725.465	4645.45107
725.659	4591.0074
725.853	4490.45648
726.046	4720.80958
726.24	4800.32293
726.434	4419.20214
726.628	4704.06577
726.822	4467.40638
727.015	4716.62377
727.209	4415.00992
727.403	4766.84761
727.596	4459.02387
727.79	4689.41375
727.984	4563.77991
728.177	4716.62377
728.371	4658.01285
728.565	4605.6668
728.758	4595.19591
728.952	4743.82997
729.146	4461.11953
729.339	4574.25247
729.533	4412.91378
729.726	4741.73732
729.92	4586.8188
730.113	4637.07611
730.307	4398.24017
730.5	4509.31366
730.694	4419.20214
730.887	4718.71669
731.081	4469.50196
731.274	4691.50696
731.468	4394.04751
731.661	4708.25186
731.854	4511.4088
732.048	4389.85477
732.241	4264.03216
732.435	4616.13713
732.628	4534.45379
732.821	4658.01285
733.014	4570.06351
733.208	4593.10167
733.401	4435.97015
733.594	4435.97015
733.788	4190.59999
733.981	4519.7891
734.174	4249.34782
734.367	4616.13713
734.56	4360.50312
734.754	4394.04751
734.947	4305.98166
735.14	4316.46769
735.333	4358.40641
735.526	4385.66193
735.719	4232.56442
735.912	4268.2275
736.105	4261.93446
736.298	4293.39771
736.491	4251.44564
736.684	4425.49031
736.877	4287.10545
737.07	4352.11616
737.263	4542.83313
737.456	4479.97949
737.649	4660.1064
737.842	4503.02813
738.035	4314.37053
738.228	4555.40146
738.421	4500.93291
738.614	4578.44133
738.807	4402.43274
739	4412.91378
739.192	4400.33646
739.385	4408.72143
739.578	4305.98166
739.771	4268.2275
739.964	4213.68148
740.156	4209.48503
740.349	4272.42275
740.542	4274.52034
740.735	4205.28851
740.927	4165.41726
741.12	4024.75827
741.313	4299.68978
741.505	4400.33646
741.698	4171.71323
741.891	4213.68148
742.083	4209.48503
742.276	4123.43931
742.468	4106.64578
742.661	4146.52822
742.854	4364.69647
743.046	4417.10604
743.239	4406.62522
743.431	4389.85477
743.624	4259.83674
743.816	4100.34786
744.009	4232.56442
744.201	4089.85091
744.393	4091.95034
744.586	4010.05719
744.778	3982.75251
744.971	4140.23149
745.163	4003.75642
745.355	3972.2498
745.548	4213.68148
745.74	3955.44439
745.932	4178.009
746.125	4217.87784
746.317	4203.19021
746.509	4022.65818
746.702	4125.5384
746.894	4001.65612
747.086	4157.02234
747.278	4192.69841
747.471	4131.83557
747.663	4022.65818
747.855	4117.14189
748.047	3978.55149
748.239	4243.0542
748.431	4123.43931
748.623	4385.66193
748.815	4012.15741
749.008	4028.9584
749.2	3936.53675
749.392	4272.42275
749.584	3745.2686
749.776	4255.64124
749.968	3972.2498
750.16	4073.05472
750.352	4133.93458
750.544	4028.9584
750.736	4028.9584
750.928	4106.64578
751.12	4159.1211
751.311	4058.35696
751.503	4005.8567
751.695	4075.15432
751.887	3917.62748
752.079	3997.45546
752.271	3913.4252
752.463	4203.19021
752.654	4148.62709
752.846	4234.66242
753.038	3961.74657
753.23	4028.9584
753.421	3854.58481
753.613	4314.37053
753.805	4020.55807
753.997	3953.34362
754.188	4007.95695
754.38	3944.94035
754.572	4001.65612
754.763	3974.35038
754.955	3764.1925
755.146	3844.07595
755.338	3751.57674
755.53	3902.91914
755.721	3995.3551
755.913	3995.3551
756.104	3753.67942
756.296	4028.9584
756.487	3802.03557
756.679	3848.27956
756.87	3692.69396
757.062	3587.50891
757.253	3751.57674
757.445	3669.55732
757.636	3652.72922
757.827	3949.14203
758.019	3911.32402
758.21	3751.57674
758.401	3848.27956
758.593	3433.85538
758.784	3583.30053
758.975	3600.13361
759.167	3600.13361
759.358	3650.62562
759.549	3694.79718
759.74	3865.09317
759.932	3598.02954
760.123	3585.40473
760.314	3507.53702
760.505	3518.06116
760.696	3515.95637
760.888	3448.59347
761.079	3459.12015
761.27	3654.8328
761.461	3292.74711
761.652	3551.73531
761.843	3307.49341
762.034	3667.45387
762.225	3343.30235
762.416	3459.12015
762.607	3204.25194
762.798	3406.48232
762.989	3212.68132
763.18	3600.13361
763.371	3469.64637
763.562	3501.22232
763.753	3482.27724
763.944	3524.37542
764.135	3229.53929
764.326	3541.21264
764.517	3246.39619
764.708	3334.87716
764.899	3181.06978
765.089	3269.57267
765.28	3166.31647
765.471	3294.85378
765.662	3113.61958
765.853	3414.90512
766.043	3303.28027
766.234	3301.17367
766.425	3206.35931
766.615	3360.15188
766.806	3157.88565
766.997	3482.27724
767.187	3193.71484
767.378	3343.30235
767.569	3326.4517
767.759	3231.64646
767.95	3153.67014
768.141	3237.96787
768.331	3309.59996
768.522	3197.92973
768.712	3115.72765
768.903	3275.89318
769.093	3204.25194
769.284	3197.92973
769.474	3084.10497
769.665	3265.35892
769.855	2885.85743
770.046	3044.04449
770.236	2854.21012
770.426	2881.63798
770.617	3058.80427
770.807	2987.10685
770.998	2866.86943
771.188	3014.52266
771.378	2841.55031
771.569	3100.97084
771.759	3098.86266
771.949	3060.91274
772.139	3115.72765
772.33	2915.39201
772.52	3003.97842
772.71	3130.48368
772.9	2909.06341
773.09	3044.04449
773.281	2972.34344
773.471	2968.12518
773.661	2890.07683
773.851	3001.86953
774.041	2698.03789
774.231	2784.57493
774.421	2826.77988
774.611	2885.85743
774.802	2809.89856
774.992	2942.81441
775.182	2835.22021
775.372	2970.23432
775.562	2790.90602
775.752	2978.67071
775.942	2731.81109
776.131	2801.45757
776.321	2736.03251
776.511	2885.85743
776.701	2776.13328
776.891	2883.74771
777.081	2681.15005
777.271	2698.03789
777.461	2600.92174
777.651	2913.28249
777.84	2693.81601
778.03	2698.03789
778.22	2562.91268
778.41	2736.03251
778.599	2611.47912
778.789	2706.48151
778.979	2609.36767
779.169	2803.56784
779.358	2632.59296
779.548	2803.56784
779.738	2774.02283
779.927	2708.59238
780.117	2723.36811
780.307	2539.68303
780.496	2419.28919
780.686	2541.79487
780.875	2241.80512
781.065	2476.32235
781.254	2497.44371
781.444	2740.25387
781.633	2562.91268
781.823	2668.48362
782.012	2560.80095
782.202	2706.48151
782.391	2586.1409
782.581	2586.1409
782.77	2478.43453
782.96	2581.9177
783.149	2410.83917
783.338	2579.80608
783.528	2546.01853
783.717	2527.01171
783.906	2393.93863
784.096	2541.79487
784.285	2377.03742
784.474	2463.649
784.663	2330.55577
784.853	2423.51414
785.042	2269.27731
785.231	2351.68439
785.42	2248.14499
785.61	2277.72998
785.799	2313.65216
785.988	2398.16383
786.177	2332.66867
786.366	2486.88317
786.555	2351.68439
786.744	2427.73904
786.933	2157.26603
787.122	2328.44285
787.312	2186.85625
787.501	2434.07632
787.69	2393.93863
787.879	2533.34742
788.068	2216.44483
788.257	2419.28919
788.445	2093.85316
788.634	2284.06939
788.823	2210.10456
789.012	2472.09794
789.201	2258.71126
789.39	2450.97525
789.579	2279.84312
789.768	2119.21914
789.957	2140.35662
790.145	2277.72998
790.334	2188.96978
790.523	2265.05092
790.712	2079.05583
790.9	2300.97406
791.089	2083.28367
791.278	2125.56047
791.467	1899.34776
791.655	2167.83416
791.844	1990.26464
792.033	2184.74272
792.221	1950.09341
792.41	2163.60693
792.599	1844.36982
792.787	2182.62918
792.976	2106.53629
793.164	2093.85316
793.353	2034.66174
793.541	2178.40207
793.73	2043.118
793.918	2142.47033
794.107	1895.11881
794.295	1886.66085
794.484	1844.36982
794.672	1971.23644
794.861	1935.29293
795.049	2108.65012
795.238	1873.97375
795.426	2131.90172
795.614	1971.23644
795.803	2074.82796
795.991	1943.75038
796.179	1937.4073
796.368	1812.65028
796.556	2165.72055
796.744	1749.20833
796.932	2007.17816
797.121	1810.53561
797.309	2021.97715
797.497	1827.45286
797.685	1835.91138
797.874	1937.4073
798.062	1992.37885
798.25	1789.38866
798.438	1871.85921
798.626	1736.51952
798.814	1799.96219
799.002	1751.32312
799.19	2024.09127
799.378	1810.53561
799.566	1844.36982
799.755	1630.77505
799.943	1823.22358
800.131	1768.24129
800.318	1905.69114
800.506	1569.44047
800.694	1742.86394
800.882	1725.94542
801.07	1818.99427
801.258	1637.11991
801.446	1725.94542
801.634	1700.56723
801.822	1869.74468
802.01	1590.5905
802.197	1827.45286
802.385	1552.52034
802.573	1831.68213
802.761	1846.48442
802.949	1846.48442
803.136	1626.54513
803.324	1791.50337
803.512	1692.10773
803.699	1950.09341
803.887	1764.01177
804.075	1840.14061
804.262	1768.24129
804.45	1933.17855
804.638	1755.55269
804.825	1943.75038
805.013	1670.95878
805.201	1960.665
805.388	1759.78224
805.576	1873.97375
805.763	1829.5675
805.951	1776.70029
806.138	1747.09354
806.326	1895.11881
806.513	1694.22261
806.701	1886.66085
806.888	1662.49913
807.075	1869.74468
807.263	1789.38866
807.45	1962.7793
807.638	1713.25638
807.825	1975.46497
808.012	1802.07688
808.2	1899.34776
808.387	1730.17507
808.574	1687.87797
808.761	1871.85921
808.949	1812.65028
809.136	1689.99285
809.323	1759.78224
809.51	1675.1886
809.698	1711.14153
809.885	1560.98041
810.072	1753.43791
810.259	1725.94542
810.446	1812.65028
810.633	1793.61808
810.82	1852.82818
811.008	1814.76495
811.195	1992.37885
811.382	1734.40471
811.569	1899.34776
811.756	1791.50337
811.943	1903.57668
812.13	1844.36982
812.317	1916.26333
812.504	1723.83059
812.691	1835.91138
812.878	1772.4708
813.064	1854.94276
813.251	1740.74914
813.438	1914.1489
813.625	1550.40531
813.812	1848.59901
813.999	1759.78224
814.186	1838.02599
814.372	1455.22841
814.559	1774.58555
814.746	1484.83912
814.933	1823.22358
815.12	1683.64819
815.306	1761.89701
815.493	1717.48608
815.68	1749.20833
815.866	1740.74914
816.053	1639.23485
816.24	1742.86394
816.426	1719.60092
816.613	1683.64819
816.799	1768.24129
816.986	1641.3498
817.173	1945.86473
817.359	1624.43017
817.546	1768.24129
817.732	1666.72896
817.919	1996.60726
818.105	1742.86394
818.292	1821.10893
818.478	1802.07688
818.665	1865.51558
818.851	1829.5675
819.037	1797.84749
819.224	1573.67049
819.41	1611.74035
819.597	1615.9703
819.783	1670.95878
819.969	1438.30799
820.156	1580.0155
820.342	1541.94521
820.528	1732.28989
820.714	1404.4672
820.901	1675.1886
821.087	1569.44047
821.273	1654.03943
821.459	1649.80956
821.646	1603.28043
821.832	1607.51039
822.018	1797.84749
822.204	1442.53809
822.39	1609.62537
822.576	1514.44976
822.762	1721.71575
822.948	1658.26928
823.134	1641.3498
823.32	1514.44976
823.507	1658.26928
823.693	1548.29029
823.879	1618.08527
824.065	1326.2112
824.25	1554.63536
824.436	1474.26387
824.622	1544.06024
824.808	1493.29932
824.994	1438.30799
825.18	1250.07242
825.366	1476.37892
825.552	1372.74161
825.738	1518.67984
825.923	1324.09619
826.109	1480.60903
826.295	1302.94628
826.481	1450.9983
826.667	1539.83018
826.852	1472.14882
827.038	1398.12207
827.224	1495.41436
827.409	1404.4672
827.595	1489.06922
827.781	1296.60134
827.966	1484.83912
828.152	1243.72766
828.338	1235.26802
828.523	1197.20026
828.709	1349.47632
828.894	1421.38758
829.08	1404.4672
829.266	1326.2112
829.451	1450.9983
829.637	1387.54686
829.822	1497.52941
830.008	1311.40622
830.193	1431.96284
830.378	1398.12207
830.564	1459.45851
830.749	1169.70757
830.935	1429.84778
831.12	1328.3262
831.305	1404.4672
831.491	1353.70636
831.676	1396.00703
831.861	1220.46377
832.047	1389.6619
832.232	1188.74091
832.417	1347.3613
832.602	1157.01885
832.788	1355.82139
832.973	1216.23401
833.158	1321.98119
833.343	1197.20026
833.528	1357.93641
833.714	1247.95749
833.899	1269.10683
834.084	1178.16679
834.269	1277.56664
834.454	1237.38293
834.639	1252.18734
834.824	1197.20026
835.009	1245.84257
835.194	1150.67455
835.379	1271.22178
835.564	1057.62946
835.749	1231.03822
835.934	1184.51125
836.119	1247.95749
836.304	1121.0683
836.489	1180.28161
836.674	1040.71324
836.859	1154.90408
837.044	1008.99632
837.228	1150.67455
837.413	1025.91184
837.598	1176.05198
837.783	1116.8389
837.968	1341.01625
838.152	1167.59277
838.337	1129.52714
838.522	1011.11074
838.707	1093.57758
838.891	1085.11906
839.076	1044.94226
839.261	1021.68293
839.445	1197.20026
839.63	1049.1713
839.815	1089.34831
839.999	973.05219
840.184	1074.54603
840.368	987.85249
840.553	1142.21553
840.737	960.36649
840.922	1066.0877
841.106	992.08121
841.291	1114.72421
841.475	1036.48424
841.66	1159.13363
841.844	994.19557
842.029	1034.36975
842.213	1017.45403
842.397	992.08121
842.582	913.85444
842.766	1019.56848
842.951	888.48578
843.135	1000.53871
843.319	848.32114
843.504	875.80189
843.688	827.18311
843.872	863.11829
844.056	880.02982
844.241	989.96684
844.425	846.2073
844.609	1040.71324
844.793	854.66273
844.977	880.02982
845.161	854.66273
845.346	839.86582
845.53	727.84706
845.714	884.25779
845.898	854.66273
846.082	869.46005
846.266	803.93232
846.45	806.04598
846.634	768.00155
846.818	829.29687
847.002	755.32078
847.186	890.59979
847.37	869.46005
847.554	835.63822
847.738	867.34612
847.922	913.85444
848.106	820.84188
848.29	918.08266
848.473	827.18311
848.657	949.79526
848.841	867.34612
849.025	890.59979
849.209	740.52702
849.392	979.39514
849.576	768.00155
849.76	871.57399
849.944	795.47777
850.127	831.41065
850.311	861.00439
850.495	685.58335
850.678	837.75202
850.862	852.54886
851.046	696.14886
851.229	755.32078
851.413	649.66276
851.596	803.93232
851.78	651.77565
851.964	894.82784
852.147	609.52034
852.331	706.71465
852.514	601.06987
852.698	670.79211
852.881	617.971
853.065	664.45318
853.248	677.13115
853.431	812.38703
853.615	685.58335
853.798	727.84706
853.982	668.67912
854.165	770.11505
854.348	575.71972
854.532	765.88806
854.715	461.6686
854.898	567.2701
855.081	575.71972
855.265	630.64738
855.448	609.52034
855.631	567.2701
855.814	732.07367
855.997	662.34023
856.181	607.4077
856.364	603.18247
856.547	579.94462
856.73	558.82068
856.913	558.82068
857.096	683.47028
857.279	639.09854
857.462	596.84472
857.645	571.49488
857.828	533.47375
858.011	584.16957
858.194	641.21136
858.377	592.61962
858.56	613.74564
858.743	461.6686
858.926	624.30913
859.109	518.68897
859.292	609.52034
859.475	596.84472
859.658	571.49488
859.841	503.90488
860.023	520.80104
860.206	499.68099
860.389	653.88854
860.572	455.33367
860.755	567.2701
860.937	451.11047
861.12	499.68099
861.303	425.77255
861.486	603.18247
861.668	508.12883
861.851	533.47375
862.034	440.55273
862.216	508.12883
862.399	442.66424
862.581	516.57691
862.764	468.00366
862.947	459.55694
863.129	497.56906
863.312	362.43791
863.494	423.66115
863.677	368.7707
863.859	474.33885
864.042	324.44443
864.224	391.99222
864.406	402.54813
864.589	432.10681
864.771	366.65975
864.954	286.45672
865.136	427.88395
865.318	356.10527
865.501	499.68099
865.683	406.7706
865.865	427.88395
866.048	389.88109
866.23	514.46487
866.412	402.54813
866.594	400.43691
866.777	379.32569
866.959	387.76998
867.141	364.54882
867.323	474.33885
867.505	347.662
867.687	554.59606
867.869	415.21575
868.052	448.99889
868.234	451.11047
868.416	379.32569
868.598	294.89792
868.78	425.77255
868.962	349.77279
869.144	503.90488
869.326	334.99761
869.508	360.32701
869.69	307.56028
869.872	434.21827
870.054	423.66115
870.236	301.22902
870.417	290.67728
870.599	396.21454
870.781	372.99264
870.963	383.5478
871.145	341.32972
871.327	417.32708
871.508	290.67728
871.69	265.355
871.872	248.47499
872.054	360.32701
872.235	334.99761
872.417	332.88694
872.599	379.32569
872.78	339.219
872.962	328.66565
873.144	402.54813
873.325	347.662
873.507	349.77279
873.689	423.66115
873.87	427.88395
874.052	364.54882
874.233	356.10527
874.415	400.43691
874.596	385.65888
874.778	233.70599
874.959	318.11274
875.141	347.662
875.322	292.78759
875.503	265.355
875.685	332.88694
875.866	334.99761
876.048	322.33385
876.229	356.10527
876.41	391.99222
876.592	292.78759
876.773	322.33385
876.954	309.67074
877.136	288.56699
877.317	339.219
877.498	372.99264
877.679	398.32572
877.86	375.10364
878.042	307.56028
878.223	389.88109
878.404	267.46509
878.585	284.34646
878.766	305.44984
878.947	341.32972
879.128	307.56028
879.309	305.44984
879.49	368.7707
879.672	326.55503
879.853	305.44984
880.034	375.10364
880.215	275.90563
880.396	391.99222
880.576	297.00827
880.757	427.88395
880.938	419.43842
881.119	334.99761
881.3	271.68532
881.481	364.54882
881.662	242.1453
881.843	356.10527
882.023	372.99264
882.204	379.32569
882.385	334.99761
882.566	233.70599
882.747	322.33385
882.927	356.10527
883.108	250.58493
883.289	404.65936
883.469	299.11864
883.65	326.55503
883.831	351.8836
884.011	345.55122
884.192	294.89792
884.373	313.8917
884.553	339.219
884.734	334.99761
884.914	267.46509
885.095	343.44047
885.275	208.38993
885.456	334.99761
885.636	309.67074
885.817	461.6686
885.997	299.11864
886.178	423.66115
886.358	318.11274
886.538	349.77279
886.719	303.33942
886.899	432.10681
887.08	394.10337
887.26	303.33942
887.44	391.99222
887.621	451.11047
887.801	299.11864
887.981	305.44984
888.161	299.11864
888.342	313.8917
888.522	347.662
888.702	351.8836
888.882	288.56699
889.062	383.5478
889.242	330.77629
889.423	398.32572
889.603	324.44443
889.783	478.56239
889.963	297.00827
890.143	358.21613
890.323	358.21613
890.503	478.56239
890.683	263.24494
890.863	356.10527
891.043	294.89792
891.223	434.21827
891.403	385.65888
891.583	417.32708
891.763	320.22329
891.943	402.54813
892.122	339.219
892.302	318.11274
892.482	286.45672
892.662	417.32708
892.842	307.56028
893.022	290.67728
893.201	223.15728
893.381	394.10337
893.561	303.33942
893.741	254.80485
893.92	271.68532
894.1	328.66565
894.28	362.43791
894.459	343.44047
894.639	351.8836
894.819	288.56699
894.998	280.12601
895.178	347.662
895.357	288.56699
895.537	328.66565
895.716	229.48645
895.896	259.02486
896.075	225.26699
896.255	290.67728
896.434	288.56699
896.614	299.11864
896.793	229.48645
896.973	345.55122
897.152	180.96744
897.331	288.56699
897.511	229.48645
897.69	263.24494
897.87	246.36508
898.049	267.46509
898.228	164.09378
898.407	330.77629
898.587	259.02486
898.766	316.00221
898.945	178.85816
899.124	259.02486
899.304	204.17086
899.483	275.90563
899.662	229.48645
899.841	250.58493
900.02	250.58493
900.199	254.80485
900.378	282.23623
900.557	237.92561
900.737	280.12601
900.916	259.02486
901.095	153.54842
901.274	288.56699
901.453	208.38993
901.632	248.47499
901.811	178.85816
901.989	273.79547
902.168	225.26699
902.347	221.0476
902.526	140.89469
902.705	259.02486
902.884	212.60907
903.063	191.51415
903.242	170.42125
903.42	237.92561
903.599	140.89469
903.778	199.95188
903.957	161.98467
904.135	159.87558
904.314	178.85816
904.493	140.89469
904.672	246.36508
904.85	168.31207
905.029	161.98467
905.207	166.20292
905.386	225.26699
905.565	145.11251
905.743	204.17086
905.922	128.24171
906.1	136.67694
906.279	197.84241
906.457	161.98467
906.636	183.07674
906.814	157.7665
906.993	153.54842
907.171	187.2954
907.35	128.24171
907.528	100.82962
907.707	153.54842
907.885	107.15516
908.063	178.85816
908.242	119.80683
908.42	94.50427
908.598	229.48645
908.777	147.22146
908.955	134.5681
909.133	109.26371
909.311	94.50427
909.49	149.33043
909.668	145.11251
909.846	121.91552
910.024	149.33043
910.202	58.66448
910.38	86.0708
910.559	128.24171
910.737	178.85816
910.915	199.95188
911.093	90.28749
911.271	94.50427
911.449	126.13296
911.627	164.09378
911.805	111.37229
911.983	151.43941
912.161	111.37229
912.339	153.54842
912.517	134.5681
912.695	96.6127
912.872	121.91552
913.05	124.02423
913.228	221.0476
913.406	73.42125
913.584	166.20292
913.762	121.91552
913.939	140.89469
914.117	147.22146
914.295	46.01671
914.473	111.37229
914.65	170.42125
914.828	73.42125
915.006	62.88058
915.184	155.65745
915.361	134.5681
915.539	75.52945
915.716	140.89469
915.894	149.33043
916.072	161.98467
916.249	161.98467
916.427	107.15516
916.604	149.33043
916.782	62.88058
916.959	102.93811
917.137	86.0708
917.314	98.72115
917.492	96.6127
917.669	73.42125
917.847	102.93811
918.024	130.35049
918.201	119.80683
918.379	64.98867
918.556	94.50427
918.733	136.67694
918.911	88.17913
919.088	159.87558
919.265	140.89469
919.442	130.35049
919.62	136.67694
919.797	111.37229
919.974	83.96248
920.151	161.98467
920.328	31.26204
920.506	132.45929
920.683	77.63768
920.86	138.7858
921.037	35.47754
921.214	56.55646
921.391	164.09378
921.568	86.0708
921.745	113.4809
921.922	33.36978
922.099	90.28749
922.276	62.88058
922.453	136.67694
922.63	138.7858
922.807	64.98867
922.984	113.4809
923.161	52.34049
923.338	52.34049
923.514	71.31307
923.691	60.77252
923.868	48.12461
924.045	185.18606
924.222	166.20292
924.399	145.11251
924.575	102.93811
924.752	83.96248
924.929	107.15516
925.105	105.04662
925.282	100.82962
925.459	86.0708
925.635	69.20492
925.812	75.52945
925.989	115.58952
926.165	62.88058
926.342	52.34049
926.518	56.55646
926.695	130.35049
926.871	22.83131
927.048	83.96248
927.224	115.58952
927.401	98.72115
927.577	79.74592
927.754	35.47754
927.93	-15.10224
928.107	60.77252
928.283	71.31307
928.459	94.50427
928.636	107.15516
928.812	33.36978
928.988	54.44846
929.165	64.98867
929.341	136.67694
929.517	73.42125
929.693	-48.81431
929.87	54.44846
930.046	46.01671
930.222	102.93811
930.398	52.34049
930.574	102.93811
930.751	69.20492
930.927	60.77252
931.103	75.52945
931.279	16.50851
931.455	105.04662
931.631	105.04662
931.807	24.93896
931.983	79.74592
932.159	10.18593
932.335	56.55646
932.511	64.98867
932.687	54.44846
932.863	71.31307
933.039	10.18593
933.215	5.97099
933.391	67.09678
933.566	71.31307
933.742	60.77252
933.918	54.44846
934.094	35.47754
934.27	79.74592
934.445	52.34049
934.621	8.07845
934.797	-27.74501
934.973	79.74592
935.148	64.98867
935.324	64.98867
935.5	39.69314
935.675	98.72115
935.851	56.55646
936.027	94.50427
936.202	50.23254
936.378	35.47754
936.553	56.55646
936.729	35.47754
936.904	31.26204
937.08	115.58952
937.255	46.01671
937.431	-23.53085
937.606	29.15432
937.782	18.61609
937.957	-12.99502
938.133	102.93811
938.308	52.34049
938.483	37.58533
938.659	14.40096
938.834	83.96248
939.009	67.09678
939.185	-6.67324
939.36	71.31307
939.535	14.40096
939.71	43.90883
939.886	56.55646
940.061	20.72369
940.236	-19.31659
940.411	-2.45859
940.586	-21.42373
940.761	10.18593
940.937	62.88058
941.112	81.85419
941.287	-71.98763
941.462	-12.99502
941.637	-27.74501
941.812	20.72369
941.987	-10.88778
942.162	12.29343
942.337	-12.99502
942.512	56.55646
942.687	10.18593
942.862	102.93811
943.037	-4.56592
943.212	43.90883
943.386	39.69314
943.561	3.86356
943.736	60.77252
943.911	20.72369
944.086	27.04663
944.26	5.97099
944.435	75.52945
944.61	1.75615
944.785	52.34049
944.959	-4.56592
945.134	-38.27997
945.309	18.61609
945.483	1.75615
945.658	39.69314
945.833	-67.77453
946.007	64.98867
946.182	-38.27997
946.357	-19.31659
946.531	56.55646
946.706	29.15432
946.88	41.80097
947.055	41.80097
947.229	-34.06606
947.404	-8.78052
947.578	-42.49378
947.752	37.58533
947.927	69.20492
948.101	-23.53085
948.276	10.18593
948.45	43.90883
948.624	-61.45468
948.799	14.40096
948.973	60.77252
949.147	27.04663
949.321	-4.56592
949.496	79.74592
949.67	29.15432
949.844	12.29343
950.018	-2.45859
950.193	-21.42373
950.367	18.61609
950.541	5.97099
950.715	10.18593
950.889	111.37229
951.063	-34.06606
951.237	81.85419
951.411	124.02423
951.585	5.97099
951.759	113.4809
951.933	3.86356
952.107	46.01671
952.281	-17.20943
952.455	48.12461
952.629	48.12461
952.803	1.75615
952.977	33.36978
953.151	-12.99502
953.325	54.44846
953.499	-4.56592
953.672	54.44846
953.846	-15.10224
954.02	56.55646
954.194	-2.45859
954.368	-29.85205
954.541	56.55646
954.715	1.75615
954.889	-4.56592
955.062	73.42125
955.236	-23.53085
955.41	-48.81431
955.583	46.01671
955.757	37.58533
955.93	39.69314
956.104	12.29343
956.278	46.01671
956.451	71.31307
956.625	29.15432
956.798	5.97099
956.972	14.40096
957.145	-10.88778
957.319	14.40096
957.492	20.72369
957.665	-57.24133
957.839	12.29343
958.012	31.26204
958.185	-12.99502
958.359	-6.67324
958.532	31.26204
958.705	62.88058
958.879	20.72369
959.052	12.29343
959.225	5.97099
959.398	-25.63794
959.572	3.86356
959.745	5.97099
959.918	10.18593
960.091	27.04663
960.264	35.47754
960.438	3.86356
960.611	69.20492
960.784	39.69314
960.957	10.18593
961.13	20.72369
961.303	48.12461
961.476	10.18593
961.649	22.83131
961.822	27.04663
961.995	29.15432
962.168	64.98867
962.341	-44.60065
962.514	1.75615
962.686	1.75615
962.859	46.01671
963.032	37.58533
963.205	-34.06606
963.378	22.83131
963.551	-48.81431
963.723	35.47754
963.896	31.26204
964.069	54.44846
964.242	88.17913
964.414	27.04663
964.587	20.72369
964.76	-10.88778
964.932	22.83131
965.105	54.44846
965.278	-6.67324
965.45	-63.56133
965.623	33.36978
965.795	-8.78052
965.968	35.47754
966.14	-23.53085
966.313	18.61609
966.485	-36.17303
966.658	31.26204
966.83	71.31307
967.003	69.20492
967.175	69.20492
967.348	12.29343
967.52	35.47754
967.692	-40.38689
967.865	-38.27997
968.037	29.15432
968.209	-63.56133
968.382	-46.70749
968.554	27.04663
968.726	102.93811
968.898	-36.17303
969.071	22.83131
969.243	29.15432
969.415	35.47754
969.587	18.61609
969.759	22.83131
969.932	-4.56592
970.104	-21.42373
970.276	20.72369
970.448	-53.02787
970.62	52.34049
970.792	27.04663
970.964	64.98867
971.136	12.29343
971.308	16.50851
971.48	69.20492
971.652	94.50427
971.824	-0.35123
971.996	52.34049
972.168	22.83131
972.339	35.47754
972.511	64.98867
972.683	71.31307
972.855	1.75615
973.027	71.31307
973.199	75.52945
973.37	54.44846
973.542	-78.3071
973.714	5.97099
973.886	52.34049
974.057	46.01671
974.229	22.83131
974.401	-38.27997
974.572	-25.63794
974.744	-15.10224
974.915	-63.56133
975.087	14.40096
975.259	56.55646
975.43	48.12461
975.602	41.80097
975.773	-6.67324
975.945	54.44846
976.116	10.18593
976.288	41.80097
976.459	-103.58262
976.63	48.12461
976.802	-15.10224
976.973	60.77252
977.145	-6.67324
977.316	52.34049
977.487	1.75615
977.659	-23.53085
977.83	1.75615
978.001	-46.70749
978.172	-17.20943
978.344	20.72369
978.515	12.29343
978.686	3.86356
978.857	92.39587
979.028	60.77252
979.2	-4.56592
979.371	27.04663
979.542	27.04663
979.713	33.36978
979.884	107.15516
980.055	-15.10224
980.226	-15.10224
980.397	64.98867
980.568	16.50851
980.739	37.58533
980.91	37.58533
981.081	52.34049
981.252	52.34049
981.423	-21.42373
981.594	16.50851
981.765	22.83131
981.936	-2.45859
982.106	-21.42373
982.277	43.90883
982.448	-23.53085
982.619	-36.17303
982.79	27.04663
982.96	35.47754
983.131	-6.67324
983.302	50.23254
983.472	1.75615
983.643	-15.10224
983.814	22.83131
983.984	5.97099
984.155	-63.56133
984.326	-29.85205
984.496	1.75615
984.667	10.18593
984.837	-6.67324
985.008	10.18593
985.178	-12.99502
985.349	24.93896
985.519	35.47754
985.69	56.55646
985.86	46.01671
986.031	-19.31659
986.201	-12.99502
986.371	-12.99502
986.542	20.72369
986.712	1.75615
986.882	10.18593
987.053	5.97099
987.223	24.93896
987.393	10.18593
987.563	-27.74501
987.734	-19.31659
987.904	-48.81431
988.074	12.29343
988.244	-6.67324
988.414	86.0708
988.585	1.75615
988.755	31.26204
988.925	69.20492
989.095	-48.81431
989.265	5.97099
989.435	-36.17303
989.605	-15.10224
989.775	-12.99502
989.945	18.61609
990.115	-44.60065
990.285	1.75615
990.455	-44.60065
990.625	-10.88778
990.795	29.15432
990.965	22.83131
991.134	3.86356
991.304	31.26204
991.474	18.61609
991.644	-0.35123
991.814	35.47754
991.984	5.97099
992.153	10.18593
992.323	10.18593
992.493	5.97099
992.662	-15.10224
992.832	-27.74501
993.002	29.15432
993.171	79.74592
993.341	-57.24133
993.511	27.04663
993.68	24.93896
993.85	39.69314
994.019	-74.09415
994.189	1.75615
994.358	-48.81431
994.528	-59.34802
994.697	-10.88778
994.867	56.55646
995.036	1.75615
995.206	18.61609
995.375	41.80097
995.544	20.72369
995.714	-21.42373
995.883	64.98867
996.052	-19.31659
996.222	71.31307
996.391	-8.78052
996.56	60.77252
996.73	12.29343
996.899	-23.53085
997.068	29.15432
997.237	46.01671
997.406	-25.63794
997.576	8.07845
997.745	-10.88778
997.914	62.88058
998.083	3.86356
998.252	10.18593
998.421	22.83131
998.59	10.18593
998.759	-12.99502
998.928	31.26204
999.097	77.63768
999.266	71.31307
999.435	1.75615
999.604	-44.60065
999.773	-99.37029
999.942	-34.06606
1000.111	56.55646
1000.28	-2.45859
1000.448	35.47754
1000.617	39.69314
1000.786	33.36978
1000.955	54.44846
1001.124	64.98867
1001.292	-31.95906
1001.461	121.91552
1001.63	-42.49378
1001.798	-40.38689
1001.967	60.77252
1002.136	73.42125
1002.304	-61.45468
1002.473	-55.13461
1002.642	-27.74501
1002.81	-40.38689
1002.979	-12.99502
1003.147	-48.81431
1003.316	-19.31659
1003.484	-15.10224
1003.653	-48.81431
1003.821	41.80097
1003.99	67.09678
1004.158	43.90883
1004.327	-40.38689
1004.495	52.34049
1004.663	60.77252
1004.832	-63.56133
1005	10.18593
1005.168	-2.45859
1005.337	10.18593
1005.505	18.61609
1005.673	12.29343
1005.842	24.93896
1006.01	-8.78052
1006.178	29.15432
1006.346	18.61609
1006.514	-6.67324
1006.683	37.58533
1006.851	54.44846
1007.019	-31.95906
1007.187	88.17913
1007.355	-15.10224
1007.523	-2.45859
1007.691	37.58533
1007.859	22.83131
1008.027	-8.78052
1008.195	12.29343
1008.363	48.12461
1008.531	-55.13461
1008.699	79.74592
1008.867	10.18593
1009.035	18.61609
1009.203	12.29343
1009.37	29.15432
1009.538	3.86356
1009.706	86.0708
1009.874	10.18593
1010.042	-36.17303
1010.209	-4.56592
1010.377	-6.67324
1010.545	-4.56592
1010.713	-38.27997
1010.88	1.75615
1011.048	29.15432
1011.216	24.93896
1011.383	29.15432
1011.551	-23.53085
1011.718	39.69314
1011.886	37.58533
1012.054	12.29343
1012.221	-8.78052
1012.389	-21.42373
1012.556	-6.67324
1012.724	48.12461
1012.891	-12.99502
1013.058	10.18593
1013.226	18.61609
1013.393	-6.67324
1013.561	-4.56592
1013.728	35.47754
1013.895	10.18593
1014.063	27.04663
1014.23	-48.81431
1014.397	-17.20943
1014.565	27.04663
1014.732	35.47754
1014.899	-36.17303
1015.066	18.61609
1015.233	-10.88778
1015.401	8.07845
1015.568	31.26204
1015.735	-31.95906
1015.902	22.83131
1016.069	27.04663
1016.236	-61.45468
1016.403	52.34049
1016.57	-19.31659
1016.737	-12.99502
1016.904	-8.78052
1017.071	10.18593
1017.238	-59.34802
1017.405	-40.38689
1017.572	29.15432
1017.739	5.97099
1017.906	-44.60065
1018.073	-10.88778
1018.24	69.20492
1018.407	35.47754
1018.573	-69.8811
1018.74	60.77252
1018.907	-6.67324
1019.074	48.12461
1019.241	-21.42373
1019.407	-31.95906
1019.574	52.34049
1019.741	-21.42373
1019.907	31.26204
1020.074	64.98867
1020.241	-23.53085
1020.407	8.07845
1020.574	12.29343
1020.74	-44.60065
1020.907	-23.53085
1021.073	10.18593
1021.24	-12.99502
1021.406	46.01671
1021.573	12.29343
1021.739	46.01671
1021.906	-4.56592
1022.072	-6.67324
1022.239	-122.53679
1022.405	16.50851
1022.571	-19.31659
1022.738	35.47754
1022.904	-6.67324
1023.07	-15.10224
1023.237	27.04663
1023.403	10.18593
1023.569	-31.95906
1023.735	10.18593
1023.902	-4.56592
1024.068	29.15432
1024.234	18.61609
1024.4	73.42125
1024.566	-34.06606
1024.732	-19.31659
1024.898	-6.67324
1025.065	18.61609
1025.231	10.18593
1025.397	73.42125
1025.563	1.75615
1025.729	-57.24133
1025.895	10.18593
1026.061	46.01671
1026.227	52.34049
1026.392	39.69314
1026.558	3.86356
1026.724	-6.67324
1026.89	-36.17303
1027.056	-12.99502
1027.222	-2.45859
1027.388	29.15432
1027.553	18.61609
1027.719	-42.49378
1027.885	56.55646
1028.051	58.66448
1028.216	1.75615
1028.382	37.58533
1028.548	-40.38689
1028.713	50.23254
1028.879	-27.74501
1029.045	50.23254
1029.21	-48.81431
1029.376	-21.42373
1029.541	56.55646
1029.707	-8.78052
1029.873	14.40096
1030.038	16.50851
1030.204	-46.70749
1030.369	43.90883
1030.534	-25.63794
1030.7	12.29343
1030.865	-4.56592
1031.031	37.58533
1031.196	56.55646
1031.361	35.47754
1031.527	3.86356
1031.692	10.18593
1031.857	27.04663
1032.023	20.72369
1032.188	-21.42373
1032.353	46.01671
1032.518	48.12461
1032.684	20.72369
1032.849	67.09678
1033.014	-21.42373
1033.179	-38.27997
1033.344	-25.63794
1033.509	-2.45859
1033.674	-63.56133
1033.839	-15.10224
1034.004	18.61609
1034.17	-15.10224
1034.335	-6.67324
1034.5	-27.74501
1034.664	33.36978
1034.829	-36.17303
1034.994	12.29343
1035.159	1.75615
1035.324	1.75615
1035.489	1.75615
1035.654	-6.67324
1035.819	-21.42373
1035.984	1.75615
1036.148	31.26204
1036.313	18.61609
1036.478	39.69314
1036.643	27.04663
1036.807	-97.26409
1036.972	-34.06606
1037.137	-46.70749
1037.301	88.17913
1037.466	-6.67324
1037.631	-135.1717
1037.795	29.15432
1037.96	-8.78052
1038.124	-17.20943
1038.289	-38.27997
1038.454	-23.53085
1038.618	-23.53085
1038.783	-31.95906
1038.947	-31.95906
1039.111	-12.99502
1039.276	43.90883
1039.44	-4.56592
1039.605	-17.20943
1039.769	-29.85205
1039.933	41.80097
1040.098	-76.20064
1040.262	-4.56592
1040.426	33.36978
1040.591	-15.10224
1040.755	14.40096
1040.919	14.40096
1041.083	-46.70749
1041.248	-6.67324
1041.412	3.86356
1041.576	52.34049
1041.74	-6.67324
1041.904	-44.60065
1042.068	-48.81431
1042.232	60.77252
1042.397	-27.74501
1042.561	-19.31659
1042.725	1.75615
1042.889	-29.85205
1043.053	14.40096
1043.217	-4.56592
1043.381	-71.98763
1043.544	35.47754
1043.708	8.07845
1043.872	35.47754
1044.036	60.77252
1044.2	39.69314
1044.364	-4.56592
1044.528	-15.10224
1044.691	16.50851
1044.855	-25.63794
1045.019	-31.95906
1045.183	-46.70749
1045.346	62.88058
1045.51	-19.31659
1045.674	-40.38689
1045.837	27.04663
1046.001	-15.10224
1046.165	10.18593
1046.328	18.61609
1046.492	29.15432
1046.655	-15.10224
1046.819	31.26204
1046.983	-29.85205
1047.146	-17.20943
1047.31	-36.17303
1047.473	-15.10224
1047.636	-15.10224
1047.8	31.26204
1047.963	27.04663
1048.127	12.29343
1048.29	58.66448
