Data from absorb_only_2.23.25_USB4F045381__64__0169.txt Node

Date: Sun Feb 23 19:24:47 EST 2025
User: ssocol
Spectrometer: USB4F04538
Trigger mode: 4
Integration Time (sec): 2.600000E-3
Scans to average: 1
Electric dark correction enabled: true
Nonlinearity correction enabled: true
Boxcar width: 0
XAxis mode: Wavelengths
Number of Pixels in Spectrum: 3648
>>>>>Begin Spectral Data<<<<<
345.52	-53.37899
345.736	-53.37899
345.952	-53.37899
346.168	-110.25192
346.384	35.12624
346.6	22.48004
346.816	7.72721
347.032	56.20513
347.248	28.80304
347.464	-34.41722
347.68	1.40492
347.896	20.37242
348.112	-15.45344
348.328	-28.09618
348.544	-42.84492
348.76	5.61975
348.975	-21.77492
349.191	-15.45344
349.407	87.82774
349.623	-28.09618
349.839	-9.13173
350.055	-59.69913
350.27	56.20513
350.486	-51.27223
350.702	-63.91243
350.918	43.55752
351.133	22.48004
351.349	1.40492
351.565	-49.16544
351.781	-28.09618
351.996	5.61975
352.212	26.69535
352.428	47.77329
352.644	-63.91243
352.859	-2.80981
353.075	5.61975
353.291	-23.88203
353.506	-2.80981
353.722	22.48004
353.938	-40.73804
354.153	-36.52418
354.369	-36.52418
354.584	7.72721
354.8	-53.37899
355.016	7.72721
355.231	24.58768
355.447	-36.52418
355.662	30.91075
355.878	-11.23899
356.093	-19.66778
356.309	-4.91714
356.524	-25.98912
356.74	-15.45344
356.955	14.04971
357.171	54.09713
357.386	14.04971
357.602	-40.73804
357.817	-28.09618
358.033	37.23403
358.248	39.34183
358.464	14.04971
358.679	1.40492
358.895	18.26482
359.11	35.12624
359.325	22.48004
359.541	-124.99365
359.756	5.61975
359.972	28.80304
360.187	-61.80579
360.402	16.15725
360.618	-28.09618
360.833	-0.70246
361.048	-13.34623
361.264	47.77329
361.479	-17.56062
361.694	28.80304
361.909	-28.09618
362.125	100.4782
362.34	-38.63112
362.555	-0.70246
362.77	28.80304
362.986	-9.13173
363.201	-36.52418
363.416	-44.95179
363.631	11.94218
363.847	-49.16544
364.062	-44.95179
364.277	-25.98912
364.492	7.72721
364.707	18.26482
364.922	-19.66778
365.138	-70.23219
365.353	81.50281
365.568	5.61975
365.783	-59.69913
365.998	-25.98912
366.213	30.91075
366.428	18.26482
366.643	60.42118
366.858	-36.52418
367.073	-15.45344
367.288	-57.59244
367.503	41.44967
367.718	-2.80981
367.933	75.17808
368.148	-59.69913
368.363	-70.23219
368.578	-15.45344
368.793	68.85356
369.008	-59.69913
369.223	-11.23899
369.438	-19.66778
369.653	9.83468
369.868	9.83468
370.083	47.77329
370.298	-82.87101
370.513	33.01848
370.728	-57.59244
370.943	-38.63112
371.157	-7.02445
371.372	1.40492
371.587	-9.13173
371.802	30.91075
372.017	39.34183
372.232	68.85356
372.446	5.61975
372.661	-19.66778
372.876	24.58768
373.091	30.91075
373.306	47.77329
373.52	-2.80981
373.735	54.09713
373.95	22.48004
374.165	41.44967
374.379	-2.80981
374.594	-13.34623
374.809	3.51233
375.023	-76.55171
375.238	30.91075
375.453	39.34183
375.667	11.94218
375.882	-42.84492
376.097	-36.52418
376.311	-11.23899
376.526	-51.27223
376.741	5.61975
376.955	-76.55171
377.17	5.61975
377.384	35.12624
377.599	-23.88203
377.813	-11.23899
378.028	7.72721
378.242	-36.52418
378.457	5.61975
378.672	5.61975
378.886	18.26482
379.101	35.12624
379.315	-2.80981
379.53	-28.09618
379.744	-11.23899
379.958	64.63732
380.173	7.72721
380.387	-19.66778
380.602	20.37242
380.816	-2.80981
381.031	58.31314
381.245	-15.45344
381.459	9.83468
381.674	47.77329
381.888	-9.13173
382.103	35.12624
382.317	-61.80579
382.531	-21.77492
382.746	-2.80981
382.96	-2.80981
383.174	-44.95179
383.388	-32.31023
383.603	-51.27223
383.817	-11.23899
384.031	-19.66778
384.246	51.98916
384.46	-13.34623
384.674	-17.56062
384.888	-0.70246
385.103	75.17808
385.317	-7.02445
385.531	16.15725
385.745	-25.98912
385.959	47.77329
386.174	-17.56062
386.388	-0.70246
386.602	-21.77492
386.816	-74.44523
387.03	-36.52418
387.244	7.72721
387.458	-17.56062
387.672	-11.23899
387.887	22.48004
388.101	-44.95179
388.315	33.01848
388.529	7.72721
388.743	64.63732
388.957	64.63732
389.171	39.34183
389.385	-97.61513
389.599	16.15725
389.813	60.42118
390.027	-19.66778
390.241	14.04971
390.455	-95.5089
390.669	22.48004
390.883	-17.56062
391.097	26.69535
391.311	-51.27223
391.525	16.15725
391.738	-44.95179
391.952	39.34183
392.166	-40.73804
392.38	39.34183
392.594	58.31314
392.808	9.83468
393.022	-32.31023
393.236	-2.80981
393.449	-11.23899
393.663	7.72721
393.877	49.88122
394.091	9.83468
394.305	-61.80579
394.518	66.74543
394.732	33.01848
394.946	56.20513
395.16	7.72721
395.373	1.40492
395.587	45.6654
395.801	39.34183
396.015	9.83468
396.228	1.40492
396.442	22.48004
396.656	22.48004
396.869	64.63732
397.083	94.15287
397.297	5.61975
397.51	47.77329
397.724	18.26482
397.938	64.63732
398.151	-9.13173
398.365	-2.80981
398.578	9.83468
398.792	-23.88203
399.005	-11.23899
399.219	-51.27223
399.433	5.61975
399.646	20.37242
399.86	7.72721
400.073	64.63732
400.287	18.26482
400.5	5.61975
400.714	22.48004
400.927	-40.73804
401.141	-11.23899
401.354	30.91075
401.567	-9.13173
401.781	7.72721
401.994	39.34183
402.208	-36.52418
402.421	-34.41722
402.635	-9.13173
402.848	-32.31023
403.061	-7.02445
403.275	-13.34623
403.488	-19.66778
403.701	-2.80981
403.915	58.31314
404.128	68.85356
404.341	73.06989
404.555	-28.09618
404.768	-2.80981
404.981	11.94218
405.195	-28.09618
405.408	-2.80981
405.621	73.06989
405.834	-15.45344
406.048	5.61975
406.261	-2.80981
406.474	-68.12563
406.687	-21.77492
406.9	-28.09618
407.114	-17.56062
407.327	30.91075
407.54	-28.09618
407.753	-21.77492
407.966	7.72721
408.179	1.40492
408.392	14.04971
408.605	-32.31023
408.819	-42.84492
409.032	-19.66778
409.245	-17.56062
409.458	66.74543
409.671	-32.31023
409.884	-0.70246
410.097	77.2863
410.31	9.83468
410.523	-28.09618
410.736	51.98916
410.949	43.55752
411.162	68.85356
411.375	-19.66778
411.588	43.55752
411.801	-13.34623
412.014	16.15725
412.227	-11.23899
412.44	7.72721
412.653	-53.37899
412.865	39.34183
413.078	-2.80981
413.291	39.34183
413.504	-19.66778
413.717	66.74543
413.93	26.69535
414.143	14.04971
414.356	3.51233
414.568	-2.80981
414.781	77.2863
414.994	-11.23899
415.207	37.23403
415.42	5.61975
415.632	-36.52418
415.845	-11.23899
416.058	-19.66778
416.271	-19.66778
416.483	-11.23899
416.696	56.20513
416.909	-28.09618
417.121	-66.01904
417.334	22.48004
417.547	115.23808
417.759	-95.5089
417.972	14.04971
418.185	16.15725
418.397	98.36974
418.61	-9.13173
418.823	39.34183
419.035	-0.70246
419.248	-7.02445
419.46	-23.88203
419.673	-9.13173
419.885	39.34183
420.098	30.91075
420.311	58.31314
420.523	20.37242
420.736	51.98916
420.948	20.37242
421.161	14.04971
421.373	-13.34623
421.586	73.06989
421.798	1.40492
422.01	-9.13173
422.223	24.58768
422.435	18.26482
422.648	-0.70246
422.86	-78.65817
423.073	-9.13173
423.285	-57.59244
423.497	-13.34623
423.71	-36.52418
423.922	98.36974
424.134	14.04971
424.347	-120.78186
424.559	20.37242
424.771	14.04971
424.984	30.91075
425.196	30.91075
425.408	56.20513
425.621	47.77329
425.833	98.36974
426.045	-19.66778
426.257	7.72721
426.47	47.77329
426.682	-0.70246
426.894	-17.56062
427.106	68.85356
427.318	58.31314
427.531	9.83468
427.743	39.34183
427.955	26.69535
428.167	-2.80981
428.379	60.42118
428.591	20.37242
428.804	24.58768
429.016	16.15725
429.228	64.63732
429.44	14.04971
429.652	-9.13173
429.864	14.04971
430.076	39.34183
430.288	18.26482
430.5	-9.13173
430.712	14.04971
430.924	22.48004
431.136	-11.23899
431.348	39.34183
431.56	35.12624
431.772	30.91075
431.984	66.74543
432.196	-19.66778
432.408	66.74543
432.62	5.61975
432.832	66.74543
433.044	-9.13173
433.256	-7.02445
433.468	39.34183
433.679	-7.02445
433.891	5.61975
434.103	60.42118
434.315	30.91075
434.527	14.04971
434.739	-11.23899
434.95	-53.37899
435.162	14.04971
435.374	22.48004
435.586	68.85356
435.798	14.04971
436.009	33.01848
436.221	51.98916
436.433	-53.37899
436.645	-15.45344
436.856	-4.91714
437.068	-9.13173
437.28	16.15725
437.491	-7.02445
437.703	20.37242
437.915	14.04971
438.126	-28.09618
438.338	24.58768
438.55	9.83468
438.761	1.40492
438.973	16.15725
439.184	-9.13173
439.396	64.63732
439.608	20.37242
439.819	9.83468
440.031	30.91075
440.242	45.6654
440.454	5.61975
440.665	68.85356
440.877	64.63732
441.088	39.34183
441.3	39.34183
441.511	-135.52265
441.723	-34.41722
441.934	33.01848
442.146	24.58768
442.357	30.91075
442.569	-34.41722
442.78	22.48004
442.991	-28.09618
443.203	5.61975
443.414	-7.02445
443.626	51.98916
443.837	7.72721
444.048	-32.31023
444.26	106.80373
444.471	-28.09618
444.682	-4.91714
444.894	24.58768
445.105	30.91075
445.316	-0.70246
445.528	-11.23899
445.739	22.48004
445.95	41.44967
446.161	-17.56062
446.373	14.04971
446.584	39.34183
446.795	159.52406
447.006	3.51233
447.217	-32.31023
447.429	60.42118
447.64	77.2863
447.851	41.44967
448.062	14.04971
448.273	-7.02445
448.484	79.39455
448.695	22.48004
448.907	-17.56062
449.118	-51.27223
449.329	-2.80981
449.54	-9.13173
449.751	60.42118
449.962	26.69535
450.173	-34.41722
450.384	75.17808
450.595	-11.23899
450.806	5.61975
451.017	64.63732
451.228	1.40492
451.439	49.88122
451.65	30.91075
451.861	24.58768
452.072	98.36974
452.283	-25.98912
452.494	45.6654
452.705	30.91075
452.915	1.40492
453.126	39.34183
453.337	9.83468
453.548	22.48004
453.759	-15.45344
453.97	54.09713
454.181	39.34183
454.391	62.52924
454.602	39.34183
454.813	106.80373
455.024	64.63732
455.235	24.58768
455.445	56.20513
455.656	81.50281
455.867	47.77329
456.078	41.44967
456.288	43.55752
456.499	-2.80981
456.71	26.69535
456.921	41.44967
457.131	106.80373
457.342	41.44967
457.553	51.98916
457.763	92.04447
457.974	47.77329
458.184	-13.34623
458.395	89.9361
458.606	35.12624
458.816	43.55752
459.027	5.61975
459.237	22.48004
459.448	70.96171
459.659	81.50281
459.869	-36.52418
460.08	-15.45344
460.29	81.50281
460.501	108.91229
460.711	54.09713
460.922	79.39455
461.132	35.12624
461.343	64.63732
461.553	73.06989
461.764	9.83468
461.974	117.34672
462.184	22.48004
462.395	47.77329
462.605	54.09713
462.816	75.17808
463.026	68.85356
463.236	24.58768
463.447	58.31314
463.657	30.91075
463.867	43.55752
464.078	35.12624
464.288	144.76102
464.498	106.80373
464.709	148.97893
464.919	89.9361
465.129	83.6111
465.339	64.63732
465.55	123.67278
465.76	108.91229
465.97	125.7815
466.18	51.98916
466.391	85.71941
466.601	87.82774
466.811	73.06989
467.021	111.02086
467.231	167.96055
467.441	3.51233
467.651	56.20513
467.862	96.26129
468.072	106.80373
468.282	106.80373
468.492	159.52406
468.702	182.72519
468.912	106.80373
469.122	113.12946
469.332	115.23808
469.542	115.23808
469.752	174.28813
469.962	170.06972
470.172	106.80373
470.382	159.52406
470.592	195.3814
470.802	167.96055
471.012	134.21663
471.222	129.99903
471.432	100.4782
471.642	144.76102
471.852	231.24458
472.062	241.79366
472.272	174.28813
472.482	208.03833
472.691	233.35436
472.901	254.45319
473.111	170.06972
473.321	203.81928
473.531	258.67319
473.741	235.46415
473.95	216.47669
474.16	271.33363
474.37	271.33363
474.58	174.28813
474.79	300.87729
474.999	279.77431
475.209	292.43587
475.419	288.21528
475.628	338.86722
475.838	330.42451
476.048	340.97794
476.258	321.98209
476.467	359.9752
476.677	271.33363
476.886	406.41873
477.096	302.98769
477.306	376.86282
477.515	370.52983
477.725	423.30926
477.935	421.19789
478.144	387.41813
478.354	402.19626
478.563	404.30748
478.773	461.31665
478.982	558.46863
479.192	535.23389
479.401	573.25523
479.611	520.44902
479.82	556.35631
480.03	577.48009
480.239	693.68355
480.449	522.5611
480.658	700.02295
480.868	653.53639
481.077	725.38156
481.287	672.55294
481.496	687.34425
481.705	731.72145
481.915	852.19655
482.124	706.36246
482.333	816.26215
482.543	788.78469
482.752	852.19655
482.961	845.85499
483.171	957.89985
483.38	799.35276
483.589	1023.44497
483.799	940.98604
484.008	1023.44497
484.217	943.10024
484.426	1014.98719
484.636	915.6162
484.845	1095.33978
485.054	1023.44497
485.263	1198.96263
485.472	1072.07901
485.682	1105.91306
485.891	1139.74833
486.1	1226.45595
486.309	1163.01073
486.518	1224.34106
486.727	1294.13387
486.936	1372.38911
487.146	1315.28371
487.355	1425.26517
487.564	1357.58391
487.773	1461.22106
487.982	1435.84043
488.191	1556.39787
488.4	1577.548
488.609	1619.84774
488.818	1503.52204
489.027	1712.90391
489.236	1662.14664
489.445	1822.87113
489.654	1514.09725
489.863	1763.65931
490.072	1729.8226
490.281	1856.70491
490.49	1566.97295
490.698	1672.72121
490.907	1704.44448
491.116	1877.85038
491.325	1780.57731
491.534	1884.19393
491.743	1873.62133
491.952	1856.70491
492.16	1835.55894
492.369	2017.39655
492.578	1941.28363
492.787	2245.67949
492.996	2008.93996
493.204	2186.504
493.413	2093.50084
493.622	2315.41298
493.831	2135.7769
494.039	2186.504
494.248	2182.27692
494.457	2364.00896
494.665	2203.41197
494.874	2484.419
495.083	2237.22627
495.291	2380.91067
495.5	2444.28618
495.709	2549.89017
495.917	2372.4599
496.126	2475.97032
496.335	2511.87599
496.543	2647.02003
496.752	2471.74591
496.96	2638.57499
497.169	2532.99544
497.377	2748.34466
497.586	2615.35008
497.794	2625.90704
498.003	2566.78415
498.211	2921.3689
498.42	2834.86853
498.628	2836.97858
498.837	2746.23404
499.045	2917.14993
499.254	2735.68072
499.462	2864.40794
499.671	2877.06683
499.879	2912.9309
500.087	2860.18819
500.296	2963.55534
500.504	3026.82379
500.713	3047.91022
500.921	3026.82379
501.129	2891.8349
501.338	2853.85847
501.546	3073.21189
501.754	3047.91022
501.962	3123.80843
502.171	3159.64209
502.379	3187.04114
502.587	3109.05205
502.795	3300.82257
503.004	3191.25613
503.212	3258.687
503.42	3157.53436
503.628	3524.02463
503.837	3045.80164
504.045	3311.3554
504.253	3123.80843
504.461	3450.34795
504.669	3414.55418
504.877	3364.01307
505.085	3376.6493
505.294	3448.24258
505.502	3345.05756
505.71	3595.57477
505.918	3444.03178
506.126	3557.69795
506.334	3364.01307
506.542	3747.02088
506.75	3473.50587
506.958	3730.19843
507.166	3639.75673
507.374	3774.35469
507.582	3713.37475
507.79	3742.81538
507.998	3747.02088
508.206	3944.59021
508.414	3765.94464
508.622	3780.66203
508.83	3646.06776
509.037	3925.68163
509.245	3580.84561
509.453	4137.78272
509.661	3780.66203
509.869	3906.77142
510.077	3791.17386
510.285	4097.89862
510.492	3831.11435
510.7	4009.70715
510.908	3904.67018
511.116	3971.8997
511.324	3847.92926
511.531	4219.62629
511.739	3709.16864
511.947	4125.18855
512.155	4141.9806
512.362	4125.18855
512.57	4110.49441
512.778	4202.84049
512.985	4099.99797
513.193	4066.40586
513.401	4020.20804
513.608	4305.63212
513.816	4043.3082
514.024	4108.39517
514.231	4045.40809
514.439	4274.17075
514.646	3995.00504
514.854	4439.81262
515.061	4186.05333
515.269	4402.08336
515.477	4339.18557
515.684	4557.147
515.892	4410.46825
516.099	4446.10014
516.307	4303.53484
516.514	4339.18557
516.722	4330.79773
516.929	4532.00975
517.136	4395.79446
517.344	4697.43761
517.551	4471.24825
517.759	4548.76827
517.966	4532.00975
518.173	4651.38312
518.381	4619.97611
518.588	4701.62384
518.796	4783.2373
519.003	4645.10212
519.21	4609.50598
519.418	4756.03664
519.625	4622.07007
519.832	4818.8016
520.039	4594.84687
520.247	4611.60005
520.454	4753.94412
520.661	4942.17948
520.868	4548.76827
521.076	5013.24232
521.283	4762.31405
521.49	4971.44388
521.697	5032.04861
521.904	5140.67044
522.112	4904.54722
522.319	5251.31647
522.526	4839.71871
522.733	5109.34366
522.94	5080.10061
523.147	5182.43135
523.354	4795.79015
523.561	5253.4035
523.768	5036.22753
523.975	5090.54508
524.183	5117.69798
524.39	5157.37593
524.597	5029.95911
524.804	5326.43485
525.011	5418.20497
525.218	5213.74592
525.425	5071.74462
525.632	5205.39588
525.838	5096.81148
526.045	5432.80057
526.252	5161.55206
526.459	5505.76128
526.666	5361.89687
526.873	5534.93749
527.08	5213.74592
527.287	5639.10055
527.494	5391.0958
527.701	5451.56464
527.907	5524.51795
528.114	5841.00869
528.321	5514.09781
528.528	5662.00851
528.735	5537.02133
528.941	5476.58045
529.148	5424.46036
529.355	5897.17042
529.562	5562.02556
529.768	5632.85243
529.975	5432.80057
530.182	5693.24204
530.388	5628.6869
530.595	5764.01838
530.802	5555.77482
531.008	5759.85582
531.215	5861.81133
531.422	5980.34137
531.628	6059.31885
531.835	5895.09066
532.042	5768.18085
532.248	6011.52075
532.455	5793.15365
532.661	5965.78918
532.868	5996.97103
533.074	6225.4762
533.281	5888.85125
533.487	6202.63848
533.694	6034.38226
533.9	6379.0382
534.107	5955.39404
534.313	6134.10826
534.52	5801.47716
534.726	6038.5386
534.933	6088.40724
535.139	6395.63183
535.345	6204.71475
535.552	6515.89116
535.758	6406.0021
535.965	6654.7144
536.171	6173.56818
536.377	6393.55771
536.584	6352.07035
536.79	6325.09857
536.996	6420.51949
537.203	6279.44501
537.409	6345.84645
537.615	6648.50065
537.821	6406.0021
538.028	6636.07253
538.234	6459.9181
538.44	6594.63946
538.646	6192.25675
538.853	6650.57193
539.059	6447.47734
539.265	6878.27208
539.471	6867.92807
539.677	6851.37646
539.883	6735.47435
540.09	6745.82566
540.296	6745.82566
540.502	6631.92964
540.708	6851.37646
540.914	6927.91548
541.12	6932.05184
541.326	7064.36777
541.532	6760.31654
541.738	6979.61349
541.944	6946.52839
542.15	6994.08641
542.356	6901.02693
542.562	6847.23833
542.768	6942.39234
542.974	6975.47817
543.18	7118.09486
543.386	7248.21735
543.592	7087.1003
543.798	7326.66154
544.004	7128.42526
544.21	7149.0844
544.415	7173.87242
544.621	7223.43889
544.827	7091.2332
545.033	7423.6409
545.239	7190.396
545.445	7489.64193
545.651	7151.15019
545.856	7532.9431
546.062	7380.31565
546.268	7390.63205
546.474	7518.51043
546.679	7157.34743
546.885	7293.63628
547.091	7541.18986
547.297	7109.83013
547.502	7481.39301
547.708	7347.29949
547.914	7512.32468
548.119	7475.20609
548.325	7479.33073
548.531	7301.89312
548.736	7625.69948
548.942	7351.42681
549.147	7438.08052
549.353	7423.6409
549.559	7677.21217
549.764	7580.35732
549.97	7681.33261
550.175	7621.57789
550.381	7844.02287
550.586	7646.30614
550.792	7887.24775
550.997	7728.71164
551.203	7761.66439
551.408	7693.69343
551.614	7850.19841
551.819	7557.68237
552.025	7695.75349
552.23	7693.69343
552.435	7677.21217
552.641	8129.96245
552.846	8047.71797
553.052	7677.21217
553.257	7895.48003
553.462	7776.07954
553.668	7883.13149
553.873	7948.9818
554.078	8068.28211
554.283	7959.26901
554.489	8216.28467
554.694	8062.11308
554.899	8000.41274
555.105	7833.72988
555.31	8156.68499
555.515	8148.46303
555.72	8144.35193
555.925	8136.12949
556.131	8220.39438
556.336	8236.83242
556.541	8058.00029
556.746	8115.57199
556.951	8442.20217
557.156	8107.34843
557.361	8189.56964
557.567	8253.26919
557.772	8076.50721
557.977	8129.96245
558.182	8197.79001
558.387	8216.28467
558.592	8452.46558
558.797	8146.40749
559.002	8076.50721
559.207	8185.45934
559.412	8364.18457
559.617	8099.12455
559.822	8585.84652
560.027	8419.62099
560.232	8454.5182
560.437	8232.72303
560.642	8380.61165
560.847	8540.71116
561.051	8657.63407
561.256	8360.07761
561.461	8694.5445
561.666	8499.67108
561.871	8559.17673
562.076	8419.62099
562.281	8682.24169
562.485	8438.09668
562.69	8544.81475
562.895	8255.3237
563.1	8766.2977
563.305	8528.39993
563.509	8553.02171
563.714	8489.40987
563.919	8663.78622
564.123	8764.24792
564.328	8610.46197
564.533	8852.37205
564.737	8760.14831
564.942	8704.79634
565.147	8794.99271
565.351	8655.58331
565.556	8737.59912
565.761	8692.49408
565.965	8801.14117
566.17	8700.69566
566.374	8860.56795
566.579	8778.596
566.784	8823.68415
566.988	8766.2977
567.193	8913.83427
567.397	8905.64024
567.602	8913.83427
567.806	8737.59912
568.011	9008.04526
568.215	9094.03159
568.42	9005.99759
568.624	9053.08955
568.828	9075.60853
569.033	8909.73729
569.237	9040.80558
569.442	8858.519
569.646	8952.75204
569.85	8991.66342
570.055	8924.07641
570.259	8887.20262
570.463	9220.90828
570.668	9091.98466
570.872	8983.47208
571.076	9005.99759
571.281	9423.3679
571.485	9149.29241
571.689	9404.96915
571.893	9042.85295
572.098	9476.51248
572.302	9141.10641
572.506	9335.4508
572.71	8879.00766
572.914	9362.03359
573.119	8985.51994
573.323	9413.14653
573.527	8819.58559
573.731	9280.23148
573.935	9235.22897
574.139	9435.633
574.343	9633.83893
574.547	9550.07937
574.751	9464.24931
574.955	9454.02956
575.159	9370.21234
575.364	9633.83893
575.568	9224.99999
575.772	9427.45633
575.976	9407.01352
576.18	9272.04981
576.383	9445.85347
576.587	9682.85674
576.791	9298.63927
576.995	9531.68958
577.199	9400.88036
577.403	9413.14653
577.607	9650.17919
577.811	9662.43373
578.015	9362.03359
578.219	9597.06969
578.422	9362.03359
578.626	9413.14653
578.83	9615.45494
579.034	9631.79632
579.238	9599.11256
579.442	9891.08457
579.645	9686.94116
579.849	9803.32134
580.053	9974.74041
580.257	9864.5544
580.46	9548.03613
580.664	9907.40959
580.868	9617.49767
581.071	9895.16591
581.275	9595.0268
581.479	9803.32134
581.682	9725.74005
581.886	9972.70032
582.09	9772.69976
582.293	9911.4907
582.497	9899.2472
582.7	9989.02068
582.904	9772.69976
583.107	10080.80561
583.311	9548.03613
583.515	10111.39421
583.718	9862.51351
583.922	9978.82056
584.125	9776.78283
584.329	9731.86568
584.532	9940.05682
584.735	10237.79387
584.939	9946.17776
585.142	10290.78454
585.346	9972.70032
585.549	10192.94844
585.753	10121.5897
585.956	10156.25178
586.159	10005.34012
586.363	10298.93614
586.566	10091.00216
586.769	10192.94844
586.973	10286.70866
587.176	10225.56396
587.379	10264.29035
587.582	10327.46506
587.786	10408.96195
587.989	10380.44043
588.192	10119.55063
588.395	10423.22175
588.599	10172.56196
588.802	10392.66425
589.005	10319.3142
589.208	10408.96195
589.411	10368.21614
589.615	10137.90177
589.818	10243.90865
590.021	10451.73944
590.224	10288.7466
590.427	10461.92371
590.63	10298.93614
590.833	10630.93634
591.036	10590.21831
591.239	10716.42825
591.442	10129.74585
591.645	10718.46351
591.848	10643.15079
592.051	10779.51578
592.254	10388.5897
592.457	10765.27121
592.66	10380.44043
592.863	10659.43604
593.066	10586.14623
593.269	10759.16622
593.472	10592.25433
593.675	10871.07429
593.878	10698.11036
594.081	10706.25177
594.284	10710.3224
594.486	10708.28709
594.689	10889.38317
594.892	10834.45372
595.095	10964.6433
595.298	11188.30022
595.5	10982.94749
595.703	11064.28854
595.906	10987.01496
596.109	11131.38177
596.311	10810.03791
596.514	11037.85463
596.717	10816.14202
596.92	10987.01496
597.122	10972.77861
597.325	10958.54171
597.528	10864.97112
597.73	11322.43284
597.933	10832.41913
598.136	11271.63029
598.338	10995.14977
598.541	11109.01866
598.743	10962.60945
598.946	11121.21688
599.148	10903.62276
599.351	10899.55437
599.554	11249.27515
599.756	11243.17808
599.959	11314.30486
600.161	11041.92151
600.363	11204.56112
600.566	11279.75913
600.768	11172.03865
600.971	11336.65642
601.173	11086.65426
601.376	11509.33281
601.578	11163.90762
601.78	11302.11258
601.983	11397.60909
602.185	11434.17644
602.388	11310.24081
602.59	11448.39622
602.792	11643.36355
602.995	11415.89316
603.197	11381.35592
603.399	11600.72177
603.601	11283.82348
603.804	11350.87951
604.006	11056.15523
604.208	11212.69132
604.41	11334.62451
604.613	11432.145
604.815	11086.65426
605.017	11172.03865
605.219	11170.00591
605.421	11253.33981
605.623	11287.8878
605.826	11815.92107
606.028	11495.11505
606.23	11507.30173
606.432	11342.75209
606.634	11704.27347
606.836	11308.20876
607.038	11602.75242
607.24	11338.68832
607.442	11635.24162
607.644	11570.26088
607.846	11547.92157
608.048	11383.3876
608.25	11714.42434
608.452	11184.23489
608.654	11596.66044
608.856	11373.2291
609.058	11391.51423
609.26	11665.69812
609.462	11545.89067
609.664	11430.11356
609.866	11462.61553
610.067	11509.33281
610.269	11612.90555
610.471	11320.40086
610.673	11610.87494
610.875	11409.79856
611.077	11625.08899
611.278	11484.95921
611.48	11261.46902
611.682	11393.54586
611.884	11432.145
612.085	11381.35592
612.287	11665.69812
612.489	11781.41461
612.69	11584.47622
612.892	11365.10211
613.094	11604.78307
613.295	11547.92157
613.497	11547.92157
613.699	11409.79856
613.9	11822.01019
614.102	11519.48808
614.304	11616.96673
614.505	11287.8878
614.707	11708.33385
614.908	11269.59806
615.11	11332.59259
615.311	11489.02157
615.513	11618.99731
615.714	11495.11505
615.916	11558.07594
616.117	11224.8863
616.319	11726.6051
616.52	11324.46481
616.722	11558.07594
616.923	11580.41474
617.124	11645.39401
617.326	11430.11356
617.527	11686.00134
617.729	11531.67409
617.93	11531.67409
618.131	11677.88016
618.333	11450.42758
618.534	11336.65642
618.735	11730.66528
618.937	11279.75913
619.138	11590.56837
619.339	11446.36485
619.54	11886.95608
619.742	11740.81558
619.943	11623.05844
620.144	11568.23008
620.345	11535.73601
620.546	11212.69132
620.748	11819.9805
620.949	11692.09213
621.15	12031.02475
621.351	11724.575
621.552	11714.42434
621.753	11531.67409
621.954	11698.18284
622.155	11641.33308
622.356	12093.91543
622.558	11844.33631
622.759	11813.89135
622.96	11397.60909
623.161	11643.36355
623.362	11432.145
623.563	11730.66528
623.764	11750.96567
623.965	12059.42791
624.166	11700.21306
624.366	11710.36402
624.567	11381.35592
624.768	11838.24747
624.969	11478.8656
625.17	11430.11356
625.371	11641.33308
625.572	11480.89681
625.773	11489.02157
625.973	11791.56383
626.174	11755.02564
626.375	11856.51377
626.576	12004.649
626.777	11852.45465
626.977	11817.95079
627.178	11757.05561
627.379	11507.30173
627.58	11702.24327
627.78	11495.11505
627.981	11763.14548
628.182	11832.15856
628.382	11702.24327
628.583	11722.54488
628.784	11771.26518
628.984	11499.17731
629.185	11931.60144
629.386	11757.05561
629.586	12158.82713
629.787	11994.50413
629.987	11909.27926
630.188	11941.74756
630.388	11710.36402
630.589	11641.33308
630.79	11976.24285
630.99	11817.95079
631.191	11966.09742
631.391	11872.7499
631.591	11832.15856
631.792	11848.3955
631.992	12193.30835
632.193	11832.15856
632.393	11974.21378
632.594	11708.33385
632.794	12106.08696
632.994	11992.47513
633.195	11848.3955
633.395	11793.59365
633.595	11976.24285
633.796	11848.3955
633.996	12033.0536
634.196	11878.83831
634.397	12124.34375
634.597	11982.33002
634.797	12306.87867
634.997	11864.6319
635.198	12177.08216
635.398	11927.54293
635.598	11921.45512
635.798	11791.56383
635.998	11986.38809
636.199	11722.54488
636.399	11941.74756
636.599	11545.89067
636.799	11945.80595
636.999	11706.30366
637.199	12197.36482
637.399	12081.74362
637.599	12006.67795
637.799	11730.66528
637.999	12077.68629
638.199	11858.54331
638.399	12140.57149
638.599	11826.06956
638.799	12367.71079
638.999	12154.77037
639.199	11909.27926
639.399	11951.89348
639.599	12244.01217
639.799	12000.59108
639.999	12142.59993
640.199	12049.2841
640.399	12134.48615
640.599	11643.36355
640.799	12317.01779
640.998	12154.77037
641.198	12006.67795
641.398	11862.60238
641.598	12254.15239
641.798	12288.6278
641.997	12298.76724
642.197	12095.94404
642.397	12142.59993
642.597	12043.19772
642.796	12304.85082
642.996	12383.93164
643.196	12434.61902
643.395	12020.88039
643.595	12327.15673
643.795	12219.6749
643.994	12112.17263
644.194	11716.45449
644.394	12260.23644
644.593	12091.88681
644.793	12379.87647
644.992	12010.73583
645.192	12185.19531
645.392	12339.32324
645.591	12493.41119
645.791	12485.30225
645.99	12456.92015
646.19	12357.57253
646.389	12465.02945
646.589	11917.39653
646.788	12130.42921
646.987	12134.48615
647.187	12355.54486
647.386	12308.9065
647.586	12106.08696
647.785	12258.20843
647.984	12546.11679
648.184	12073.62893
648.383	12487.3295
648.582	12215.61859
648.782	12355.54486
648.981	12254.15239
649.18	12341.35097
649.38	12657.59545
649.579	12681.91563
649.778	12418.39952
649.977	12692.04878
650.177	12503.54722
650.376	12481.24775
650.575	12491.38397
650.774	12345.4064
650.973	12314.98998
651.173	12329.1845
651.372	12177.08216
651.571	12341.35097
651.77	12333.24002
651.969	12345.4064
652.168	12327.15673
652.367	12503.54722
652.566	12341.35097
652.765	12696.102
652.964	12367.71079
653.163	12424.48188
653.362	12229.81556
653.561	12535.98143
653.76	12363.65551
653.959	12306.87867
654.158	12412.31709
654.357	12367.71079
654.556	12116.2297
654.755	12387.98679
654.954	12367.71079
655.153	12308.9065
655.352	12606.92564
655.551	12552.19792
655.749	12221.70305
655.948	12308.9065
656.147	12241.9841
656.346	12333.24002
656.545	12081.74362
656.743	12390.01435
656.942	12298.76724
657.141	12724.47389
657.34	12779.1879
657.538	12921.02016
657.737	12533.95434
657.936	12973.69406
658.135	12444.756
658.333	12712.31465
658.532	12319.04559
658.731	12655.56873
658.929	12617.0599
659.128	12438.67383
659.326	12294.71149
659.525	12793.37234
659.724	12477.19321
659.922	12406.23461
660.121	12568.41402
660.319	12608.9525
660.518	12511.65593
660.716	12558.27901
660.915	12319.04559
661.113	12835.92401
661.312	12527.87303
661.51	12866.31658
661.709	12359.6002
661.907	12527.87303
662.105	12179.11046
662.304	12621.11357
662.502	12288.6278
662.701	12463.00214
662.899	12414.34457
663.097	12623.14039
663.296	12692.04878
663.494	12615.03306
663.692	12262.26444
663.891	12558.27901
664.089	12260.23644
664.287	12570.441
664.485	12544.08973
664.684	12906.83812
664.882	12491.38397
665.08	12392.04191
665.278	12381.90406
665.476	12398.12453
665.675	12272.40434
665.873	12414.34457
666.071	12424.48188
666.269	12458.94749
666.467	12260.23644
666.665	12627.19402
666.863	12361.62786
667.061	12558.27901
667.259	12390.01435
667.457	12663.67558
667.655	12458.94749
667.853	12665.70227
668.051	12430.56419
668.249	12420.42698
668.447	12351.4895
668.645	12621.11357
668.843	12576.52191
669.041	13103.3384
669.239	12576.52191
669.437	12633.27441
669.635	12327.15673
669.833	12404.2071
670.031	12610.97936
670.229	12477.19321
670.426	12294.71149
670.624	12896.70794
670.822	12349.4618
671.02	12651.51527
671.218	12317.01779
671.415	12509.62876
671.613	12175.05385
671.811	12168.96888
672.009	12327.15673
672.206	12460.97482
672.404	12160.85549
672.602	12197.36482
672.799	12288.6278
672.997	12659.62217
673.195	12284.57198
673.392	12497.46562
673.59	12130.42921
673.788	12095.94404
673.985	11903.19122
674.183	12231.84367
674.38	12010.73583
674.578	12390.01435
674.775	12355.54486
674.973	12300.79511
675.17	12438.67383
675.368	12552.19792
675.565	12260.23644
675.763	12392.04191
675.96	12213.59042
676.158	12185.19531
676.355	11949.86431
676.553	12495.43841
676.75	11789.534
676.947	12132.45768
677.145	11809.83188
677.342	12118.25822
677.539	12020.88039
677.737	12373.79366
677.934	12136.5146
678.131	12383.93164
678.329	12225.75932
678.526	12436.64643
678.723	12282.54406
678.92	12487.3295
679.118	12193.30835
679.315	12055.37041
679.512	11919.42583
679.709	11838.24747
679.906	11856.51377
680.104	12110.14408
680.301	12081.74362
680.498	12170.99721
680.695	12110.14408
680.892	12189.25184
681.089	11994.50413
681.286	11842.30671
681.483	11844.33631
681.68	12274.43229
681.877	11949.86431
682.075	12136.5146
682.272	11686.00134
682.469	12262.26444
682.665	11679.91047
682.862	12280.51613
683.059	11884.92665
683.256	11998.5621
683.453	11775.32498
683.65	12006.67795
683.847	11655.54618
684.044	11763.14548
684.241	11734.72543
684.438	11876.80885
684.635	11657.57659
684.831	11907.24992
685.028	11706.30366
685.225	12039.14009
685.422	11911.30859
685.619	12026.96703
685.815	11564.16845
686.012	11915.36722
686.209	11692.09213
686.405	12130.42921
686.602	11775.32498
686.799	11933.63068
686.996	11694.12237
687.192	11913.33791
687.389	11592.59907
687.586	11641.33308
687.782	11998.5621
687.979	12114.20117
688.175	11909.27926
688.372	11872.7499
688.568	11696.15261
688.765	11893.04432
688.962	11606.8137
689.158	11570.26088
689.355	11584.47622
689.551	11773.29508
689.748	11562.13762
689.944	11915.36722
690.14	11570.26088
690.337	11663.66775
690.533	11655.54618
690.73	11300.0805
690.926	11663.66775
691.123	11470.74064
691.319	11562.13762
691.515	11568.23008
691.712	11489.02157
691.908	11549.95246
692.104	11129.34881
692.301	11417.92468
692.497	11170.00591
692.693	11507.30173
692.889	11356.97497
693.086	11413.86164
693.282	11497.14618
693.478	11456.5216
693.674	11610.87494
693.87	11629.15007
694.067	11259.43673
694.263	11547.92157
694.459	11137.48057
694.655	11444.33348
694.851	11310.24081
695.047	11643.36355
695.243	11460.58423
695.439	11460.58423
695.635	11367.13387
695.831	11673.81952
696.027	11336.65642
696.224	11533.70505
696.42	11119.18387
696.615	11497.14618
696.811	11153.74358
697.007	11086.65426
697.203	11145.61216
697.399	11318.36887
697.595	10925.99815
697.791	11194.39814
697.987	11251.30749
698.183	11515.426
698.379	11149.67789
698.575	11275.69473
698.77	11137.48057
698.966	11115.11782
699.162	11157.80923
699.358	11328.52872
699.554	10974.81241
699.749	11027.68725
699.945	11098.85319
700.141	11082.58786
700.337	11176.10411
700.532	11283.82348
700.728	11245.21045
700.924	11076.48819
701.119	11080.55465
701.315	11371.19736
701.511	10952.44001
701.706	11224.8863
701.902	10864.97112
702.097	11019.55315
702.293	10759.16622
702.489	11041.92151
702.684	11068.35514
702.88	10838.52286
703.075	10759.16622
703.271	10921.93
703.466	10980.91373
703.662	11003.28441
703.857	11080.55465
704.053	11283.82348
704.248	10968.71098
704.443	11039.88808
704.639	10669.61392
704.834	10856.8334
705.03	10848.6955
705.225	11104.95251
705.42	10905.65695
705.616	11310.24081
705.811	10826.3153
706.006	11058.18857
706.202	10795.79458
706.397	10860.90228
706.592	10879.21168
706.787	10728.63964
706.983	10925.99815
707.178	10956.50782
707.373	11139.51349
707.568	11275.69473
707.763	10873.10865
707.959	10677.756
708.154	10641.11508
708.349	10602.43424
708.544	10537.27741
708.739	10610.57794
708.934	10480.2546
709.129	10846.66099
709.324	10700.14573
709.519	11031.75424
709.714	10871.07429
709.909	10563.74892
710.104	10421.18467
710.299	10724.56922
710.494	10596.32633
710.689	10586.14623
710.884	10698.11036
711.079	10856.8334
711.274	10689.96876
711.469	10681.82697
711.664	10421.18467
711.859	10643.15079
712.054	10553.56782
712.249	10567.82127
712.443	10459.88688
712.638	10494.51124
712.833	9915.57175
713.028	10514.87678
713.223	10197.02558
713.417	10620.7573
713.612	10372.29095
713.807	10584.11018
714.002	10288.7466
714.196	10891.41743
714.391	10451.73944
714.586	10533.20468
714.78	10453.77632
714.975	10692.00418
715.17	10370.25355
715.364	10351.91634
715.559	10335.6157
715.754	10366.17871
715.948	10162.36821
716.143	10217.41041
716.337	10148.09636
716.532	10820.21137
716.726	10433.40693
716.921	10380.44043
717.115	10431.36992
717.31	10284.6707
717.504	10280.59473
717.699	10335.6157
717.893	10404.8876
718.088	10683.86244
718.282	10488.40133
718.476	10551.53157
718.671	9993.10062
718.865	10372.29095
719.059	10321.35194
719.254	10351.91634
719.448	9838.02172
719.642	10103.23756
719.837	9686.94116
720.031	10227.60231
720.225	9831.89844
720.419	9850.26788
720.614	9799.23866
720.808	9948.21804
721.002	9915.57175
721.196	10070.60871
721.39	9835.98064
721.585	9829.85731
721.779	9833.93955
721.973	10225.56396
722.167	9691.02551
722.361	9968.62009
722.555	9433.58886
722.749	9772.69976
722.943	9811.48653
723.137	10001.26034
723.331	9770.6582
723.525	9999.22043
723.719	9860.47261
723.913	9952.29857
724.107	9572.55404
724.301	9997.18051
724.495	9911.4907
724.689	9970.66021
724.883	9674.68772
725.077	9878.84018
725.271	9637.92408
725.465	9480.60007
725.659	9615.45494
725.853	9923.73367
726.046	9960.45944
726.24	9993.10062
726.434	9323.18089
726.628	9858.43169
726.822	9564.38166
727.015	9823.73385
727.209	9742.07477
727.403	9523.51593
727.596	9498.99344
727.79	9541.90629
727.984	9541.90629
728.177	9666.51846
728.371	9558.2522
728.565	9550.07937
728.758	9650.17919
728.952	9682.85674
729.146	9735.94936
729.339	9993.10062
729.533	9833.93955
729.726	9772.69976
729.92	9617.49767
730.113	10129.74585
730.307	9752.28348
730.5	9974.74041
730.694	9672.64543
730.887	9874.75861
731.081	9637.92408
731.274	9517.38552
731.468	9697.15193
731.661	9925.77412
731.854	9639.96664
732.048	9935.97612
732.241	9537.81966
732.435	9784.9488
732.628	9982.90065
732.821	10029.81755
733.014	9940.05682
733.208	9744.11654
733.401	9850.26788
733.594	9831.89844
733.788	9703.27821
733.981	9921.69322
734.174	9543.94959
734.367	9617.49767
734.56	9451.98556
734.754	9376.34624
734.947	9482.64384
735.14	9443.80941
735.333	9664.4761
735.526	9578.68317
735.719	9592.9839
735.912	9633.83893
736.105	9206.58677
736.298	9159.52453
736.491	9466.29321
736.684	9441.76533
736.877	9494.90614
737.07	9384.52454
737.263	9270.00435
737.456	9625.66842
737.649	9801.28001
737.842	9601.15541
738.035	9629.7537
738.228	9411.10221
738.421	9550.07937
738.614	9797.19729
738.807	9407.01352
739	9568.46788
739.192	9321.13584
739.385	9468.3371
739.578	9351.80977
739.771	9417.23513
739.964	9059.2313
740.156	9384.52454
740.349	9425.41212
740.542	9466.29321
740.735	9159.52453
740.927	9458.11751
741.12	9329.31592
741.313	9229.09163
741.505	9206.58677
741.698	9214.77059
741.891	9055.13682
742.083	9339.54064
742.276	9327.27093
742.468	9069.4672
742.661	9302.7297
742.854	9028.52099
743.046	9139.05987
743.239	9122.68691
743.431	9012.14055
743.624	9163.61725
743.816	9143.15294
744.009	9171.8025
744.201	8899.49453
744.393	8934.31811
744.586	8909.73729
744.778	9100.1723
744.971	9008.04526
745.163	9157.47814
745.355	8885.15391
745.548	8975.28046
745.74	9073.56144
745.932	9229.09163
746.125	9012.14055
746.317	9167.70991
746.509	9032.61592
746.702	8942.51114
746.894	8770.39721
747.086	8868.76355
747.278	8973.23251
747.471	8901.54311
747.663	8762.19812
747.855	8938.41466
748.047	8856.47003
748.239	9147.24594
748.431	8866.71468
748.623	8858.519
748.815	9057.18406
749.008	9218.8624
749.2	9278.18609
749.392	9026.47349
749.584	9132.92014
749.776	9357.94411
749.968	9139.05987
750.16	8870.81241
750.352	8760.14831
750.544	8698.64529
750.736	8846.22494
750.928	8917.93118
751.12	8403.19686
751.311	8747.84902
751.503	8811.38825
751.695	8803.19062
751.887	8704.79634
752.079	8823.68415
752.271	8715.04771
752.463	9001.9022
752.654	9036.71079
752.846	9003.94991
753.038	8799.0917
753.23	8954.80017
753.421	8667.88757
753.613	8868.76355
753.805	8827.78264
753.997	8587.89791
754.188	8776.54633
754.38	8702.74601
754.572	8803.19062
754.763	8825.7334
754.955	8532.50375
755.146	8620.71761
755.338	8384.71822
755.53	8633.02377
755.721	8715.04771
755.913	8682.24169
756.104	8583.79511
756.296	8438.09668
756.487	8466.83354
756.679	8405.24994
756.87	8138.18513
757.062	8501.72327
757.253	8166.96199
757.445	8269.7047
757.636	8148.46303
757.827	8341.59532
758.019	8501.72327
758.21	8257.37819
758.401	8121.73945
758.593	8362.1311
758.784	8392.93114
758.975	8376.505
759.167	8444.25489
759.358	8286.13896
759.549	8296.40973
759.74	8290.24733
759.932	8055.94387
760.123	8282.03051
760.314	8210.11996
760.505	8012.75427
760.696	8055.94387
760.888	7876.95694
761.079	7829.61254
761.27	8195.73495
761.461	8074.45096
761.652	8310.78799
761.843	7903.71197
762.034	8115.57199
762.225	8123.79523
762.416	7905.76991
762.607	7627.76024
762.798	7765.78311
762.989	8008.64051
763.18	8092.95642
763.371	8121.73945
763.562	8045.66144
763.753	7792.55273
763.944	7940.75166
764.135	7876.95694
764.326	8119.68365
764.517	8146.40749
764.708	7825.49512
764.899	7627.76024
765.089	7617.45622
765.28	7631.8817
765.471	7689.57324
765.662	7555.62088
765.853	7695.75349
766.043	7613.33446
766.234	7864.60728
766.425	7726.65191
766.615	7734.89069
766.806	7596.84657
766.997	7584.47976
767.187	7594.78549
767.378	7718.4128
767.569	7714.29311
767.759	7658.66912
767.95	7895.48003
768.141	7621.57789
768.331	7582.41855
768.522	7532.9431
768.712	7413.32623
768.903	7392.69527
769.093	7299.82894
769.284	7314.27773
769.474	7369.9987
769.665	7388.56882
769.855	7126.35923
770.046	7264.73456
770.236	6932.05184
770.426	7372.06213
770.617	7291.57201
770.807	7252.34678
770.998	6989.9514
771.188	7163.54447
771.378	7175.93795
771.569	7320.46973
771.759	7258.54077
771.949	7182.13439
772.139	7281.25035
772.33	7095.36601
772.52	7118.09486
772.71	7277.12154
772.9	7390.63205
773.09	7182.13439
773.281	7425.70376
773.471	7367.93524
773.661	7355.55405
773.851	7132.55727
774.041	6992.01892
774.231	6907.23232
774.421	6752.03618
774.611	7049.9002
774.802	6857.58348
774.992	7033.36448
775.182	7035.43153
775.372	7128.42526
775.562	6901.02693
775.752	6994.08641
775.942	7031.29742
776.131	7076.76767
776.321	7051.96706
776.511	6814.13001
776.701	6880.34082
776.891	6896.88989
777.081	6915.50585
777.271	6832.75415
777.461	6752.03618
777.651	6675.42541
777.84	6617.42879
778.03	6658.85679
778.22	6507.59993
778.41	6739.61494
778.599	6694.06335
778.789	6739.61494
778.979	6857.58348
779.169	7012.69282
779.358	6789.29494
779.548	6872.06574
779.738	6685.78005
779.927	6747.89586
780.117	6880.34082
780.307	6712.69944
780.496	6546.98001
780.686	6712.69944
780.875	6567.70301
781.065	6737.54466
781.254	6505.52706
781.444	6702.34629
781.633	6627.78665
781.823	6716.84054
782.012	6648.50065
782.202	6665.0702
782.391	6669.21235
782.581	6619.50041
782.77	6333.398
782.96	6549.05241
783.149	6445.4038
783.338	6289.82181
783.528	6271.14315
783.717	6381.11248
783.906	6379.0382
784.096	6370.74082
784.285	6233.78013
784.474	6360.36857
784.663	6090.48481
784.853	6188.1039
785.042	6096.71736
785.231	6395.63183
785.42	6221.3241
785.61	6329.24833
785.799	6073.86362
785.988	6154.87769
786.177	5851.41031
786.366	6335.4728
786.555	6061.39674
786.744	6080.09674
786.933	5743.20464
787.122	6113.33648
787.312	6090.48481
787.501	6140.33934
787.69	5832.68697
787.879	6250.38685
788.068	5890.93107
788.257	6046.85098
788.445	6177.72136
788.634	6181.87444
788.823	6090.48481
789.012	6186.02744
789.201	5870.13173
789.39	6065.55246
789.579	5986.57767
789.768	5793.15365
789.957	5797.31545
790.145	5826.44543
790.334	5886.77139
790.523	5813.96172
790.712	5830.60648
790.9	5992.81376
791.089	5476.58045
791.278	5797.31545
791.467	5599.52553
791.655	5761.93711
791.844	5664.09091
792.033	5743.20464
792.221	5662.00851
792.41	5749.44901
792.599	5334.77947
792.787	5430.71555
792.976	5489.08709
793.164	5566.1926
793.353	5482.83388
793.541	5549.52387
793.73	5466.15761
793.918	5682.83146
794.107	5249.22942
794.295	5374.41126
794.484	5422.37526
794.672	5449.47984
794.861	5368.15417
795.049	5761.93711
795.238	5580.7765
795.426	5624.52127
795.614	5489.08709
795.803	5530.76975
795.991	5441.14039
796.179	5401.52287
796.368	5318.08987
796.556	5564.10909
796.744	5451.56464
796.932	5616.18974
797.121	5326.43485
797.309	5263.83831
797.497	5192.87013
797.685	5363.98266
797.874	5215.83337
798.062	5297.22575
798.25	5046.67443
798.438	5232.53214
798.626	5238.7938
798.814	5226.27028
799.002	5146.93517
799.19	5238.7938
799.378	4889.91045
799.566	5322.26241
799.755	4960.99283
799.943	5113.52087
800.131	5293.05265
800.318	5436.97053
800.506	5230.44488
800.694	5190.78242
800.882	5000.70376
801.07	5347.29569
801.258	5209.57095
801.446	5094.7227
801.634	4804.15827
801.822	5293.05265
802.01	4935.90796
802.197	5347.29569
802.385	4954.72192
802.573	5253.4035
802.761	4983.98438
802.949	5395.2667
803.136	5013.24232
803.324	5184.51915
803.512	5174.07992
803.699	5180.34353
803.887	4981.89435
804.075	5257.5775
804.262	4983.98438
804.45	5276.3593
804.638	4940.089
804.825	5253.4035
805.013	4904.54722
805.201	5176.16781
805.388	4927.5456
805.576	5182.43135
805.763	4946.36039
805.951	5174.07992
806.138	5034.13808
806.326	5192.87013
806.513	5000.70376
806.701	5197.04547
806.888	4946.36039
807.075	5194.95781
807.263	4871.09009
807.45	5182.43135
807.638	5011.15262
807.825	5021.6009
808.012	5121.875
808.2	5167.81609
808.387	4992.34425
808.574	5105.16636
808.761	4915.00137
808.949	5002.79357
809.136	4881.54607
809.323	4904.54722
809.51	4975.62414
809.698	5140.67044
809.885	4783.2373
810.072	5019.51129
810.259	4848.08491
810.446	5063.38826
810.633	4764.40648
810.82	5078.01165
811.008	4990.25432
811.195	5253.4035
811.382	4912.91059
811.569	5226.27028
811.756	4783.2373
811.943	5180.34353
812.13	5004.88337
812.317	4971.44388
812.504	4963.08308
812.691	5065.47739
812.878	5023.69049
813.064	4958.90255
813.251	5084.27847
813.438	5205.39588
813.625	4774.86827
813.812	5180.34353
813.999	5098.90024
814.186	5100.98897
814.372	4986.07438
814.559	5207.48343
814.746	4958.90255
814.933	4933.8174
815.12	4971.44388
815.306	5182.43135
815.493	5029.95911
815.68	5048.76374
815.866	5004.88337
816.053	5182.43135
816.24	5000.70376
816.426	5176.16781
816.613	4904.54722
816.799	5171.992
816.986	5067.56649
817.173	5230.44488
817.359	4737.20317
817.546	5029.95911
817.732	4753.94412
817.919	5215.83337
818.105	5013.24232
818.292	4965.17331
818.478	5013.24232
818.665	5167.81609
818.851	4975.62414
819.037	5059.20994
819.224	4929.63622
819.41	5121.875
819.597	4799.97426
819.783	4770.68362
819.969	4781.14507
820.156	4971.44388
820.342	4871.09009
820.528	4956.81224
820.714	4933.8174
820.901	5013.24232
821.087	4898.27445
821.273	4952.63157
821.459	4772.77596
821.646	4837.6271
821.832	4833.44381
822.018	4779.05283
822.204	4812.52602
822.39	4850.1764
822.576	4647.19581
822.762	5036.22753
822.948	4747.66643
823.134	5059.20994
823.32	4825.07697
823.507	4973.53402
823.693	4655.57034
823.879	4795.79015
824.065	4776.96056
824.25	4833.44381
824.436	4527.8199
824.622	4747.66643
824.808	4703.71693
824.994	4586.46975
825.18	4370.63691
825.366	4779.05283
825.552	4387.40896
825.738	4529.91484
825.923	4471.24825
826.109	4571.80892
826.295	4439.81262
826.481	4460.77026
826.667	4267.87789
826.852	4544.57878
827.038	4267.87789
827.224	4573.90339
827.409	4385.31253
827.595	4523.62996
827.781	4427.23699
827.966	4613.6941
828.152	4383.21608
828.338	4502.67893
828.523	4305.63212
828.709	4353.86347
828.894	4408.37206
829.08	4584.37541
829.266	4269.97553
829.451	4552.95768
829.637	4204.93879
829.822	4389.50537
830.008	4297.24289
830.193	4638.82092
830.378	4364.34703
830.564	4504.77413
830.749	4200.74217
830.935	4423.04493
831.12	4196.54546
831.305	4368.5403
831.491	4034.90843
831.676	4183.95484
831.861	4089.50101
832.047	4261.58485
832.232	4139.88167
832.417	4431.42895
832.602	4244.80245
832.788	4093.69985
832.973	3986.60338
833.158	4255.29161
833.343	4066.40586
833.528	4320.31243
833.714	4200.74217
833.899	4267.87789
834.084	3959.29574
834.269	4028.60839
834.454	3917.27729
834.639	4144.07952
834.824	3986.60338
835.009	4251.09601
835.194	4020.20804
835.379	4181.85633
835.564	3978.2014
835.749	4200.74217
835.934	4064.30617
836.119	3984.50292
836.304	3704.96245
836.489	4045.40809
836.674	3843.72565
836.859	3807.99177
837.044	3713.37475
837.228	3673.41359
837.413	3431.39895
837.598	3545.07101
837.783	3460.87455
837.968	3650.27502
838.152	3561.90678
838.337	3906.77142
838.522	3707.06556
838.707	4005.50665
838.891	3774.35469
839.076	3768.04718
839.261	3696.54984
839.445	3942.48933
839.63	3761.73949
839.815	3810.09392
839.999	3675.51698
840.184	3822.70641
840.368	3641.86043
840.553	3881.55527
840.737	3679.7237
840.922	3829.01239
841.106	3747.02088
841.291	3835.31819
841.475	3507.18621
841.66	3564.01117
841.844	3610.30301
842.029	3721.78675
842.213	3542.96645
842.397	3673.41359
842.582	3286.07589
842.766	3553.48904
842.951	3486.13654
843.135	3431.39895
843.319	3433.50446
843.504	3610.30301
843.688	3311.3554
843.872	3311.3554
844.056	3275.54204
844.241	3679.7237
844.425	3321.8878
844.609	3431.39895
844.793	3444.03178
844.977	3458.76926
845.161	2963.55534
845.346	3473.50587
845.53	3157.53436
845.714	3372.43729
845.898	3022.60632
846.082	3174.39576
846.266	3022.60632
846.45	3277.64885
846.634	3153.31884
846.818	3237.61669
847.002	3060.56133
847.186	3189.14864
847.37	2938.24418
847.554	3328.20703
847.738	3079.53695
847.922	3275.54204
848.106	3064.77825
848.29	3096.4031
848.473	3203.90071
848.657	3172.28814
848.841	3206.00808
849.025	3305.03575
849.209	2944.57217
849.392	3102.72765
849.576	3001.51805
849.76	2929.80666
849.944	2820.0978
850.127	3083.75358
850.311	2735.68072
850.495	3066.88668
850.678	2946.68147
850.862	2955.11853
851.046	2798.99557
851.229	2879.1766
851.413	2583.67737
851.596	2957.22775
851.78	2735.68072
851.964	3062.6698
852.147	2676.57611
852.331	2862.29807
852.514	2541.4429
852.698	2647.02003
852.881	2697.68607
853.065	2670.24288
853.248	2731.4593
853.431	2860.18819
853.615	2494.97961
853.798	2744.1234
853.982	2685.02025
854.165	2843.30864
854.348	2651.24248
854.532	2828.5383
854.715	2566.78415
854.898	2716.68393
855.081	2492.86751
855.265	2729.34858
855.448	2427.38697
855.631	2456.96013
855.814	2685.02025
855.997	2609.01576
856.181	2454.84783
856.364	2503.42789
856.547	2444.28618
856.73	2549.89017
856.913	2431.61184
857.096	2668.13177
857.279	2313.3
857.462	2372.4599
857.645	2359.78343
857.828	2450.6232
858.011	2205.52543
858.194	2558.33726
858.377	2393.58653
858.56	2577.3425
858.743	2440.06144
858.926	2433.72425
859.109	2566.78415
859.292	2440.06144
859.475	2249.90605
859.658	2644.90879
859.841	2199.18503
860.023	2389.36128
860.206	2332.31652
860.389	2433.72425
860.572	2142.11804
860.755	2287.94343
860.937	2296.39577
861.12	2237.22627
861.303	2046.99374
861.486	2374.57261
861.668	1975.11259
861.851	2268.92511
862.034	1958.19831
862.216	2154.80011
862.399	2055.44984
862.581	2101.9563
862.764	1882.07942
862.947	2076.58957
863.129	1915.91093
863.312	2011.05412
863.494	1901.10981
863.677	2038.53754
863.859	1827.10042
864.042	2068.13377
864.224	1934.94053
864.406	1934.94053
864.589	1774.23309
864.771	1816.52717
864.954	1746.74107
865.136	2148.45911
865.318	1770.00359
865.501	1875.73586
865.683	1831.32969
865.865	2036.42347
866.048	1774.23309
866.23	1941.28363
866.412	1854.59033
866.594	1985.68382
866.777	1841.90278
866.959	1992.02648
867.141	1907.45318
867.323	1918.02535
867.505	1674.83611
867.687	2068.13377
867.869	1827.10042
868.052	2013.16827
868.234	1901.10981
868.416	1827.10042
868.598	1757.315
868.78	1947.62668
868.962	1742.51148
869.144	1852.47575
869.326	1674.83611
869.508	1763.65931
869.69	1594.46798
869.872	1725.59295
870.054	1535.24762
870.236	1750.97066
870.417	1715.01876
870.599	1949.74102
870.781	1602.92793
870.963	1903.22427
871.145	1621.96271
871.327	1844.01738
871.508	1560.62791
871.69	1776.34783
871.872	1628.3076
872.054	1750.97066
872.235	1598.69796
872.417	1770.00359
872.599	1514.09725
872.78	1827.10042
872.962	1649.45707
873.144	1839.78817
873.325	1715.01876
873.507	1795.38034
873.689	1621.96271
873.87	1782.69204
874.052	1630.42255
874.233	1803.83912
874.415	1715.01876
874.596	1748.85587
874.778	1520.44237
874.959	1780.57731
875.141	1621.96271
875.322	1721.36328
875.503	1577.548
875.685	1674.83611
875.866	1516.21229
876.048	1767.88883
876.229	1687.52549
876.41	1674.83611
876.592	1401.99965
876.773	1786.92149
876.954	1596.58297
877.136	1666.37647
877.317	1560.62791
877.498	1723.47812
877.679	1465.45116
877.86	1748.85587
878.042	1573.31798
878.223	1609.27288
878.404	1613.50283
878.585	1702.32962
878.766	1469.68126
878.947	1846.13198
879.128	1640.99731
879.309	1827.10042
879.49	1708.6742
879.672	1636.76741
879.853	1607.1579
880.034	1653.68694
880.215	1543.70773
880.396	1645.22719
880.576	1621.96271
880.757	1793.26563
880.938	1600.81295
881.119	1723.47812
881.3	1467.56621
881.481	1708.6742
881.662	1615.6178
881.843	1681.18081
882.023	1581.778
882.204	1695.98501
882.385	1492.94681
882.566	1628.3076
882.747	1581.778
882.927	1643.11225
883.108	1645.22719
883.289	1797.49504
883.469	1552.16783
883.65	1712.90391
883.831	1452.76085
884.011	1636.76741
884.192	1528.90252
884.373	1753.08544
884.553	1531.01755
884.734	1662.14664
884.914	1560.62791
885.095	1685.4106
885.275	1395.65452
885.456	1721.36328
885.636	1421.03508
885.817	1772.11834
885.997	1482.37157
886.178	1776.34783
886.358	1446.41569
886.538	1571.20298
886.719	1482.37157
886.899	1727.70778
887.08	1456.99095
887.26	1674.83611
887.44	1387.19436
887.621	1577.548
887.801	1412.57488
887.981	1657.91679
888.161	1560.62791
888.342	1628.3076
888.522	1571.20298
888.702	1668.49139
888.882	1632.53751
889.062	1657.91679
889.242	1503.52204
889.423	1676.95101
889.603	1630.42255
889.783	1679.06591
889.963	1571.20298
890.143	1594.46798
890.323	1435.84043
890.503	1723.47812
890.683	1531.01755
890.863	1594.46798
891.043	1370.27407
891.223	1552.16783
891.403	1476.02642
891.583	1645.22719
891.763	1492.94681
891.943	1679.06591
892.122	1486.60167
892.302	1791.15092
892.482	1459.106
892.662	1594.46798
892.842	1427.38022
893.022	1668.49139
893.201	1317.3987
893.381	1518.32733
893.561	1344.89378
893.741	1592.35299
893.92	1378.73421
894.1	1619.84774
894.28	1511.98221
894.459	1695.98501
894.639	1484.48662
894.819	1649.45707
894.998	1478.14147
895.178	1412.57488
895.357	1399.88461
895.537	1387.19436
895.716	1300.4788
895.896	1459.106
896.075	1376.61917
896.255	1461.22106
896.434	1156.66639
896.614	1408.34479
896.793	1344.89378
896.973	1414.68993
897.152	1287.78895
897.331	1264.52445
897.511	1148.20733
897.69	1442.18558
897.87	1222.22617
898.049	1256.06471
898.228	1108.02773
898.407	1198.96263
898.587	1188.38843
898.766	1179.92914
898.945	1201.07748
899.124	1169.3551
899.304	1169.3551
899.483	1382.96428
899.662	1080.5374
899.841	1239.14535
900.02	1122.83055
900.199	1234.91554
900.378	1137.63359
900.557	1351.23884
900.737	972.69981
900.916	1207.42206
901.095	1069.96443
901.274	1239.14535
901.453	993.84318
901.632	1129.17468
901.811	981.15708
901.989	1268.75434
902.168	945.21445
902.347	1091.1105
902.526	928.30098
902.705	1179.92914
902.884	951.55712
903.063	987.5001
903.242	905.04575
903.42	968.47122
903.599	833.17213
903.778	886.01945
903.957	843.74116
904.135	1154.55162
904.314	820.48959
904.493	1131.2894
904.672	854.31041
904.85	964.24265
905.029	862.76597
905.207	947.32867
905.386	744.40153
905.565	900.81763
905.743	786.67111
905.922	782.44397
906.1	757.08198
906.279	809.92106
906.457	702.13611
906.636	877.56352
906.814	746.51491
906.993	854.31041
907.171	681.00505
907.35	765.53582
907.528	636.6336
907.707	746.51491
907.885	615.5062
908.063	725.38156
908.242	528.89743
908.42	742.28816
908.598	539.45826
908.777	653.53639
908.955	630.29525
909.133	560.58096
909.311	537.34607
909.49	626.06974
909.668	554.24401
909.846	596.49263
910.024	642.97205
910.202	566.91803
910.38	638.7464
910.559	649.31062
910.737	528.89743
910.915	655.64929
911.093	554.24401
911.271	729.60814
911.449	621.84429
911.627	626.06974
911.805	562.6933
911.983	702.13611
912.161	607.0556
912.339	626.06974
912.517	537.34607
912.695	716.92852
912.872	714.81528
913.05	657.76221
913.228	575.36765
913.406	712.70206
913.584	697.90981
913.762	716.92852
913.939	558.46863
914.117	588.04248
914.295	626.06974
914.473	556.35631
914.65	613.39353
914.828	571.14282
915.006	560.58096
915.184	672.55294
915.361	554.24401
915.539	647.19775
915.716	566.91803
915.894	630.29525
916.072	547.90718
916.249	674.66595
916.427	531.00957
916.604	681.00505
916.782	507.77683
916.959	545.79493
917.137	543.68269
917.314	573.25523
917.492	497.21707
917.669	533.12172
917.847	486.65768
918.024	592.26753
918.201	562.6933
918.379	545.79493
918.556	537.34607
918.733	657.76221
918.911	539.45826
919.088	604.94298
919.265	537.34607
919.442	558.46863
919.62	514.11286
919.797	482.43403
919.974	387.41813
920.151	514.11286
920.328	406.41873
920.506	507.77683
920.683	488.76953
920.86	461.31665
921.037	444.42385
921.214	486.65768
921.391	484.54585
921.568	469.76342
921.745	442.31232
921.922	423.30926
922.099	427.53205
922.276	528.89743
922.453	412.75256
922.63	385.30703
922.807	478.21043
922.984	385.30703
923.161	378.97385
923.338	461.31665
923.514	423.30926
923.691	425.42065
923.868	410.64126
924.045	473.9869
924.222	387.41813
924.399	343.08867
924.575	343.08867
924.752	419.08653
924.929	364.197
925.105	431.75491
925.282	262.89326
925.459	372.64081
925.635	330.42451
925.812	302.98769
925.989	343.08867
926.165	383.19595
926.342	309.31899
926.518	229.13482
926.695	330.42451
926.871	288.21528
927.048	300.87729
927.224	224.91537
927.401	193.27198
927.577	359.9752
927.754	231.24458
927.93	368.41887
928.107	208.03833
928.283	359.9752
928.459	210.14789
928.636	368.41887
928.812	252.34322
928.988	355.75346
929.165	246.01343
929.341	258.67319
929.517	269.22351
929.693	237.57397
929.87	220.69599
930.046	258.67319
930.222	243.90353
930.398	231.24458
930.574	218.58633
930.751	338.86722
930.927	216.47669
931.103	290.32557
931.279	174.28813
931.455	176.39736
931.631	182.72519
931.807	167.96055
931.983	233.35436
932.159	182.72519
932.335	191.16258
932.511	210.14789
932.687	208.03833
932.863	267.11341
933.039	176.39736
933.215	208.03833
933.391	100.4782
933.566	182.72519
933.742	167.96055
933.918	243.90353
934.094	165.85139
934.27	151.08791
934.445	216.47669
934.621	127.89025
934.797	182.72519
934.973	165.85139
935.148	159.52406
935.324	153.19692
935.5	129.99903
935.675	111.02086
935.851	66.74543
936.027	62.52924
936.202	68.85356
936.378	148.97893
936.553	102.58669
936.729	104.6952
936.904	79.39455
937.08	64.63732
937.255	108.91229
937.431	85.71941
937.606	60.42118
937.782	111.02086
937.957	89.9361
938.133	30.91075
938.308	134.21663
938.483	58.31314
938.659	-63.91243
938.834	56.20513
939.009	119.45538
939.185	24.58768
939.36	51.98916
939.535	3.51233
939.71	39.34183
939.886	64.63732
940.061	11.94218
940.236	66.74543
940.411	30.91075
940.586	43.55752
940.761	68.85356
940.937	22.48004
941.112	98.36974
941.287	73.06989
941.462	64.63732
941.637	9.83468
941.812	39.34183
941.987	81.50281
942.162	30.91075
942.337	20.37242
942.512	66.74543
942.687	39.34183
942.862	-78.65817
943.037	35.12624
943.212	22.48004
943.386	45.6654
943.561	41.44967
943.736	-34.41722
943.911	1.40492
944.086	51.98916
944.26	14.04971
944.435	43.55752
944.61	35.12624
944.785	94.15287
944.959	24.58768
945.134	39.34183
945.309	64.63732
945.483	79.39455
945.658	89.9361
945.833	22.48004
946.007	64.63732
946.182	-49.16544
946.357	24.58768
946.531	35.12624
946.706	47.77329
946.88	22.48004
947.055	106.80373
947.229	14.04971
947.404	51.98916
947.578	-32.31023
947.752	64.63732
947.927	-13.34623
948.101	45.6654
948.276	49.88122
948.45	43.55752
948.624	-49.16544
948.799	35.12624
948.973	56.20513
949.147	28.80304
949.321	49.88122
949.496	30.91075
949.67	22.48004
949.844	49.88122
950.018	7.72721
950.193	68.85356
950.367	30.91075
950.541	-0.70246
950.715	-7.02445
950.889	-19.66778
951.063	-2.80981
951.237	9.83468
951.411	16.15725
951.585	127.89025
951.759	-13.34623
951.933	81.50281
952.107	35.12624
952.281	66.74543
952.455	56.20513
952.629	43.55752
952.803	77.2863
952.977	-17.56062
953.151	43.55752
953.325	89.9361
953.499	108.91229
953.672	5.61975
953.846	83.6111
954.02	49.88122
954.194	35.12624
954.368	5.61975
954.541	35.12624
954.715	-36.52418
954.889	64.63732
955.062	47.77329
955.236	37.23403
955.41	75.17808
955.583	49.88122
955.757	47.77329
955.93	39.34183
956.104	81.50281
956.278	30.91075
956.451	132.10782
956.625	58.31314
956.798	64.63732
956.972	134.21663
957.145	37.23403
957.319	18.26482
957.492	68.85356
957.665	75.17808
957.839	37.23403
958.012	75.17808
958.185	64.63732
958.359	56.20513
958.532	35.12624
958.705	-11.23899
958.879	9.83468
959.052	1.40492
959.225	85.71941
959.398	81.50281
959.572	33.01848
959.745	-44.95179
959.918	56.20513
960.091	51.98916
960.264	-2.80981
960.438	26.69535
960.611	-36.52418
960.784	47.77329
960.957	45.6654
961.13	37.23403
961.303	-2.80981
961.476	5.61975
961.649	75.17808
961.822	62.52924
961.995	-11.23899
962.168	81.50281
962.341	20.37242
962.514	47.77329
962.686	41.44967
962.859	66.74543
963.032	-0.70246
963.205	41.44967
963.378	-28.09618
963.551	56.20513
963.723	49.88122
963.896	106.80373
964.069	68.85356
964.242	81.50281
964.414	-17.56062
964.587	94.15287
964.76	-28.09618
964.932	11.94218
965.105	127.89025
965.278	5.61975
965.45	16.15725
965.623	92.04447
965.795	3.51233
965.968	54.09713
966.14	100.4782
966.313	-2.80981
966.485	24.58768
966.658	20.37242
966.83	18.26482
967.003	102.58669
967.175	24.58768
967.348	30.91075
967.52	14.04971
967.692	18.26482
967.865	24.58768
968.037	43.55752
968.209	115.23808
968.382	1.40492
968.554	56.20513
968.726	-28.09618
968.898	47.77329
969.071	43.55752
969.243	33.01848
969.415	-49.16544
969.587	20.37242
969.759	87.82774
969.932	66.74543
970.104	79.39455
970.276	22.48004
970.448	24.58768
970.62	73.06989
970.792	-9.13173
970.964	47.77329
971.136	35.12624
971.308	24.58768
971.48	-13.34623
971.652	-36.52418
971.824	-19.66778
971.996	68.85356
972.168	49.88122
972.339	-28.09618
972.511	49.88122
972.683	-23.88203
972.855	-2.80981
973.027	39.34183
973.199	-19.66778
973.37	-4.91714
973.542	26.69535
973.714	47.77329
973.886	16.15725
974.057	43.55752
974.229	-32.31023
974.401	39.34183
974.572	60.42118
974.744	-25.98912
974.915	41.44967
975.087	62.52924
975.259	5.61975
975.43	7.72721
975.602	123.67278
975.773	-7.02445
975.945	-19.66778
976.116	58.31314
976.288	-11.23899
976.459	33.01848
976.63	18.26482
976.802	-4.91714
976.973	45.6654
977.145	37.23403
977.316	-55.48573
977.487	100.4782
977.659	14.04971
977.83	51.98916
978.001	24.58768
978.172	22.48004
978.344	-25.98912
978.515	56.20513
978.686	-2.80981
978.857	18.26482
979.028	33.01848
979.2	22.48004
979.371	68.85356
979.542	22.48004
979.713	-28.09618
979.884	94.15287
980.055	5.61975
980.226	102.58669
980.397	41.44967
980.568	60.42118
980.739	41.44967
980.91	39.34183
981.081	16.15725
981.252	-11.23899
981.423	51.98916
981.594	39.34183
981.765	24.58768
981.936	64.63732
982.106	16.15725
982.277	18.26482
982.448	47.77329
982.619	14.04971
982.79	-13.34623
982.96	-15.45344
983.131	-15.45344
983.302	47.77329
983.472	-55.48573
983.643	-2.80981
983.814	-0.70246
983.984	14.04971
984.155	-9.13173
984.326	35.12624
984.496	64.63732
984.667	-44.95179
984.837	30.91075
985.008	-68.12563
985.178	14.04971
985.349	-15.45344
985.519	-36.52418
985.69	-7.02445
985.86	30.91075
986.031	-63.91243
986.201	66.74543
986.371	35.12624
986.542	51.98916
986.712	22.48004
986.882	11.94218
987.053	30.91075
987.223	77.2863
987.393	35.12624
987.563	-11.23899
987.734	-17.56062
987.904	-19.66778
988.074	9.83468
988.244	-61.80579
988.414	45.6654
988.585	49.88122
988.755	-9.13173
988.925	-7.02445
989.095	64.63732
989.265	-38.63112
989.435	5.61975
989.605	24.58768
989.775	7.72721
989.945	-36.52418
990.115	30.91075
990.285	75.17808
990.455	-13.34623
990.625	37.23403
990.795	56.20513
990.965	-38.63112
991.134	-17.56062
991.304	9.83468
991.474	22.48004
991.644	-4.91714
991.814	22.48004
991.984	24.58768
992.153	7.72721
992.323	39.34183
992.493	56.20513
992.662	30.91075
992.832	-2.80981
993.002	75.17808
993.171	51.98916
993.341	-34.41722
993.511	22.48004
993.68	20.37242
993.85	28.80304
994.019	-59.69913
994.189	66.74543
994.358	56.20513
994.528	35.12624
994.697	24.58768
994.867	64.63732
995.036	7.72721
995.206	-28.09618
995.375	-21.77492
995.544	73.06989
995.714	-9.13173
995.883	60.42118
996.052	39.34183
996.222	18.26482
996.391	39.34183
996.56	41.44967
996.73	30.91075
996.899	-23.88203
997.068	-32.31023
997.237	1.40492
997.406	47.77329
997.576	102.58669
997.745	-36.52418
997.914	-2.80981
998.083	14.04971
998.252	18.26482
998.421	41.44967
998.59	-11.23899
998.759	73.06989
998.928	41.44967
999.097	1.40492
999.266	39.34183
999.435	20.37242
999.604	56.20513
999.773	5.61975
999.942	-19.66778
1000.111	16.15725
1000.28	-47.05863
1000.448	-2.80981
1000.617	-7.02445
1000.786	-2.80981
1000.955	30.91075
1001.124	-78.65817
1001.292	33.01848
1001.461	-61.80579
1001.63	64.63732
1001.798	7.72721
1001.967	30.91075
1002.136	73.06989
1002.304	-9.13173
1002.473	35.12624
1002.642	-28.09618
1002.81	24.58768
1002.979	-36.52418
1003.147	-7.02445
1003.316	81.50281
1003.484	28.80304
1003.653	14.04971
1003.821	-2.80981
1003.99	-66.01904
1004.158	30.91075
1004.327	-9.13173
1004.495	22.48004
1004.663	26.69535
1004.832	-17.56062
1005	33.01848
1005.168	7.72721
1005.337	-51.27223
1005.505	-42.84492
1005.673	-32.31023
1005.842	-28.09618
1006.01	-19.66778
1006.178	-72.33872
1006.346	-9.13173
1006.514	43.55752
1006.683	22.48004
1006.851	39.34183
1007.019	-36.52418
1007.187	11.94218
1007.355	22.48004
1007.523	-44.95179
1007.691	-19.66778
1007.859	-0.70246
1008.027	16.15725
1008.195	30.91075
1008.363	1.40492
1008.531	75.17808
1008.699	47.77329
1008.867	5.61975
1009.035	64.63732
1009.203	79.39455
1009.37	-15.45344
1009.538	5.61975
1009.706	14.04971
1009.874	73.06989
1010.042	30.91075
1010.209	-19.66778
1010.377	-28.09618
1010.545	-7.02445
1010.713	24.58768
1010.88	-25.98912
1011.048	58.31314
1011.216	96.26129
1011.383	51.98916
1011.551	-7.02445
1011.718	-19.66778
1011.886	16.15725
1012.054	-23.88203
1012.221	-7.02445
1012.389	35.12624
1012.556	-9.13173
1012.724	16.15725
1012.891	-28.09618
1013.058	5.61975
1013.226	-7.02445
1013.393	62.52924
1013.561	-4.91714
1013.728	47.77329
1013.895	-11.23899
1014.063	-28.09618
1014.23	-15.45344
1014.397	-9.13173
1014.565	5.61975
1014.732	33.01848
1014.899	14.04971
1015.066	33.01848
1015.233	-59.69913
1015.401	-42.84492
1015.568	-7.02445
1015.735	47.77329
1015.902	9.83468
1016.069	-7.02445
1016.236	3.51233
1016.403	-23.88203
1016.57	24.58768
1016.737	5.61975
1016.904	7.72721
1017.071	-11.23899
1017.238	33.01848
1017.405	-19.66778
1017.572	64.63732
1017.739	41.44967
1017.906	-36.52418
1018.073	92.04447
1018.24	-25.98912
1018.407	-11.23899
1018.573	9.83468
1018.74	75.17808
1018.907	-40.73804
1019.074	64.63732
1019.241	73.06989
1019.407	77.2863
1019.574	24.58768
1019.741	-25.98912
1019.907	41.44967
1020.074	-44.95179
1020.241	-7.02445
1020.407	22.48004
1020.574	-7.02445
1020.74	16.15725
1020.907	49.88122
1021.073	-42.84492
1021.24	28.80304
1021.406	47.77329
1021.573	24.58768
1021.739	-36.52418
1021.906	-19.66778
1022.072	37.23403
1022.239	35.12624
1022.405	-15.45344
1022.571	18.26482
1022.738	-4.91714
1022.904	-66.01904
1023.07	16.15725
1023.237	43.55752
1023.403	14.04971
1023.569	-28.09618
1023.735	14.04971
1023.902	-7.02445
1024.068	1.40492
1024.234	-4.91714
1024.4	60.42118
1024.566	18.26482
1024.732	-9.13173
1024.898	39.34183
1025.065	-19.66778
1025.231	-61.80579
1025.397	-17.56062
1025.563	35.12624
1025.729	-25.98912
1025.895	30.91075
1026.061	-2.80981
1026.227	-49.16544
1026.392	5.61975
1026.558	60.42118
1026.724	-23.88203
1026.89	45.6654
1027.056	39.34183
1027.222	-80.7646
1027.388	-84.97739
1027.553	-53.37899
1027.719	39.34183
1027.885	-7.02445
1028.051	-11.23899
1028.216	58.31314
1028.382	-57.59244
1028.548	37.23403
1028.713	58.31314
1028.879	43.55752
1029.045	-15.45344
1029.21	-74.44523
1029.376	16.15725
1029.541	35.12624
1029.707	-23.88203
1029.873	47.77329
1030.038	-87.08375
1030.204	-7.02445
1030.369	-17.56062
1030.534	-28.09618
1030.7	30.91075
1030.865	77.2863
1031.031	5.61975
1031.196	28.80304
1031.361	-23.88203
1031.527	22.48004
1031.692	-28.09618
1031.857	14.04971
1032.023	-47.05863
1032.188	-25.98912
1032.353	5.61975
1032.518	-7.02445
1032.684	-17.56062
1032.849	75.17808
1033.014	49.88122
1033.179	-59.69913
1033.344	-11.23899
1033.509	-34.41722
1033.674	-11.23899
1033.839	11.94218
1034.004	-28.09618
1034.17	-25.98912
1034.335	16.15725
1034.5	-23.88203
1034.664	1.40492
1034.829	18.26482
1034.994	1.40492
1035.159	-34.41722
1035.324	7.72721
1035.489	-0.70246
1035.654	-19.66778
1035.819	-44.95179
1035.984	-42.84492
1036.148	26.69535
1036.313	-2.80981
1036.478	-74.44523
1036.643	20.37242
1036.807	30.91075
1036.972	66.74543
1037.137	-11.23899
1037.301	20.37242
1037.466	-28.09618
1037.631	-51.27223
1037.795	41.44967
1037.96	-63.91243
1038.124	1.40492
1038.289	49.88122
1038.454	-2.80981
1038.618	-95.5089
1038.783	26.69535
1038.947	-25.98912
1039.111	-23.88203
1039.276	18.26482
1039.44	-36.52418
1039.605	16.15725
1039.769	-0.70246
1039.933	1.40492
1040.098	9.83468
1040.262	-17.56062
1040.426	14.04971
1040.591	-34.41722
1040.755	-49.16544
1040.919	26.69535
1041.083	41.44967
1041.248	64.63732
1041.412	-28.09618
1041.576	-53.37899
1041.74	-78.65817
1041.904	35.12624
1042.068	-72.33872
1042.232	7.72721
1042.397	77.2863
1042.561	-34.41722
1042.725	3.51233
1042.889	5.61975
1043.053	9.83468
1043.217	-11.23899
1043.381	-47.05863
1043.544	-19.66778
1043.708	-25.98912
1043.872	51.98916
1044.036	9.83468
1044.2	-25.98912
1044.364	-49.16544
1044.528	47.77329
1044.691	22.48004
1044.855	-51.27223
1045.019	37.23403
1045.183	41.44967
1045.346	75.17808
1045.51	-17.56062
1045.674	24.58768
1045.837	22.48004
1046.001	-59.69913
1046.165	26.69535
1046.328	-13.34623
1046.492	106.80373
1046.655	54.09713
1046.819	-32.31023
1046.983	-19.66778
1047.146	-78.65817
1047.31	1.40492
1047.473	-15.45344
1047.636	-23.88203
1047.8	-28.09618
1047.963	5.61975
1048.127	30.91075
1048.29	-7.02445
