Data from absorb_only_2.23.25_USB4F045381__0__0105.txt Node

Date: Sun Feb 23 19:11:45 EST 2025
User: ssocol
Spectrometer: USB4F04538
Trigger mode: 4
Integration Time (sec): 2.600000E-3
Scans to average: 1
Electric dark correction enabled: true
Nonlinearity correction enabled: true
Boxcar width: 0
XAxis mode: Wavelengths
Number of Pixels in Spectrum: 3648
>>>>>Begin Spectral Data<<<<<
345.52	-54.60793
345.736	-54.60793
345.952	-54.60793
346.168	-8.2537
346.384	-65.14129
346.6	-46.18078
346.816	23.35822
347.032	21.25059
347.248	-29.32529
347.464	-10.36097
347.68	-63.03467
347.896	-4.03909
348.112	21.25059
348.328	29.68125
348.544	27.57355
348.76	17.0354
348.975	12.82031
349.191	-35.64629
349.407	-35.64629
349.623	-73.56752
349.839	-41.96706
350.055	12.82031
350.27	17.0354
350.486	19.14299
350.702	46.54368
350.918	59.19149
351.133	25.46587
351.349	19.14299
351.565	-31.43231
351.781	-67.24789
351.996	-4.03909
352.212	21.25059
352.428	67.62381
352.644	-29.32529
352.859	6.49786
353.075	8.60532
353.291	4.39042
353.506	12.82031
353.722	46.54368
353.938	-8.2537
354.153	46.54368
354.369	-58.82135
354.584	-71.461
354.8	50.75953
355.016	80.27299
355.231	-12.46822
355.447	38.11228
355.662	14.92785
355.878	-29.32529
356.093	-12.46822
356.309	67.62381
356.524	21.25059
356.74	-39.86016
356.955	-16.68263
357.171	57.08346
357.386	38.11228
357.602	-50.3944
357.817	21.25059
358.033	-44.07393
358.248	33.89672
358.464	12.82031
358.679	-29.32529
358.895	25.46587
359.11	-4.03909
359.325	-33.53931
359.541	21.25059
359.756	-46.18078
359.972	4.39042
360.187	14.92785
360.402	25.46587
360.618	-46.18078
360.833	48.65159
361.048	21.25059
361.264	-4.03909
361.479	23.35822
361.694	-1.93175
361.909	8.60532
362.125	-29.32529
362.34	99.24826
362.555	10.7128
362.77	29.68125
362.986	-37.75323
363.201	-4.03909
363.416	46.54368
363.631	23.35822
363.847	-14.57544
364.062	-4.03909
364.277	14.92785
364.492	17.0354
364.707	-77.78048
364.922	-46.18078
365.138	-10.36097
365.353	-107.26832
365.568	2.283
365.783	29.68125
365.998	4.39042
366.213	38.11228
366.428	-46.18078
366.643	82.38126
366.858	8.60532
367.073	36.00449
367.288	57.08346
367.503	12.82031
367.718	-10.36097
367.933	29.68125
368.148	27.57355
368.363	10.7128
368.578	-16.68263
368.793	21.25059
369.008	52.86748
369.223	-25.11117
369.438	-23.00407
369.653	48.65159
369.868	-50.3944
370.083	-6.14641
370.298	67.62381
370.513	-50.3944
370.728	19.14299
370.943	42.32793
371.157	-4.03909
371.372	-27.21824
371.587	-46.18078
371.802	21.25059
372.017	46.54368
372.232	71.84011
372.446	48.65159
372.661	14.92785
372.876	-1.93175
373.091	-79.88693
373.306	80.27299
373.52	44.4358
373.735	-12.46822
373.95	-12.46822
374.165	38.11228
374.379	31.78897
374.594	-50.3944
374.809	38.11228
375.023	54.97546
375.238	8.60532
375.453	6.49786
375.667	63.4076
375.882	57.08346
376.097	-39.86016
376.311	31.78897
376.526	21.25059
376.741	29.68125
376.955	2.283
377.17	10.7128
377.384	48.65159
377.599	21.25059
377.813	19.14299
378.028	-18.7898
378.242	-27.21824
378.457	-48.28761
378.672	-50.3944
378.886	-37.75323
379.101	-10.36097
379.315	99.24826
379.53	-18.7898
379.744	17.0354
379.958	54.97546
380.173	50.75953
380.387	-20.89695
380.602	2.283
380.816	8.60532
381.031	-46.18078
381.245	-35.64629
381.459	54.97546
381.674	31.78897
381.888	40.22009
382.103	76.05651
382.317	-37.75323
382.531	-4.03909
382.746	-4.03909
382.96	31.78897
383.174	-16.68263
383.388	-1.93175
383.603	25.46587
383.817	23.35822
384.031	76.05651
384.246	-20.89695
384.46	-25.11117
384.674	29.68125
384.888	-10.36097
385.103	71.84011
385.317	-25.11117
385.531	0.17561
385.745	0.17561
385.959	99.24826
386.174	31.78897
386.388	4.39042
386.602	90.81458
386.816	4.39042
387.03	-29.32529
387.244	6.49786
387.458	38.11228
387.672	46.54368
387.887	17.0354
388.101	52.86748
388.315	52.86748
388.529	50.75953
388.743	38.11228
388.957	17.0354
389.171	42.32793
389.385	-25.11117
389.599	29.68125
389.813	71.84011
390.027	-1.93175
390.241	10.7128
390.455	-12.46822
390.669	33.89672
390.883	46.54368
391.097	97.13981
391.311	-6.14641
391.525	21.25059
391.738	31.78897
391.952	-12.46822
392.166	4.39042
392.38	-18.7898
392.594	4.39042
392.808	0.17561
393.022	29.68125
393.236	-16.68263
393.449	10.7128
393.663	-27.21824
393.877	46.54368
394.091	17.0354
394.305	54.97546
394.518	8.60532
394.732	-18.7898
394.946	73.9483
395.16	54.97546
395.373	-29.32529
395.587	-8.2537
395.801	0.17561
396.015	25.46587
396.228	-63.03467
396.442	-67.24789
396.656	67.62381
396.869	12.82031
397.083	29.68125
397.297	59.19149
397.51	29.68125
397.724	29.68125
397.938	29.68125
398.151	-58.82135
398.365	4.39042
398.578	0.17561
398.792	17.0354
399.005	17.0354
399.219	76.05651
399.433	46.54368
399.646	10.7128
399.86	31.78897
400.073	-14.57544
400.287	14.92785
400.5	42.32793
400.714	29.68125
400.927	33.89672
401.141	50.75953
401.354	61.29953
401.567	-6.14641
401.781	25.46587
401.994	57.08346
402.208	52.86748
402.421	25.46587
402.635	54.97546
402.848	27.57355
403.061	25.46587
403.275	67.62381
403.488	69.73195
403.701	82.38126
403.915	-29.32529
404.128	59.19149
404.341	48.65159
404.555	4.39042
404.768	27.57355
404.981	48.65159
405.195	-54.60793
405.408	59.19149
405.621	50.75953
405.834	0.17561
406.048	25.46587
406.261	88.70622
406.474	33.89672
406.687	57.08346
406.9	99.24826
407.114	59.19149
407.327	80.27299
407.54	23.35822
407.753	25.46587
407.966	-8.2537
408.179	71.84011
408.392	19.14299
408.605	67.62381
408.819	-4.03909
409.032	57.08346
409.245	42.32793
409.458	31.78897
409.671	101.35674
409.884	76.05651
410.097	25.46587
410.31	63.4076
410.523	101.35674
410.736	17.0354
410.949	67.62381
411.162	38.11228
411.375	71.84011
411.588	33.89672
411.801	114.00805
412.014	44.4358
412.227	54.97546
412.44	143.53082
412.653	109.79086
412.865	6.49786
413.078	92.92297
413.291	114.00805
413.504	17.0354
413.717	44.4358
413.93	101.35674
414.143	21.25059
414.356	31.78897
414.568	97.13981
414.781	50.75953
414.994	52.86748
415.207	78.16474
415.42	0.17561
415.632	149.85767
415.845	147.7487
416.058	65.5157
416.271	38.11228
416.483	73.9483
416.696	27.57355
416.909	-16.68263
417.121	181.49477
417.334	90.81458
417.547	122.44269
417.759	14.92785
417.972	40.22009
418.185	181.49477
418.397	139.31302
418.61	46.54368
418.823	97.13981
419.035	173.05775
419.248	59.19149
419.46	10.7128
419.673	160.40285
419.885	38.11228
420.098	80.27299
420.311	118.22533
420.523	105.57375
420.736	185.7134
420.948	147.7487
421.161	122.44269
421.373	194.1509
421.586	76.05651
421.798	63.4076
422.01	67.62381
422.223	122.44269
422.435	38.11228
422.648	105.57375
422.86	99.24826
423.073	132.98649
423.285	101.35674
423.497	82.38126
423.71	151.96666
423.922	145.63975
424.134	151.96666
424.347	158.29377
424.559	168.83937
424.771	38.11228
424.984	132.98649
425.196	232.12365
425.408	192.04149
425.621	223.68471
425.833	122.44269
426.045	181.49477
426.257	236.34324
426.47	175.16697
426.682	202.58873
426.894	97.13981
427.106	194.1509
427.318	130.87769
427.531	116.11668
427.743	156.18471
427.955	132.98649
428.167	177.27622
428.379	183.60407
428.591	143.53082
428.804	223.68471
429.016	200.47924
429.228	132.98649
429.44	206.80777
429.652	249.00247
429.864	259.55236
430.076	274.323
430.288	202.58873
430.5	234.23344
430.712	234.23344
430.924	240.56291
431.136	208.91732
431.348	284.87402
431.56	244.78265
431.772	329.19331
431.984	249.00247
432.196	303.86702
432.408	299.64623
432.62	291.20486
432.832	261.6624
433.044	324.97208
433.256	305.97745
433.468	284.87402
433.679	282.76378
433.891	335.52528
434.103	362.96564
434.315	409.40968
434.527	324.97208
434.739	367.18749
434.95	350.30049
435.162	289.09456
435.374	312.30883
435.586	400.96472
435.798	339.74668
436.009	481.20214
436.221	320.75093
436.433	483.31395
436.645	356.63299
436.856	468.53159
437.068	398.85351
437.28	441.0806
437.491	436.85761
437.703	430.52323
437.915	519.21698
438.126	485.42577
438.338	409.40968
438.55	514.99288
438.761	531.88963
438.973	544.56279
439.184	485.42577
439.396	574.1354
439.608	392.52001
439.819	563.57345
440.031	409.40968
440.242	453.74996
440.454	656.52967
440.665	474.86679
440.877	578.36028
441.088	584.69769
441.3	614.27381
441.511	612.16115
441.723	588.92269
441.934	603.71062
442.146	616.38649
442.357	582.5852
442.569	569.91058
442.78	588.92269
442.991	624.83732
443.203	512.88085
443.414	607.93586
443.626	747.39549
443.837	677.6594
444.048	783.32462
444.26	728.37539
444.471	717.80903
444.682	711.46935
444.894	741.05536
445.105	588.92269
445.316	798.1198
445.528	726.26209
445.739	713.58257
445.95	785.43819
446.161	802.34708
446.373	781.21107
446.584	815.02915
446.795	800.23344
447.006	781.21107
447.217	798.1198
447.429	857.30507
447.64	732.602
447.851	831.93909
448.062	798.1198
448.273	753.73571
448.484	823.48405
448.695	781.21107
448.907	798.1198
449.118	899.58443
449.329	821.37031
449.54	1011.63935
449.751	893.24232
449.962	920.72532
450.173	950.32382
450.384	1041.24186
450.595	1060.27265
450.806	1045.47089
451.017	910.15478
451.228	1047.58541
451.439	1121.59697
451.65	986.26673
451.861	1136.4
452.072	1178.6955
452.283	1176.58068
452.494	1178.6955
452.705	1144.85897
452.915	1411.3411
453.126	1111.02352
453.337	1174.46588
453.548	1187.15478
453.759	1356.35014
453.97	1307.70499
454.181	1284.44026
454.391	1267.52062
454.602	1445.18191
454.813	1426.14645
455.024	1550.93407
455.235	1383.84555
455.445	1544.58899
455.656	1631.30379
455.867	1527.66875
456.078	1419.8013
456.288	1443.06686
456.499	1430.37655
456.71	1639.76359
456.921	1487.48294
457.131	1800.49086
457.342	1559.39415
457.553	1550.93407
457.763	1643.99348
457.974	1770.88474
458.184	1614.38407
458.395	1872.38785
458.606	1855.4714
458.816	2047.87459
459.027	2007.7067
459.237	2033.07618
459.448	2113.4062
459.659	1885.07497
459.869	2001.36418
460.08	2238.10682
460.29	2157.79445
460.501	2259.23957
460.711	2235.9935
460.922	2170.47615
461.132	2362.77652
461.343	2219.08659
461.553	2288.82389
461.764	2449.39101
461.974	2388.12891
462.184	2345.87412
462.395	2510.64399
462.605	2578.22235
462.816	2489.52333
463.026	2565.55232
463.236	2643.67723
463.447	2812.53633
463.657	2633.12079
463.867	3080.41542
464.078	2772.43999
464.288	2928.57616
464.498	2888.49456
464.709	3223.74448
464.919	2880.05567
465.129	3124.68676
465.339	3038.24579
465.55	3175.27393
465.76	3059.33139
465.97	3388.05646
466.18	3166.84339
466.391	3449.11982
466.601	3215.31545
466.811	3423.85403
467.021	3305.91349
467.231	3752.10241
467.441	3375.4208
467.651	3840.39774
467.862	3779.43561
468.072	4010.58225
468.282	3781.53803
468.492	3806.76551
468.702	4212.10782
468.912	4123.96408
469.122	4275.04474
469.332	4283.43487
469.542	4191.12459
469.752	4549.64107
469.962	4386.18604
470.172	4597.81369
470.382	4765.27832
470.592	4788.29341
470.802	4660.62978
471.012	4748.53835
471.222	4915.87253
471.432	5024.56114
471.642	5120.65671
471.852	5446.17885
472.062	5080.97101
472.272	5708.68332
472.482	5348.16484
472.691	5712.84704
472.901	5479.53348
473.111	5664.95857
473.321	5798.18248
473.531	5972.89218
473.741	5954.18124
473.95	6359.15844
474.16	5995.7585
474.37	6274.08343
474.58	6269.93243
474.79	6622.43516
474.999	6487.73399
475.209	6398.57013
475.419	6802.57521
475.628	6835.68556
475.838	6827.40852
476.048	7162.3395
476.258	7056.96189
476.467	7333.71309
476.677	7535.86386
476.886	7535.86386
477.096	7653.34627
477.306	7537.92556
477.515	7554.41833
477.725	7628.61888
477.935	7805.76464
478.144	7863.40658
478.354	7661.58805
478.563	8336.28992
478.773	8048.57485
478.982	8401.99921
479.192	8471.79369
479.401	8551.82488
479.611	8525.15102
479.82	8642.08204
480.03	8916.73625
480.239	9006.85079
480.449	8875.76374
480.658	9182.88626
480.868	9297.44621
481.077	9303.58187
481.287	9211.53119
481.496	9536.62771
481.705	9751.09248
481.915	9881.73127
482.124	9847.03631
482.333	9861.32299
482.543	10159.14011
482.752	10293.67159
482.961	10089.81258
483.171	10446.47743
483.38	10030.66742
483.589	10639.92758
483.799	10660.2842
484.008	10910.57284
484.217	10780.36365
484.426	10949.21963
484.636	11166.78738
484.845	11172.88563
485.054	11022.434
485.263	11575.16861
485.472	11300.9272
485.682	11526.42737
485.891	11904.03678
486.1	11567.04544
486.309	12007.52335
486.518	12044.04306
486.727	12037.95661
486.936	12236.7449
487.146	12246.88525
487.355	12248.9133
487.564	12325.97386
487.773	12674.65344
487.982	12445.60074
488.191	12581.42038
488.4	12692.8932
488.609	13061.64508
488.818	13059.61944
489.027	13132.5394
489.236	13112.28447
489.445	13486.92989
489.654	13112.28447
489.863	13521.34984
490.072	13470.73189
490.281	13968.72257
490.49	13776.43133
490.698	13699.50747
490.907	13922.17011
491.116	14314.79174
491.325	14031.46507
491.534	14268.24789
491.743	14078.01447
491.952	14355.2639
492.16	14343.12232
492.369	14604.15448
492.578	14705.32424
492.787	14925.86722
492.996	14877.30794
493.204	14978.4728
493.413	14909.68082
493.622	14784.23507
493.831	15294.10365
494.039	15152.47455
494.248	15431.68731
494.457	15421.5708
494.665	15569.27321
494.874	15397.29123
495.083	15755.42432
495.291	15903.13722
495.5	15589.50668
495.709	16133.82602
495.917	15808.0337
496.126	15909.20775
496.335	16311.91559
496.543	16451.56392
496.752	16095.37656
496.96	16407.03735
497.169	16253.22549
497.377	16500.13948
497.586	16619.55962
497.794	16761.25472
498.003	16566.93286
498.211	16813.88731
498.42	16534.5479
498.628	16929.28005
498.837	17034.55801
499.045	17249.18618
499.254	16836.15544
499.462	17249.18618
499.671	17362.58784
499.879	17368.66319
500.087	17330.1864
500.296	17328.16134
500.504	17473.97376
500.713	17631.95563
500.921	17812.24141
501.129	17804.13811
501.338	17638.03225
501.546	18095.89222
501.754	17820.34477
501.962	18176.94816
502.171	17972.29302
502.379	18112.10294
502.587	18276.24969
502.795	17976.34524
503.004	17964.18861
503.212	18740.4529
503.42	18339.07772
503.628	18491.096
503.837	18387.72125
504.045	18902.6682
504.253	18677.60128
504.461	18866.16754
504.669	18847.91769
504.877	19024.3465
505.085	18910.77964
505.294	19482.79997
505.502	19286.00438
505.71	19580.1978
505.918	19263.68981
506.126	19460.48098
506.334	18912.80751
506.542	19553.81827
506.75	19277.88993
506.958	19718.19453
507.166	19618.75377
507.374	19880.56844
507.582	19913.04644
507.79	19837.94269
507.998	19874.47893
508.206	19967.85552
508.414	19872.4491
508.622	20087.63416
508.83	19923.19604
509.037	20042.96923
509.245	20077.48286
509.453	20213.51903
509.661	20221.64119
509.869	20562.83253
510.077	20343.48165
510.285	20313.02012
510.492	20698.93581
510.7	20800.5176
510.908	20412.53128
511.116	20589.23916
511.324	20355.66653
511.531	20700.96735
511.739	20418.62413
511.947	20788.32724
512.155	20652.21168
512.362	21019.96952
512.57	20847.2487
512.778	21034.19491
512.985	20965.10204
513.193	21178.49233
513.401	21471.21452
513.608	21359.40107
513.816	21276.05711
514.024	21139.87551
514.231	21487.47929
514.439	21456.98304
514.646	21489.51241
514.854	21550.50771
515.061	21101.26017
515.269	21906.38396
515.477	21906.38396
515.684	21845.36817
515.892	21875.87563
516.099	22233.89374
516.307	22227.79019
516.514	22296.96575
516.722	22018.25519
516.929	22160.6533
517.136	22221.68667
517.344	22404.80669
517.551	22205.41078
517.759	22362.07604
517.966	22502.48275
518.173	22219.65217
518.381	22414.98089
518.588	22465.85325
518.796	22610.34298
519.003	22787.41801
519.21	22614.41337
519.418	22771.13415
519.625	22608.30779
519.832	22771.13415
520.039	23080.56476
520.247	23202.72964
520.454	23249.56262
520.661	23571.33018
520.868	23426.72875
521.076	23495.97256
521.283	23540.77928
521.49	23603.91855
521.697	23174.22345
521.904	23518.37574
522.112	23677.24523
522.319	23836.13295
522.526	23455.24047
522.733	24145.8107
522.94	24092.8349
523.147	24245.65472
523.354	24153.96099
523.561	24300.67359
523.768	24304.74914
523.975	24221.20252
524.183	24174.3369
524.39	24325.12704
524.597	24424.98257
524.804	24516.69212
525.011	24316.97585
525.218	24555.41548
525.425	24954.9293
525.632	24814.27359
525.838	24730.70091
526.045	24706.24139
526.252	24877.46535
526.459	24751.08412
526.666	24832.61935
526.873	25024.24198
527.08	25199.57392
527.287	25440.1718
527.494	24918.23543
527.701	25456.48457
527.907	25427.9373
528.114	25254.62336
528.321	25403.46853
528.528	25905.13568
528.735	25705.27041
528.941	25652.24801
529.148	25444.24998
529.355	25945.92671
529.562	25582.91302
529.768	25852.10844
529.975	25888.81947
530.182	26180.489
530.388	25582.91302
530.595	26049.9471
530.802	26035.66952
531.008	26545.63491
531.215	26455.87356
531.422	26506.87395
531.628	26525.23434
531.835	26221.28479
532.042	26410.99403
532.248	26900.62925
532.455	26792.49403
532.661	26823.09793
532.868	26557.87533
533.074	26796.57453
533.281	26708.84508
533.487	27072.02155
533.694	26849.62157
533.9	27598.49964
534.107	26596.63704
534.313	27578.09194
534.52	27025.09173
534.726	27182.20745
534.933	27271.99144
535.139	27427.0788
535.345	27400.55018
535.552	27408.71281
535.758	27496.46237
535.965	27720.94837
536.171	28004.63756
536.377	27882.17906
536.584	27827.07408
536.79	27941.36682
536.996	27763.80645
537.203	28110.77156
537.409	27925.03907
537.615	28708.85091
537.821	28172.00409
538.028	28512.88307
538.234	28282.22513
538.44	28414.9028
538.646	27957.69465
538.853	28357.74879
539.059	28494.51158
539.265	28625.15513
539.471	28598.61781
539.677	28359.78999
539.883	28382.24326
540.09	28184.25071
540.296	28625.15513
540.502	29417.27311
540.708	29276.39531
540.914	29147.7721
541.12	29227.39551
541.326	29470.3588
541.532	29247.81202
541.738	29341.72933
541.944	28886.4551
542.15	29533.65421
542.356	29376.43846
542.562	29795.01391
542.768	29635.74574
542.974	29821.55925
543.18	29727.63041
543.386	29978.79319
543.592	30019.63427
543.798	30027.80253
544.004	30154.41307
544.21	30364.7599
544.415	29966.54096
544.621	30538.35684
544.827	29972.66707
545.033	30787.53568
545.239	30076.81254
545.445	31004.05168
545.651	30348.42183
545.856	30810.00359
546.062	30711.96297
546.268	30542.44158
546.474	30513.84849
546.679	29984.91932
546.885	30068.64416
547.091	30107.44412
547.297	30381.09806
547.502	30752.81285
547.708	30530.18737
547.914	30599.62852
548.119	30818.17379
548.325	30579.2045
548.531	30940.72933
548.736	30891.70651
548.942	30838.59936
549.147	30566.95015
549.353	30869.23799
549.559	31292.08408
549.764	31016.30778
549.97	31308.42725
550.175	31347.24269
550.381	31743.60289
550.586	31381.97278
550.792	31712.95417
550.997	32066.4614
551.203	31811.0315
551.408	31992.89451
551.614	31905.02624
551.819	32107.333
552.025	32189.07864
552.23	31451.43436
552.435	31880.50549
552.641	32618.29957
552.846	32242.21508
553.052	32107.333
553.257	32368.93082
553.462	32636.69699
553.668	32485.43496
553.873	32058.28717
554.078	32561.06438
554.283	32309.65953
554.489	32571.28482
554.694	32381.19407
554.899	32487.47896
555.105	32532.44748
555.31	32657.13879
555.515	32708.24434
555.72	32642.8295
555.925	32828.8595
556.131	33137.59334
556.336	32569.24073
556.541	33479.11452
556.746	33196.89364
556.951	33070.11651
557.156	32871.79243
557.361	33121.23505
557.567	33401.3959
557.772	33342.08724
557.977	33421.84775
558.182	33522.06617
558.387	33745.02804
558.592	33869.82184
558.797	33385.03464
559.002	33395.26041
559.207	33382.9895
559.412	33084.42953
559.617	33329.8168
559.822	33830.9503
560.027	33718.43424
560.232	33990.53616
560.437	33980.30566
560.642	33965.98311
560.847	34041.68998
561.051	34115.35543
561.256	34035.5514
561.461	34506.27321
561.666	34397.78444
561.871	34197.2115
562.076	34547.21532
562.281	34614.77339
562.485	34127.63347
562.69	34133.77253
562.895	34053.96723
563.1	34094.89234
563.305	34219.72296
563.509	34340.4741
563.714	34274.98031
563.919	34575.87577
564.123	34056.01345
564.328	34281.12019
564.533	34457.14483
564.737	34072.38335
564.942	34645.4831
565.147	34948.53744
565.351	34829.76147
565.556	34704.85789
565.761	34516.50859
565.965	34332.28716
566.17	34792.903
566.374	35134.92372
566.579	34852.2868
566.784	34788.8077
566.988	35034.55711
567.193	34811.33206
567.397	34880.95617
567.602	35477.07662
567.806	35112.39146
568.011	35272.17816
568.215	35843.9745
568.42	35343.88694
568.624	35526.25979
568.828	35302.90976
569.033	35475.02739
569.237	35470.92893
569.442	35753.77133
569.646	35327.49583
569.85	35606.18883
570.055	35511.91439
570.259	35530.35852
570.463	35612.33755
570.668	35628.73436
570.872	35081.66657
571.076	35577.49544
571.281	35932.13798
571.485	36094.14021
571.689	36851.33849
571.893	36687.10215
572.098	36145.41429
572.302	36289.00155
572.506	36366.96137
572.71	36155.66955
572.914	36163.87387
573.119	36293.10447
573.323	36145.41429
573.527	36426.46303
573.731	36884.19093
573.935	36254.12764
574.139	36046.97128
574.343	35907.53318
574.547	36087.98756
574.751	36397.73743
574.955	36223.358
575.159	36531.1167
575.364	36711.73488
575.568	36416.20375
575.772	36258.23036
575.976	36434.67057
576.18	36496.23031
576.383	37393.634
576.587	37597.12655
576.791	36633.73448
576.995	37196.37787
577.199	37377.19339
577.403	36806.16922
577.607	37255.95854
577.811	37572.4568
578.015	37227.19469
578.219	37208.70441
578.422	37013.56453
578.626	36988.91982
578.83	37159.39983
579.034	37229.24921
579.238	37539.56553
579.442	37305.27131
579.645	37718.43575
579.849	37574.51257
580.053	38387.17064
580.257	37753.39432
580.46	37827.43181
580.664	37860.34069
580.868	37473.78885
581.071	37640.30129
581.275	37687.59185
581.479	37722.54841
581.682	37736.94295
581.886	37806.8648
582.09	38173.07947
582.293	38982.60124
582.497	38486.01359
582.7	38241.0022
582.904	38142.20855
583.107	38733.21072
583.311	38451.00439
583.515	38409.82036
583.718	38496.31089
583.922	38393.34773
584.125	38290.40639
584.329	38422.1752
584.532	37963.19429
584.735	38403.64306
584.939	37952.90801
585.142	38035.20397
585.346	38461.30095
585.549	38896.02048
585.753	38679.64031
585.956	39176.43793
586.159	38788.84808
586.363	39576.75673
586.566	39865.88302
586.769	39081.57112
586.973	38650.79726
587.176	38970.23155
587.379	38922.81752
587.582	38988.78622
587.786	38724.96872
587.989	39492.122
588.192	39442.58758
588.395	39651.08421
588.599	39816.30409
588.802	39977.45775
589.005	39477.67387
589.208	39673.79803
589.411	39273.38824
589.615	39357.97959
589.818	39537.53364
590.021	39694.44804
590.224	39801.84471
590.427	40235.85191
590.63	40254.4628
590.833	40142.81063
591.036	39890.67475
591.239	39855.55358
591.442	39467.35407
591.645	39890.67475
591.848	39979.52424
592.051	39915.46799
592.254	39421.94994
592.457	39490.05795
592.66	39657.27877
592.863	39847.29022
593.066	40004.32294
593.269	40523.38632
593.472	40175.88945
593.675	40896.05545
593.878	40585.4723
594.081	40049.7912
594.284	40231.71627
594.486	40693.11206
594.689	40515.10895
594.892	40382.69532
595.095	40954.05962
595.298	40738.6612
595.5	41300.20403
595.703	41418.42506
595.906	41267.02619
596.109	41563.66247
596.311	41146.78204
596.514	40796.64083
596.717	40736.59066
596.92	41331.31105
597.122	41491.03633
597.325	41061.80589
597.528	41256.65874
597.73	42211.74177
597.933	41588.5663
598.136	41866.7793
598.338	41316.79411
598.541	41470.28874
598.743	41750.48422
598.946	41640.45493
599.148	42055.84225
599.351	41542.91063
599.554	42234.61304
599.756	41370.71714
599.959	41495.186
600.161	41248.36499
600.363	42095.33006
600.566	42172.24048
600.768	41924.94147
600.971	42193.03006
601.173	42178.47722
601.376	41929.09628
601.578	42430.12149
601.78	42178.47722
601.983	42251.24765
602.185	42373.95321
602.388	42411.39769
602.59	42338.5928
602.792	42436.36299
602.995	41931.17371
603.197	41976.88026
603.399	42182.63511
603.601	41821.0873
603.804	41557.43679
604.006	41688.19924
604.208	41935.3286
604.41	41679.89542
604.613	41439.16963
604.815	41648.75782
605.017	42226.29603
605.219	41964.41424
605.421	42003.89153
605.623	42400.99603
605.826	42582.03098
606.028	42596.60127
606.23	42457.16882
606.432	42290.75814
606.634	42396.83545
606.836	42392.67493
607.038	42400.99603
607.24	42459.24948
607.442	42453.00755
607.644	42423.88011
607.846	42652.80693
608.048	43179.93986
608.25	43121.55934
608.452	42326.11354
608.654	42184.71408
608.856	41306.42522
609.058	41927.01887
609.26	42039.21716
609.462	42761.08166
609.664	42567.46132
609.866	42301.1564
610.067	42197.18813
610.269	42184.71408
610.471	41989.34674
610.673	42041.29525
610.875	42253.32704
611.077	42348.99254
611.278	42301.1564
611.48	42702.77549
611.682	42615.33544
611.884	43098.627
612.085	42961.06668
612.287	43188.28078
612.489	42690.28265
612.69	42829.81283
612.892	42986.07335
613.094	43169.514
613.295	42319.87408
613.497	42911.05904
613.699	42750.66909
613.9	42673.62625
614.102	42026.74888
614.304	42008.0473
614.505	42101.56539
614.707	42168.08272
614.908	42084.93809
615.11	42625.74376
615.311	42636.15241
615.513	42450.92694
615.714	42475.89518
615.916	42996.49336
616.117	42765.24678
616.319	43409.39339
616.52	43131.98367
616.722	43123.64418
616.923	43787.30386
617.124	43469.91276
617.326	42965.23433
617.527	43081.94994
617.729	43067.35822
617.93	42958.98288
618.131	43004.82961
618.333	42419.71925
618.534	43194.53662
618.735	43250.84455
618.937	42607.00901
619.138	43094.45766
619.339	42698.61116
619.54	42936.06191
619.742	43346.79906
619.943	42963.1505
620.144	42607.00901
620.345	43269.61602
620.546	43273.78761
620.748	43050.68275
620.949	43469.91276
621.15	43432.34768
621.351	43106.96585
621.552	42611.1722
621.753	42554.97355
621.954	43075.69627
622.155	42384.35404
622.356	43914.76628
622.558	43202.87792
622.759	43167.42887
622.96	43102.7964
623.161	43209.13404
623.362	42611.1722
623.563	43196.62192
623.764	43144.4933
623.965	43202.87792
624.166	42927.72741
624.366	42777.74245
624.567	42731.92729
624.768	43219.56116
624.969	42321.95389
625.17	42344.8326
625.371	42644.47957
625.572	42825.6469
625.773	43027.75538
625.973	43365.57608
626.174	43574.28316
626.375	43833.26806
626.576	43745.52395
626.777	43453.21663
626.977	43330.10928
627.178	44203.31196
627.379	43415.65349
627.58	44151.01979
627.78	43401.04678
627.981	43645.27436
628.182	43405.22006
628.382	43119.47452
628.583	43202.87792
628.784	43394.78696
628.984	42492.54171
629.185	43277.95925
629.386	42661.1345
629.586	43238.33083
629.787	43225.8176
629.987	42944.39662
630.188	43440.6951
630.388	43624.39297
630.589	42869.39182
630.79	43367.66249
630.99	43261.27301
631.191	43426.08726
631.391	43843.71539
631.591	43161.17355
631.792	43238.33083
631.992	43889.68769
632.193	44121.73993
632.393	43789.393
632.594	43394.78696
632.794	43582.63425
632.994	43355.14427
633.195	43275.87342
633.395	43551.31877
633.595	43319.6786
633.796	43294.64635
633.996	43695.39524
634.196	43503.30761
634.397	44492.11992
634.597	43854.16306
634.797	43912.67632
634.997	43052.76714
635.198	42902.72518
635.398	43595.1613
635.598	43996.28531
635.798	43691.2182
635.998	43094.45766
636.199	43793.57131
636.399	44121.73993
636.599	43831.17863
636.799	44029.73505
636.999	43282.13094
637.199	43720.45861
637.399	43672.4222
637.599	43555.49399
637.799	43259.18729
637.999	44136.37952
638.199	43881.3286
638.399	44226.32324
638.599	43992.10434
638.799	44310.0147
638.999	43451.12967
639.199	43923.12625
639.399	43553.40638
639.599	43234.1597
639.799	42586.19385
639.999	43271.70181
640.199	43044.42967
640.399	43359.31695
640.599	42644.47957
640.799	44201.22011
640.998	43753.87949
641.198	44056.91554
641.398	43939.84684
641.598	44310.0147
641.798	44188.66929
641.997	44443.96698
642.197	44295.3671
642.397	44550.75078
642.597	44412.56683
642.796	44827.29999
642.996	43883.41835
643.196	43960.74882
643.395	43804.01735
643.595	43998.37582
643.795	44205.40383
643.994	44730.8993
644.194	44322.57032
644.394	44471.18296
644.593	44004.64742
644.793	44270.25851
644.992	44253.52055
645.192	44404.19399
645.392	44743.47163
645.591	44397.9145
645.791	44318.38506
645.99	44316.29245
646.19	43732.99103
646.389	43996.28531
646.589	44092.46276
646.788	44286.99735
646.987	43355.14427
647.187	43883.41835
647.386	43814.46372
647.586	44550.75078
647.785	44379.07677
647.984	44389.54204
648.184	44898.5716
648.383	44705.75613
648.582	44680.61496
648.782	44665.9502
648.981	44203.31196
649.18	44425.12652
649.38	45158.63986
649.579	45742.47627
649.778	45213.19751
649.977	45261.46791
650.177	44529.80994
650.376	44515.15218
650.575	44075.73416
650.774	44261.88942
650.973	44573.78731
651.173	45250.97371
651.372	44619.8654
651.571	45402.12379
651.77	44353.96155
651.969	44544.46839
652.168	44113.37475
652.367	44915.34373
652.566	45125.07062
652.765	45345.43403
652.964	44976.15017
653.163	44818.91615
653.362	45234.18373
653.561	44504.68276
653.76	44569.59873
653.959	44217.95531
654.158	44883.89671
654.357	44649.19132
654.556	44655.47579
654.755	44936.31014
654.954	44856.64517
655.153	44320.47768
655.352	44770.7134
655.551	44435.5933
655.749	44571.69301
655.948	44435.5933
656.147	44607.29798
656.346	44976.15017
656.545	45290.85351
656.743	45301.34903
656.942	44957.27795
657.141	45278.25934
657.34	44797.95753
657.538	44927.92341
657.737	44932.11675
657.936	45326.5397
658.135	45003.41204
658.333	44544.46839
658.532	44867.12626
658.731	44699.47065
658.929	44743.47163
659.128	44339.31192
659.326	44988.73228
659.525	45018.09248
659.724	44879.70402
659.922	44456.52791
660.121	44266.07393
660.319	44100.82739
660.518	44186.57753
660.716	44772.80902
660.915	45060.04037
661.113	44896.47514
661.312	44561.22173
661.51	45118.77678
661.709	45211.09896
661.907	45290.85351
662.105	44992.92643
662.304	45544.94314
662.502	45681.52203
662.701	45607.97221
662.899	44601.01446
663.097	44883.89671
663.296	44297.45957
663.494	45227.88772
663.692	45250.97371
663.891	45093.60269
664.089	44974.0532
664.287	45618.47828
664.485	44544.46839
664.684	44961.47168
664.882	44314.19985
665.08	44544.46839
665.278	44645.00173
665.476	43979.56176
665.675	44584.25901
665.873	44607.29798
666.071	44873.41507
666.269	44502.58892
666.467	44546.56251
666.665	44674.32998
666.863	44059.00644
667.061	44624.05465
667.259	44976.15017
667.457	45345.43403
667.655	44808.43667
667.853	45200.60644
668.051	45125.07062
668.249	45169.13098
668.447	45078.91874
668.645	45104.09165
668.843	45154.44351
669.041	45372.72783
669.239	44883.89671
669.437	44473.2766
669.635	44617.77079
669.833	44607.29798
670.031	44577.97595
670.229	44370.70481
670.426	45018.09248
670.624	45160.73806
670.822	44548.65664
671.02	44314.19985
671.218	44663.85529
671.415	44701.56579
671.613	43973.29066
671.811	44228.41526
672.009	44000.46634
672.206	44333.03372
672.404	43574.28316
672.602	43643.18616
672.799	43634.8335
672.997	44448.1539
673.195	44004.64742
673.392	44094.5539
673.59	43760.1463
673.788	43833.26806
673.985	43962.83909
674.183	44155.20285
674.38	44190.76106
674.578	44751.85346
674.775	44337.21917
674.973	44286.99735
675.17	44249.33619
675.368	44278.62782
675.565	44665.9502
675.763	44182.39406
675.96	44684.80502
676.158	43935.66661
676.355	43436.52136
676.553	44132.19671
676.75	43077.78081
676.947	43428.17405
677.145	42575.78676
677.342	43148.66328
677.539	43434.43451
677.737	44021.37228
677.934	43455.3036
678.131	43570.1077
678.329	43244.58763
678.526	42794.40408
678.723	42952.73154
678.92	43645.27436
679.118	42998.5774
679.315	42565.38
679.512	42869.39182
679.709	42596.60127
679.906	42817.31519
680.104	43031.92387
680.301	42929.81102
680.498	42779.82511
680.695	43503.30761
680.892	43359.31695
681.089	43075.69627
681.286	43042.34534
681.483	42863.14219
681.68	43392.70038
681.877	43186.19553
682.075	42913.14254
682.272	42840.2279
682.469	43325.93697
682.665	42971.4859
682.862	42833.97882
683.059	42650.72507
683.256	42961.06668
683.453	43117.38971
683.65	43138.23842
683.847	42877.72484
684.044	43200.79257
684.241	43173.6843
684.438	43084.03453
684.635	42500.86528
684.831	43144.4933
685.028	42744.42171
685.225	42967.31817
685.422	42502.94621
685.619	42527.91832
685.815	42087.01646
686.012	42240.85092
686.209	42224.21682
686.405	42844.39401
686.602	41675.74358
686.799	41808.62689
686.996	42840.2279
687.192	42546.64863
687.389	42263.72415
687.586	42609.0906
687.782	42552.89231
687.979	42544.56744
688.175	42278.28065
688.372	42561.21738
688.568	42561.21738
688.765	42053.76407
688.962	41538.7604
689.158	41868.85635
689.355	42093.25164
689.551	41443.31868
689.748	41445.39323
689.944	41424.6483
690.14	41640.45493
690.337	41192.38719
690.533	41461.99005
690.73	41242.14481
690.926	41538.7604
691.123	40749.01405
691.319	41472.36345
691.515	41663.28836
691.712	41364.49484
691.908	41194.46029
692.104	40403.38195
692.301	40858.77185
692.497	40796.64083
692.693	40852.55829
692.889	40906.41267
693.086	41196.53339
693.282	41464.0647
693.478	41792.01371
693.674	41646.68208
693.87	41752.56057
694.067	41756.71332
694.263	41219.33838
694.459	40802.85347
694.655	41208.9723
694.851	41099.11005
695.047	40798.7117
695.243	40844.27369
695.439	41101.18262
695.635	41327.16329
695.831	41264.95267
696.027	41244.21819
696.224	40740.73174
696.42	40780.0743
696.615	41076.31261
696.811	40362.0098
697.007	40995.49675
697.203	40678.62031
697.399	40140.74329
697.595	40256.53074
697.791	40258.59868
697.987	39783.25481
698.183	40927.12798
698.379	40353.7359
698.575	39925.79896
698.77	39508.63476
698.966	40122.13776
699.162	40086.99636
699.358	40285.48293
699.554	39756.40424
699.749	39956.79344
699.945	39783.25481
700.141	40328.91525
700.337	40403.38195
700.532	40645.49839
700.728	41105.32778
700.924	41117.76357
701.119	40769.7206
701.315	40285.48293
701.511	39754.33888
701.706	40699.32298
701.902	40184.15959
702.097	40132.47406
702.293	40101.46597
702.489	40308.23259
702.684	39808.04152
702.88	39857.61945
703.075	39671.73309
703.271	39063.01259
703.466	39710.96878
703.662	39382.74118
703.857	39378.61415
704.053	39655.2139
704.248	39599.4665
704.443	39810.10715
704.639	39789.45135
704.834	39277.51427
705.03	39686.18791
705.225	39808.04152
705.42	39669.66815
705.616	39368.29674
705.811	38825.94338
706.006	38908.38815
706.202	38654.91758
706.397	38667.27879
706.592	38830.06527
706.787	39178.50048
706.983	39343.53599
707.178	40450.96541
707.373	39789.45135
707.568	39531.34086
707.763	38988.78622
707.959	39089.8196
708.154	39077.44693
708.349	38605.47603
708.544	38924.8789
708.739	38957.86219
708.934	38844.49216
709.129	39124.87735
709.324	38673.45951
709.519	39087.75746
709.714	38415.99774
709.909	39118.69049
710.104	38208.06882
710.299	38535.44268
710.494	38195.71936
710.689	38473.65711
710.884	38724.96872
711.079	38613.71593
711.274	37913.82202
711.469	38823.88245
711.664	38988.78622
711.859	38591.05655
712.054	38611.65594
712.249	38434.53036
712.443	38444.82656
712.638	38593.11645
712.833	38675.51977
713.028	38869.22503
713.223	38337.75672
713.417	38098.99245
713.612	38094.87682
713.807	38002.28401
714.002	37922.05041
714.196	38092.81902
714.391	37469.67806
714.586	38107.2238
714.78	38222.47691
714.975	38634.3163
715.17	38380.99362
715.364	38617.83593
715.559	38418.05689
715.754	37590.95901
715.948	37584.79154
716.143	37391.5789
716.337	37426.51666
716.532	37461.45659
716.726	37543.67683
716.921	37716.37944
717.115	37998.16916
717.31	38162.78896
717.504	37558.06663
717.699	37901.47969
717.893	37420.35101
718.088	37095.72087
718.282	37399.79935
718.476	37434.73762
718.671	37239.52188
718.865	37804.80815
719.059	36962.22251
719.254	37338.14885
719.448	37730.77381
719.642	37348.42347
719.837	36863.65795
720.031	36584.47593
720.225	36280.79576
720.419	36520.85581
720.614	36282.8472
720.808	36471.60573
721.002	36090.03844
721.196	36488.02202
721.39	36141.31223
721.585	36543.42998
721.779	35889.0801
721.973	36266.43588
722.167	36432.61867
722.361	36410.04825
722.555	36596.79022
722.749	36974.5442
722.943	36049.02204
723.137	35950.59213
723.331	35581.59443
723.525	35932.13798
723.719	35565.19859
723.913	35516.01305
724.107	35616.43672
724.301	36282.8472
724.495	35895.23107
724.689	36332.08351
724.883	35704.57407
725.077	36518.80365
725.271	36705.57661
725.465	36149.51638
725.659	35858.32599
725.853	35872.67775
726.046	35999.80543
726.24	35411.50365
726.434	35421.74908
726.628	35919.83548
726.822	35477.07662
727.015	35989.55239
727.209	35864.47671
727.403	35848.07489
727.596	36010.05862
727.79	35993.65359
727.984	36022.36263
728.177	36159.7717
728.371	35501.66783
728.565	35485.27361
728.758	35487.32287
728.952	35214.81547
729.146	35643.08186
729.339	35761.97118
729.533	35536.50666
729.726	35487.32287
729.92	35610.28797
730.113	35784.52121
730.307	35710.72356
730.5	35532.4079
730.694	35542.65484
730.887	35782.47118
731.081	35743.52164
731.274	35759.92121
731.468	35483.22435
731.661	35921.88588
731.854	35567.24805
732.048	35460.68289
732.241	35571.34699
732.435	35524.21043
732.628	35686.1259
732.821	35749.67144
733.014	35934.18842
733.208	35319.30039
733.401	35034.55711
733.594	34809.28436
733.788	34686.43085
733.981	35001.78676
734.174	35544.70425
734.367	35044.79809
734.56	35050.94273
734.754	35186.13554
734.947	35202.52395
735.14	35112.39146
735.333	35225.05853
735.526	35557.00079
735.719	35577.49544
735.912	36028.51472
736.105	35733.27209
736.298	35276.27565
736.491	35272.17816
736.684	35479.12586
736.877	35233.25306
737.07	35235.30171
737.263	35093.9564
737.456	34549.26247
737.649	34805.189
737.842	35048.89451
738.035	35202.52395
738.228	35030.46075
738.421	35020.21993
738.614	34977.20976
738.807	34569.73418
739	34391.6439
739.192	34199.25798
739.385	34534.93252
739.578	34307.72671
739.771	34598.39526
739.964	34348.66111
740.156	34573.82857
740.349	34631.15178
740.542	34561.54544
740.735	34784.71242
740.927	34958.77745
741.12	35116.48819
741.313	35044.79809
741.505	35057.08741
741.698	34479.66172
741.891	34305.68004
742.083	34289.30674
742.276	34688.47828
742.468	34332.28716
742.661	33720.4799
742.854	34037.59759
743.046	34084.66092
743.239	34051.92101
743.431	33990.53616
743.624	33329.8168
743.816	33382.9895
744.009	33804.35468
744.201	33389.12494
744.393	33078.29536
744.586	33691.841
744.778	33573.20087
744.971	33794.12575
745.163	33900.51078
745.355	33464.7976
745.548	33814.5837
745.74	33859.59237
745.932	34164.46836
746.125	34086.7072
746.317	33779.80539
746.509	33407.53143
746.702	33855.50061
746.894	34023.27435
747.086	33264.37619
747.278	33894.37293
747.471	33495.47689
747.663	33221.43239
747.855	33407.53143
748.047	33227.56714
748.239	33857.54649
748.431	34105.12384
748.623	33462.75234
748.815	32900.415
749.008	33362.53822
749.2	33493.43158
749.392	32916.77099
749.584	32499.74299
749.776	33027.17826
749.968	33462.75234
750.16	33372.76383
750.352	33006.73188
750.544	32871.79243
750.736	32724.59843
750.928	32826.81511
751.12	32109.37661
751.311	32489.52296
751.503	32785.92769
751.695	32483.39096
751.887	32516.09516
752.079	32438.42364
752.271	32225.86526
752.463	32125.72549
752.654	32307.61572
752.846	32873.83688
753.038	33198.93852
753.23	32843.17036
753.421	32655.0946
753.613	32411.85256
753.805	32851.34804
753.997	32370.97469
754.188	32736.86411
754.38	32749.12987
754.572	32362.79922
754.763	32702.11159
754.955	32160.4673
755.146	31943.85132
755.338	32205.42817
755.53	32321.9224
755.721	32113.46381
755.913	32056.24362
756.104	31698.65157
756.296	31978.59013
756.487	31986.76405
756.679	32191.12233
756.87	31473.90763
757.062	31353.3715
757.253	31416.70334
757.445	31314.55597
757.636	31351.32856
757.827	31183.81307
758.019	31394.23057
758.21	31386.05871
758.401	31439.1763
758.593	31522.94092
758.784	31533.15631
758.975	31247.14087
759.167	31112.31569
759.358	30961.15574
759.549	30893.74911
759.74	30246.31061
759.932	30370.8867
760.123	30742.60033
760.314	30897.83432
760.505	30391.30944
760.696	30011.46601
760.888	30728.30286
761.079	30499.55203
761.27	30997.92365
761.461	30473.00164
761.652	30217.72001
761.843	29490.77656
762.034	29993.08751
762.225	29870.56652
762.416	30089.06514
762.607	29484.65122
762.798	29978.79319
762.989	30258.5638
763.18	30187.08748
763.371	30407.64772
763.562	30244.26842
763.753	30197.29829
763.944	30568.99254
764.135	30205.46696
764.326	30407.64772
764.517	29835.85297
764.708	29984.91932
764.899	29353.97957
765.089	29603.07616
765.28	29415.23137
765.471	30270.81703
765.662	29809.30753
765.853	29433.6071
766.043	29127.3561
766.234	29400.9392
766.425	28943.61674
766.615	28868.08189
766.806	28855.83312
766.997	29080.39969
767.187	28674.14757
767.378	28841.54295
767.569	29010.98686
767.759	29019.15301
767.95	29149.81371
768.141	29096.73229
768.331	29025.27764
768.522	28910.95284
768.712	28657.81669
768.903	28798.67273
769.093	28514.92435
769.284	28365.91359
769.474	28702.72677
769.665	28841.54295
769.855	28841.54295
770.046	28770.09284
770.236	28947.69975
770.426	28488.38777
770.617	28480.22271
770.807	28298.55444
770.998	28384.28448
771.188	28133.22337
771.378	28014.84262
771.569	28421.0265
771.759	27892.38377
771.949	27857.68785
772.139	28206.70296
772.33	27590.33654
772.52	28025.04771
772.71	28384.28448
772.9	27874.0153
773.09	27586.25501
773.281	27486.25882
773.471	27704.62163
773.661	27547.48062
773.851	27369.94049
774.041	27220.9775
774.231	27241.38297
774.421	27092.42605
774.611	26857.78273
774.802	26941.43604
774.992	27259.74802
775.182	27412.79413
775.372	26831.25902
775.562	26945.51675
775.752	26882.26638
775.942	26209.04598
776.131	26241.68294
776.321	26223.3246
776.511	26413.03399
776.701	26694.5638
776.891	26376.31493
777.081	26245.76259
777.271	26474.23358
777.461	26641.5197
777.651	26612.95792
777.84	26816.97712
778.03	26631.31903
778.22	26741.48828
778.41	26717.00584
778.599	26459.95355
778.789	26427.31377
778.979	25870.46388
779.169	25937.76844
779.358	25884.74044
779.548	26117.25688
779.738	25915.33337
779.927	25968.36208
780.117	25609.42319
780.307	25275.01244
780.496	25423.85915
780.686	25591.06996
780.875	25517.65866
781.065	25903.09615
781.254	25419.78101
781.444	25729.74273
781.633	25660.40522
781.823	25799.08247
782.012	25533.97205
782.202	25168.99159
782.391	25387.15618
782.581	25717.50654
782.77	25126.17715
782.96	24981.4309
783.149	24767.39086
783.338	25115.98338
783.528	25370.84397
783.717	25656.32661
783.906	25099.67347
784.096	25132.29344
784.285	24906.00431
784.474	25219.96242
784.663	25295.40173
784.853	25081.32499
785.042	24981.4309
785.231	24914.15838
785.42	24596.17789
785.61	24689.93523
785.799	24641.0177
785.988	24832.61935
786.177	24755.16079
786.366	24233.42858
786.555	24606.36865
786.744	24416.83086
786.933	24015.41212
787.122	24412.75503
787.312	24321.05144
787.501	23905.39727
787.69	24251.76784
787.879	24543.18695
788.068	24422.94464
788.257	24378.11082
788.445	23901.3228
788.634	24217.1272
788.823	24204.90127
789.012	24188.6002
789.201	24043.93583
789.39	24017.44951
789.579	24074.49756
789.768	24121.3601
789.957	23944.10525
790.145	24103.02241
790.334	23744.46476
790.523	23964.47829
790.712	24266.03185
790.9	23856.50446
791.089	23656.87632
791.278	23457.27705
791.467	23066.31296
791.655	23406.36361
791.844	23300.46996
792.033	23094.81672
792.221	22813.87975
792.41	23056.1332
792.599	22897.33982
792.787	23328.97895
792.976	23166.07894
793.164	22667.32975
793.353	22765.02775
793.541	23231.23647
793.73	22840.34208
793.918	23129.4293
794.107	22675.47095
794.295	22569.63983
794.484	22984.87724
794.672	23322.86983
794.861	23326.94257
795.049	23196.62112
795.238	22870.87625
795.426	22266.4466
795.614	22254.23917
795.803	22372.24986
795.991	22533.00821
796.179	22630.69508
796.368	22264.41201
796.556	22392.59777
796.744	21759.95188
796.932	22152.51577
797.121	21896.21442
797.309	22052.83589
797.497	21973.50532
797.685	22390.56296
797.874	22404.80669
798.062	22976.73396
798.25	22146.41266
798.438	22349.86757
798.626	22217.61767
798.814	22113.86332
799.002	21788.42322
799.19	21857.57105
799.378	22001.9823
799.566	21892.14664
799.755	21725.38057
799.943	21473.2476
800.131	21674.54245
800.318	21806.72662
800.506	22223.72117
800.694	21877.90949
800.882	22107.76042
801.07	21757.91824
801.258	21574.90683
801.446	21774.18746
801.634	21308.58078
801.822	21349.23681
802.01	21365.49967
802.197	21782.32215
802.385	21359.40107
802.573	21452.91694
802.761	21607.43987
802.949	21615.57329
803.136	21656.24132
803.324	22093.52047
803.512	22119.96625
803.699	22069.10954
803.887	21873.84178
804.075	21735.54849
804.262	21271.99173
804.45	21723.347
804.638	21294.35155
804.825	22101.65756
805.013	21703.01149
805.201	22054.87009
805.388	21351.26965
805.576	21831.13165
805.763	21871.80792
805.951	21503.74433
806.138	21361.43393
806.326	21416.32277
806.513	21410.22386
806.701	21184.58985
806.888	21056.5495
807.075	20979.32665
807.263	20794.4224
807.45	21274.02442
807.638	21426.48769
807.825	21353.3025
808.012	21172.39484
808.2	21452.91694
808.387	21308.58078
808.574	21416.32277
808.761	21479.34687
808.949	21507.81063
809.136	21412.25683
809.323	21869.77407
809.51	21839.26678
809.698	21700.97797
809.885	21503.74433
810.072	21940.96111
810.259	21662.34166
810.446	21335.00702
810.633	21644.04075
810.82	21928.75729
811.008	22117.93193
811.195	21924.68937
811.382	21969.43724
811.569	21759.95188
811.756	21676.57592
811.943	21208.98032
812.13	20912.26952
812.317	21164.26491
812.504	21383.7957
812.691	21326.87579
812.878	21294.35155
813.064	21369.56543
813.251	21337.03983
813.438	21487.47929
813.625	21359.40107
813.812	21599.30652
813.999	21540.34158
814.186	21656.24132
814.372	21493.57865
814.559	21999.9482
814.746	21654.20788
814.933	21570.84027
815.12	21310.61354
815.306	21290.28609
815.493	21432.58669
815.68	21202.88265
815.866	20985.42298
816.053	21237.4366
816.24	21066.71084
816.426	21481.37997
816.613	21093.13081
816.799	21395.99323
816.986	21796.55803
817.173	21800.62545
817.359	21381.76279
817.546	21694.8774
817.732	21310.61354
817.919	21851.46959
818.105	21867.74022
818.292	21680.64289
818.478	21782.32215
818.665	21790.45692
818.851	21619.64002
819.037	21550.50771
819.224	21426.48769
819.41	21497.64491
819.597	21133.77825
819.783	21089.06615
819.969	20737.53567
820.156	20640.02314
820.342	20510.02137
820.528	20861.47164
820.714	20505.95909
820.901	20694.87276
821.087	20461.27512
821.273	20591.27047
821.459	21005.74433
821.646	21286.22065
821.832	20936.65341
822.018	20696.90428
822.204	20380.03673
822.39	20408.46941
822.576	20479.55468
822.762	20453.15098
822.948	20166.81792
823.134	20516.11482
823.32	20264.28363
823.507	20607.5211
823.693	20337.38927
823.879	19943.49555
824.065	20118.0887
824.25	20185.092
824.436	20333.3277
824.622	20353.6357
824.808	20065.30144
824.994	20593.30179
825.18	20676.58922
825.366	20668.4633
825.552	20000.33641
825.738	19919.13619
825.923	19809.52655
826.109	19884.62813
826.295	19720.22404
826.481	19703.98809
826.667	19833.88319
826.852	19677.60525
827.038	19391.4982
827.224	19403.67128
827.409	19511.20668
827.595	19803.43748
827.781	19387.44054
827.966	19712.10603
828.152	19308.31945
828.338	19549.75995
828.523	19505.11946
828.709	19606.57804
828.894	19322.52021
829.08	19407.72901
829.266	19178.49329
829.451	19523.38123
829.637	19178.49329
829.822	19519.32303
830.008	19310.34812
830.193	19728.34212
830.378	19129.81282
830.564	18898.61251
830.749	19208.91979
830.935	19695.87022
831.12	19068.96553
831.305	19322.52021
831.491	18803.30831
831.676	19158.20948
831.861	18898.61251
832.047	19042.5995
832.232	19225.14763
832.417	19292.09026
832.602	19184.57852
832.788	19446.27825
832.973	19342.80736
833.158	19024.3465
833.343	18659.35475
833.528	18764.78357
833.714	18525.55647
833.899	18586.37177
834.084	18209.37218
834.269	18403.93624
834.454	18176.94816
834.639	18407.99003
834.824	18146.5515
835.009	18501.23132
835.194	18144.52509
835.379	18543.80069
835.564	18148.57792
835.749	18630.97188
835.934	18203.2926
836.119	18474.8797
836.304	17962.16252
836.489	18302.59649
836.674	17828.44819
836.859	18185.05408
837.044	18057.39268
837.228	17808.18975
837.413	17593.47106
837.598	17731.21081
837.783	17273.48575
837.968	17686.64627
838.152	17469.92319
838.337	17589.42012
838.522	17544.86064
838.707	17597.52201
838.891	17561.06391
839.076	17771.72543
839.261	17480.04962
839.445	17765.64815
839.63	17311.96094
839.815	17401.06555
839.999	17269.43579
840.184	17344.36194
840.368	17445.62009
840.553	17445.62009
840.737	17016.3363
840.922	17465.87265
841.106	17305.88584
841.291	17569.16562
841.475	17226.91195
841.66	16973.81985
841.844	17135.79375
842.029	17145.91771
842.213	16696.4784
842.397	16981.91813
842.582	16819.96041
842.766	16882.71707
842.951	16902.96168
843.135	16710.64801
843.319	16828.0579
843.504	17010.26245
843.688	16826.03353
843.872	16664.09114
844.056	16832.10667
844.241	16573.00511
844.425	16769.35194
844.609	16824.00915
844.793	16718.74499
844.977	16617.53549
845.161	16621.58376
845.346	16852.35064
845.53	16524.42772
845.714	16688.38153
845.898	16441.44416
846.082	16374.655
846.266	16103.47114
846.45	16216.79791
846.634	15854.5734
846.818	16305.84413
847.002	15686.62846
847.186	15795.89301
847.37	15656.2777
847.554	15988.12569
847.738	15842.43255
847.922	15706.86242
848.106	16042.76241
848.29	16235.01163
848.473	16255.24926
848.657	16103.47114
848.841	16186.44202
849.025	16139.89704
849.209	16028.59724
849.392	15921.34884
849.576	15895.0432
849.76	15617.83367
849.944	15654.25432
850.127	15668.41798
850.311	14938.00699
850.495	15148.42801
850.678	14968.35636
850.862	15217.21922
851.046	15124.14876
851.229	15275.89416
851.413	15073.56695
851.596	15075.59022
851.78	14948.12346
851.964	15435.73392
852.147	15211.1494
852.331	15120.10222
852.514	15107.96259
852.698	15087.72986
852.881	15029.05486
853.065	14808.51508
853.248	14824.70171
853.431	14699.25413
853.615	14699.25413
853.798	14646.64609
853.982	14454.41796
854.165	14509.05237
854.348	14634.50568
854.532	14652.71628
854.715	14420.01799
854.898	14324.90984
855.081	13934.31436
855.265	14134.68168
855.448	13976.81851
855.631	14203.4896
855.814	14280.38986
855.997	14687.11387
856.181	13916.09794
856.364	14365.38183
856.547	14300.62632
856.73	13851.3267
856.913	13816.91581
857.096	14353.2403
857.279	13905.97762
857.462	14177.18097
857.645	14150.87199
857.828	13968.72257
858.011	14124.56266
858.194	13851.3267
858.377	13673.19037
858.56	14035.51289
858.743	13563.86717
858.926	13796.67371
859.109	13612.45648
859.292	13634.72593
859.475	13468.70712
859.658	13699.50747
859.841	13525.39918
860.023	13442.3848
860.206	13035.3114
860.389	13620.55451
860.572	13391.76313
860.755	13590.18663
860.937	13715.70234
861.12	13709.62929
861.303	13584.11296
861.486	13337.08893
861.668	13079.87561
861.851	13140.64124
862.034	13069.74758
862.216	13245.95852
862.399	12885.39574
862.581	12954.27941
862.764	12654.38647
862.947	12816.50589
863.129	12652.35975
863.312	12786.11129
863.494	12850.9516
863.677	12575.33952
863.859	13136.59033
864.042	12964.40885
864.224	12857.03009
864.406	12974.53816
864.589	12609.79703
864.771	12548.98844
864.954	12370.58326
865.136	12419.24429
865.318	12344.22357
865.501	12224.57624
865.683	12250.94134
865.865	12364.50036
866.048	11865.47753
866.23	12007.52335
866.412	11822.8559
866.594	11928.38846
866.777	11875.62499
866.959	12198.20992
867.141	11979.11736
867.323	12437.49118
867.505	12421.27175
867.687	12563.17761
867.869	12171.84235
868.052	12518.58203
868.234	11914.18346
868.416	12382.74889
868.598	12005.4944
868.78	12216.46366
868.962	12090.70345
869.144	12536.82605
869.326	12127.21745
869.508	12119.10344
869.69	12013.61014
869.872	12394.91426
870.054	12265.13743
870.236	12175.89898
870.417	12123.16046
870.599	12216.46366
870.781	11908.09548
870.963	11946.65144
871.145	11938.53464
871.327	12011.58122
871.508	11424.86561
871.69	11952.73896
871.872	11439.0857
872.054	11899.97805
872.235	11443.1485
872.417	11518.30331
872.599	11412.67658
872.78	11481.74315
872.962	11339.53494
873.144	11473.61825
873.325	11400.48719
873.507	11542.67505
873.689	11374.07565
873.87	11497.99249
874.052	11634.05715
874.233	11715.27024
874.415	11099.70032
874.596	11150.52491
874.778	11290.76666
874.959	11235.89534
875.141	11270.44482
875.322	11510.1791
875.503	11284.67022
875.685	11512.21016
875.866	11193.21244
876.048	11696.99854
876.229	11292.79879
876.41	11721.36065
876.592	11558.92213
876.773	11587.35308
876.954	11382.20245
877.136	11449.24262
877.317	11467.52447
877.498	11634.05715
877.679	11341.56683
877.86	11445.17989
878.042	11432.99144
878.223	11715.27024
878.404	11229.79806
878.585	11489.86789
878.766	11248.08962
878.947	11374.07565
879.128	11148.49206
879.309	11278.57368
879.49	11225.73316
879.672	11162.72183
879.853	11087.50142
880.034	11241.99252
880.215	11093.60092
880.396	11130.19588
880.576	11016.33335
880.757	11367.98044
880.938	11400.48719
881.119	11412.67658
881.3	11333.43923
881.481	11688.87756
881.662	11550.79866
881.843	11845.18198
882.023	11640.14863
882.204	11814.73707
882.385	11859.38895
882.566	11587.35308
882.747	11621.87395
882.927	11680.75643
883.108	11585.32236
883.289	11908.09548
883.469	11699.02877
883.65	11940.56386
883.831	11914.18346
884.011	12068.38812
884.192	11629.99612
884.373	11877.65446
884.553	11646.24003
884.734	11552.82954
884.914	11453.30532
885.095	11761.96134
885.275	11168.82014
885.456	11426.89708
885.636	11449.24262
885.817	11589.38379
885.997	11768.05115
886.178	11847.21157
886.358	11479.71194
886.538	11617.81281
886.719	11672.63516
886.899	11741.66143
887.08	11680.75643
887.26	11763.99129
887.44	11688.87756
887.621	11938.53464
887.801	12039.98544
887.981	11928.38846
888.161	11412.67658
888.342	11473.61825
888.522	11581.26089
888.702	11632.02664
888.882	11668.57447
889.062	11571.10704
889.242	11556.89128
889.423	11491.89906
889.603	11595.47588
889.783	11875.62499
889.963	11441.11711
890.143	11408.61349
890.323	11185.08184
890.503	11796.46921
890.683	11800.52879
890.863	11822.8559
891.043	11400.48719
891.223	11729.48107
891.403	11477.68072
891.583	11910.12481
891.763	11550.79866
891.943	11589.38379
892.122	11392.36074
892.302	11713.24009
892.482	11321.24752
892.662	11298.89511
892.842	11380.17077
893.022	11412.67658
893.201	11607.65979
893.381	11741.66143
893.561	11788.34993
893.741	11640.14863
893.92	11534.55129
894.1	11404.55036
894.28	11284.67022
894.459	11282.63805
894.639	11122.06397
894.819	11345.63057
894.998	11231.8305
895.178	11485.80554
895.357	11115.96492
895.537	11270.44482
895.716	11124.09696
895.896	11390.3291
896.075	11113.93188
896.255	11315.15153
896.434	11193.21244
896.614	11054.96911
896.793	10939.04982
896.973	11046.83559
897.152	11103.76654
897.331	11195.24506
897.511	11189.14716
897.69	11189.14716
897.87	11160.68903
898.049	11130.19588
898.228	11160.68903
898.407	11227.76562
898.587	10979.72737
898.766	11272.47705
898.945	10784.43342
899.124	10548.30747
899.304	10584.95853
899.483	10743.73367
899.662	10617.53387
899.841	10745.76877
900.02	10721.34678
900.199	10932.9478
900.378	10739.66344
900.557	10798.67721
900.737	10525.90759
900.916	10684.71054
901.095	10273.29183
901.274	10719.31154
901.453	10403.69924
901.632	10774.25892
901.811	10436.29267
901.989	10656.21298
902.168	10338.50233
902.347	10556.4525
902.526	10497.39643
902.705	10674.53311
902.884	10387.40128
903.063	10538.12589
903.242	10332.38943
903.42	10403.69924
903.599	10079.61599
903.778	10165.25647
903.957	10089.81258
904.135	10305.89879
904.314	9967.43001
904.493	10240.68142
904.672	10122.43931
904.85	10100.00882
905.029	10020.46877
905.207	9953.14867
905.386	9883.77201
905.565	9916.42196
905.743	9642.86024
905.922	9693.91856
906.1	9604.04942
906.279	9718.42314
906.457	9816.41954
906.636	10232.52828
906.814	9540.71436
906.993	9681.66544
907.171	9624.47687
907.35	9689.83425
907.528	9526.4108
907.707	9583.62041
907.885	9546.84423
908.063	9563.18983
908.242	9407.86533
908.42	9493.714
908.598	9201.30124
908.777	9471.23257
908.955	9211.53119
909.133	9550.93072
909.311	9350.61696
909.49	9313.80763
909.668	9186.97859
909.846	9133.77289
910.024	8902.39669
910.202	9076.46148
910.38	9060.08431
910.559	8955.65355
910.737	8637.98022
910.915	8750.75308
911.093	8695.39884
911.271	9043.70602
911.449	8711.80149
911.627	8713.85174
911.805	8480.00335
911.983	8580.54701
912.161	8408.15844
912.339	8873.71493
912.517	8650.28544
912.695	8549.77316
912.872	8547.72142
913.05	8660.53927
913.228	8504.63049
913.406	8648.23462
913.584	8182.20529
913.762	8461.53119
913.939	8354.77267
914.117	8344.50467
914.295	7972.47018
914.473	8060.91353
914.65	8048.57485
914.828	7762.52247
915.006	7708.97173
915.184	8301.37376
915.361	7990.98469
915.539	8247.96162
915.716	7921.03229
915.894	8272.61503
916.072	8050.63135
916.249	7824.29419
916.427	8025.95204
916.604	8001.26982
916.782	7626.55813
916.959	7669.82949
917.137	7610.07134
917.314	7739.86812
917.492	7509.0599
917.669	7733.68922
917.847	7395.61812
918.024	7548.2337
918.201	7236.68888
918.379	7632.74033
918.556	7325.4576
918.733	7645.10415
918.911	7160.27383
919.088	7589.46093
919.265	7013.55419
919.442	7100.3597
919.62	6744.61804
919.797	7399.74443
919.974	6881.20279
920.151	6928.77723
920.328	6659.71978
920.506	6843.96224
920.683	6968.06883
920.86	7019.75589
921.037	6846.03135
921.214	6856.37657
921.391	7030.09162
921.568	7054.89508
921.745	6899.8203
921.922	7001.15017
922.099	6630.72128
922.276	6974.27202
922.453	6701.13838
922.63	6786.01785
922.807	6128.74245
922.984	6487.73399
923.161	6006.15135
923.338	6303.13785
923.514	5945.86466
923.691	6137.05074
923.868	6188.96909
924.045	6369.53075
924.222	6166.12682
924.399	6369.53075
924.575	6172.35681
924.752	6286.53589
924.929	6180.66314
925.105	6211.80851
925.282	5633.72024
925.459	5816.90934
925.635	5764.88557
925.812	5895.95723
925.989	5671.2056
926.165	5941.70622
926.342	5791.93977
926.518	5983.28631
926.695	5508.71385
926.871	5848.11653
927.048	5241.75062
927.224	5625.38912
927.401	5208.35323
927.577	5281.40224
927.754	5189.56458
927.93	5598.31038
928.107	5231.31457
928.283	5525.38627
928.459	5245.92487
928.636	5356.50847
928.812	4945.14097
928.988	5287.66225
929.165	4961.86377
929.341	4934.68847
929.517	5005.75411
929.693	5114.39111
929.87	4943.05051
930.046	5133.1873
930.222	4869.87018
930.398	5016.20269
930.574	4694.12345
930.751	5064.25873
930.927	4719.23991
931.103	5049.63428
931.279	5039.18754
931.455	5126.92211
931.631	4581.05933
931.807	4631.31811
931.983	4329.57447
932.159	4694.12345
932.335	4333.76846
932.511	4526.59784
932.687	4224.69674
932.863	4486.7896
933.039	4182.73071
933.215	4256.16568
933.391	4113.46831
933.566	4102.97202
933.742	3930.75909
933.918	4042.08325
934.094	3884.53232
934.27	3680.6001
934.445	3518.58735
934.621	3726.86885
934.797	3535.42498
934.973	3566.99236
935.148	3263.77874
935.324	3514.37776
935.5	3211.10083
935.675	3366.99668
935.851	2911.70034
936.027	3074.09038
936.202	2692.23279
936.378	2839.96779
936.553	2533.87539
936.729	2797.76456
936.904	2417.70483
937.08	2280.37141
937.255	2041.53246
937.431	2229.65347
937.606	2024.6198
937.782	2119.74759
937.957	1933.70715
938.133	2079.58431
938.308	1690.52157
938.483	1961.19357
938.659	1627.07387
938.834	1665.14277
939.009	1569.96922
939.185	1597.46422
939.36	1493.82808
939.535	1525.55371
939.71	1305.59001
939.886	1398.65083
940.061	1411.3411
940.236	1373.27037
940.411	1180.81031
940.586	1187.15478
940.761	1051.81447
940.937	1060.27265
941.112	1028.55493
941.287	1111.02352
941.462	874.21642
941.637	1032.78388
941.812	933.41021
941.987	1051.81447
942.162	903.81255
942.337	994.72417
942.512	1009.52493
942.687	1094.10624
942.862	950.32382
943.037	1007.41052
943.212	850.96346
943.386	899.58443
943.561	751.6223
943.736	705.12977
943.911	696.67715
944.086	815.02915
944.26	819.25658
944.435	891.1283
944.61	696.67715
944.785	796.00618
944.959	612.16115
945.134	726.26209
945.309	664.98142
945.483	882.67229
945.658	743.16873
945.833	751.6223
946.007	757.96258
946.182	751.6223
946.357	688.2247
946.531	671.32036
946.706	690.3378
946.88	705.12977
947.055	595.2603
947.229	755.84914
947.404	550.89955
947.578	690.3378
947.752	637.51393
947.927	709.35615
948.101	705.12977
948.276	798.1198
948.45	859.41896
948.624	988.38108
948.799	853.07732
948.973	880.55831
949.147	766.41643
949.321	967.23788
949.496	781.21107
949.67	861.53286
949.844	755.84914
950.018	874.21642
950.193	669.20737
950.367	796.00618
950.541	713.58257
950.715	785.43819
950.889	664.98142
951.063	749.50889
951.237	673.43336
951.411	823.48405
951.585	848.84961
951.759	941.86696
951.933	895.35635
952.107	842.5081
952.281	819.25658
952.455	779.09752
952.629	781.21107
952.803	967.23788
952.977	823.48405
953.151	950.32382
953.325	738.94201
953.499	1077.18928
953.672	789.66536
953.846	893.24232
954.02	709.35615
954.194	924.95358
954.368	882.67229
954.541	1024.326
954.715	920.72532
954.889	996.83854
955.062	732.602
955.236	998.95292
955.41	762.18949
955.583	971.46647
955.757	749.50889
955.93	876.33038
956.104	842.5081
956.278	988.38108
956.451	884.78628
956.625	937.63857
956.798	920.72532
956.972	992.6098
957.145	645.96525
957.319	857.30507
957.492	859.41896
957.665	996.83854
957.839	924.95358
958.012	1045.47089
958.185	963.00932
958.359	1089.87697
958.532	766.41643
958.705	1009.52493
958.879	874.21642
959.052	1072.96009
959.225	950.32382
959.398	914.38297
959.572	840.39428
959.745	1028.55493
959.918	798.1198
960.091	992.6098
960.264	840.39428
960.438	882.67229
960.611	751.6223
960.784	893.24232
960.957	645.96525
961.13	840.39428
961.303	703.0166
961.476	823.48405
961.649	783.32462
961.822	908.04069
961.995	753.73571
962.168	764.30296
962.341	772.75693
962.514	815.02915
962.686	798.1198
962.859	893.24232
963.032	696.67715
963.205	859.41896
963.378	751.6223
963.551	764.30296
963.723	569.91058
963.896	762.18949
964.069	669.20737
964.242	798.1198
964.414	677.6594
964.587	783.32462
964.76	641.73957
964.932	734.71533
965.105	635.40113
965.278	793.89256
965.45	741.05536
965.623	673.43336
965.795	658.64259
965.968	722.03554
966.14	694.56402
966.313	766.41643
966.485	688.2247
966.658	793.89256
966.83	629.0628
967.003	738.94201
967.175	595.2603
967.348	610.0485
967.52	578.36028
967.692	637.51393
967.865	521.32906
968.037	603.71062
968.209	557.23644
968.382	662.86847
968.554	517.10492
968.726	624.83732
968.898	506.54484
969.071	595.2603
969.243	569.91058
969.415	645.96525
969.587	487.53762
969.759	669.20737
969.932	403.07593
970.104	525.55324
970.276	403.07593
970.448	582.5852
970.62	523.44114
970.792	722.03554
970.964	474.86679
971.136	603.71062
971.308	453.74996
971.48	506.54484
971.652	434.74613
971.824	493.87323
971.996	553.01184
972.168	586.81018
972.339	603.71062
972.511	485.42577
972.683	472.75504
972.855	531.88963
973.027	493.87323
973.199	430.52323
973.37	422.07762
973.542	534.00179
973.714	392.52001
973.886	506.54484
974.057	466.41988
974.229	536.11396
974.401	536.11396
974.572	428.41181
974.744	451.63837
974.915	449.52678
975.087	415.74358
975.259	510.76883
975.43	394.63116
975.602	426.3004
975.773	341.85741
975.945	436.85761
976.116	409.40968
976.288	489.64947
976.459	369.29844
976.63	419.96626
976.802	403.07593
976.973	476.97856
977.145	426.3004
977.316	464.30819
977.487	460.08485
977.659	468.53159
977.83	379.85345
978.001	333.4146
978.172	343.96815
978.344	371.40941
978.515	324.97208
978.686	331.30395
978.857	295.42551
979.028	320.75093
979.2	240.56291
979.371	333.4146
979.542	295.42551
979.713	263.77245
979.884	341.85741
980.055	240.56291
980.226	316.52984
980.397	346.07892
980.568	234.23344
980.739	320.75093
980.91	219.46535
981.081	291.20486
981.252	249.00247
981.423	240.56291
981.594	327.08269
981.765	312.30883
981.936	253.22237
982.106	297.53586
982.277	259.55236
982.448	291.20486
982.619	322.8615
982.79	208.91732
982.96	303.86702
983.131	223.68471
983.302	185.7134
983.472	206.80777
983.643	225.79441
983.814	270.10273
983.984	223.68471
984.155	177.27622
984.326	200.47924
984.496	206.80777
984.667	147.7487
984.837	217.35571
985.008	219.46535
985.178	149.85767
985.349	274.323
985.519	198.36978
985.69	99.24826
985.86	236.34324
986.031	198.36978
986.201	198.36978
986.371	124.55141
986.542	225.79441
986.712	177.27622
986.882	240.56291
987.053	160.40285
987.223	213.13647
987.393	274.323
987.563	219.46535
987.734	223.68471
987.904	179.38548
988.074	194.1509
988.244	143.53082
988.414	145.63975
988.585	151.96666
988.755	164.62107
988.925	166.73021
989.095	61.29953
989.265	158.29377
989.435	124.55141
989.605	143.53082
989.775	215.24608
989.945	124.55141
990.115	147.7487
990.285	124.55141
990.455	120.334
990.625	164.62107
990.795	206.80777
990.965	162.51195
991.134	78.16474
991.304	126.66015
991.474	103.46523
991.644	126.66015
991.814	114.00805
991.984	143.53082
992.153	141.42191
992.323	164.62107
992.493	59.19149
992.662	122.44269
992.832	114.00805
993.002	130.87769
993.171	71.84011
993.341	145.63975
993.511	95.03138
993.68	82.38126
993.85	73.9483
994.019	95.03138
994.189	65.5157
994.358	139.31302
994.528	130.87769
994.697	114.00805
994.867	114.00805
995.036	71.84011
995.206	105.57375
995.375	99.24826
995.544	120.334
995.714	143.53082
995.883	122.44269
996.052	48.65159
996.222	0.17561
996.391	80.27299
996.56	107.68229
996.73	17.0354
996.899	80.27299
997.068	82.38126
997.237	139.31302
997.406	97.13981
997.576	0.17561
997.745	71.84011
997.914	73.9483
998.083	130.87769
998.252	69.73195
998.421	4.39042
998.59	46.54368
998.759	97.13981
998.928	97.13981
999.097	67.62381
999.266	12.82031
999.435	46.54368
999.604	122.44269
999.773	76.05651
999.942	46.54368
1000.111	-12.46822
1000.28	-39.86016
1000.448	82.38126
1000.617	95.03138
1000.786	97.13981
1000.955	-20.89695
1001.124	14.92785
1001.292	111.89944
1001.461	21.25059
1001.63	42.32793
1001.798	54.97546
1001.967	67.62381
1002.136	38.11228
1002.304	63.4076
1002.473	137.20416
1002.642	99.24826
1002.81	10.7128
1002.979	54.97546
1003.147	40.22009
1003.316	149.85767
1003.484	-8.2537
1003.653	29.68125
1003.821	82.38126
1003.99	61.29953
1004.158	111.89944
1004.327	63.4076
1004.495	88.70622
1004.663	73.9483
1004.832	12.82031
1005	82.38126
1005.168	52.86748
1005.337	80.27299
1005.505	6.49786
1005.673	0.17561
1005.842	29.68125
1006.01	14.92785
1006.178	31.78897
1006.346	92.92297
1006.514	88.70622
1006.683	57.08346
1006.851	-4.03909
1007.019	90.81458
1007.187	99.24826
1007.355	76.05651
1007.523	33.89672
1007.691	4.39042
1007.859	46.54368
1008.027	4.39042
1008.195	92.92297
1008.363	6.49786
1008.531	-27.21824
1008.699	-27.21824
1008.867	40.22009
1009.035	38.11228
1009.203	-1.93175
1009.37	88.70622
1009.538	86.59788
1009.706	84.48956
1009.874	-41.96706
1010.042	54.97546
1010.209	29.68125
1010.377	48.65159
1010.545	8.60532
1010.713	21.25059
1010.88	42.32793
1011.048	0.17561
1011.216	12.82031
1011.383	59.19149
1011.551	42.32793
1011.718	63.4076
1011.886	48.65159
1012.054	21.25059
1012.221	17.0354
1012.389	6.49786
1012.556	14.92785
1012.724	-20.89695
1012.891	71.84011
1013.058	0.17561
1013.226	71.84011
1013.393	97.13981
1013.561	33.89672
1013.728	46.54368
1013.895	23.35822
1014.063	29.68125
1014.23	29.68125
1014.397	17.0354
1014.565	29.68125
1014.732	10.7128
1014.899	38.11228
1015.066	82.38126
1015.233	25.46587
1015.401	-29.32529
1015.568	-1.93175
1015.735	54.97546
1015.902	23.35822
1016.069	21.25059
1016.236	38.11228
1016.403	46.54368
1016.57	0.17561
1016.737	29.68125
1016.904	29.68125
1017.071	-41.96706
1017.238	-4.03909
1017.405	14.92785
1017.572	36.00449
1017.739	-12.46822
1017.906	57.08346
1018.073	21.25059
1018.24	-35.64629
1018.407	21.25059
1018.573	-4.03909
1018.74	25.46587
1018.907	57.08346
1019.074	27.57355
1019.241	21.25059
1019.407	14.92785
1019.574	27.57355
1019.741	54.97546
1019.907	-35.64629
1020.074	12.82031
1020.241	17.0354
1020.407	69.73195
1020.574	97.13981
1020.74	48.65159
1020.907	23.35822
1021.073	38.11228
1021.24	38.11228
1021.406	46.54368
1021.573	23.35822
1021.739	8.60532
1021.906	54.97546
1022.072	21.25059
1022.239	-35.64629
1022.405	23.35822
1022.571	12.82031
1022.738	38.11228
1022.904	-12.46822
1023.07	-4.03909
1023.237	-88.31244
1023.403	23.35822
1023.569	42.32793
1023.735	105.57375
1023.902	57.08346
1024.068	33.89672
1024.234	14.92785
1024.4	17.0354
1024.566	-37.75323
1024.732	-33.53931
1024.898	14.92785
1025.065	88.70622
1025.231	27.57355
1025.397	25.46587
1025.563	10.7128
1025.729	12.82031
1025.895	61.29953
1026.061	8.60532
1026.227	0.17561
1026.392	-46.18078
1026.558	84.48956
1026.724	-29.32529
1026.89	-29.32529
1027.056	-16.68263
1027.222	71.84011
1027.388	-6.14641
1027.553	42.32793
1027.719	31.78897
1027.885	48.65159
1028.051	6.49786
1028.216	48.65159
1028.382	46.54368
1028.548	-12.46822
1028.713	38.11228
1028.879	38.11228
1029.045	-44.07393
1029.21	-35.64629
1029.376	36.00449
1029.541	-4.03909
1029.707	29.68125
1029.873	-31.43231
1030.038	6.49786
1030.204	23.35822
1030.369	-1.93175
1030.534	-16.68263
1030.7	-44.07393
1030.865	14.92785
1031.031	78.16474
1031.196	-25.11117
1031.361	-29.32529
1031.527	38.11228
1031.692	21.25059
1031.857	4.39042
1032.023	69.73195
1032.188	-4.03909
1032.353	33.89672
1032.518	65.5157
1032.684	38.11228
1032.849	54.97546
1033.014	38.11228
1033.179	76.05651
1033.344	14.92785
1033.509	-18.7898
1033.674	-4.03909
1033.839	21.25059
1034.004	8.60532
1034.17	-48.28761
1034.335	33.89672
1034.5	-29.32529
1034.664	4.39042
1034.829	-37.75323
1034.994	6.49786
1035.159	29.68125
1035.324	57.08346
1035.489	-18.7898
1035.654	21.25059
1035.819	23.35822
1035.984	38.11228
1036.148	2.283
1036.313	38.11228
1036.478	42.32793
1036.643	-4.03909
1036.807	-67.24789
1036.972	50.75953
1037.137	14.92785
1037.301	21.25059
1037.466	-12.46822
1037.631	65.5157
1037.795	-25.11117
1037.96	21.25059
1038.124	-35.64629
1038.289	101.35674
1038.454	-20.89695
1038.618	-12.46822
1038.783	29.68125
1038.947	73.9483
1039.111	-50.3944
1039.276	84.48956
1039.44	40.22009
1039.605	17.0354
1039.769	97.13981
1039.933	17.0354
1040.098	12.82031
1040.262	-33.53931
1040.426	-29.32529
1040.591	12.82031
1040.755	-29.32529
1040.919	-44.07393
1041.083	-29.32529
1041.248	19.14299
1041.412	-33.53931
1041.576	-18.7898
1041.74	-12.46822
1041.904	0.17561
1042.068	-33.53931
1042.232	-46.18078
1042.397	17.0354
1042.561	29.68125
1042.725	19.14299
1042.889	-4.03909
1043.053	-58.82135
1043.217	-12.46822
1043.381	36.00449
1043.544	21.25059
1043.708	2.283
1043.872	4.39042
1044.036	-94.6313
1044.2	63.4076
1044.364	57.08346
1044.528	-33.53931
1044.691	46.54368
1044.855	33.89672
1045.019	12.82031
1045.183	14.92785
1045.346	12.82031
1045.51	42.32793
1045.674	76.05651
1045.837	-4.03909
1046.001	61.29953
1046.165	-27.21824
1046.328	0.17561
1046.492	23.35822
1046.655	31.78897
1046.819	6.49786
1046.983	-18.7898
1047.146	25.46587
1047.31	-29.32529
1047.473	44.4358
1047.636	-1.93175
1047.8	21.25059
1047.963	23.35822
1048.127	-37.75323
1048.29	-16.68263
