Data from absorb_only_2.23.25_USB4F045381__6__0111.txt Node

Date: Sun Feb 23 19:13:02 EST 2025
User: ssocol
Spectrometer: USB4F04538
Trigger mode: 4
Integration Time (sec): 2.600000E-3
Scans to average: 1
Electric dark correction enabled: true
Nonlinearity correction enabled: true
Boxcar width: 0
XAxis mode: Wavelengths
Number of Pixels in Spectrum: 3648
>>>>>Begin Spectral Data<<<<<
345.52	18.44046
345.736	18.44046
345.952	18.44046
346.168	-67.95008
346.384	35.30189
346.6	-17.38502
346.816	-0.52684
347.032	-72.16318
347.248	75.35377
347.464	-46.88306
347.68	16.33288
347.896	1.58054
348.112	66.92111
348.328	31.08639
348.544	-15.27784
348.76	-42.66935
348.975	3.68794
349.191	43.73317
349.407	-15.27784
349.623	-34.24164
349.839	-51.09666
350.055	12.11781
350.27	54.2728
350.486	-15.27784
350.702	43.73317
350.918	-32.13465
351.133	7.90283
351.349	7.90283
351.565	24.76332
351.781	35.30189
351.996	-25.81353
352.212	-40.56246
352.428	24.76332
352.644	-8.95613
352.859	56.38079
353.075	79.57023
353.291	56.38079
353.506	35.30189
353.722	60.59685
353.938	18.44046
354.153	54.2728
354.369	14.22533
354.584	-6.84884
354.8	-19.49219
355.016	7.90283
355.231	-76.37618
355.447	-59.52357
355.662	12.11781
355.878	69.02924
356.093	-40.56246
356.309	50.05688
356.524	-4.74153
356.74	28.97868
356.955	5.79537
357.171	-48.98987
357.386	-8.95613
357.602	1.58054
357.817	-53.20343
358.033	-30.02763
358.248	26.87099
358.464	37.40968
358.679	-21.59933
358.895	-8.95613
359.11	12.11781
359.325	37.40968
359.541	41.62532
359.756	52.16483
359.972	96.437
360.187	-17.38502
360.402	28.97868
360.618	-34.24164
360.833	35.30189
361.048	12.11781
361.264	-42.66935
361.479	24.76332
361.694	-34.24164
361.909	16.33288
362.125	-65.84349
362.34	-51.09666
362.555	12.11781
362.77	41.62532
362.986	-67.95008
363.201	-13.17063
363.416	10.01031
363.631	-0.52684
363.847	22.65567
364.062	-55.31017
364.277	-34.24164
364.492	-6.84884
364.707	-15.27784
364.922	-25.81353
365.138	-15.27784
365.353	-8.95613
365.568	33.19413
365.783	3.68794
365.998	-6.84884
366.213	1.58054
366.428	12.11781
366.643	-82.69548
366.858	50.05688
367.073	-25.81353
367.288	-17.38502
367.503	3.68794
367.718	43.73317
367.933	-93.22713
368.148	102.7624
368.363	-8.95613
368.578	-63.73688
368.793	58.48881
369.008	7.90283
369.223	7.90283
369.438	-51.09666
369.653	54.2728
369.868	-27.92059
370.083	-15.27784
370.298	-27.92059
370.513	-8.95613
370.728	-40.56246
370.943	-17.38502
371.157	20.54805
371.372	3.68794
371.587	58.48881
371.802	-46.88306
372.017	-8.95613
372.232	7.90283
372.446	-0.52684
372.661	37.40968
372.876	-13.17063
373.091	-15.27784
373.306	-21.59933
373.52	-21.59933
373.735	-0.52684
373.95	96.437
374.165	58.48881
374.379	-17.38502
374.594	50.05688
374.809	52.16483
375.023	54.2728
375.238	50.05688
375.453	-21.59933
375.667	1.58054
375.882	-8.95613
376.097	-4.74153
376.311	12.11781
376.526	-34.24164
376.741	75.35377
376.955	106.97945
377.17	1.58054
377.384	60.59685
377.599	3.68794
377.813	7.90283
378.028	45.84105
378.242	-25.81353
378.457	54.2728
378.672	-19.49219
378.886	-17.38502
379.101	-30.02763
379.315	-19.49219
379.53	7.90283
379.744	41.62532
379.958	41.62532
380.173	73.24557
380.387	-8.95613
380.602	5.79537
380.816	35.30189
381.031	50.05688
381.245	-59.52357
381.459	-8.95613
381.674	45.84105
381.888	16.33288
382.103	28.97868
382.317	56.38079
382.531	35.30189
382.746	16.33288
382.96	18.44046
383.174	7.90283
383.388	-8.95613
383.603	-17.38502
383.817	142.82785
384.031	1.58054
384.246	3.68794
384.46	50.05688
384.674	66.92111
384.888	-17.38502
385.103	-0.52684
385.317	16.33288
385.531	100.65391
385.745	-2.6342
385.959	-25.81353
386.174	-15.27784
386.388	-17.38502
386.602	-40.56246
386.816	33.19413
387.03	12.11781
387.244	-0.52684
387.458	-38.45555
387.672	60.59685
387.887	41.62532
388.101	47.94895
388.315	12.11781
388.529	37.40968
388.743	-42.66935
388.957	100.65391
389.171	18.44046
389.385	-17.38502
389.599	18.44046
389.813	35.30189
390.027	-32.13465
390.241	-25.81353
390.455	77.46199
390.669	-11.06339
390.883	20.54805
391.097	-13.17063
391.311	-15.27784
391.525	75.35377
391.738	14.22533
391.952	37.40968
392.166	-4.74153
392.38	-17.38502
392.594	18.44046
392.808	-53.20343
393.022	50.05688
393.236	90.11179
393.449	-8.95613
393.663	52.16483
393.877	18.44046
394.091	33.19413
394.305	-51.09666
394.518	-13.17063
394.732	-15.27784
394.946	28.97868
395.16	7.90283
395.373	5.79537
395.587	18.44046
395.801	20.54805
396.015	52.16483
396.228	-6.84884
396.442	62.70491
396.656	79.57023
396.869	58.48881
397.083	-4.74153
397.297	3.68794
397.51	-13.17063
397.724	3.68794
397.938	26.87099
398.151	-40.56246
398.365	96.437
398.578	7.90283
398.792	69.02924
399.005	-0.52684
399.219	24.76332
399.433	43.73317
399.646	62.70491
399.86	-63.73688
400.073	26.87099
400.287	7.90283
400.5	5.79537
400.714	-17.38502
400.927	37.40968
401.141	50.05688
401.354	151.26366
401.567	50.05688
401.781	43.73317
401.994	24.76332
402.208	-2.6342
402.421	43.73317
402.635	-0.52684
402.848	-4.74153
403.061	1.58054
403.275	41.62532
403.488	-8.95613
403.701	71.13739
403.915	-13.17063
404.128	-0.52684
404.341	43.73317
404.555	-42.66935
404.768	-46.88306
404.981	37.40968
405.195	41.62532
405.408	100.65391
405.621	33.19413
405.834	75.35377
406.048	83.78679
406.261	22.65567
406.474	41.62532
406.687	7.90283
406.9	10.01031
407.114	83.78679
407.327	16.33288
407.54	24.76332
407.753	35.30189
407.966	22.65567
408.179	71.13739
408.392	12.11781
408.605	1.58054
408.819	16.33288
409.032	-55.31017
409.245	50.05688
409.458	54.2728
409.671	37.40968
409.884	83.78679
410.097	31.08639
410.31	-34.24164
410.523	16.33288
410.736	77.46199
410.949	83.78679
411.162	66.92111
411.375	88.00344
411.588	37.40968
411.801	39.51749
412.014	90.11179
412.227	35.30189
412.44	35.30189
412.653	52.16483
412.865	35.30189
413.078	50.05688
413.291	90.11179
413.504	47.94895
413.717	94.32857
413.93	14.22533
414.143	39.51749
414.356	92.22017
414.568	109.088
414.781	54.2728
414.994	62.70491
415.207	24.76332
415.42	104.87091
415.632	52.16483
415.845	33.19413
416.058	47.94895
416.271	14.22533
416.483	35.30189
416.696	52.16483
416.909	7.90283
417.121	41.62532
417.334	88.00344
417.547	92.22017
417.759	73.24557
417.972	125.95723
418.185	-30.02763
418.397	73.24557
418.61	41.62532
418.823	77.46199
419.035	111.19658
419.248	20.54805
419.46	62.70491
419.673	-17.38502
419.885	50.05688
420.098	50.05688
420.311	10.01031
420.523	62.70491
420.736	64.813
420.948	62.70491
421.161	92.22017
421.373	20.54805
421.586	12.11781
421.798	119.63111
422.01	33.19413
422.223	85.8951
422.435	75.35377
422.648	83.78679
422.86	94.32857
423.073	187.11962
423.285	98.54544
423.497	71.13739
423.71	41.62532
423.922	92.22017
424.134	12.11781
424.347	66.92111
424.559	3.68794
424.771	45.84105
424.984	79.57023
425.196	50.05688
425.408	33.19413
425.621	28.97868
425.833	14.22533
426.045	138.61006
426.257	121.73979
426.47	94.32857
426.682	96.437
426.894	111.19658
427.106	66.92111
427.318	109.088
427.531	136.50121
427.743	83.78679
427.955	28.97868
428.167	47.94895
428.379	185.01029
428.591	136.50121
428.804	50.05688
429.016	109.088
429.228	50.05688
429.44	113.30518
429.652	20.54805
429.864	115.4138
430.076	88.00344
430.288	41.62532
430.5	121.73979
430.712	210.32369
430.924	168.13631
431.136	121.73979
431.348	187.11962
431.56	147.04571
431.772	16.33288
431.984	58.48881
432.196	121.73979
432.408	130.17476
432.62	119.63111
432.832	176.57313
433.044	187.11962
433.256	100.65391
433.468	111.19658
433.679	159.69982
433.891	153.37267
434.103	121.73979
434.315	140.71894
434.527	58.48881
434.739	119.63111
434.95	119.63111
435.162	187.11962
435.374	172.35468
435.586	197.66663
435.798	111.19658
436.009	180.79167
436.221	170.24549
436.433	142.82785
436.645	69.02924
436.856	218.76214
437.068	144.93677
437.28	155.4817
437.491	176.57313
437.703	212.43327
437.915	172.35468
438.126	168.13631
438.338	170.24549
438.55	170.24549
438.761	189.22898
438.973	172.35468
439.184	252.51905
439.396	235.63997
439.608	197.66663
439.819	214.54287
440.031	151.26366
440.242	252.51905
440.454	180.79167
440.665	214.54287
440.877	237.74979
441.088	235.63997
441.3	193.44776
441.511	296.83241
441.723	248.29916
441.934	180.79167
442.146	263.0691
442.357	265.17916
442.569	248.29916
442.78	296.83241
442.991	225.09118
443.203	284.17061
443.414	254.62902
443.626	218.76214
443.837	176.57313
444.048	233.53017
444.26	235.63997
444.471	246.18925
444.682	252.51905
444.894	273.61962
445.105	269.39935
445.316	328.48976
445.528	336.93241
445.739	328.48976
445.95	322.15797
446.161	370.70575
446.373	286.28086
446.584	277.83996
446.795	425.5966
447.006	305.27397
447.217	256.73901
447.429	408.70593
447.64	263.0691
447.851	301.05315
448.062	315.82634
448.273	288.39113
448.484	343.26457
448.695	398.14978
448.907	341.15383
449.118	450.9345
449.329	233.53017
449.54	307.38441
449.751	442.48828
449.962	328.48976
450.173	410.8172
450.384	417.15113
450.595	516.40091
450.806	436.15378
451.017	472.05113
451.228	459.38097
451.439	482.61001
451.65	450.9345
451.861	410.8172
452.072	482.61001
452.283	450.9345
452.494	533.29774
452.705	417.15113
452.915	480.4982
453.126	552.30774
453.337	510.06483
453.548	512.17684
453.759	484.72183
453.97	550.19546
454.181	573.43126
454.391	493.16926
454.602	535.4099
454.813	611.45693
455.024	702.31221
455.235	501.61693
455.445	522.73711
455.656	634.69687
455.867	636.80966
456.078	567.09406
456.288	651.59957
456.499	531.18558
456.71	655.82537
456.921	611.45693
457.131	742.46427
457.342	685.40726
457.553	736.12421
457.763	632.58408
457.974	801.64253
458.184	786.84724
458.395	822.77947
458.606	810.0972
458.816	920.02061
459.027	947.50485
459.237	848.14499
459.448	945.39064
459.659	873.51177
459.869	1025.73564
460.08	1015.1634
460.29	1008.82012
460.501	1112.43331
460.711	1021.50672
460.922	905.22192
461.132	1116.66268
461.343	1065.91149
461.553	1036.30803
461.764	1065.91149
461.974	1116.66268
462.184	1182.22019
462.395	1158.9574
462.605	1258.35589
462.816	1385.25557
463.026	1230.86198
463.236	1376.79543
463.447	1370.45033
463.657	1260.47082
463.867	1613.67908
464.078	1374.68039
464.288	1569.26422
464.498	1681.35705
464.709	1643.2885
464.919	1476.20267
465.129	1672.89745
465.339	1605.21917
465.55	1666.55272
465.76	1622.13896
465.97	1666.55272
466.18	1715.19499
466.391	1956.26019
466.601	1784.98299
466.811	1871.683
467.021	1736.34329
467.231	2021.80098
467.441	1757.49123
467.651	2154.97625
467.862	2019.68685
468.072	2334.6055
468.282	2290.23262
468.492	2201.47463
468.702	2334.6055
468.912	2507.82796
469.122	2387.4247
469.332	2579.63011
469.542	2469.8097
469.752	2729.52447
469.962	2721.08143
470.172	2683.08515
470.382	2638.75093
470.592	2716.85983
470.802	2699.97291
471.012	2906.77805
471.222	2953.18506
471.432	3073.38758
471.642	3109.22773
471.852	3227.2565
472.062	3185.10924
472.272	3431.57441
472.482	3265.18335
472.691	3555.76888
472.901	3355.76409
473.111	3395.77794
473.321	3541.03726
473.531	3667.27858
473.741	3597.8542
473.95	3711.44696
474.16	3757.70949
474.37	4154.74866
474.58	4011.98239
474.79	4303.70961
474.999	4305.80689
475.209	3993.07969
475.419	4437.89139
475.628	4544.75334
475.838	4341.45722
476.048	4402.25805
476.258	4582.45558
476.467	4791.7803
476.677	4906.81234
476.886	4990.42848
477.096	5126.22596
477.306	5109.51771
477.515	4986.24855
477.725	5186.78091
477.935	5195.13178
478.144	5241.0549
478.354	5376.67071
478.563	5580.95011
478.773	5397.5259
478.982	5693.41555
479.192	5680.92278
479.401	5591.36647
479.611	5837.02125
479.82	5757.94795
480.03	6040.7899
480.239	6296.22055
480.449	6150.89707
480.658	6422.76613
480.868	6509.84551
481.077	6513.99112
481.287	6493.26212
481.496	6642.45931
481.705	6803.95493
481.915	7105.86983
482.124	7076.93988
482.333	6899.13079
482.543	6884.65061
482.752	7012.8651
482.961	6897.06226
483.171	7605.26243
483.38	7147.19074
483.589	7588.77388
483.799	7576.40657
484.008	7751.53886
484.217	7508.37257
484.426	7691.80502
484.636	7803.01938
484.845	7883.303
485.054	7570.22262
485.263	8121.91077
485.472	7996.47016
485.682	8156.85628
485.891	8352.03458
486.1	8101.35188
486.309	8378.72944
486.518	8347.92739
486.727	8676.26092
486.936	8764.41874
487.146	8460.847
487.355	8795.1635
487.564	9143.32348
487.773	9108.53024
487.982	8680.36203
488.191	9030.73908
488.4	8899.66524
488.609	9243.58232
488.818	9511.42527
489.027	9368.33807
489.236	9313.12593
489.445	9529.81648
489.654	9458.28784
489.863	9858.60177
490.072	9640.13685
490.281	9836.15073
490.49	9879.01025
490.698	9870.84704
490.907	9840.23287
491.116	10301.14383
491.325	10107.48584
491.534	10223.69546
491.743	10195.1569
491.952	10561.88241
492.16	10398.94575
492.369	10515.04649
492.578	10749.16058
492.787	10655.53443
492.996	10785.78999
493.204	11062.42467
493.413	10977.01568
493.622	11029.89021
493.831	10981.08321
494.039	11393.71516
494.248	11131.55118
494.457	11489.19084
494.665	11351.04883
494.874	11501.37769
495.083	11253.50917
495.291	11550.1217
495.5	11379.49354
495.709	11615.10536
495.917	11513.5642
496.126	11464.8161
496.335	11856.68289
496.543	11992.64421
496.752	11759.25474
496.96	12138.71209
497.169	12000.76016
497.377	12108.28457
497.586	12158.99616
497.794	12323.27016
498.003	12238.09696
498.211	12722.61624
498.42	12242.15311
498.628	12495.60735
498.837	12548.31276
499.045	12584.79862
499.254	12517.90632
499.462	12868.51155
499.671	13004.25009
499.879	13058.94423
500.087	12852.30238
500.296	12943.47452
500.504	13105.53273
500.713	13182.49957
500.921	13160.22038
501.129	12965.75943
501.338	13146.04243
501.546	13293.88743
501.754	13328.31378
501.962	13445.7595
502.171	13316.16344
502.379	13399.1878
502.587	13293.88743
502.795	13498.40332
503.004	13380.96352
503.212	13921.49542
503.42	13546.9954
503.628	13684.662
503.837	13567.24149
504.045	13966.02391
504.253	13795.99897
504.461	13769.6838
504.669	13789.92628
504.877	14291.85721
505.085	13947.80786
505.294	14437.55528
505.502	14206.86248
505.71	14603.48001
505.918	13933.63968
506.126	14508.37788
506.334	14059.12501
506.542	14569.08167
506.75	14615.62052
506.958	14813.91063
507.166	14583.24573
507.374	14563.01134
507.582	14627.76099
507.79	14593.36288
507.998	14674.29911
508.206	14830.09724
508.414	14957.56548
508.622	14951.49561
508.83	14741.07033
509.037	15054.68304
509.245	14826.05059
509.453	15457.31585
509.661	15208.45171
509.869	15301.52234
510.077	14961.61206
510.285	15414.82647
510.492	15242.84734
510.7	15586.80888
510.908	15085.03216
511.116	15271.17318
511.324	15273.19646
511.531	15291.40595
511.739	15511.94541
511.947	15752.72642
512.155	15447.19932
512.362	15621.20594
512.57	15297.47578
512.778	15734.51565
512.985	15900.43921
513.193	15882.22771
513.401	15991.4983
513.608	16163.5067
513.816	15949.00373
514.024	15817.47649
514.231	16232.31329
514.439	16181.72002
514.646	16319.33628
514.854	15880.20422
515.061	15787.12476
515.269	16323.38395
515.477	16133.15147
515.684	16284.93145
515.892	16422.55408
516.099	16479.22486
516.307	16594.59546
516.514	16463.03304
516.722	16740.3371
516.929	16703.90056
517.136	16677.58576
517.344	16618.88491
517.551	16705.92479
517.759	16764.62856
517.966	16892.16452
518.173	16835.48065
518.381	16871.92005
518.588	17041.98173
518.796	17161.44125
519.003	17094.62371
519.21	17080.45068
519.418	17027.8092
519.625	17064.25311
519.832	17321.41115
520.039	17339.63674
520.247	17402.41567
520.454	17404.44084
520.661	17710.27878
520.868	17370.01328
521.076	17685.97106
521.283	17523.93173
521.49	17752.81844
521.697	17611.02528
521.904	17852.08346
522.112	17671.79179
522.319	17886.52427
522.526	17807.51448
522.733	18137.7704
522.94	18141.82321
523.147	18040.50733
523.354	18591.77774
523.561	18366.77724
523.768	18253.2812
523.975	18401.23372
524.183	18279.62745
524.39	18563.39669
524.597	18370.83088
524.804	18241.12161
525.011	18504.60978
525.218	18557.31514
525.425	18541.09782
525.632	18599.88676
525.838	18589.7505
526.045	18745.85967
526.252	18865.49161
526.459	18705.30959
526.666	18297.86753
526.873	18790.46657
527.08	18650.56949
527.287	19198.10138
527.494	18926.32674
527.701	18942.55005
527.907	19396.90844
528.114	19242.72809
528.321	19396.90844
528.528	19465.8916
528.735	19839.29586
528.941	19650.54666
529.148	19319.81529
529.355	19940.78892
529.562	19585.60907
529.768	19786.52361
529.975	19133.19333
530.182	19445.60194
530.388	19551.11272
530.595	19871.77249
530.802	19439.51512
531.008	19910.3399
531.215	19841.32561
531.422	20196.59808
531.628	19969.20886
531.835	19843.35538
532.042	19879.89182
532.248	20243.30061
532.455	20129.59399
532.661	20476.84658
532.868	20359.05124
533.074	20342.80471
533.281	20371.23631
533.487	20657.62886
533.694	20442.3189
533.9	20763.26974
534.107	20623.09486
534.313	20862.82622
534.52	20842.50776
534.726	20820.15794
534.933	20619.03211
535.139	20860.79435
535.345	20690.13255
535.552	20749.0482
535.758	21181.87984
535.965	21588.46214
536.171	21383.11806
536.377	21263.18345
536.584	21338.39504
536.79	21202.20513
536.996	21364.82205
537.203	21364.82205
537.409	21395.31558
537.615	21316.03426
537.821	21360.75631
538.028	21830.45372
538.234	21555.92969
538.44	21734.87062
538.646	21777.57691
538.853	21887.4009
539.059	21921.97744
539.265	21816.2174
539.471	21903.67208
539.677	21576.26235
539.883	21765.37494
540.09	21675.8981
540.296	22174.21598
540.502	22288.14902
540.708	22273.90676
540.914	22713.46392
541.12	22269.83757
541.326	22487.55948
541.532	22296.28754
541.738	22509.94445
541.944	22121.32246
542.15	22532.32986
542.356	22542.50519
542.562	22919.05394
542.768	22656.47492
542.974	22662.58075
543.18	22587.27769
543.386	23033.0594
543.592	23012.70051
543.798	22800.98806
544.004	23039.16713
544.21	23593.05567
544.415	23320.15467
544.621	23971.94847
544.827	23191.87006
545.033	23460.67134
545.239	23481.03732
545.445	23749.89678
545.651	23658.23423
545.856	23511.58685
546.062	23682.67699
546.268	23413.83079
546.474	23436.23259
546.679	23185.76159
546.885	23252.95638
547.091	23169.47248
547.297	23000.48534
547.502	23615.46045
547.708	23409.75778
547.914	23601.20282
548.119	23715.268
548.325	23731.56379
548.531	23711.19408
548.736	23764.15594
548.942	23601.20282
549.147	23588.98212
549.353	23672.49246
549.559	23935.27702
549.764	23857.86257
549.97	23876.1972
550.175	24279.61676
550.381	24546.58375
550.586	23949.53803
550.792	24569.00284
550.997	24149.20665
551.203	24399.84827
551.408	24748.36634
551.614	24350.93943
551.819	24776.90319
552.025	24856.40118
552.23	24937.94131
552.435	24458.94846
552.641	25115.3038
552.846	24571.04095
553.052	24754.48134
553.257	25050.06503
553.462	24893.09377
553.668	25121.42005
553.873	24736.13641
554.078	25282.48849
554.283	25109.18757
554.489	25349.77422
554.694	25555.72345
554.899	25172.3896
555.105	25345.69623
555.31	25023.56243
555.515	25282.48849
555.72	25117.34255
555.925	25482.31341
556.131	25419.10132
556.336	25319.18951
556.541	25514.93977
556.746	25459.88309
556.951	25390.55458
557.156	25076.568
557.361	25616.90047
557.567	25828.9944
557.772	25427.25761
557.977	25537.37069
558.182	26128.81531
558.387	25623.01827
558.592	25967.68222
558.797	26037.02928
559.002	25884.0606
559.207	25537.37069
559.412	26053.34654
559.617	25567.95871
559.822	26524.55432
560.027	26163.49095
560.232	26287.91938
560.437	26055.3862
560.642	26393.99442
560.847	26453.15356
561.051	26083.9417
561.256	26432.7537
561.461	26381.75476
561.666	26375.63496
561.871	26396.03436
562.076	26400.11426
562.281	26846.90118
562.485	25916.69306
562.69	26361.35547
562.895	26218.56505
563.1	26591.8768
563.305	26308.31808
563.509	26740.80821
563.714	26618.39824
563.919	26885.6669
564.123	26483.75365
564.328	26789.7737
564.533	26926.47349
564.737	26546.99496
564.942	26857.10264
565.147	27293.75764
565.351	26814.25677
565.556	26691.84357
565.761	27010.12875
565.965	26938.71557
566.17	26759.17017
566.374	26836.69976
566.579	26991.7652
566.784	26952.99807
566.988	27140.71724
567.193	27193.7704
567.397	27063.17965
567.602	27146.83871
567.806	27067.26052
568.011	27263.14896
568.215	27410.07325
568.42	27383.54476
568.624	27589.65629
568.828	27683.53302
569.033	27508.02644
569.237	27636.59434
569.442	27665.16564
569.646	27306.00119
569.85	27391.70735
570.055	27771.28966
570.259	27834.55742
570.463	27885.58063
570.668	27646.79834
570.872	27636.59434
571.076	27820.27105
571.281	27871.29405
571.485	27867.21219
571.689	27973.34222
571.893	28152.95386
572.098	28185.61145
572.302	27854.96662
572.506	27761.08529
572.71	28265.2155
572.914	28355.02719
573.119	28297.87405
573.323	28093.76271
573.527	28322.36815
573.731	28410.13994
573.935	28471.37724
574.139	28179.48813
574.343	27738.63577
574.547	28489.74862
574.751	28301.95639
574.955	28479.54229
575.159	28195.81701
575.364	28628.55736
575.568	28469.33598
575.772	28422.38732
575.976	28214.18707
576.18	28534.65679
576.383	28810.24084
576.587	28538.73938
576.791	28381.56286
576.995	28644.88812
577.199	29251.21478
577.403	29189.9655
577.607	28944.97774
577.811	28887.81608
578.015	28634.68139
578.219	29145.04996
578.422	28604.06135
578.626	28959.26828
578.83	29236.9232
579.034	28818.40659
579.238	28953.14376
579.442	29422.71777
579.645	29226.71496
579.849	29236.9232
580.053	29361.46585
580.257	29157.29961
580.46	29557.47533
580.664	29486.01241
580.868	29669.77684
581.071	29367.591
581.275	29063.38663
581.479	29269.58975
581.682	29336.96535
581.886	29510.51384
582.09	29702.44699
582.293	29922.97778
582.497	30031.20599
582.7	30008.74327
582.904	30290.55844
583.107	30445.77069
583.311	29963.81824
583.515	30323.23411
583.718	29743.28506
583.922	30543.80316
584.125	30023.03771
584.329	29853.55003
584.532	29686.11188
584.735	29749.41081
584.939	29745.32697
585.142	30037.33221
585.346	30178.23813
585.549	30294.64288
585.753	29976.07047
585.956	30466.19388
586.159	30946.17636
586.363	30707.19719
586.566	30795.02496
586.769	30486.6172
586.973	30306.89624
587.176	30466.19388
587.379	30347.74108
587.582	30237.46111
587.786	30296.6851
587.989	30688.81494
588.192	30462.10923
588.395	30768.47212
588.599	30848.13135
588.802	30919.62218
589.005	30752.13202
589.208	30891.02564
589.411	30603.03254
589.615	30858.34422
589.818	30523.37949
590.021	30623.45671
590.224	31174.96091
590.427	31228.07428
590.63	31448.71035
590.833	31693.88406
591.036	31422.15131
591.239	30954.34692
591.442	31036.05382
591.645	31375.16292
591.848	31105.50651
592.051	31430.32329
592.254	30792.98243
592.457	31295.4889
592.66	30797.0675
592.863	31446.66733
593.066	31563.12169
593.269	31653.02006
593.472	31550.86308
593.675	32080.08518
593.878	31606.02731
594.081	31456.88241
594.284	31577.42348
594.486	31761.31122
594.689	31667.32238
594.892	31287.31734
595.095	31708.18663
595.298	32129.13152
595.5	31924.77926
595.703	32304.89065
595.906	31885.95452
596.109	32063.73665
596.311	31949.30051
596.514	31753.13813
596.717	32098.47742
596.92	31953.38741
597.122	32398.9078
597.325	32893.60006
597.528	32482.70963
597.73	32826.13364
597.933	32593.08861
598.136	32243.57757
598.338	31734.74877
598.541	32290.58409
598.743	32899.73351
598.946	32775.02455
599.148	32597.17685
599.351	32264.01505
599.554	32762.7586
599.756	32063.73665
599.959	32772.98022
600.161	32478.62165
600.363	33114.41914
600.566	32895.64454
600.768	33122.59823
600.971	32881.33323
601.173	32883.3777
601.376	33104.19534
601.578	32617.61819
601.78	32952.89104
601.983	32815.9117
602.185	33245.2899
602.388	33486.61391
602.59	33141.00134
602.792	33055.12207
602.995	32969.24756
603.197	33141.00134
603.399	32828.17804
603.601	32787.29059
603.804	32533.81017
604.006	32807.73419
604.208	33110.32962
604.41	32666.67838
604.613	32883.3777
604.815	33239.15508
605.017	33155.31502
605.219	32723.91701
605.421	33034.67533
605.623	32738.22697
605.826	33666.61202
606.028	33261.64956
606.23	33613.42822
606.432	33425.25642
606.634	34243.59926
606.836	33547.97417
607.038	33525.47509
607.24	33351.631
607.442	33689.11352
607.644	33349.5859
607.846	33550.01956
608.048	33695.25036
608.25	33388.44322
608.452	33300.50449
608.654	33578.65535
608.856	32885.42216
609.058	32944.71284
609.26	33656.3842
609.462	33695.25036
609.664	33435.48248
609.866	33247.33485
610.067	33051.0327
610.269	33245.2899
610.471	32883.3777
610.673	33030.58601
610.875	33059.21145
611.077	33488.65921
611.278	33300.50449
611.48	33693.20474
611.682	33478.43276
611.884	34163.78622
612.085	33834.36003
612.287	34200.6223
612.489	33795.4896
612.69	34126.95135
612.892	34063.51629
613.094	34108.53436
613.295	33662.52088
613.497	33476.38747
613.699	33435.48248
613.9	33584.79167
614.102	33359.81141
614.304	33073.52436
614.505	33020.36277
614.707	32940.62376
614.908	33345.49572
615.11	34061.47006
615.311	33351.631
615.513	33069.43494
615.714	33527.52044
615.916	33286.1894
616.117	33836.40588
616.319	33777.07772
616.52	33615.47371
616.722	34081.93256
616.923	34454.41554
617.124	34319.32464
617.326	33595.01894
617.527	34010.31537
617.729	34002.13083
617.93	33805.71855
618.131	34108.53436
618.333	33746.39184
618.534	33770.94048
618.735	33975.53146
618.937	33707.52413
619.138	33770.94048
619.339	33646.15646
619.54	34272.25149
619.742	33930.51849
619.943	33367.99187
620.144	33394.57869
620.345	34345.9321
620.546	34243.59926
620.748	34560.86305
620.949	33950.97872
621.15	34474.88537
621.351	33887.55314
621.552	34004.17696
621.753	33748.43754
621.954	34124.905
622.155	33883.46128
622.356	34304.99781
622.558	34069.65502
622.759	33920.2885
622.96	34137.18314
623.161	34126.95135
623.362	33922.33449
623.563	34241.5527
623.764	34321.37134
623.965	34208.80826
624.166	33795.4896
624.366	33535.7019
624.567	33850.7269
624.768	33991.90023
624.969	33721.84367
625.17	33570.47364
625.371	33922.33449
625.572	34090.11767
625.773	33824.13086
625.973	34038.96172
626.174	34131.04406
626.375	34198.57582
626.576	34284.53124
626.777	34083.97883
626.977	34474.88537
627.178	34192.4364
627.379	34174.01835
627.58	34478.97938
627.78	34378.68065
627.981	33961.20896
628.182	34335.69838
628.382	33826.17668
628.583	33897.78284
628.784	33865.04808
628.984	33840.49758
629.185	34419.61776
629.386	33903.92071
629.586	34442.13384
629.787	33926.42648
629.987	33732.07202
630.188	34319.32464
630.388	34104.44174
630.589	33838.45173
630.79	34282.48461
630.99	34014.40766
631.191	34018.49997
631.391	34266.11166
631.591	33985.76191
631.792	34214.94777
631.992	34800.41109
632.193	34448.27467
632.393	34583.38221
632.594	34589.52388
632.794	34593.61836
632.994	34413.47709
633.195	34165.83264
633.395	34321.37134
633.595	33963.25502
633.796	33938.70254
633.996	34616.13824
634.196	34865.93877
634.397	35040.01895
634.597	34546.53294
634.797	34548.58008
634.997	34292.71782
635.198	33856.86453
635.398	34376.63384
635.598	34108.53436
635.798	34425.75846
635.998	33944.84061
636.199	34524.01459
636.399	35027.72985
636.599	34282.48461
636.799	34393.00846
636.999	34352.07238
637.199	34143.32226
637.399	34517.87331
637.599	34898.70431
637.799	34388.91478
637.999	34867.98658
638.199	35091.22531
638.399	34892.56068
638.599	34689.84324
638.799	34927.3751
638.999	34718.50777
639.199	34837.26985
639.399	34798.36342
639.599	34530.15591
639.799	34206.76176
639.999	34409.38333
640.199	34370.49342
640.399	34599.76009
640.599	33877.32351
640.799	35298.12921
640.998	34749.2207
641.198	34910.99168
641.398	34878.22571
641.598	35144.48303
641.798	35001.10405
641.997	34861.84316
642.197	35035.92257
642.397	35062.54939
642.597	34992.91166
642.796	35160.87067
642.996	34364.35304
643.196	34579.28778
643.395	34474.88537
643.595	34546.53294
643.795	34747.17315
643.994	35500.98474
644.194	35316.5686
644.394	35193.64686
644.593	35025.68169
644.793	35386.23212
644.992	35218.22981
645.192	34800.41109
645.392	34667.32169
645.591	35226.42428
645.791	34978.57513
645.99	35427.21336
646.19	34788.12515
646.389	34732.84035
646.589	35035.92257
646.788	34632.51666
646.987	34587.47666
647.187	34855.69977
647.386	34446.22772
647.586	35085.08039
647.785	35236.66747
647.984	35503.03403
648.184	35503.03403
648.383	35578.86177
648.582	35283.78775
648.782	35515.32994
648.981	35443.60643
649.18	35326.81287
649.38	35826.88974
649.579	35841.24091
649.778	36046.2877
649.977	35410.82062
650.177	35414.91878
650.376	35294.03163
650.575	34990.86357
650.774	35375.98712
650.973	35283.78775
651.173	35390.33015
651.372	35488.68905
651.571	36132.42451
651.77	35734.63869
651.969	35833.04021
652.168	35427.21336
652.367	36011.42572
652.566	35986.81827
652.765	35886.34635
652.964	35615.75352
653.163	35736.6886
653.362	35371.88916
653.561	35244.86212
653.76	34931.471
653.959	35261.25164
654.158	35525.57667
654.357	35105.56361
654.556	35113.75703
654.755	35679.29335
654.954	35509.18196
655.153	35257.15423
655.352	35386.23212
655.551	35392.37918
655.749	35126.04731
655.948	34974.47903
656.147	35216.1812
656.346	35650.59731
656.545	35378.03611
656.743	36017.57771
656.942	35820.73933
657.141	35978.61597
657.34	35765.38781
657.538	35666.99492
657.737	35384.18311
657.936	35935.55538
658.135	35699.79117
658.333	35455.90144
658.532	35673.14411
658.731	35619.85271
658.929	35076.88723
659.128	35257.15423
659.326	35507.13265
659.525	35513.28061
659.724	35294.03163
659.922	35367.79121
660.121	35091.22531
660.319	34927.3751
660.518	35064.59764
660.716	35619.85271
660.915	36105.76201
661.113	36111.91481
661.312	35933.50494
661.51	35539.92231
661.709	35761.28786
661.907	36077.04966
662.105	35863.79329
662.304	35853.54213
662.502	35855.59235
662.701	35775.63779
662.899	35597.30743
663.097	35714.13996
663.296	35375.98712
663.494	35318.61744
663.692	35445.65559
663.891	35521.47796
664.089	35496.88615
664.287	35689.54219
664.485	35480.49202
664.684	35464.09822
664.882	35429.26248
665.08	35083.03209
665.278	35812.53885
665.476	35486.63978
665.675	35265.34907
665.873	35701.84098
666.071	35695.69156
666.269	35636.24968
666.467	35066.64589
666.665	35132.19251
666.863	35025.68169
667.061	35361.64433
667.259	35242.81345
667.457	36046.2877
667.655	35880.19545
667.853	35984.76768
668.051	36181.65021
668.249	35951.95912
668.447	35892.4973
668.645	36327.29649
668.843	36407.3125
669.041	36218.57174
669.239	35482.54127
669.437	35214.1326
669.635	35537.87292
669.833	35560.41653
670.031	35392.37918
670.229	35533.77415
670.426	35597.30743
670.624	35662.89549
670.822	35291.98284
671.02	35423.11515
671.218	35378.03611
671.415	35574.76279
671.613	34984.71933
671.811	34906.89587
672.009	35078.93552
672.206	35011.34465
672.404	34775.83937
672.602	34976.52708
672.799	34824.98344
672.997	35779.73782
673.195	35089.177
673.392	35062.54939
673.59	34679.6061
673.788	35271.49525
673.985	35017.48907
674.183	35273.54399
674.38	34745.12559
674.578	35255.10553
674.775	35687.49241
674.973	35291.98284
675.17	35066.64589
675.368	35181.35564
675.565	35464.09822
675.763	35908.90009
675.96	35550.16935
676.158	35359.59538
676.355	34624.32742
676.553	35171.1131
676.75	34323.41805
676.947	34431.8992
677.145	34378.68065
677.342	34622.28012
677.539	34796.31576
677.737	35187.50123
677.934	34712.3653
678.131	34968.3349
678.329	34325.46476
678.526	34350.02561
678.723	34601.80735
678.92	34894.60855
679.118	34646.84799
679.315	34315.23124
679.512	33873.23169
679.709	34528.1088
679.906	34231.31996
680.104	34620.23282
680.301	34315.23124
680.498	34474.88537
680.695	34605.90187
680.892	34712.3653
681.089	34421.66465
681.286	34679.6061
681.483	34086.02511
681.68	34352.07238
681.877	34417.57086
682.075	34511.73207
682.272	34298.8578
682.469	34272.25149
682.665	34534.25014
682.862	34337.74512
683.059	34603.85461
683.256	34030.77698
683.453	34159.6934
683.65	34077.84003
683.847	34425.75846
684.044	34374.58703
684.241	33885.5072
684.438	34677.55869
684.635	33691.15913
684.831	33916.19653
685.028	34149.46141
685.225	33793.44383
685.422	33777.07772
685.619	34014.40766
685.815	33644.11092
686.012	33971.4393
686.209	33768.89474
686.405	34233.3665
686.602	33558.20115
686.799	33772.98622
686.996	34319.32464
687.192	34106.48805
687.389	33979.62363
687.586	34343.88535
687.782	34366.39983
687.979	34341.8386
688.175	33259.60459
688.372	33822.08503
688.568	33464.11585
688.765	33764.80328
688.962	33809.81015
689.158	33836.40588
689.355	33051.0327
689.551	32993.78265
689.748	33296.41445
689.944	32987.64884
690.14	33392.53353
690.337	33648.202
690.533	33449.79909
690.73	33251.42475
690.926	33034.67533
691.123	32623.75064
691.319	32971.29214
691.515	33120.55345
691.712	32654.4132
691.908	32405.03952
692.104	32413.21517
692.301	32413.21517
692.497	32178.17904
692.693	32454.09395
692.889	32631.92727
693.086	32959.02471
693.282	33134.86694
693.478	33505.0217
693.674	33357.7663
693.87	33218.70585
694.067	33204.39155
694.263	32844.5333
694.459	32636.0156
694.655	32155.69878
694.851	31883.91114
695.047	32597.17685
695.243	32631.92727
695.439	32672.811
695.635	33130.77736
695.831	33437.5277
696.027	32848.62214
696.224	32709.60717
696.42	32574.69164
696.615	32466.35776
696.811	32407.08343
697.007	32431.61051
697.203	32016.73535
697.399	32239.4901
697.595	32335.54791
697.791	31916.60558
697.987	31565.1648
698.183	32172.04803
698.379	31685.7112
698.575	31591.72536
698.77	31228.07428
698.966	31673.45197
699.162	31599.89789
699.358	32073.95447
699.554	31679.58158
699.749	32259.92754
699.945	32290.58409
700.141	31977.90897
700.337	31937.03985
700.532	32392.77611
700.728	32282.40897
700.924	32476.57766
701.119	31898.21489
701.315	32188.39742
701.511	31932.95298
701.706	32028.99646
701.902	31620.32936
702.097	31808.30707
702.293	32125.04428
702.489	31597.85476
702.684	31606.02731
702.88	31587.6391
703.075	31411.93637
703.271	31536.56145
703.466	31260.75994
703.662	31536.56145
703.857	31614.1999
704.053	31518.17375
704.248	31671.40877
704.443	31722.48929
704.639	31818.52369
704.834	31883.91114
705.03	31226.03144
705.225	31912.51875
705.42	31283.23157
705.616	31083.03634
705.811	31087.12181
706.006	30995.20009
706.202	30829.74826
706.397	30778.68472
706.592	31127.97686
706.787	31179.04652
706.983	31383.33476
707.178	32245.62131
707.373	31536.56145
707.568	31646.89052
707.763	31038.09652
707.959	31409.89339
708.154	31550.86308
708.349	30782.76978
708.544	31358.81934
708.739	31007.45615
708.934	30621.41429
709.129	30447.813
709.324	30447.813
709.519	30842.00364
709.714	30821.57804
709.909	30960.47486
710.104	30870.59971
710.299	30625.49913
710.494	30739.877
710.689	30923.70743
710.884	30917.57956
711.079	31050.35277
711.274	30590.77809
711.469	30886.94045
711.664	30893.06825
711.859	30917.57956
712.054	30999.28543
712.249	30837.91851
712.443	30445.77069
712.638	30825.66315
712.833	30539.71842
713.028	30772.55716
713.223	30388.5864
713.417	30343.65657
713.612	30572.39652
713.807	30688.81494
714.002	30065.92137
714.196	30149.64807
714.391	29900.51572
714.586	30355.9101
714.78	30235.41893
714.975	30411.05154
715.17	30533.59131
715.364	30762.34457
715.559	30905.32388
715.754	29777.99776
715.948	29935.22988
716.143	30088.38444
716.337	29667.73497
716.532	29865.8019
716.726	29859.67596
716.921	30043.45844
717.115	30343.65657
717.31	30674.51771
717.504	30212.95493
717.699	29816.79469
717.893	29579.93537
718.088	29775.95583
718.282	29508.47204
718.476	29833.13035
718.671	29608.52107
718.865	30276.26292
719.059	30067.96346
719.254	29998.53299
719.448	29802.50104
719.642	29802.50104
719.837	29469.67821
720.031	29708.57267
720.225	28893.9405
720.419	29030.72176
720.614	28859.23555
720.808	29241.00651
721.002	28757.16391
721.196	28889.85755
721.39	28900.06494
721.585	28942.93624
721.779	28657.13623
721.973	29012.34789
722.167	28336.65645
722.361	28871.48433
722.555	29042.97105
722.749	28808.19941
722.943	28916.39681
723.137	28555.06977
723.331	28632.64004
723.525	28814.32371
723.719	28928.64576
723.913	29181.79901
724.107	28593.85472
724.301	28479.54229
724.495	28753.0811
724.689	28489.74862
724.883	28377.48044
725.077	28779.61945
725.271	28624.47468
725.465	28455.0472
725.659	28538.73938
725.853	28528.53292
726.046	28440.75847
726.24	28271.33896
726.434	28177.44703
726.628	28953.14376
726.822	28236.6395
727.015	28665.30167
727.209	28287.66823
727.403	28879.65019
727.596	28228.47497
727.79	28430.55227
727.984	28448.92345
728.177	28975.60039
728.371	28714.2946
728.565	28644.88812
728.758	28475.45976
728.952	28259.09206
729.146	28224.39271
729.339	28587.73075
729.533	28442.79971
729.726	28393.81015
729.92	28269.29781
730.113	28399.93381
730.307	28263.17435
730.5	28659.17759
730.694	28753.0811
730.887	28030.49044
731.081	28093.76271
731.274	28487.70735
731.468	28367.2744
731.661	28501.99625
731.854	28434.63474
732.048	28240.72177
732.241	28516.28521
732.435	28412.18117
732.628	28187.65256
732.821	28367.2744
733.014	28410.13994
733.208	28324.40933
733.401	28052.94176
733.594	27805.98474
733.788	27601.90093
733.981	27659.04319
734.174	27646.79834
734.367	28083.55743
734.56	28077.43428
734.754	27303.96059
734.947	27975.38321
735.14	27995.7932
735.333	28097.84483
735.526	28391.76893
735.719	27963.13728
735.912	28257.05091
736.105	28553.02847
736.298	28257.05091
736.491	28026.40839
736.684	28246.84519
736.877	28016.2033
737.07	28446.8822
737.263	27722.30894
737.456	27865.17126
737.649	27671.28809
737.842	28226.43383
738.035	27846.80292
738.228	28132.54301
738.421	28236.6395
738.614	27689.65551
738.807	27412.11391
739	26906.07012
739.192	27352.93523
739.385	26901.98947
739.578	27352.93523
739.771	27169.28421
739.964	26975.44214
740.156	27328.44782
740.349	27126.43385
740.542	27261.1084
740.735	27350.89461
740.927	27775.37141
741.12	27671.28809
741.313	27571.2894
741.505	27295.79823
741.698	26981.56327
741.891	26989.72481
742.083	26879.54597
742.276	26863.22353
742.468	26779.57249
742.661	26408.27409
742.854	26785.69321
743.046	26646.96007
743.239	26761.21039
743.431	26950.95771
743.624	26408.27409
743.816	26461.31355
744.009	26540.87476
744.201	26597.99711
744.393	26971.36138
744.586	26718.36597
744.778	26461.31355
744.971	26277.72009
745.163	26434.79368
745.355	26526.59437
745.548	26736.72779
745.74	26802.01521
745.932	27269.27067
746.125	26767.33108
746.317	26989.72481
746.509	26320.55738
746.702	26565.35562
746.894	26512.31405
747.086	26563.31554
747.278	26614.318
747.471	26665.32141
747.663	26332.79674
747.855	26190.00796
748.047	26340.95634
748.239	26789.7737
748.431	26653.08051
748.623	26802.01521
748.815	25545.52745
749.008	26265.481
749.2	26406.23413
749.392	26128.81531
749.584	25859.58657
749.776	26508.23398
749.968	26457.23355
750.16	26869.34443
750.352	26426.63378
750.544	26322.59727
750.736	26396.03436
750.928	26002.35549
751.12	25782.08723
751.311	25943.20728
751.503	25955.44472
751.695	26053.34654
751.887	25488.43081
752.079	25863.66556
752.271	25410.94507
752.463	25920.77215
752.654	26018.6725
752.846	26563.31554
753.038	26261.40132
753.23	26318.51749
753.421	26196.12731
753.613	26371.5551
753.805	26426.63378
753.997	25971.7614
754.188	26043.14824
754.38	25877.94207
754.572	26206.32626
754.763	26004.39511
754.955	25761.69312
755.146	25661.76475
755.338	25651.56824
755.53	26053.34654
755.721	25618.93974
755.913	25559.80186
756.104	25417.06225
756.296	25698.47259
756.487	25527.17479
756.679	25478.23515
756.87	25184.6225
757.062	25162.19558
757.253	25572.03715
757.445	25402.78884
757.636	25388.51554
757.827	25056.18106
758.019	25421.14039
758.21	25092.87771
758.401	25123.45881
758.593	25492.50909
758.784	25076.568
758.975	24801.36373
759.167	24583.26969
759.358	24762.63471
759.549	24414.11364
759.74	24528.24109
759.932	24628.10915
760.123	24475.25234
760.314	24670.91158
760.505	24823.78618
760.696	24283.69225
760.888	24149.20665
761.079	24469.13837
761.27	24624.03279
761.461	24554.73611
761.652	24395.77248
761.843	23694.89853
762.034	24059.55619
762.225	23760.08188
762.416	23731.56379
762.607	23857.86257
762.798	23878.23439
762.989	24257.20173
763.18	24575.11719
763.371	24312.221
763.562	24324.44777
763.753	24397.81038
763.944	24556.77421
764.135	24128.83107
764.326	24287.76775
764.517	24014.73299
764.708	23984.17249
764.899	23591.01889
765.089	23753.97081
765.28	23709.15713
765.471	23914.9044
765.662	23511.58685
765.853	23487.14717
766.043	23242.77512
766.234	23529.91691
766.425	23244.81137
766.615	23088.03005
766.806	23291.64588
766.997	23267.21027
767.187	22994.37779
767.378	23293.6822
767.569	22955.6974
767.759	23582.8718
767.95	23872.12281
768.141	23753.97081
768.331	23183.72544
768.522	23411.79428
768.712	23035.0953
768.903	22925.16111
769.093	22788.775
769.284	22719.57005
769.474	22876.30462
769.665	23232.59395
769.855	23220.37665
770.046	23314.04559
770.236	22925.16111
770.426	22670.72191
770.617	22662.58075
770.807	22526.22471
770.998	22597.45349
771.188	22086.7396
771.378	22353.2588
771.569	22391.9195
771.759	22271.87216
771.949	22263.73382
772.139	22469.24482
772.33	22218.974
772.52	22593.38316
772.71	22518.08455
772.9	22408.19808
773.09	22410.23292
773.281	22414.30261
773.471	21960.62312
773.661	22037.91859
773.851	21779.61058
774.041	21968.75923
774.231	21673.86462
774.421	21728.76986
774.611	21572.19579
774.802	21413.61214
774.992	21747.07224
775.182	21393.28265
775.372	21541.69706
775.562	21637.26271
775.752	21637.26271
775.942	21143.26289
776.131	21175.78233
776.321	20777.49148
776.511	21084.32408
776.701	21177.81483
776.891	21322.13261
777.081	21015.22777
777.271	21090.42104
777.461	21555.92969
777.651	21295.70671
777.84	21393.28265
778.03	21275.37955
778.22	21198.14004
778.41	21220.49824
778.599	21218.46566
778.789	21118.874
778.979	20828.28509
779.169	20972.553
779.358	20901.43242
779.548	21068.0657
779.738	20525.5936
779.927	20419.9781
780.117	20422.00906
780.307	20263.60675
780.496	20387.48331
780.686	20675.91205
780.875	20068.68515
781.065	20507.31318
781.254	20237.20885
781.444	20399.66873
781.633	20517.46893
781.823	20704.35325
782.012	20499.18866
782.202	20176.29333
782.391	20225.02544
782.581	20367.1746
782.77	20058.53405
782.96	19778.40506
783.149	19674.89936
783.338	19873.80232
783.528	20003.7199
783.717	20409.82336
783.906	20147.86738
784.096	20149.89778
784.285	19705.34108
784.474	19733.7542
784.663	19991.5394
784.853	19890.04108
785.042	19699.25266
785.231	19924.54933
785.42	19739.84284
785.61	19833.20661
785.799	19538.93782
785.988	19735.78374
786.177	19676.92878
786.366	19849.44469
786.555	19516.61757
786.744	18936.46628
786.933	19084.51504
787.122	19500.38498
787.312	19423.28379
787.501	19439.51512
787.69	19494.29782
787.879	19563.28777
788.068	19498.35592
788.257	19518.64666
788.445	19082.48683
788.634	19398.93729
788.823	18938.4942
789.012	19476.03658
789.201	19084.51504
789.39	19131.16502
789.579	18680.98031
789.768	19031.78287
789.957	19114.9387
790.145	19037.86721
790.334	19224.47147
790.523	18784.3837
790.712	18879.68615
790.9	19015.55814
791.089	18768.16288
791.278	19084.51504
791.467	18208.69667
791.655	18662.73371
791.844	18504.60978
792.033	18593.80499
792.221	18380.96507
792.41	18575.55991
792.599	18164.11392
792.787	18674.89807
792.976	18476.23105
793.164	18796.54948
793.353	18490.42032
793.541	18865.49161
793.73	18512.71813
793.918	18605.96856
794.107	18220.85591
794.295	17704.20181
794.484	18123.58568
794.672	18447.85307
794.861	18490.42032
795.049	18403.26061
795.238	18174.2462
795.426	17722.43282
795.614	17438.8693
795.803	17584.69404
795.991	17671.79179
796.179	17846.00577
796.368	17890.57619
796.556	17732.56127
796.744	17580.64313
796.932	17556.33793
797.121	17451.02074
797.309	17675.84299
797.497	17827.7729
797.685	17852.08346
797.874	17777.12748
798.062	18028.35003
798.25	17604.94879
798.438	17517.85566
798.626	17444.94501
798.814	17604.94879
799.002	17313.31097
799.19	17351.78727
799.378	17408.4912
799.566	17606.97428
799.755	17203.96312
799.943	17501.65293
800.131	17432.79363
800.318	17726.48419
800.506	17523.93173
800.694	17852.08346
800.882	17469.2481
801.07	17505.7036
801.258	17499.62761
801.446	17424.69277
801.634	17205.988
801.822	17039.95707
802.01	16855.72466
802.197	17388.23952
802.385	17149.29238
802.573	16960.99765
802.761	17013.63681
802.949	17534.05858
803.136	17266.73583
803.324	17645.45927
803.512	17349.76218
803.699	17471.27338
803.887	17606.97428
804.075	17469.2481
804.262	17212.06266
804.45	17147.26758
804.638	17052.10504
804.825	17448.99549
805.013	16952.89948
805.201	17700.15051
805.388	17394.315
805.576	17558.36335
805.763	17378.1138
805.951	17345.71199
806.138	17027.8092
806.326	17214.08756
806.513	17088.54954
806.701	16888.11561
806.888	16770.70148
807.075	16805.11509
807.263	16568.28225
807.45	17015.66143
807.638	17013.63681
807.825	17331.53645
808.012	16776.77442
808.2	17078.42598
808.387	16906.3358
808.574	16948.85041
808.761	17048.05571
808.949	17167.51572
809.136	17052.10504
809.323	17284.96069
809.51	17029.83384
809.698	17025.78457
809.885	16855.72466
810.072	17236.36158
810.259	16989.34159
810.446	17058.17906
810.633	16827.38311
810.82	17386.21437
811.008	17582.66858
811.195	17507.72893
811.382	17410.51639
811.569	17525.95709
811.756	17120.9454
811.943	17090.57426
812.13	16722.11874
812.317	17076.40127
812.504	17276.86072
812.691	17309.26089
812.878	16736.28856
813.064	16894.18898
813.251	17062.22842
813.438	17100.6979
813.625	17161.44125
813.812	17145.24278
813.999	17102.72264
814.186	17272.81076
814.372	16742.36138
814.559	17151.31718
814.746	17181.6896
814.933	17353.81237
815.12	17046.03104
815.306	16780.82305
815.493	16912.40925
815.68	17060.20374
815.866	16738.31283
816.053	17260.66093
816.24	16880.01781
816.426	17218.13735
816.613	17082.47539
816.799	17149.29238
816.986	17143.21798
817.173	17305.21083
817.359	17155.3668
817.546	17256.61101
817.732	16811.18816
817.919	17337.61166
818.105	17039.95707
818.292	17329.51138
818.478	17137.14361
818.665	17007.56297
818.851	17193.83875
819.037	17291.0357
819.224	16724.14299
819.41	17151.31718
819.597	16665.4406
819.783	16754.50707
819.969	16416.4823
820.156	16378.02814
820.342	16382.07591
820.528	16665.4406
820.714	16260.64599
820.901	16467.08099
821.087	16548.04157
821.273	16624.95732
821.459	16714.02175
821.646	16734.26429
821.832	16794.99337
822.018	16782.84738
822.204	15904.48623
822.39	16232.31329
822.576	16044.11148
822.762	16183.74373
822.948	15951.02726
823.134	16224.2183
823.32	16100.77295
823.507	16428.62587
823.693	16017.80477
823.879	15946.98019
824.065	15823.54686
824.25	15623.22931
824.436	15738.56248
824.622	16098.7493
824.808	16042.08788
824.994	16110.89119
825.18	16212.07586
825.366	16187.79116
825.552	15906.50974
825.738	15685.954
825.923	15461.36247
826.109	15669.7669
826.295	15566.57541
826.481	15532.17869
826.667	15690.00078
826.852	15631.32277
827.038	15428.98958
827.224	15505.87544
827.409	15273.19646
827.595	15770.93726
827.781	15354.12769
827.966	15532.17869
828.152	15530.15536
828.338	15671.79029
828.523	15651.55648
828.709	15969.23916
828.894	15511.94541
829.08	15586.80888
829.266	15295.4525
829.451	15515.99206
829.637	15372.33729
829.822	15507.89876
830.008	15085.03216
830.193	15087.05544
830.378	14965.65864
830.564	15095.14853
830.749	14737.02362
830.935	15208.45171
831.12	14795.70064
831.305	14967.68193
831.491	14945.42573
831.676	14822.00394
831.861	14860.44701
832.047	15155.84667
832.232	15257.01025
832.417	15457.31585
832.602	15295.4525
832.788	15091.10198
832.973	15068.84597
833.158	15143.70705
833.343	14623.71417
833.528	14767.37388
833.714	14682.39265
833.899	14704.64979
834.084	14650.01842
834.269	14476.00205
834.454	14370.77805
834.639	14536.70646
834.824	14427.43763
835.009	14494.2135
835.194	14484.09604
835.379	14769.39723
835.564	14344.47139
835.749	14463.86102
835.934	14180.55389
836.119	14360.66013
836.304	13990.31165
836.489	14192.69636
836.674	14164.36382
836.859	14324.2353
837.044	14216.98108
837.228	14425.41409
837.413	14196.74383
837.598	14103.64985
837.783	13891.13436
837.968	14190.67262
838.152	13763.61099
838.337	13929.59161
838.522	13844.57953
838.707	14144.12605
838.891	13771.70806
839.076	13931.61565
839.261	14152.22118
839.445	13949.83188
839.63	13719.07625
839.815	13856.72441
839.999	13437.66022
840.184	13538.89687
840.368	13352.614
840.553	13751.4653
840.737	13682.6376
840.922	14162.34005
841.106	13941.7358
841.291	13791.95052
841.475	13601.65903
841.66	13883.03797
841.844	13745.39242
842.029	13597.60996
842.213	13097.43056
842.397	13674.53998
842.582	13326.28873
842.766	13579.38897
842.951	13281.73667
843.135	13395.13798
843.319	13146.04243
843.504	13271.61092
843.688	13516.6256
843.872	13249.33388
844.056	13342.48898
844.241	13356.66398
844.425	13322.23863
844.609	13208.82882
844.793	13212.8794
844.977	13210.85411
845.161	13028.55904
845.346	13204.77821
845.53	12955.63
845.714	13374.88869
845.898	12848.25004
846.082	12566.55594
846.266	12880.66821
846.45	12550.3398
846.634	12487.49844
846.818	12422.62339
847.002	12485.47119
847.186	12637.49688
847.37	12240.12504
847.554	12146.82581
847.738	12132.62672
847.922	12207.67489
848.106	12556.4209
848.29	12556.4209
848.473	12639.52365
848.657	12489.52567
848.841	12609.12141
849.025	12734.7753
849.209	12497.63456
849.392	12858.38086
849.576	12676.00455
849.76	12461.14376
849.944	12296.90836
850.127	12333.409
850.311	11824.20902
850.495	11765.34458
850.678	11517.6263
850.862	12144.79739
851.046	11807.97128
851.229	11956.12088
851.413	11615.10536
851.596	11943.94586
851.78	11915.53633
851.964	12114.37021
852.147	11753.16482
852.331	11848.56463
852.514	11761.2847
852.698	12021.04946
852.881	11631.3498
853.065	11708.50303
853.248	11694.29156
853.431	11678.04935
853.615	11554.18346
853.798	11698.35202
853.982	11361.20788
854.165	11728.80437
854.348	11086.82369
854.532	11503.4088
854.715	11111.22115
854.898	11318.5382
855.081	10950.57558
855.265	10974.98189
855.448	10651.46315
855.631	11103.08884
855.814	11395.74678
855.997	11314.47419
856.181	11070.55785
856.364	11115.28724
856.547	10879.38121
856.73	10895.65544
856.913	10415.24313
857.096	10883.44984
857.279	10958.7112
857.462	11121.3863
857.645	10913.96307
857.828	10920.06541
858.011	10915.9972
858.194	10873.27818
858.377	10716.59786
858.56	10708.4567
858.743	10677.92562
858.926	10834.62327
859.109	10765.44079
859.292	10669.78354
859.475	10618.89111
859.658	10309.29516
859.841	10529.30161
860.023	10443.76153
860.206	10097.28986
860.389	10653.4988
860.572	10337.82313
860.755	10521.1559
860.937	10472.2774
861.12	10686.06751
861.303	10341.89834
861.486	10657.57006
861.668	10290.95436
861.851	10140.11063
862.034	10199.234
862.216	10050.3838
862.399	9874.92867
862.581	10070.77866
862.764	9803.49145
862.947	9989.19068
863.129	9729.99398
863.312	9860.64269
863.494	9519.5993
863.677	10032.02722
863.859	10097.28986
864.042	10413.206
864.224	10040.18584
864.406	10105.44667
864.589	9617.66789
864.771	9705.49044
864.954	9341.75595
865.136	9693.23784
865.318	9378.56122
865.501	9568.63814
865.683	9323.35131
865.865	9454.19989
866.048	9159.69506
866.23	9362.20398
866.412	9000.02513
866.594	9360.15925
866.777	8954.97084
866.959	9399.0063
867.141	9128.99746
867.323	9356.06974
867.505	9225.17048
867.687	9427.62668
867.869	9390.82847
868.052	9672.81562
868.234	9462.37572
868.416	9415.36119
868.598	9284.49266
868.78	9370.38273
868.962	9280.40193
869.144	9394.91742
869.326	9157.64867
869.508	9202.66526
869.69	9417.40548
869.872	9533.90324
870.054	9544.11986
870.236	9484.85791
870.417	9417.40548
870.599	9497.1201
870.781	9239.49092
870.963	9501.20737
871.145	9392.87295
871.327	9362.20398
871.508	8911.9565
871.69	9157.64867
871.872	8846.3957
872.054	9300.85493
872.235	8991.83407
872.417	8942.68183
872.599	8670.1091
872.78	8973.40317
872.962	8631.14371
873.144	8969.30722
873.325	8752.11968
873.507	8840.24843
873.689	8649.60183
873.87	8981.59486
874.052	8903.7624
874.233	8920.15031
874.415	8676.26092
874.596	8821.80565
874.778	8725.46947
874.959	8739.81997
875.141	8620.88854
875.322	8768.51828
875.503	8704.9672
875.685	9059.4019
875.866	8618.83745
876.048	8875.0808
876.229	8758.26929
876.41	8801.31196
876.592	8961.11511
876.773	8770.56802
876.954	8672.15972
877.136	8733.66987
877.317	8306.85118
877.498	8725.46947
877.679	8514.20698
877.86	8674.21033
878.042	8469.05707
878.223	8852.5428
878.404	8501.89428
878.585	8464.95207
878.766	8160.96714
878.947	8786.9653
879.128	8401.31485
879.309	8551.14098
879.49	8337.65907
879.672	8616.78634
879.853	8510.10282
880.034	8411.58016
880.215	8419.79207
880.396	8698.81616
880.576	8296.58091
880.757	8575.76024
880.938	8569.60568
881.119	8676.26092
881.3	8612.68407
881.481	8870.98315
881.662	8887.37334
881.843	9147.41648
882.023	8954.97084
882.204	9059.4019
882.385	8838.1993
882.566	8995.92964
882.747	8797.213
882.927	9045.07092
883.108	8770.56802
883.289	9184.25038
883.469	9028.69161
883.65	8916.05344
883.831	9014.3588
884.011	9104.43659
884.192	8911.9565
884.373	8916.05344
884.553	8848.44475
884.734	8948.82641
884.914	8567.55412
885.095	8848.44475
885.275	8547.0375
885.456	8608.58172
885.636	8641.39841
885.817	8704.9672
885.997	8866.88542
886.178	8553.19269
886.358	8645.50016
886.538	8850.49379
886.719	8508.05071
886.899	8709.0678
887.08	8670.1091
887.26	8745.96991
887.44	8729.56971
887.621	8858.68975
887.801	8567.55412
887.981	8725.46947
888.161	8606.53052
888.342	8676.26092
888.522	8707.01751
888.702	8707.01751
888.882	8547.0375
889.062	8772.61774
889.242	8768.51828
889.423	8903.7624
889.603	8651.65264
889.783	9098.29599
889.963	8688.56405
890.143	8762.36894
890.323	8536.77848
890.503	8944.73004
890.683	8848.44475
890.863	8700.86652
891.043	8717.26878
891.223	8743.91995
891.403	8477.26683
891.583	8948.82641
891.763	8633.19468
891.943	8659.8557
892.122	8315.06705
892.302	8676.26092
892.482	8310.95915
892.662	8428.00367
892.842	8499.8421
893.022	8409.52714
893.201	8436.21497
893.381	8856.64078
893.561	8748.01985
893.741	8666.00779
893.92	8588.06886
894.1	8462.89955
894.28	8505.99859
894.459	8512.15491
894.639	8321.22874
894.819	8331.49784
894.998	8206.1813
895.178	8532.67474
895.357	8148.63433
895.537	8086.95946
895.716	8052.00233
895.896	8064.34081
896.075	7977.95614
896.255	8195.9062
896.434	7844.19441
896.614	8078.73478
896.793	7852.42842
896.973	7879.18666
897.152	7838.01869
897.331	8282.2017
897.511	7949.15326
897.69	8105.46382
897.87	7753.59833
898.049	8041.71971
898.228	7971.78443
898.407	7730.94298
898.587	7749.47936
898.766	7992.35607
898.945	7366.04372
899.124	7541.36167
899.304	7599.07939
899.483	7644.41729
899.662	7648.5384
899.841	7564.03848
900.02	7625.87121
900.199	7714.46477
900.378	7399.05671
900.557	7580.52909
900.737	7304.12929
900.916	7745.36031
901.095	7434.12692
901.274	7217.41587
901.453	7285.55111
901.632	7333.02514
901.811	6822.58008
901.989	7167.84785
902.168	7064.53999
902.347	7430.00134
902.526	6919.81484
902.705	7087.27251
902.884	6704.58952
903.063	7081.073
903.242	6828.78806
903.42	6750.13854
903.599	6702.51884
903.778	6563.73128
903.957	6621.74464
904.135	6466.31094
904.314	6569.94786
904.493	6745.99818
904.672	6551.29749
904.85	6480.8236
905.029	6455.94406
905.207	6152.97393
905.386	6474.60403
905.565	6300.37096
905.743	6111.43228
905.922	5988.82961
906.1	5868.22501
906.279	6194.50618
906.457	5936.8546
906.636	6294.14531
906.814	5884.86484
906.993	5932.69596
907.171	5787.08418
907.35	5818.29644
907.528	5466.33133
907.707	5678.84057
907.885	5614.28037
908.063	5593.44967
908.242	5685.08713
908.42	5474.66964
908.598	5432.97432
908.777	5718.39852
908.955	5782.92215
909.133	5745.45958
909.311	5366.24224
909.49	5543.44635
909.668	5426.71921
909.846	5462.16203
910.024	5334.95331
910.202	5585.11672
910.38	5472.5851
910.559	5362.07069
910.737	5145.02097
910.915	5501.76656
911.093	5261.9253
911.271	5393.35505
911.449	5403.78199
911.627	5485.092
911.805	5460.07735
911.983	5307.83197
912.161	5324.52249
912.339	5470.50053
912.517	5391.26959
912.695	5755.86661
912.872	5332.86719
913.05	5312.00474
913.228	5508.01913
913.406	5616.36331
913.584	5566.36622
913.762	5612.19741
913.939	5512.18739
914.117	5568.44971
914.295	5351.6414
914.473	5641.35677
914.65	5464.24669
914.828	5420.46388
915.006	5199.30708
915.184	5505.93496
915.361	5226.44422
915.539	5772.51665
915.716	5576.7834
915.894	5620.52912
916.072	5364.15648
916.249	5674.67608
916.427	5249.40334
916.604	5435.05931
916.782	5157.54993
916.959	5357.89904
917.137	5107.42907
917.314	5232.70608
917.492	5059.38404
917.669	5082.36363
917.847	4739.47026
918.024	5057.29485
918.201	4940.26321
918.379	5107.42907
918.556	4988.33852
918.733	5218.09475
918.911	4839.893
919.088	5053.11639
919.265	4710.17045
919.442	4965.3475
919.62	4565.69992
919.797	4867.08181
919.974	4632.71401
920.151	4764.58085
920.328	4477.70941
920.506	4613.8686
920.683	4772.95032
920.86	4942.35369
921.037	4530.08941
921.214	4915.1756
921.391	4777.13492
921.568	4883.81146
921.745	4647.37029
921.922	4856.62503
922.099	4551.03755
922.276	4733.1921
922.453	4379.19782
922.63	4551.03755
922.807	4026.68334
922.984	4228.19352
923.161	4093.8748
923.338	4203.01535
923.514	3909.04773
923.691	4110.66935
923.868	4131.66065
924.045	4381.29431
924.222	3936.36167
924.399	4437.89139
924.575	4112.76857
924.752	4280.6382
924.929	4230.29157
925.105	4326.77843
925.282	3959.4708
925.459	3978.37644
925.635	3923.75566
925.812	4022.48317
925.989	3875.42591
926.165	3885.93328
926.342	3900.64276
926.518	4020.38305
926.695	3776.63236
926.871	3648.3467
927.048	3370.50677
927.224	3692.51869
927.401	3347.33931
927.577	3536.82806
927.754	3168.2485
927.93	3505.25673
928.107	3444.20723
928.283	3658.8646
928.459	3555.76888
928.636	3454.73409
928.812	3174.5714
928.988	3471.57613
929.165	3233.57802
929.341	3583.12518
929.517	3393.6721
929.693	3435.78542
929.87	3277.82441
930.046	3528.40944
930.222	3231.47086
930.398	3431.57441
930.574	3100.79516
930.751	3362.08248
930.927	3263.07644
931.103	3378.93077
931.279	3239.89939
931.455	3332.59529
931.631	2889.90102
931.807	3204.07633
931.983	2864.58376
932.159	3096.57878
932.335	2731.6352
932.511	3172.46378
932.687	2668.3077
932.863	2805.50224
933.039	2368.41051
933.215	2731.6352
933.391	2560.62498
933.566	2626.08299
933.742	2419.11315
933.918	2598.63427
934.094	2362.07226
934.27	2476.14633
934.445	2275.44073
934.621	2298.68492
934.797	2023.91509
934.973	2074.6518
935.148	1799.78597
935.324	2133.83932
935.5	2028.1433
935.675	2070.42389
935.851	1905.51493
936.027	1793.44186
936.202	1605.21917
936.378	1689.81661
936.553	1457.16721
936.729	1641.17355
936.904	1304.88501
937.08	1328.14995
937.255	1247.78125
937.431	1342.95502
937.606	1106.08928
937.782	1393.71573
937.957	1144.15405
938.133	1087.05747
938.308	888.30962
938.483	1082.82823
938.659	774.16594
938.834	894.65167
939.009	769.93892
939.185	778.393
939.36	738.23756
939.535	846.03115
939.71	755.14466
939.886	820.66573
940.061	674.84204
940.236	860.82823
940.411	632.58408
940.586	541.74649
940.761	450.9345
940.937	564.98169
941.112	529.07344
941.287	588.21852
941.462	514.28887
941.637	537.52208
941.812	457.26933
941.987	476.27464
942.162	431.93086
942.337	520.62503
942.512	429.81942
942.687	516.40091
942.862	516.40091
943.037	491.05738
943.212	476.27464
943.386	493.16926
943.561	313.71583
943.736	484.72183
943.911	410.8172
944.086	472.05113
944.26	446.71136
944.435	446.71136
944.61	442.48828
944.785	463.6043
944.959	320.04741
945.134	398.14978
945.309	296.83241
945.483	476.27464
945.658	320.04741
945.833	324.26855
946.007	311.60534
946.182	370.70575
946.357	396.03861
946.531	472.05113
946.706	309.49486
946.88	381.26081
947.055	339.04311
947.229	469.9394
947.404	284.17061
947.578	421.37383
947.752	419.26247
947.927	341.15383
948.101	415.03981
948.276	326.37915
948.45	389.70517
948.624	444.59982
948.799	408.70593
948.973	455.15771
949.147	431.93086
949.321	389.70517
949.496	381.26081
949.67	410.8172
949.844	436.15378
950.018	368.59479
950.193	421.37383
950.367	387.59405
950.541	396.03861
950.715	467.82768
950.889	355.92937
951.063	431.93086
951.237	353.81853
951.411	383.37188
951.585	417.15113
951.759	482.61001
951.933	400.26098
952.107	415.03981
952.281	379.14977
952.455	453.0461
952.629	320.04741
952.803	474.16288
952.977	387.59405
953.151	448.82293
953.325	370.70575
953.499	463.6043
953.672	404.48342
953.846	482.61001
954.02	446.71136
954.194	448.82293
954.368	423.48521
954.541	634.69687
954.715	472.05113
954.889	592.44357
955.062	419.26247
955.236	529.07344
955.41	383.37188
955.583	467.82768
955.757	421.37383
955.93	429.81942
956.104	438.26527
956.278	520.62503
956.451	478.38641
956.625	429.81942
956.798	450.9345
956.972	442.48828
957.145	368.59479
957.319	465.71598
957.492	370.70575
957.665	531.18558
957.839	463.6043
958.012	533.29774
958.185	383.37188
958.359	423.48521
958.532	463.6043
958.705	505.84085
958.879	442.48828
959.052	592.44357
959.225	434.04231
959.398	666.39007
959.572	526.96132
959.745	507.95283
959.918	463.6043
960.091	421.37383
960.264	499.50499
960.438	501.61693
960.611	434.04231
960.784	488.94552
960.957	366.48384
961.13	370.70575
961.303	448.82293
961.476	497.39307
961.649	377.03874
961.822	484.72183
961.995	396.03861
962.168	455.15771
962.341	402.37219
962.514	412.9285
962.686	379.14977
962.859	425.5966
963.032	419.26247
963.205	385.48296
963.378	377.03874
963.551	410.8172
963.723	372.81673
963.896	431.93086
964.069	429.81942
964.242	450.9345
964.414	387.59405
964.587	372.81673
964.76	450.9345
964.932	463.6043
965.105	425.5966
965.278	355.92937
965.45	320.04741
965.623	389.70517
965.795	383.37188
965.968	446.71136
966.14	472.05113
966.313	446.71136
966.485	379.14977
966.658	355.92937
966.83	488.94552
967.003	474.16288
967.175	374.92772
967.348	429.81942
967.52	296.83241
967.692	231.42039
967.865	381.26081
968.037	358.04023
968.209	317.93686
968.382	353.81853
968.554	358.04023
968.726	339.04311
968.898	260.95905
969.071	339.04311
969.243	201.88557
969.415	341.15383
969.587	252.51905
969.759	320.04741
969.932	271.50948
970.104	222.98148
970.276	288.39113
970.448	364.37291
970.62	282.06037
970.792	320.04741
970.964	273.61962
971.136	267.28925
971.308	345.37533
971.48	360.15111
971.652	252.51905
971.824	282.06037
971.996	254.62902
972.168	277.83996
972.339	239.85962
972.511	353.81853
972.683	189.22898
972.855	231.42039
973.027	296.83241
973.199	260.95905
973.37	303.16355
973.542	288.39113
973.714	176.57313
973.886	263.0691
974.057	313.71583
974.229	307.38441
974.401	252.51905
974.572	235.63997
974.744	277.83996
974.915	286.28086
975.087	147.04571
975.259	303.16355
975.43	172.35468
975.602	260.95905
975.773	161.80891
975.945	252.51905
976.116	235.63997
976.288	282.06037
976.459	269.39935
976.63	206.10459
976.802	166.02716
976.973	210.32369
977.145	231.42039
977.316	317.93686
977.487	208.21413
977.659	244.07936
977.83	185.01029
978.001	172.35468
978.172	216.6525
978.344	159.69982
978.515	109.088
978.686	174.4639
978.857	174.4639
979.028	119.63111
979.2	161.80891
979.371	222.98148
979.542	197.66663
979.713	125.95723
979.884	222.98148
980.055	185.01029
980.226	60.59685
980.397	147.04571
980.568	254.62902
980.739	153.37267
980.91	144.93677
981.081	100.65391
981.252	117.52244
981.423	180.79167
981.594	201.88557
981.765	203.99507
981.936	172.35468
982.106	134.39237
982.277	132.28355
982.448	176.57313
982.619	168.13631
982.79	195.55718
982.96	159.69982
983.131	117.52244
983.302	155.4817
983.472	92.22017
983.643	83.78679
983.814	121.73979
983.984	83.78679
984.155	159.69982
984.326	130.17476
984.496	136.50121
984.667	90.11179
984.837	151.26366
985.008	132.28355
985.178	246.18925
985.349	155.4817
985.519	161.80891
985.69	92.22017
985.86	176.57313
986.031	106.97945
986.201	142.82785
986.371	81.6785
986.542	125.95723
986.712	39.51749
986.882	163.91802
987.053	134.39237
987.223	185.01029
987.393	136.50121
987.563	153.37267
987.734	117.52244
987.904	83.78679
988.074	81.6785
988.244	79.57023
988.414	81.6785
988.585	83.78679
988.755	174.4639
988.925	104.87091
989.095	73.24557
989.265	35.30189
989.435	159.69982
989.605	130.17476
989.775	128.06598
989.945	117.52244
990.115	90.11179
990.285	113.30518
990.455	100.65391
990.625	64.813
990.795	94.32857
990.965	136.50121
991.134	10.01031
991.304	75.35377
991.474	66.92111
991.644	35.30189
991.814	88.00344
991.984	31.08639
992.153	75.35377
992.323	121.73979
992.493	-27.92059
992.662	123.8485
992.832	98.54544
993.002	92.22017
993.171	58.48881
993.341	58.48881
993.511	77.46199
993.68	79.57023
993.85	109.088
994.019	130.17476
994.189	60.59685
994.358	-6.84884
994.528	75.35377
994.697	69.02924
994.867	14.22533
995.036	104.87091
995.206	58.48881
995.375	109.088
995.544	7.90283
995.714	94.32857
995.883	75.35377
996.052	66.92111
996.222	117.52244
996.391	41.62532
996.56	62.70491
996.73	147.04571
996.899	24.76332
997.068	41.62532
997.237	81.6785
997.406	-40.56246
997.576	94.32857
997.745	60.59685
997.914	37.40968
998.083	45.84105
998.252	73.24557
998.421	20.54805
998.59	10.01031
998.759	-2.6342
998.928	81.6785
999.097	73.24557
999.266	1.58054
999.435	119.63111
999.604	-46.88306
999.773	-2.6342
999.942	26.87099
1000.111	60.59685
1000.28	54.2728
1000.448	54.2728
1000.617	47.94895
1000.786	-21.59933
1000.955	28.97868
1001.124	12.11781
1001.292	58.48881
1001.461	88.00344
1001.63	-0.52684
1001.798	96.437
1001.967	-6.84884
1002.136	47.94895
1002.304	1.58054
1002.473	104.87091
1002.642	66.92111
1002.81	-0.52684
1002.979	113.30518
1003.147	33.19413
1003.316	28.97868
1003.484	85.8951
1003.653	12.11781
1003.821	60.59685
1003.99	7.90283
1004.158	58.48881
1004.327	10.01031
1004.495	90.11179
1004.663	54.2728
1004.832	96.437
1005	73.24557
1005.168	5.79537
1005.337	104.87091
1005.505	50.05688
1005.673	109.088
1005.842	33.19413
1006.01	-15.27784
1006.178	7.90283
1006.346	-72.16318
1006.514	106.97945
1006.683	20.54805
1006.851	12.11781
1007.019	-21.59933
1007.187	-25.81353
1007.355	69.02924
1007.523	37.40968
1007.691	50.05688
1007.859	22.65567
1008.027	7.90283
1008.195	12.11781
1008.363	43.73317
1008.531	88.00344
1008.699	90.11179
1008.867	-32.13465
1009.035	88.00344
1009.203	35.30189
1009.37	50.05688
1009.538	83.78679
1009.706	56.38079
1009.874	-25.81353
1010.042	3.68794
1010.209	16.33288
1010.377	-74.26969
1010.545	12.11781
1010.713	75.35377
1010.88	12.11781
1011.048	77.46199
1011.216	-13.17063
1011.383	-17.38502
1011.551	28.97868
1011.718	-8.95613
1011.886	5.79537
1012.054	117.52244
1012.221	79.57023
1012.389	41.62532
1012.556	-11.06339
1012.724	-6.84884
1012.891	-36.3486
1013.058	96.437
1013.226	-8.95613
1013.393	18.44046
1013.561	-44.77622
1013.728	106.97945
1013.895	16.33288
1014.063	54.2728
1014.23	-21.59933
1014.397	18.44046
1014.565	62.70491
1014.732	5.79537
1014.899	20.54805
1015.066	7.90283
1015.233	-0.52684
1015.401	47.94895
1015.568	-34.24164
1015.735	104.87091
1015.902	7.90283
1016.069	16.33288
1016.236	-8.95613
1016.403	45.84105
1016.57	92.22017
1016.737	-6.84884
1016.904	-32.13465
1017.071	33.19413
1017.238	-25.81353
1017.405	12.11781
1017.572	3.68794
1017.739	35.30189
1017.906	-46.88306
1018.073	37.40968
1018.24	16.33288
1018.407	-32.13465
1018.573	-8.95613
1018.74	35.30189
1018.907	52.16483
1019.074	10.01031
1019.241	71.13739
1019.407	92.22017
1019.574	100.65391
1019.741	12.11781
1019.907	-6.84884
1020.074	-17.38502
1020.241	24.76332
1020.407	20.54805
1020.574	-65.84349
1020.74	26.87099
1020.907	41.62532
1021.073	1.58054
1021.24	75.35377
1021.406	58.48881
1021.573	7.90283
1021.739	62.70491
1021.906	45.84105
1022.072	88.00344
1022.239	-48.98987
1022.405	20.54805
1022.571	52.16483
1022.738	-17.38502
1022.904	33.19413
1023.07	-17.38502
1023.237	7.90283
1023.403	35.30189
1023.569	3.68794
1023.735	-8.95613
1023.902	-2.6342
1024.068	-17.38502
1024.234	-17.38502
1024.4	16.33288
1024.566	24.76332
1024.732	-34.24164
1024.898	26.87099
1025.065	-21.59933
1025.231	-42.66935
1025.397	-32.13465
1025.563	62.70491
1025.729	10.01031
1025.895	81.6785
1026.061	-32.13465
1026.227	45.84105
1026.392	14.22533
1026.558	26.87099
1026.724	24.76332
1026.89	66.92111
1027.056	16.33288
1027.222	-25.81353
1027.388	28.97868
1027.553	28.97868
1027.719	-42.66935
1027.885	64.813
1028.051	7.90283
1028.216	22.65567
1028.382	60.59685
1028.548	-0.52684
1028.713	60.59685
1028.879	16.33288
1029.045	7.90283
1029.21	-11.06339
1029.376	-8.95613
1029.541	-38.45555
1029.707	43.73317
1029.873	-25.81353
1030.038	-34.24164
1030.204	-25.81353
1030.369	35.30189
1030.534	77.46199
1030.7	-4.74153
1030.865	28.97868
1031.031	26.87099
1031.196	3.68794
1031.361	3.68794
1031.527	109.088
1031.692	-0.52684
1031.857	45.84105
1032.023	24.76332
1032.188	-32.13465
1032.353	-70.05664
1032.518	-21.59933
1032.684	-2.6342
1032.849	69.02924
1033.014	10.01031
1033.179	35.30189
1033.344	-48.98987
1033.509	-4.74153
1033.674	69.02924
1033.839	-0.52684
1034.004	39.51749
1034.17	16.33288
1034.335	16.33288
1034.5	54.2728
1034.664	-51.09666
1034.829	-21.59933
1034.994	16.33288
1035.159	-2.6342
1035.324	26.87099
1035.489	41.62532
1035.654	7.90283
1035.819	26.87099
1035.984	31.08639
1036.148	26.87099
1036.313	-0.52684
1036.478	28.97868
1036.643	-0.52684
1036.807	16.33288
1036.972	-40.56246
1037.137	-6.84884
1037.301	-48.98987
1037.466	-13.17063
1037.631	-25.81353
1037.795	50.05688
1037.96	37.40968
1038.124	52.16483
1038.289	66.92111
1038.454	-11.06339
1038.618	20.54805
1038.783	75.35377
1038.947	-21.59933
1039.111	12.11781
1039.276	35.30189
1039.44	85.8951
1039.605	10.01031
1039.769	-15.27784
1039.933	60.59685
1040.098	-0.52684
1040.262	33.19413
1040.426	33.19413
1040.591	37.40968
1040.755	5.79537
1040.919	33.19413
1041.083	-23.70644
1041.248	60.59685
1041.412	43.73317
1041.576	10.01031
1041.74	22.65567
1041.904	-21.59933
1042.068	56.38079
1042.232	-19.49219
1042.397	-15.27784
1042.561	69.02924
1042.725	-6.84884
1042.889	35.30189
1043.053	-19.49219
1043.217	28.97868
1043.381	-38.45555
1043.544	-84.80186
1043.708	14.22533
1043.872	52.16483
1044.036	-23.70644
1044.2	7.90283
1044.364	12.11781
1044.528	12.11781
1044.691	69.02924
1044.855	3.68794
1045.019	-0.52684
1045.183	-4.74153
1045.346	-8.95613
1045.51	24.76332
1045.674	-32.13465
1045.837	-55.31017
1046.001	102.7624
1046.165	66.92111
1046.328	-15.27784
1046.492	-48.98987
1046.655	-34.24164
1046.819	-4.74153
1046.983	7.90283
1047.146	10.01031
1047.31	-34.24164
1047.473	-72.16318
1047.636	5.79537
1047.8	41.62532
1047.963	-42.66935
1048.127	58.48881
1048.29	-59.52357
