Data from absorb_only_2.23.25_USB4F045381__23__0128.txt Node

Date: Sun Feb 23 19:16:01 EST 2025
User: ssocol
Spectrometer: USB4F04538
Trigger mode: 4
Integration Time (sec): 2.600000E-3
Scans to average: 1
Electric dark correction enabled: true
Nonlinearity correction enabled: true
Boxcar width: 0
XAxis mode: Wavelengths
Number of Pixels in Spectrum: 3648
>>>>>Begin Spectral Data<<<<<
345.52	-19.66778
345.736	-19.66778
345.952	-19.66778
346.168	60.42118
346.384	-49.16544
346.6	-4.91714
346.816	33.01848
347.032	-17.56062
347.248	30.91075
347.464	-11.23899
347.68	-78.65817
347.896	41.44967
348.112	9.83468
348.328	1.40492
348.544	26.69535
348.76	-44.95179
348.975	14.04971
349.191	-36.52418
349.407	1.40492
349.623	-36.52418
349.839	-53.37899
350.055	-57.59244
350.27	7.72721
350.486	-0.70246
350.702	-47.05863
350.918	-13.34623
351.133	24.58768
351.349	14.04971
351.565	16.15725
351.781	-2.80981
351.996	18.26482
352.212	-15.45344
352.428	-47.05863
352.644	-61.80579
352.859	35.12624
353.075	-15.45344
353.291	-23.88203
353.506	-0.70246
353.722	30.91075
353.938	41.44967
354.153	-95.5089
354.369	-76.55171
354.584	43.55752
354.8	5.61975
355.016	30.91075
355.231	-78.65817
355.447	-44.95179
355.662	18.26482
355.878	-7.02445
356.093	35.12624
356.309	-15.45344
356.524	51.98916
356.74	-66.01904
356.955	-40.73804
357.171	-19.66778
357.386	28.80304
357.602	-51.27223
357.817	49.88122
358.033	47.77329
358.248	1.40492
358.464	-95.5089
358.679	-34.41722
358.895	5.61975
359.11	22.48004
359.325	47.77329
359.541	14.04971
359.756	-49.16544
359.972	39.34183
360.187	-36.52418
360.402	-0.70246
360.618	30.91075
360.833	30.91075
361.048	-9.13173
361.264	1.40492
361.479	-11.23899
361.694	-19.66778
361.909	43.55752
362.125	-9.13173
362.34	22.48004
362.555	60.42118
362.77	-7.02445
362.986	24.58768
363.201	-32.31023
363.416	-61.80579
363.631	75.17808
363.847	47.77329
364.062	-57.59244
364.277	41.44967
364.492	7.72721
364.707	5.61975
364.922	30.91075
365.138	-36.52418
365.353	-9.13173
365.568	-9.13173
365.783	35.12624
365.998	1.40492
366.213	14.04971
366.428	-2.80981
366.643	-19.66778
366.858	5.61975
367.073	-84.97739
367.288	-15.45344
367.503	22.48004
367.718	9.83468
367.933	16.15725
368.148	68.85356
368.363	1.40492
368.578	18.26482
368.793	-61.80579
369.008	-23.88203
369.223	24.58768
369.438	3.51233
369.653	62.52924
369.868	47.77329
370.083	14.04971
370.298	54.09713
370.513	-9.13173
370.728	-55.48573
370.943	56.20513
371.157	-17.56062
371.372	68.85356
371.587	-2.80981
371.802	24.58768
372.017	39.34183
372.232	-2.80981
372.446	-19.66778
372.661	-2.80981
372.876	9.83468
373.091	43.55752
373.306	-28.09618
373.52	-61.80579
373.735	-44.95179
373.95	-7.02445
374.165	-7.02445
374.379	24.58768
374.594	-7.02445
374.809	-47.05863
375.023	-66.01904
375.238	33.01848
375.453	89.9361
375.667	16.15725
375.882	-82.87101
376.097	-7.02445
376.311	-28.09618
376.526	30.91075
376.741	9.83468
376.955	-9.13173
377.17	1.40492
377.384	1.40492
377.599	-38.63112
377.813	-0.70246
378.028	-40.73804
378.242	-7.02445
378.457	-19.66778
378.672	-44.95179
378.886	-42.84492
379.101	14.04971
379.315	24.58768
379.53	-70.23219
379.744	-2.80981
379.958	-17.56062
380.173	54.09713
380.387	18.26482
380.602	-15.45344
380.816	-28.09618
381.031	-11.23899
381.245	47.77329
381.459	7.72721
381.674	-15.45344
381.888	45.6654
382.103	5.61975
382.317	33.01848
382.531	11.94218
382.746	-17.56062
382.96	35.12624
383.174	-11.23899
383.388	-49.16544
383.603	14.04971
383.817	-55.48573
384.031	-19.66778
384.246	-0.70246
384.46	26.69535
384.674	-44.95179
384.888	-0.70246
385.103	-36.52418
385.317	58.31314
385.531	102.58669
385.745	14.04971
385.959	7.72721
386.174	35.12624
386.388	70.96171
386.602	11.94218
386.816	129.99903
387.03	1.40492
387.244	7.72721
387.458	30.91075
387.672	7.72721
387.887	26.69535
388.101	28.80304
388.315	1.40492
388.529	18.26482
388.743	22.48004
388.957	-32.31023
389.171	85.71941
389.385	16.15725
389.599	39.34183
389.813	35.12624
390.027	-51.27223
390.241	58.31314
390.455	-34.41722
390.669	43.55752
390.883	7.72721
391.097	-17.56062
391.311	-2.80981
391.525	98.36974
391.738	24.58768
391.952	-70.23219
392.166	-11.23899
392.38	-11.23899
392.594	-44.95179
392.808	26.69535
393.022	-25.98912
393.236	-17.56062
393.449	89.9361
393.663	-11.23899
393.877	-9.13173
394.091	-28.09618
394.305	-87.08375
394.518	49.88122
394.732	33.01848
394.946	-44.95179
395.16	11.94218
395.373	-57.59244
395.587	47.77329
395.801	43.55752
396.015	-40.73804
396.228	7.72721
396.442	-36.52418
396.656	14.04971
396.869	-19.66778
397.083	3.51233
397.297	-44.95179
397.51	33.01848
397.724	43.55752
397.938	-44.95179
398.151	45.6654
398.365	16.15725
398.578	39.34183
398.792	-32.31023
399.005	-0.70246
399.219	14.04971
399.433	41.44967
399.646	49.88122
399.86	5.61975
400.073	-9.13173
400.287	30.91075
400.5	-34.41722
400.714	-23.88203
400.927	5.61975
401.141	35.12624
401.354	-11.23899
401.567	-7.02445
401.781	-66.01904
401.994	35.12624
402.208	-36.52418
402.421	89.9361
402.635	60.42118
402.848	-49.16544
403.061	49.88122
403.275	9.83468
403.488	64.63732
403.701	85.71941
403.915	37.23403
404.128	14.04971
404.341	35.12624
404.555	30.91075
404.768	7.72721
404.981	14.04971
405.195	24.58768
405.408	-7.02445
405.621	-11.23899
405.834	49.88122
406.048	1.40492
406.261	83.6111
406.474	-2.80981
406.687	56.20513
406.9	51.98916
407.114	106.80373
407.327	-34.41722
407.54	-11.23899
407.753	66.74543
407.966	39.34183
408.179	60.42118
408.392	49.88122
408.605	7.72721
408.819	-42.84492
409.032	33.01848
409.245	54.09713
409.458	35.12624
409.671	7.72721
409.884	85.71941
410.097	81.50281
410.31	11.94218
410.523	26.69535
410.736	7.72721
410.949	28.80304
411.162	1.40492
411.375	49.88122
411.588	73.06989
411.801	26.69535
412.014	-17.56062
412.227	79.39455
412.44	47.77329
412.653	18.26482
412.865	81.50281
413.078	73.06989
413.291	-11.23899
413.504	-11.23899
413.717	1.40492
413.93	28.80304
414.143	56.20513
414.356	-2.80981
414.568	-2.80981
414.781	58.31314
414.994	100.4782
415.207	64.63732
415.42	16.15725
415.632	-47.05863
415.845	51.98916
416.058	26.69535
416.271	30.91075
416.483	5.61975
416.696	83.6111
416.909	56.20513
417.121	-28.09618
417.334	79.39455
417.547	77.2863
417.759	66.74543
417.972	33.01848
418.185	-51.27223
418.397	5.61975
418.61	106.80373
418.823	64.63732
419.035	123.67278
419.248	39.34183
419.46	14.04971
419.673	43.55752
419.885	30.91075
420.098	81.50281
420.311	41.44967
420.523	64.63732
420.736	68.85356
420.948	62.52924
421.161	81.50281
421.373	100.4782
421.586	-23.88203
421.798	43.55752
422.01	-44.95179
422.223	92.04447
422.435	64.63732
422.648	129.99903
422.86	24.58768
423.073	-19.66778
423.285	102.58669
423.497	47.77329
423.71	33.01848
423.922	45.6654
424.134	83.6111
424.347	64.63732
424.559	92.04447
424.771	60.42118
424.984	-23.88203
425.196	9.83468
425.408	30.91075
425.621	41.44967
425.833	104.6952
426.045	73.06989
426.257	68.85356
426.47	1.40492
426.682	-2.80981
426.894	20.37242
427.106	43.55752
427.318	94.15287
427.531	47.77329
427.743	100.4782
427.955	81.50281
428.167	26.69535
428.379	64.63732
428.591	41.44967
428.804	14.04971
429.016	87.82774
429.228	98.36974
429.44	94.15287
429.652	96.26129
429.864	49.88122
430.076	186.94385
430.288	142.6521
430.5	111.02086
430.712	182.72519
430.924	73.06989
431.136	94.15287
431.348	111.02086
431.56	33.01848
431.772	119.45538
431.984	33.01848
432.196	163.74226
432.408	75.17808
432.62	148.97893
432.832	119.45538
433.044	102.58669
433.256	123.67278
433.468	89.9361
433.679	94.15287
433.891	132.10782
434.103	100.4782
434.315	102.58669
434.527	83.6111
434.739	151.08791
434.95	140.5432
435.162	125.7815
435.374	144.76102
435.586	102.58669
435.798	153.19692
436.009	155.30595
436.221	73.06989
436.433	140.5432
436.645	159.52406
436.856	148.97893
437.068	98.36974
437.28	216.47669
437.491	199.6003
437.703	182.72519
437.915	174.28813
438.126	210.14789
438.338	178.50662
438.55	199.6003
438.761	155.30595
438.973	144.76102
439.184	134.21663
439.396	233.35436
439.608	208.03833
439.819	182.72519
440.031	176.39736
440.242	231.24458
440.454	191.16258
440.665	210.14789
440.877	224.91537
441.088	241.79366
441.3	254.45319
441.511	157.41499
441.723	269.22351
441.934	191.16258
442.146	125.7815
442.357	292.43587
442.569	218.58633
442.78	186.94385
442.991	180.61589
443.203	254.45319
443.414	208.03833
443.626	136.32547
443.837	241.79366
444.048	296.65654
444.26	275.55393
444.471	254.45319
444.682	296.65654
444.894	275.55393
445.105	277.66411
445.316	258.67319
445.528	176.39736
445.739	256.56318
445.95	271.33363
446.161	286.10501
446.373	334.64583
446.584	319.87153
446.795	340.97794
447.006	319.87153
447.217	315.65046
447.429	326.20327
447.64	229.13482
447.851	334.64583
448.062	305.0981
448.273	326.20327
448.484	262.89326
448.695	383.19595
448.907	275.55393
449.118	364.197
449.329	254.45319
449.54	387.41813
449.751	286.10501
449.962	347.3102
450.173	275.55393
450.384	328.31388
450.595	457.09336
450.806	368.41887
451.017	336.75651
451.228	260.78321
451.439	351.5318
451.65	457.09336
451.861	376.86282
452.072	440.20081
452.283	431.75491
452.494	454.98174
452.705	469.76342
452.915	412.75256
453.126	368.41887
453.337	435.97783
453.548	531.00957
453.759	454.98174
453.97	545.79493
454.181	554.24401
454.391	425.42065
454.602	531.00957
454.813	621.84429
455.024	632.40802
455.235	469.76342
455.445	609.16823
455.656	558.46863
455.867	609.16823
456.078	621.84429
456.288	562.6933
456.499	537.34607
456.71	623.95701
456.921	706.36246
457.131	710.58885
457.342	685.23117
457.553	689.45734
457.763	632.40802
457.974	697.90981
458.184	615.5062
458.395	784.55754
458.606	689.45734
458.816	845.85499
459.027	852.19655
459.237	886.01945
459.448	767.6493
459.659	894.4755
459.869	936.75766
460.08	841.62734
460.29	909.27391
460.501	1057.27703
460.711	1023.44497
460.922	896.58954
461.132	995.95755
461.343	938.87185
461.553	953.67136
461.764	1078.42279
461.974	845.85499
462.184	976.92843
462.395	1131.2894
462.605	1217.99641
462.816	968.47122
463.026	1201.07748
463.236	1163.01073
463.447	1239.14535
463.657	1120.71585
463.867	1414.68993
464.078	1260.29458
464.288	1501.40699
464.498	1456.99095
464.709	1522.55741
464.919	1524.67245
465.129	1558.51289
465.339	1569.08797
465.55	1624.07767
465.76	1393.53948
465.97	1543.70773
466.18	1482.37157
466.391	1560.62791
466.601	1605.04292
466.811	1691.75525
467.021	1782.69204
467.231	1884.19393
467.441	1789.03621
467.651	1985.68382
467.862	1947.62668
468.072	2190.73104
468.282	2038.53754
468.492	2000.48327
468.702	2226.65954
468.912	2279.49093
469.122	2203.41197
469.332	2239.33959
469.542	2380.91067
469.752	2625.90704
469.962	2448.51087
470.172	2526.65973
470.382	2619.5729
470.592	2549.89017
470.802	2499.20377
471.012	2794.77496
471.222	2765.22916
471.432	2921.3689
471.642	2661.79838
471.852	3071.1035
472.062	3096.4031
472.272	2961.44616
472.482	3216.5447
472.691	3486.13654
472.901	3081.64528
473.111	3113.26824
473.321	3279.75564
473.531	3420.8711
473.741	3450.34795
473.95	3639.75673
474.16	3742.81538
474.37	4051.70764
474.58	3725.99263
474.79	4066.40586
474.999	3923.58057
475.209	3931.98467
475.419	4083.20258
475.628	4290.95074
475.838	3990.80425
476.048	4225.92062
476.258	4332.89472
476.467	4693.25129
476.677	4682.78509
476.886	4680.69178
477.096	4808.34219
477.306	4858.54215
477.515	4799.97426
477.725	5034.13808
477.935	4896.18349
478.144	5276.3593
478.354	5230.44488
478.563	5426.54545
478.773	5228.35759
478.982	5532.85363
479.192	5507.84545
479.401	5434.88556
479.611	5589.10964
479.82	5643.26585
480.03	5882.61162
480.239	5888.85125
480.449	5734.87849
480.658	6003.20677
480.868	6082.1744
481.077	6296.04761
481.287	6082.1744
481.496	6439.18304
481.705	6389.40939
481.915	6408.07608
482.124	6445.4038
482.333	6694.06335
482.543	6677.49639
482.752	6764.45659
482.961	6776.87618
483.171	7173.87242
483.38	7035.43153
483.589	7219.30884
483.799	7182.13439
484.008	7425.70376
484.217	7351.42681
484.426	7547.37471
484.636	7495.82839
484.845	7615.39535
485.054	7514.38661
485.263	7720.47261
485.472	7780.19796
485.682	7955.15419
485.891	8146.40749
486.1	8025.09507
486.309	8164.90663
486.518	8162.85125
486.727	8111.46025
486.936	8372.39827
487.146	8343.64898
487.355	8306.68001
487.564	8438.09668
487.773	8829.83186
487.982	8368.29146
488.191	8698.64529
488.4	8577.64077
488.609	8831.88105
488.818	8946.60755
489.027	9239.32044
489.236	9100.1723
489.445	9208.63275
489.654	8969.13656
489.863	9488.77506
490.072	9267.95887
490.281	9607.28387
490.49	9386.56907
490.698	9676.73
490.907	9470.38096
491.116	9952.29857
491.325	9780.86584
491.534	9940.05682
491.743	9968.62009
491.952	10021.65863
492.16	10062.45093
492.369	10186.83264
492.578	10152.1741
492.787	10567.82127
492.996	10459.88688
493.204	10431.36992
493.413	10578.00193
493.622	10744.92081
493.831	10465.99733
494.039	10818.1767
494.248	11078.52142
494.457	10946.33821
494.665	10793.75977
494.874	11218.78886
495.083	10877.17735
495.291	11072.42168
495.5	11153.74358
495.709	11104.95251
495.917	11202.52854
496.126	11312.27284
496.335	11172.03865
496.543	11480.89681
496.752	11554.01422
496.96	11755.02564
497.169	11424.01916
497.377	11521.5191
497.586	11635.24162
497.794	11789.534
498.003	11643.36355
498.211	12231.84367
498.42	11712.39419
498.628	11966.09742
498.837	12244.01217
499.045	12347.43411
499.254	12104.05839
499.462	12312.96216
499.671	11951.89348
499.879	12170.99721
500.087	12177.08216
500.296	12505.57441
500.504	12387.98679
500.713	12803.50391
500.921	12637.32798
501.129	12568.41402
501.338	12710.28809
501.546	12918.99417
501.754	12499.49283
501.962	12933.17598
502.171	12645.43504
502.379	13156.00078
502.587	12959.51297
502.795	13172.20395
503.004	12957.48708
503.212	13232.96329
503.42	13010.15858
503.628	13358.52022
503.837	13206.63474
504.045	13399.01905
504.253	13571.12195
504.461	13421.29274
504.669	13486.08625
504.877	13482.03676
505.085	13799.87873
505.294	13615.66196
505.502	13648.05366
505.71	13971.92722
505.918	13548.85131
506.126	13812.02399
506.334	13706.76145
506.542	14129.79083
506.75	13652.10256
506.958	14117.64797
507.166	14315.97218
507.374	14172.29023
507.582	14107.52886
507.79	14320.01943
507.998	14000.26278
508.206	14520.35011
508.414	14135.86223
508.622	14530.46745
508.83	14245.14425
509.037	14676.15388
509.245	14558.79583
509.453	14724.71484
509.661	14477.85692
509.869	14684.24741
510.077	14629.61578
510.285	14949.30371
510.492	14757.08854
510.7	15012.02559
510.908	14692.34093
511.116	14854.20846
511.324	14763.15858
511.531	15131.39881
511.739	14850.16183
511.947	14920.97758
512.155	14876.4649
512.362	14736.855
512.57	14807.67203
512.778	14979.65305
512.985	14939.18725
513.193	15206.25983
513.401	15074.74719
513.608	15147.58498
513.816	15449.05401
514.024	15293.26062
514.231	15175.91077
514.439	15861.8242
514.646	15675.66844
514.854	15691.85556
515.061	15147.58498
515.269	15550.22008
515.477	15313.49341
515.684	15614.96724
515.892	15910.38813
516.099	15904.3176
516.307	15833.49556
516.514	16033.82485
516.722	15875.98861
516.929	16244.28719
517.136	15993.35323
517.344	16112.74621
517.551	16017.63614
517.759	16335.35833
517.966	16327.26296
518.173	16390.00282
518.381	16394.05062
518.588	16466.91232
518.796	16509.4162
519.003	16576.20991
519.21	16365.71621
519.418	16764.45987
519.625	16602.52323
519.832	16750.28981
520.039	16898.06921
520.247	16940.58359
520.454	16979.04998
520.661	17053.96099
520.868	16786.72734
521.076	17357.69382
521.283	17011.44348
521.49	17062.0597
521.697	17181.52086
521.904	17238.21777
522.112	17023.59121
522.319	17373.89477
522.526	17078.25725
522.733	17870.14788
522.94	17428.57442
523.147	17454.90247
523.354	17120.77667
523.561	17448.82672
523.768	17507.56015
523.975	18011.97164
524.183	17333.39276
524.39	17797.21658
524.597	17791.13917
524.804	17999.81464
525.011	17766.82984
525.218	17637.18827
525.425	17882.30353
525.632	17882.30353
525.838	18099.10058
526.045	17596.67806
526.252	18016.024
526.459	18307.83215
526.666	18095.04792
526.873	18423.36077
527.08	18251.08571
527.287	18512.5492
527.494	18139.62793
527.701	18520.65761
527.907	18326.0727
528.114	18490.2514
528.321	18802.46345
528.528	18755.82847
528.735	18849.10054
528.941	18465.92705
529.148	18384.84987
529.355	19094.48714
529.562	18824.76788
529.768	18916.01831
529.975	18670.67432
530.182	19122.8828
530.388	18498.35964
530.595	19047.83885
530.802	18968.74448
531.008	19100.57186
531.215	19439.34604
531.422	19341.96205
531.628	19555.00195
531.835	19488.04162
532.042	19449.49076
532.248	19806.65115
532.455	19311.53151
532.661	19461.66455
532.868	19275.01608
533.074	19394.71053
533.281	19621.96683
533.487	19877.69283
533.694	19936.55984
533.9	20190.3374
534.107	19638.20143
534.313	20064.45551
534.52	20143.6374
534.726	19837.09696
534.933	19822.8888
535.139	19912.20065
535.345	20036.03281
535.552	20423.87078
535.758	20549.79874
535.965	20438.08765
536.171	20720.43643
536.377	20641.20813
536.584	20344.66628
536.79	20647.30239
536.996	20903.29504
537.203	20503.08165
537.409	20523.39316
537.615	20738.72078
537.821	20795.60757
538.028	21183.74297
538.234	20889.0715
538.44	20952.06298
538.646	20726.53117
538.853	20893.13535
539.059	20635.11391
539.265	20962.22327
539.471	21010.99408
539.677	20740.75239
539.883	21010.99408
540.09	21303.66828
540.296	21277.24286
540.502	21527.29519
540.708	21332.1272
540.914	21742.83555
541.12	21250.81811
541.326	21667.59476
541.532	21781.47479
541.738	22133.3589
541.944	21781.47479
542.15	22190.32188
542.356	22015.37351
542.562	22131.32457
542.768	21950.28357
542.974	21903.50258
543.18	21775.37376
543.386	22060.1251
543.592	22159.80564
543.798	22267.63344
544.004	22135.39325
544.21	22792.67638
544.415	22298.15262
544.621	22617.63577
544.827	22231.01151
545.033	22631.8823
545.239	22479.25002
545.445	23136.72521
545.651	22707.18821
545.856	22631.8823
546.062	22810.99607
546.268	22572.86211
546.474	22342.91559
546.679	22754.00241
546.885	22454.83072
547.091	22621.70619
547.297	22454.83072
547.502	22640.02325
547.708	22615.60057
547.914	22912.77716
548.119	23075.64448
548.325	22959.59932
548.531	22393.78474
548.736	22739.75441
548.942	22851.70748
549.147	22994.20814
549.353	22984.02897
549.559	23452.35533
549.764	23008.45912
549.97	23324.05771
550.175	23383.11379
550.381	23527.7105
550.586	23045.10523
550.792	23183.55576
550.997	23338.31238
551.203	23315.91225
551.408	23639.73271
551.614	23662.13826
551.819	23623.438
552.025	23977.89069
552.23	23941.21909
552.435	24073.64862
552.641	24026.78758
552.846	23653.99074
553.052	24446.55083
553.257	24279.44694
553.462	23829.17275
553.668	24285.56019
553.873	24202.01461
554.078	23977.89069
554.283	23831.20988
554.489	23867.87868
554.694	24189.78881
554.899	24297.78675
555.105	24273.33372
555.31	24548.452
555.515	24330.39137
555.72	24601.44311
555.925	24585.13797
556.131	24711.50695
556.336	24511.76684
556.541	24780.81006
556.746	24587.17611
556.951	24652.3977
557.156	24723.73671
557.361	24762.46485
557.567	24996.89034
557.772	24709.46866
557.977	24601.44311
558.182	25190.56907
558.387	25017.27662
558.592	24774.69497
558.797	24939.80998
559.002	24894.9624
559.207	24846.03906
559.412	24848.0775
559.617	24856.23131
559.822	25337.37037
560.027	25219.11289
560.232	25367.95536
560.437	25208.91862
560.642	25343.48733
560.847	25590.22027
561.051	25445.43945
561.256	25533.12239
561.461	25792.1144
561.666	25239.5016
561.871	25694.22397
562.076	25241.54048
562.281	25767.64138
562.485	25580.02411
562.69	25563.71035
562.895	25259.89052
563.1	25649.359
563.305	25437.28309
563.509	25588.18104
563.714	25571.86721
563.919	25765.60198
564.123	25514.76984
564.328	25947.11646
564.533	25614.69127
564.737	25592.25951
564.942	26114.36728
565.147	26179.63909
565.351	26208.19607
565.556	25881.85113
565.761	25983.82902
565.965	26306.10821
566.17	25826.78498
566.374	25975.67062
566.579	25932.83951
566.784	26028.70073
566.988	26218.39507
567.193	26136.80426
567.397	26157.20171
567.602	26716.15576
567.806	26377.5049
568.011	26559.06538
568.215	26497.86381
568.42	26824.28808
568.624	26534.58458
568.828	26269.3907
569.033	26334.66664
569.237	26810.00622
569.442	26497.86381
569.646	26087.85111
569.85	26644.74992
570.055	26789.60368
570.259	26493.78376
570.463	26942.62625
570.668	26365.26532
570.872	26273.4704
571.076	26681.47269
571.281	26763.0806
571.485	26958.94913
571.689	26840.6103
571.893	27228.28944
572.098	27650.70989
572.302	27020.16074
572.506	27032.40321
572.71	27291.547
572.914	27460.92012
573.119	27511.93783
573.323	26954.8684
573.527	27185.43827
573.731	27550.7118
573.935	27397.65925
574.139	27309.91233
574.343	26734.51756
574.547	27518.06
574.751	27022.20115
574.955	27609.89399
575.159	27007.91832
575.364	27726.22057
575.568	27756.83347
575.772	28001.74613
575.976	27850.71469
576.18	27228.28944
576.383	27973.17214
576.587	27664.99557
576.791	27950.7213
576.995	27581.32315
577.199	27428.2692
577.403	27691.52627
577.607	27909.90194
577.811	27769.07871
578.015	27705.81212
578.219	27865.00118
578.422	28205.8525
578.626	28071.14105
578.83	27987.45911
579.034	27885.41055
579.238	28277.29233
579.442	28130.33185
579.645	28075.22314
579.849	28089.5105
580.053	28214.01698
580.257	28610.01522
580.46	28297.70396
580.664	28650.84206
580.868	28162.98924
581.071	28536.52798
581.275	28489.57851
581.479	28379.35155
581.682	28387.5164
581.886	28430.38216
582.09	28450.7946
582.293	29118.33906
582.497	28759.0352
582.7	29014.2193
582.904	28865.18981
583.107	28946.84912
583.311	28985.63787
583.515	28895.81186
583.718	28620.22189
583.922	28783.53217
584.125	28814.15359
584.329	28881.52154
584.532	28756.9938
584.735	29167.33754
584.939	29138.75502
585.142	29651.22985
585.346	29402.13021
585.549	28938.68311
585.753	29157.12947
585.956	29065.25806
586.159	29347.00373
586.363	29536.88707
586.566	29683.89984
586.769	29575.68157
586.973	28920.30966
587.176	29618.56014
587.379	29259.21129
587.582	29275.54462
587.786	29210.21169
587.989	29271.46128
588.192	29447.04865
588.395	29849.29592
588.599	29579.76522
588.802	29614.47645
589.005	29716.5701
589.208	30292.43047
589.411	29888.09358
589.615	29326.58671
589.818	30051.45659
590.021	29781.91147
590.224	29988.15256
590.427	30165.81504
590.63	29951.39589
590.833	30051.45659
591.036	30055.54075
591.239	30427.21973
591.442	30306.72605
591.645	30658.0079
591.848	30596.73511
592.051	30582.43829
592.254	30041.24618
592.457	30265.8817
592.66	30180.1101
592.863	30453.76976
593.066	30161.73075
593.269	30337.35963
593.472	30337.35963
593.675	31438.32505
593.878	30843.87599
594.081	31001.15789
594.284	30555.88723
594.486	30911.2815
594.689	30813.23763
594.892	30762.17436
595.095	30729.49431
595.298	30521.16693
595.5	30807.10999
595.703	31095.12254
595.906	30692.72967
596.109	30972.56055
596.311	30835.70573
596.514	30792.81222
596.717	30958.26199
596.92	31505.74511
597.122	31244.24682
597.325	31260.58971
597.528	31307.57604
597.73	31558.86522
597.933	31485.3146
598.136	31234.03257
598.338	31656.93616
598.541	31487.35764
598.743	31791.79031
598.946	31268.76118
599.148	31475.0994
599.351	31407.68016
599.554	31820.39674
599.756	31691.67058
599.959	31906.21823
600.161	31814.26676
600.363	31634.46122
600.566	31673.2817
600.768	31730.492
600.971	31769.31407
601.173	31642.6339
601.376	31546.60664
601.578	31775.44393
601.78	32010.43453
601.983	31769.31407
602.185	31926.6524
602.388	31857.17698
602.59	31656.93616
602.792	32126.9176
602.995	31975.69521
603.197	31744.79479
603.399	31830.61341
603.601	31601.77077
603.804	31515.96043
604.006	31799.96354
604.208	31857.17698
604.41	32043.13088
604.613	31949.13022
604.815	31994.08654
605.017	31912.34846
605.219	31321.8764
605.421	31787.7037
605.623	32100.35071
605.826	32374.21082
606.028	32533.63984
606.23	32175.96506
606.432	31926.6524
606.634	32576.5654
606.836	31738.66501
607.038	32161.65943
607.24	32314.93937
607.442	32239.31979
607.644	32355.81604
607.846	32288.36999
608.048	32398.73748
608.25	32570.43311
608.452	31985.9126
608.654	32051.30505
608.856	31824.4834
609.058	32118.74314
609.26	32400.78138
609.462	32684.90595
609.664	32173.92139
609.866	32494.8033
610.067	32441.65989
610.269	32247.49474
610.471	31930.73926
610.673	32233.1886
610.875	32396.69358
611.077	32357.85989
611.278	32051.30505
611.48	32331.28993
611.682	32556.12453
611.884	33191.95186
612.085	32447.79175
612.287	32584.74181
612.489	32488.67129
612.69	32727.8352
612.892	32754.41099
613.094	32660.37543
613.295	32464.14346
613.497	32699.21558
613.699	32200.48923
613.9	32599.05063
614.102	32437.572
614.304	32227.05743
614.505	32290.41378
614.707	32415.08876
614.908	32114.65592
615.11	32490.71529
615.311	32276.10733
615.513	32770.76553
615.714	32660.37543
615.916	32590.87415
616.117	32157.57212
616.319	32543.86012
616.52	32650.15448
616.722	32789.16458
616.923	32787.12023
617.124	32511.15543
617.326	32288.36999
617.527	32543.86012
617.729	32151.44118
617.93	32149.39754
618.131	32466.18743
618.333	32564.30085
618.534	32691.03863
618.735	32866.85168
618.937	32462.09948
619.138	32981.34468
619.339	32811.65257
619.54	32376.2547
619.742	32482.5393
619.943	32098.30712
620.144	32163.70308
620.345	32854.58505
620.546	32468.23141
620.748	32684.90595
620.949	32378.29858
621.15	33067.21985
621.351	32623.58029
621.552	32652.19866
621.753	32879.1184
621.954	33468.03594
622.155	32269.97602
622.356	32793.25328
622.558	33026.32632
622.759	33046.77295
622.96	32821.87449
623.161	32498.89132
623.362	32597.0065
623.563	32785.07588
623.764	32533.63984
623.965	32135.09209
624.166	32609.27128
624.366	32948.63156
624.567	32688.9944
624.768	32915.91911
624.969	32353.77218
625.17	32568.38902
625.371	32631.75692
625.572	32386.47411
625.773	32717.61385
625.973	32554.08045
626.174	32987.47846
626.375	33167.4136
626.576	33114.24875
626.777	33175.59298
626.977	32989.52306
627.178	33247.16444
627.379	32842.31852
627.58	32298.58894
627.78	32502.97934
627.981	32607.22714
628.182	32733.96804
628.382	33349.41548
628.583	32854.58505
628.784	33106.0697
628.984	32552.03638
629.185	33288.06398
629.386	32429.39625
629.586	32754.41099
629.787	32339.46526
629.987	32617.44784
630.188	32664.46382
630.388	33273.74901
630.589	32758.49961
630.79	33249.20939
630.99	33234.8948
631.191	33455.76439
631.391	33750.31277
631.591	33425.08598
631.792	33265.56909
631.992	33695.07989
632.193	33519.16859
632.393	33345.3253
632.594	32903.65211
632.794	33361.68609
632.994	33265.56909
633.195	33314.64931
633.395	33181.72754
633.595	32948.63156
633.796	32872.98503
633.996	33574.39404
634.196	33220.58035
634.397	33611.21227
634.597	33373.95682
634.797	33629.62177
634.997	33036.5496
635.198	33116.29351
635.398	33292.154
635.598	33965.13058
635.798	33363.73121
635.998	33200.13137
636.199	33652.12263
636.399	33484.39818
636.599	33539.6222
636.799	33394.40826
636.999	33247.16444
637.199	32985.43386
637.399	33216.49053
637.599	33304.42412
637.799	33304.42412
637.999	33574.39404
638.199	33684.85184
638.399	33431.22161
638.599	33353.50567
638.799	33664.39599
638.999	33482.35289
639.199	33255.34425
639.399	33024.28167
639.599	33785.09026
639.799	33071.30926
639.999	33494.62468
640.199	33423.04078
640.399	34030.60646
640.599	32691.03863
640.799	34339.6213
640.998	33492.57937
641.198	33457.80964
641.398	33764.6328
641.598	34141.10535
641.798	34014.23715
641.997	34192.26586
642.197	34024.46794
642.397	34280.26742
642.597	34030.60646
642.796	34411.25964
642.996	34038.7912
643.196	34012.191
643.395	33390.31795
643.595	33324.87456
643.795	33813.73128
643.994	33885.33671
644.194	33729.85587
644.394	34184.08002
644.593	34132.91988
644.793	34687.62518
644.992	34294.59392
645.192	33774.86149
645.392	33795.31912
645.591	34118.59546
645.791	33893.52045
645.99	34276.17417
646.19	33699.17113
646.389	33441.44771
646.589	33515.07791
646.788	33944.67011
646.987	33848.51054
647.187	34087.90086
647.386	33482.35289
647.586	34208.63772
647.785	34343.71479
647.984	34161.56928
648.184	33826.0062
648.383	33523.25929
648.582	33809.63966
648.782	34094.03971
648.981	34276.17417
649.18	34433.77554
649.38	34671.24586
649.579	34538.1738
649.778	34693.7675
649.977	35007.07772
650.177	34575.02277
650.376	34470.62079
650.575	34362.13569
650.774	34654.86681
650.973	34771.57351
651.173	34489.0439
651.372	34196.3588
651.571	34468.57379
651.77	34589.35328
651.969	34675.34066
652.168	34126.78082
652.367	34837.09921
652.566	34409.21276
652.765	34538.1738
652.964	34253.66156
653.163	34368.27606
653.362	34787.95451
653.561	34744.95496
653.76	34394.88473
653.959	34429.6817
654.158	34351.90181
654.357	34173.84781
654.556	34171.80138
654.755	34220.91677
654.954	33893.52045
655.153	33754.40419
655.352	34190.2194
655.551	34521.7969
655.749	34413.30652
655.948	34476.76179
656.147	34184.08002
656.346	34392.83789
656.545	34308.92061
656.743	33930.34799
656.942	34503.37321
657.141	34386.69738
657.34	34313.01399
657.538	34153.38366
657.737	34454.24496
657.936	34970.21227
658.135	34364.18247
658.333	34456.29193
658.532	34394.88473
658.731	34562.73963
658.929	34329.38764
659.128	34241.38215
659.326	34237.28904
659.525	34959.97213
659.724	34527.93821
659.922	34525.8911
660.121	34489.0439
660.319	34335.52782
660.518	34040.8374
660.716	34372.36966
660.915	34261.84791
661.113	34245.47527
661.312	34077.66951
661.51	34218.87025
661.709	34671.24586
661.907	34317.10738
662.105	34560.69245
662.304	34474.71478
662.502	34446.05714
662.701	34570.92837
662.899	34308.92061
663.097	34882.15074
663.296	34525.8911
663.494	34581.16439
663.692	34679.43549
663.891	34677.38807
664.089	34581.16439
664.287	34812.52654
664.485	34675.34066
664.684	34699.90985
664.882	34329.38764
665.08	34368.27606
665.278	34106.31752
665.476	34182.03357
665.675	33897.61235
665.873	33963.08452
666.071	34306.87393
666.269	34540.22093
666.467	34441.96326
666.665	34480.85581
666.863	34380.5569
667.061	34570.92837
667.259	34959.97213
667.457	35265.17834
667.655	34186.12648
667.853	34055.16086
668.051	33881.24486
668.249	34620.06221
668.447	34241.38215
668.645	34310.9673
668.843	34847.338
669.041	34603.684
669.239	33754.40419
669.437	34212.73072
669.635	34300.73391
669.833	34425.58788
670.031	34227.05634
670.229	34087.90086
670.426	34683.53033
670.624	34392.83789
670.822	34157.47646
671.02	34177.94069
671.218	34186.12648
671.415	33828.05203
671.613	33897.61235
671.811	33740.08428
672.009	33758.49562
672.206	33848.51054
672.404	33580.53034
672.602	33942.62408
672.799	34390.79105
672.997	34302.78058
673.195	33901.70425
673.392	34360.0889
673.59	35074.66827
673.788	34243.42871
673.985	33590.75757
674.183	33973.31487
674.38	34163.61569
674.578	33887.38264
674.775	33971.26879
674.973	34278.2208
675.17	34151.33727
675.368	33889.42857
675.565	33989.68361
675.763	33916.02604
675.96	33819.86872
676.158	33656.21374
676.355	33351.46057
676.553	33658.25929
676.75	33108.11446
676.947	33335.09989
677.145	33615.30325
677.342	33864.87759
677.539	33437.35726
677.737	33948.76218
677.934	33807.59386
678.131	33999.91419
678.329	33484.39818
678.526	33629.62177
678.723	33995.82195
678.92	33805.54806
679.118	33155.14462
679.315	32850.4962
679.512	33339.19005
679.709	33482.35289
679.906	33050.86231
680.104	33586.66667
680.301	33490.53407
680.498	32977.2555
680.695	33355.55077
680.892	33234.8948
681.089	33079.48812
681.286	32911.8301
681.483	33042.6836
681.68	33232.84987
681.877	33118.33828
682.075	33615.30325
682.272	33151.05498
682.469	33652.12263
682.665	33208.31093
682.862	33085.62229
683.059	33453.71914
683.256	33463.94541
683.453	33222.62526
683.65	32832.09647
683.847	33169.45844
684.044	32674.68486
684.241	32684.90595
684.438	33193.99674
684.635	32817.78572
684.831	33463.94541
685.028	33179.68268
685.225	33269.65904
685.422	32494.8033
685.619	32932.27525
685.815	32738.05661
686.012	32672.64065
686.209	32290.41378
686.405	32621.53614
686.602	32425.30838
686.799	32139.17935
686.996	32276.10733
687.192	32531.59579
687.389	32756.4553
687.586	32472.31936
687.782	32848.45177
687.979	32476.40733
688.175	32302.67653
688.372	32480.49531
688.568	32729.87948
688.765	32592.91826
688.962	32762.58824
689.158	32701.25982
689.355	32486.62729
689.551	32517.28751
689.748	32239.31979
689.944	31722.31902
690.14	32039.04381
690.337	31998.17353
690.533	32545.90418
690.73	31810.18012
690.926	32502.97934
691.123	32084.00203
691.319	32682.86173
691.515	32267.93226
691.712	31871.48056
691.908	31722.31902
692.104	31793.83361
692.301	32155.52848
692.497	31536.39119
692.693	31736.62176
692.889	31499.61594
693.086	32094.21994
693.282	32169.83406
693.478	32012.47804
693.674	31675.3249
693.87	31644.67707
694.067	31546.60664
694.263	31456.71216
694.459	31140.06326
694.655	31473.05637
694.851	31742.75153
695.047	31791.79031
695.243	31661.02253
695.439	30790.76968
695.635	31266.71831
695.831	31802.00685
696.027	31736.62176
696.224	31802.00685
696.42	31466.92728
696.615	31520.04657
696.811	31311.66185
697.007	31242.20397
697.203	30948.04878
697.399	30995.02986
697.595	31180.91909
697.791	30825.49294
697.987	30739.70679
698.183	31450.58311
698.379	30878.59985
698.575	30964.38994
698.77	31054.26796
698.966	31187.04752
699.162	31193.17596
699.358	31497.57289
699.554	30990.94452
699.749	31274.88981
699.945	30800.98236
700.141	30880.64244
700.337	30668.22015
700.532	31268.76118
700.728	31013.41397
700.924	31046.09712
701.119	30668.22015
701.315	30596.73511
701.511	30727.45182
701.706	31068.567
701.902	30886.77023
702.097	30874.51467
702.293	30547.71772
702.489	29859.5058
702.684	30449.68512
702.88	30253.62848
703.075	30461.93904
703.271	30443.55818
703.466	30788.72715
703.662	30643.71081
703.857	30760.13185
704.053	30470.10834
704.248	30002.44692
704.443	30010.61516
704.639	30127.01444
704.834	30525.25166
705.03	30463.98136
705.225	30635.54107
705.42	30084.13006
705.616	30049.4145
705.811	29857.46382
706.006	29788.03728
706.202	29369.46258
706.397	29959.56401
706.592	30049.4145
706.787	30402.71219
706.983	30169.89934
707.178	30035.11996
707.373	29920.76561
707.568	30519.12457
707.763	30302.64159
707.959	30102.50902
708.154	30233.20656
708.349	29886.05159
708.544	29747.19873
708.739	29953.43792
708.934	29812.54062
709.129	29986.11052
709.324	30018.7834
709.519	29692.06738
709.714	29285.75298
709.909	29755.3664
710.104	29181.62887
710.299	29369.46258
710.494	29289.83634
710.689	29565.47245
710.884	29928.93366
711.079	30600.81993
711.274	29928.93366
711.469	30474.193
711.664	30088.21426
711.859	30318.97945
712.054	30459.89671
712.249	30339.40188
712.443	29894.21957
712.638	29436.83987
712.833	29381.71291
713.028	29757.40832
713.223	29234.71141
713.417	29628.7694
713.612	29371.5043
713.807	29645.10426
714.002	29440.92338
714.196	29790.07922
714.391	29485.84226
714.586	29937.10173
714.78	30006.53104
714.975	29822.75039
715.17	29498.09296
715.364	30008.5731
715.559	29300.04474
715.754	28997.88703
715.948	29128.54703
716.143	28977.47179
716.337	28826.40223
716.532	28971.34723
716.726	28493.66105
716.921	29255.12796
717.115	29073.42432
717.31	29004.01162
717.504	29357.21228
717.699	29434.79812
717.893	29177.54563
718.088	28924.39264
718.282	28836.60945
718.476	28565.10619
718.671	28448.75335
718.865	28663.09019
719.059	28689.62794
719.254	28485.49598
719.448	28283.41581
719.642	28407.92861
719.837	28020.11525
720.031	28799.86357
720.225	27989.50011
720.419	28216.0581
720.614	28350.77469
720.808	28365.06309
721.002	28369.1455
721.196	28397.72249
721.39	28469.16588
721.585	28734.53839
721.779	28463.04211
721.973	28379.35155
722.167	28291.58046
722.361	28393.64005
722.555	28556.94097
722.749	28642.67666
722.943	28369.1455
723.137	27899.69717
723.331	27789.48753
723.525	27885.41055
723.719	28040.52548
723.913	27744.58828
724.107	27446.6353
724.301	28018.07423
724.495	27575.20086
724.689	27575.20086
724.883	27267.06005
725.077	27693.5671
725.271	27352.76518
725.465	27311.95293
725.659	27501.73422
725.853	27642.54667
726.046	27597.64932
726.24	28026.23831
726.434	27411.94386
726.628	27546.63031
726.822	27162.99265
727.015	27448.67599
727.209	26944.66661
727.403	27218.08673
727.596	27399.69991
727.79	27522.14146
727.984	27916.02481
728.177	27728.26142
728.371	27524.18219
728.565	27277.26293
728.758	27197.6814
728.952	27293.58759
729.146	27287.46583
729.339	27471.1236
729.533	26975.2721
729.726	27171.15468
729.92	27058.92874
730.113	27299.70936
730.307	27411.94386
730.5	27532.34513
730.694	27511.93783
730.887	27381.33406
731.081	27773.16046
731.274	27591.52699
731.468	27087.49495
731.661	27101.77816
731.854	27134.42574
732.048	27154.83065
732.241	27079.33315
732.435	27262.97892
732.628	27577.24162
732.821	27307.87174
733.014	27183.39775
733.208	26946.70696
733.401	27095.65678
733.594	27148.70916
733.788	27344.60269
733.981	27854.79654
734.174	27920.10674
734.367	27836.42826
734.56	27599.69009
734.754	27387.456
734.947	26750.83926
735.14	26748.79904
735.333	27114.02096
735.526	26797.76468
735.719	26854.89232
735.912	26824.28808
736.105	26620.26835
736.298	26822.24781
736.491	27413.98452
736.684	27014.03952
736.877	27040.56489
737.07	26587.62659
737.263	26963.02987
737.456	27040.56489
737.649	27040.56489
737.842	26993.63556
738.035	27199.72193
738.228	26956.90877
738.421	26665.1514
738.614	27387.456
738.807	27156.87115
739	27114.02096
739.192	26875.29532
739.385	26705.95481
739.578	27079.33315
739.771	26516.22413
739.964	26471.34357
740.156	26353.02581
740.349	26428.50375
740.542	26714.11557
740.735	26665.1514
740.927	26424.42381
741.12	26265.31101
741.313	26287.74939
741.505	25961.39349
741.698	26040.93861
741.891	25914.48356
742.083	26279.58996
742.276	25953.23518
742.468	25743.16864
742.661	25867.57459
742.854	26122.52616
743.046	26087.85111
743.239	26120.48643
743.431	26299.98859
743.624	25879.81162
743.816	25473.98697
744.009	25669.75205
744.201	25561.67114
744.393	25863.4956
744.586	25596.338
744.778	25612.65201
744.971	25480.10435
745.163	25739.08987
745.355	25902.24634
745.548	25932.83951
745.74	25590.22027
745.932	25651.3983
746.125	25612.65201
746.317	25551.47511
746.509	25635.08399
746.702	25559.63193
746.894	25378.15046
747.086	25608.5735
747.278	25478.06522
747.471	25573.90643
747.663	25200.76325
747.855	25241.54048
748.047	25500.49574
748.239	25441.36126
748.431	25484.18261
748.623	25596.338
748.815	25783.9567
749.008	25743.16864
749.2	26036.85931
749.392	25447.47854
749.584	25449.51764
749.776	25906.32541
749.968	25959.35391
750.16	25783.9567
750.352	25170.18089
750.544	25111.05642
750.736	25673.83069
750.928	25877.77211
751.12	25716.6568
751.311	25215.03518
751.503	25221.15175
751.695	25172.2197
751.887	25025.43119
752.079	25451.55674
752.271	25139.59903
752.463	25045.81779
752.654	25308.8248
752.846	25443.40036
753.038	25125.32767
753.23	25427.08768
753.421	25135.52149
753.613	25400.57987
753.805	25712.57809
753.997	25316.98063
754.188	25314.94167
754.38	25527.00486
754.572	25826.78498
754.763	25286.39643
754.955	25023.39255
755.146	25033.5858
755.338	25070.282
755.53	24754.31148
755.721	25047.85646
755.913	24892.9239
756.104	24833.80844
756.296	24491.38656
756.487	24699.27728
756.679	24733.92824
756.87	24418.01965
757.062	24560.68057
757.253	24397.64055
757.445	24181.63833
757.636	24236.65491
757.827	24134.77392
758.019	24061.42386
758.21	24098.09844
758.401	23906.58566
758.593	23951.40556
758.784	24120.51113
758.975	23810.83872
759.167	23759.91213
759.358	23947.33096
759.549	23949.36826
759.74	24063.46131
759.932	23904.54842
760.123	23558.2611
760.314	23395.33262
760.505	23275.18573
760.696	23191.70038
760.888	23167.26668
761.079	23148.94171
761.27	23857.69281
761.461	23674.35961
761.652	23590.84916
761.843	23368.85863
762.034	24008.45106
762.225	23525.67382
762.416	23210.02597
762.607	22786.56988
762.798	23108.2205
762.989	23421.80714
763.18	23649.91701
763.371	23719.17218
763.562	23448.2822
763.753	23053.24895
763.944	23098.0404
764.135	22796.7474
764.326	23096.00439
764.517	22666.48172
764.708	22884.2776
764.899	22532.16027
765.089	22637.988
765.28	22491.45986
765.471	22548.44084
765.662	21887.23141
765.853	22587.10809
766.043	22383.61073
766.234	22617.63577
766.425	22176.08086
766.615	22395.81955
766.806	22688.87012
766.997	22387.68032
767.187	22290.01409
767.378	22566.75674
767.569	22479.25002
767.759	22312.39519
767.95	22534.19533
768.141	22332.74203
768.331	22373.43681
768.522	21637.09326
768.712	21986.89619
768.903	21891.29918
769.093	21689.96309
769.284	21677.76212
769.474	21946.21558
769.665	21818.08167
769.855	21848.58836
770.046	21936.04567
770.236	22045.88576
770.426	21706.23126
770.617	21954.35158
770.807	21553.72701
770.998	21809.9467
771.188	21614.72605
771.378	21458.16899
771.569	21531.36158
771.759	21653.36062
771.949	21580.15949
772.139	21986.89619
772.33	21279.27556
772.52	21875.02819
772.71	21600.49263
772.9	21508.99663
773.09	21116.67225
773.281	21285.37368
773.471	21283.34097
773.661	21008.96191
773.851	21126.8342
774.041	21252.85076
774.231	20905.32699
774.421	20742.78401
774.611	20553.8612
774.802	20492.92606
774.992	20685.90024
775.182	20582.29889
775.372	21206.10086
775.562	20533.54907
775.752	20450.2737
775.942	20425.90175
776.131	20809.82978
776.321	20468.55305
776.511	20568.07994
776.701	20647.30239
776.891	20637.14531
777.081	20604.64336
777.271	20499.0194
777.461	20523.39316
777.651	20572.14248
777.84	20318.2662
778.03	20578.23631
778.22	20649.33382
778.41	20663.55393
778.599	20580.2676
778.789	20257.34565
778.979	20257.34565
779.169	20101.0002
779.358	20200.48987
779.548	20220.79513
779.738	20137.54625
779.927	20222.82568
780.117	20440.11865
780.307	19971.06972
780.496	20109.12143
780.686	20147.69818
780.875	19938.5898
781.065	20267.49881
781.254	19800.5621
781.444	19778.23592
781.633	19573.26465
781.823	19658.49504
782.012	19684.87737
782.202	19780.26555
782.391	19668.64201
782.581	19613.84963
782.77	19214.16
782.96	19315.58886
783.149	19084.34602
783.338	19439.34604
783.528	19019.44529
783.717	18859.23932
783.906	18853.15604
784.096	18952.52075
784.285	19341.96205
784.474	19011.33299
784.663	19055.95144
784.853	19139.10925
785.042	19427.17252
785.231	19327.76101
785.42	19055.95144
785.61	18895.73974
785.799	18930.21355
785.988	19256.75887
786.177	18770.0215
786.366	18869.37819
786.555	18796.38051
786.744	18909.9347
786.933	18374.71564
787.122	18638.23647
787.312	18338.23323
787.501	18263.24541
787.69	18528.76608
787.879	18615.93603
788.068	18544.9832
788.257	18488.22435
788.445	18567.28215
788.634	18968.74448
788.823	18459.84605
789.012	18707.16811
789.201	18317.96575
789.39	18407.14549
789.579	18088.96896
789.768	18656.48264
789.957	18245.00591
790.145	18569.30935
790.334	17809.37148
790.523	17815.44898
790.712	17663.52061
790.9	17924.84929
791.089	18145.70716
791.278	18188.26269
791.467	17902.56322
791.655	18190.28918
791.844	17837.73342
792.033	18044.39094
792.221	17847.86284
792.41	17681.75102
792.599	17639.21382
792.787	18032.23359
792.976	17738.46958
793.164	17580.47434
793.353	17669.59739
793.541	18022.10257
793.73	17823.55237
793.918	18279.45856
794.107	17533.8898
794.295	17548.06752
794.484	17329.34263
794.672	17604.78
794.861	17742.521
795.049	17926.87532
795.238	17402.2469
795.426	17750.6239
795.614	17493.38287
795.803	17487.30695
795.991	17438.70053
796.179	17570.34712
796.368	17153.17326
796.556	17278.71696
796.744	17003.34504
796.932	17594.65258
797.121	17402.2469
797.309	17311.11717
797.497	17090.40553
797.685	17001.32044
797.874	16938.55907
798.062	17444.77624
798.25	16977.02541
798.438	17058.01034
798.626	16734.0956
798.814	16701.70765
799.002	16640.98184
799.19	16752.3141
799.378	16736.11987
799.566	16877.82466
799.755	16501.32015
799.943	16768.50847
800.131	16855.55596
800.318	16894.02028
800.506	16570.13766
800.694	16867.70249
800.882	16845.43392
801.07	17151.14845
801.258	17051.93632
801.446	17157.22288
801.634	16792.80034
801.822	16823.16566
802.01	16557.99321
802.197	16738.14414
802.385	16325.23913
802.573	16584.30627
802.761	16768.50847
802.949	16531.68051
803.136	16317.1438
803.324	16298.92943
803.512	16005.49466
803.699	16153.21961
803.887	16272.62004
804.075	16553.94508
804.262	16137.03017
804.45	16560.01728
804.638	16721.95005
804.825	16999.29584
805.013	16549.89696
805.201	16979.04998
805.388	16608.59559
805.576	16665.27191
805.763	16624.78864
805.951	16517.51229
806.138	16841.38512
806.326	16817.09255
806.513	16616.6921
806.701	16626.81279
806.888	16122.8645
807.075	16584.30627
807.263	16126.91182
807.45	16610.61971
807.638	16477.03221
807.825	16632.88522
808.012	16428.45721
808.2	16572.16174
808.387	16792.80034
808.574	16898.06921
808.761	16628.83693
808.949	16586.33037
809.136	16867.70249
809.323	16549.89696
809.51	16703.73188
809.698	16410.24189
809.885	16120.84084
810.072	16246.31095
810.259	16353.573
810.446	16444.64875
810.633	16422.38542
810.82	16713.85306
811.008	16266.54868
811.195	16353.573
811.382	16353.573
811.569	16410.24189
811.756	15960.97634
811.943	16460.84041
812.13	16468.93629
812.317	16568.11358
812.504	16827.21441
812.691	17007.39425
812.878	16875.80022
813.064	16651.10267
813.251	16483.10417
813.438	16543.82479
813.625	15906.34111
813.812	16084.4152
813.999	16499.29615
814.186	16744.21696
814.372	16709.80458
814.559	16930.46101
814.746	16290.8342
814.933	16444.64875
815.12	16683.48969
815.306	16244.28719
815.493	16426.43328
815.68	16458.81645
815.866	16155.2433
816.053	16606.57147
816.24	16651.10267
816.426	16137.03017
816.613	16060.13172
816.799	16531.68051
816.986	16400.12233
817.173	16452.74456
817.359	16236.19215
817.546	16363.69234
817.732	16466.91232
817.919	16485.12816
818.105	16238.21591
818.292	16363.69234
818.478	16076.32068
818.665	16226.0734
818.851	16157.26699
819.037	16177.50396
819.224	16084.4152
819.41	16242.26343
819.597	16155.2433
819.783	16440.60085
819.969	16238.21591
820.156	15973.11764
820.342	15882.05909
820.528	15683.76199
820.714	15542.12674
820.901	15661.50476
821.087	15916.45868
821.273	16108.6989
821.459	16213.93095
821.646	15878.0121
821.832	15857.77724
822.018	15693.87896
822.204	15455.12394
822.39	15760.6515
822.576	15489.52026
822.762	15926.57627
822.948	16003.47109
823.134	15975.14119
823.32	15519.8701
823.507	15819.33132
823.693	15869.91814
823.879	15738.39386
824.065	15442.98409
824.25	15708.04274
824.436	15714.11295
824.622	15665.55152
824.808	15778.86238
824.994	15509.75347
825.18	15400.49478
825.366	15548.19675
825.552	15329.67967
825.738	15572.47683
825.923	14983.69962
826.109	15151.63152
826.295	15333.72623
826.481	15513.80012
826.667	15366.09881
826.852	15404.54137
827.038	15194.1202
827.224	15364.07552
827.409	15291.23734
827.595	15161.74787
827.781	14753.04184
827.966	15194.1202
828.152	14902.76788
828.338	15078.79374
828.523	14607.35823
828.709	14627.59237
828.894	14577.00681
829.08	14977.62976
829.266	14755.06519
829.451	15248.74855
829.637	14965.49004
829.822	15175.91077
830.008	14765.18193
830.193	15155.67806
830.378	14712.57465
830.564	14765.18193
830.749	14374.65657
830.935	14267.4047
831.12	13992.16695
831.305	14295.73586
831.491	14101.45736
831.676	14101.45736
831.861	14113.60033
832.047	14154.07631
832.232	14222.88357
832.417	14322.04305
832.602	14060.98023
832.788	13864.65226
832.973	13777.61214
833.158	13832.26586
833.343	14058.95635
833.528	13809.99979
833.714	13984.07109
833.899	14202.64638
834.084	13919.3027
834.269	14419.17485
834.454	14273.47569
834.639	14396.9158
834.824	14127.76702
835.009	14212.765
835.194	14336.20834
835.379	14301.80677
835.564	14241.09687
835.749	14328.1139
835.934	14036.69351
836.119	14093.36201
836.304	13793.80606
836.489	13992.16695
836.674	13801.90295
836.859	13963.83125
837.044	13779.63639
837.228	14071.0996
837.413	13674.37128
837.598	13749.27232
837.783	13409.14351
837.968	13718.90755
838.152	13433.44182
838.337	13619.71097
838.522	13473.93776
838.707	13656.15145
838.891	13178.28007
839.076	13461.78914
839.261	13109.41499
839.445	13320.04481
839.63	13372.69499
839.815	13388.89449
839.999	13149.92451
840.184	13052.69847
840.368	13089.15952
840.553	13265.36665
840.737	13220.81175
840.922	13166.1278
841.106	13220.81175
841.291	12931.15003
841.475	12902.78606
841.66	13127.6445
841.844	12931.15003
842.029	13380.79478
842.213	12985.84908
842.397	13095.23621
842.582	12850.10737
842.766	12965.59061
842.951	12716.36775
843.135	12998.00392
843.319	12837.95022
843.504	12898.73398
843.688	12649.48853
843.872	12916.96817
844.056	12959.51297
844.241	12955.46118
844.425	12649.48853
844.609	12732.57993
844.793	12446.78337
844.977	12748.79174
845.161	12079.71496
845.346	12582.60277
845.53	12164.9122
845.714	12513.68309
845.898	12093.91543
846.082	12460.97482
846.266	12404.2071
846.45	12355.54486
846.634	12148.68518
846.818	11990.44612
847.002	11972.1847
847.186	12045.22652
847.37	11744.87564
847.554	11819.9805
847.738	11895.07371
847.922	12020.88039
848.106	12004.649
848.29	12047.25532
848.473	11817.95079
848.657	11966.09742
848.841	11604.78307
849.025	11990.44612
849.209	11730.66528
849.392	11763.14548
849.576	11911.30859
849.76	11828.09924
849.944	11698.18284
850.127	11982.33002
850.311	11781.41461
850.495	11862.60238
850.678	11519.48808
850.862	11690.06187
851.046	11519.48808
851.229	11610.87494
851.413	11336.65642
851.596	11527.61212
851.78	11533.70505
851.964	11519.48808
852.147	11424.01916
852.331	11580.41474
852.514	11308.20876
852.698	11403.70387
852.881	11096.82006
853.065	11417.92468
853.248	11172.03865
853.431	11080.55465
853.615	10856.8334
853.798	11220.82135
853.982	11165.94039
854.165	11344.78396
854.348	11023.62022
854.532	11352.91134
854.715	10836.48829
854.898	11139.51349
855.081	11210.65878
855.265	10995.14977
855.448	10822.24603
855.631	10600.39828
855.814	10791.72495
855.997	10757.1312
856.181	10580.03802
856.364	10637.04362
856.547	10527.0955
856.73	10777.48088
856.913	10600.39828
857.096	10584.11018
857.279	10421.18467
857.462	10347.84126
857.645	10284.6707
857.828	10294.86036
858.011	10292.82246
858.194	10563.74892
858.377	10162.36821
858.56	10724.56922
858.743	10539.31376
858.926	10529.13191
859.109	10380.44043
859.292	10311.16314
859.475	10480.2546
859.658	10406.92478
859.841	10237.79387
860.023	10319.3142
860.206	10095.08068
860.389	10309.12534
860.572	9956.37903
860.755	10303.01186
860.937	9907.40959
861.12	9921.69322
861.303	9678.77226
861.486	9917.61225
861.668	9590.94099
861.851	9670.60312
862.034	9819.65147
862.216	9882.92171
862.399	9484.6876
862.581	9799.23866
862.764	9376.34624
862.947	9562.33852
863.129	9525.55937
863.312	9574.5971
863.494	9490.81877
863.677	9490.81877
863.859	9257.73124
864.042	9411.10221
864.224	9529.64619
864.406	9484.6876
864.589	9214.77059
864.771	9529.64619
864.954	9087.89073
865.136	9404.96915
865.318	8905.64024
865.501	9030.56846
865.683	9153.38531
865.865	9077.65561
866.048	8975.28046
866.23	9179.98748
866.412	8844.17587
866.594	9046.94764
866.777	8991.66342
866.959	9190.21831
867.141	8999.85448
867.323	8979.37631
867.505	9024.42598
867.687	9227.04582
867.869	9276.14068
868.052	9118.5935
868.234	8989.61561
868.416	8844.17587
868.598	8909.73729
868.78	8909.73729
868.962	9065.37289
869.144	9224.99999
869.326	8987.56779
869.508	8997.80674
869.69	8499.67108
869.872	8616.61541
870.054	8772.44693
870.236	8721.19832
870.417	8622.76869
870.599	8651.48174
870.781	8741.69914
870.963	8768.34746
871.145	8353.91702
871.327	8520.19207
871.508	8047.71797
871.69	8548.91827
871.872	8327.21911
872.054	8799.0917
872.235	8448.36027
872.417	8444.25489
872.599	8799.0917
872.78	8557.12508
872.962	8536.6075
873.144	8589.94928
873.325	8528.39993
873.507	8655.58331
873.689	8442.20217
873.87	8544.81475
874.052	8292.30148
874.233	8505.82758
874.415	8222.4492
874.596	8425.77973
874.778	7864.60728
874.959	8431.93829
875.141	8269.7047
875.322	8413.46209
875.503	8351.86345
875.685	8368.29146
875.866	7930.46353
876.048	8335.4342
876.229	8164.90663
876.41	8487.35758
876.592	8191.62476
876.773	8368.29146
876.954	8136.12949
877.136	8608.41079
877.317	8300.5179
877.498	8813.43761
877.679	8444.25489
877.86	8497.61888
878.042	8247.10555
878.223	8540.71116
878.404	8351.86345
878.585	8282.03051
878.766	7977.7847
878.947	8553.02171
879.128	8210.11996
879.309	8419.62099
879.49	8132.01815
879.672	8495.56666
879.853	8101.18055
880.034	8483.25292
880.215	8265.59594
880.396	8411.40908
880.576	7992.18465
880.757	8630.97279
880.938	8481.20057
881.119	8788.84408
881.3	8415.51508
881.481	8663.78622
881.662	8319.00371
881.843	8314.89589
882.023	8092.95642
882.204	8062.11308
882.385	8080.61963
882.566	8181.34896
882.747	8267.65033
882.927	8472.99095
883.108	8214.22979
883.289	8583.79511
883.469	8544.81475
883.65	8797.04221
883.831	8585.84652
884.011	8651.48174
884.192	8310.78799
884.373	8362.1311
884.553	8548.91827
884.734	8548.91827
884.914	8115.57199
885.095	8532.50375
885.275	8191.62476
885.456	8148.46303
885.636	8220.39438
885.817	8388.82472
885.997	8438.09668
886.178	8669.93821
886.358	8154.62953
886.538	8282.03051
886.719	8181.34896
886.899	8355.97057
887.08	8347.75626
887.26	8548.91827
887.44	8220.39438
887.621	8577.64077
887.801	8386.77148
887.981	8737.59912
888.161	8643.27838
888.342	8401.14375
888.522	8540.71116
888.702	8538.65934
888.882	8321.05759
889.062	8323.11145
889.242	8481.20057
889.423	8548.91827
889.603	8216.28467
889.783	8680.19116
889.963	8312.84195
890.143	8602.25712
890.323	8425.77973
890.503	8380.61165
890.683	8154.62953
890.863	8294.35562
891.043	8329.27291
891.223	8540.71116
891.403	8456.57081
891.583	8555.0734
891.763	8401.14375
891.943	8540.71116
892.122	8378.55833
892.302	8507.87971
892.482	8140.24075
892.662	8325.16529
892.842	8230.6683
893.022	8310.78799
893.201	8304.626
893.381	8282.03051
893.561	8374.45164
893.741	8257.37819
893.92	7944.86677
894.1	8051.83096
894.28	7990.12758
894.459	8298.46383
894.639	8018.92476
894.819	8298.46383
894.998	7852.25688
895.178	8006.5836
895.357	7835.78852
895.537	8136.12949
895.716	7899.59604
895.896	8337.48793
896.075	7813.14235
896.255	7899.59604
896.434	7784.3163
896.614	7798.72984
896.793	7475.20609
896.973	7619.51706
897.152	7442.20593
897.331	7765.78311
897.511	7559.74383
897.69	7475.20609
897.87	7506.13873
898.049	7683.3928
898.228	7528.81958
898.407	7132.55727
898.587	7109.83013
898.766	7376.18893
898.945	7132.55727
899.124	7206.91815
899.304	7138.75511
899.483	7415.38921
899.662	7105.69764
899.841	7295.70052
900.02	7303.95728
900.199	7512.32468
900.378	7250.28208
900.557	7215.1787
900.737	7124.29317
900.916	7483.45527
901.095	6919.64248
901.274	7066.43447
901.453	7018.89456
901.632	6963.07166
901.811	6894.82133
901.989	7312.21368
902.168	6857.58348
902.347	7097.43238
902.526	6704.41696
902.705	6859.65244
902.884	6644.35804
903.063	7082.96732
903.242	6718.91105
903.42	6818.26887
903.599	6476.50447
903.778	6648.50065
903.957	6420.51949
904.135	6488.94328
904.314	6495.16237
904.493	6679.56734
904.672	6362.44307
904.85	6486.8702
905.029	6105.02711
905.207	6229.62821
905.386	5905.48921
905.565	5632.85243
905.743	5593.27607
905.922	5647.43105
906.1	5505.76128
906.279	5947.07752
906.457	5547.44017
906.636	5778.58659
906.814	5543.27271
906.993	5764.01838
907.171	5599.52553
907.35	5801.47716
907.528	5491.17144
907.707	5649.51362
907.885	5230.44488
908.063	5280.53278
908.242	4973.53402
908.42	5297.22575
908.598	4915.00137
908.777	5171.992
908.955	4835.53547
909.133	5082.18955
909.311	4818.8016
909.49	5029.95911
909.668	5034.13808
909.846	5478.66495
910.024	5174.07992
910.202	5318.08987
910.38	5171.992
910.559	5338.95163
910.737	4923.36428
910.915	5368.15417
911.093	5096.81148
911.271	5268.01207
911.449	5050.85302
911.627	5436.97053
911.805	4983.98438
911.983	5257.5775
912.161	4973.53402
912.339	5470.32682
912.517	5006.97314
912.695	5293.05265
912.872	5355.63936
913.05	5539.10515
913.228	5368.15417
913.406	5384.83927
913.584	5251.31647
913.762	5509.92959
913.939	5324.34864
914.117	5451.56464
914.295	5332.69335
914.473	5109.34366
914.65	5103.07767
914.828	5163.6401
915.006	5067.56649
915.184	5389.01031
915.361	4963.08308
915.539	5351.46757
915.716	4946.36039
915.894	5130.22876
916.072	4854.35932
916.249	5052.94229
916.427	4902.45632
916.604	5209.57095
916.782	4894.0925
916.959	5234.61938
917.137	4996.52405
917.314	5098.90024
917.492	4850.1764
917.669	5052.94229
917.847	4783.2373
918.024	5004.88337
918.201	4921.27359
918.379	4948.45081
918.556	4724.6465
918.733	5119.7865
918.911	4697.43761
919.088	4850.1764
919.265	4523.62996
919.442	4578.09226
919.62	4414.66057
919.797	4561.33623
919.974	4594.84687
920.151	4555.05235
920.328	4389.50537
920.506	4718.36787
920.683	4376.92659
920.86	4624.164
921.037	4502.67893
921.214	4552.95768
921.391	4420.94887
921.568	4540.38919
921.745	4339.18557
921.922	4515.24981
922.099	4383.21608
922.276	4414.66057
922.453	4278.36587
922.63	4456.5789
922.807	3974.00028
922.984	4108.39517
923.161	3944.59021
923.338	4116.79203
923.514	3805.8896
923.691	4160.87005
923.868	3873.14924
924.045	4005.50665
924.222	3889.96097
924.399	4066.40586
924.575	3889.96097
924.752	3904.67018
924.929	3814.29817
925.105	3864.7429
925.282	3805.8896
925.459	3990.80425
925.635	3740.71261
925.812	3755.43163
925.989	3580.84561
926.165	3694.44664
926.342	3380.86123
926.518	3570.32423
926.695	3277.64885
926.871	3616.61483
927.048	3265.00777
927.224	3612.40697
927.401	3427.18786
927.577	3650.27502
927.754	3418.76548
927.93	3675.51698
928.107	3342.9513
928.283	3376.6493
928.459	3330.31341
928.636	3425.08229
928.812	3128.0244
928.988	3286.07589
929.165	3182.82608
929.341	3157.53436
929.517	2974.10103
929.693	3382.96717
929.87	3066.88668
930.046	3094.29489
930.222	2938.24418
930.398	3117.48436
930.574	2843.30864
930.751	2898.16385
930.927	2853.85847
931.103	3140.67191
931.279	2889.72522
931.455	3016.27999
931.631	2668.13177
931.807	2883.39609
931.983	2558.33726
932.159	2853.85847
932.335	2526.65973
932.511	2758.89757
932.687	2609.01576
932.863	2820.0978
933.039	2501.31583
933.215	2678.68717
933.391	2549.89017
933.566	2668.13177
933.742	2516.09997
933.918	2448.51087
934.094	2104.07014
934.27	2266.81192
934.445	2142.11804
934.621	2205.52543
934.797	1789.03621
934.973	1987.79805
935.148	1886.30843
935.324	1941.28363
935.5	1725.59295
935.675	1953.96967
935.851	1636.76741
936.027	1805.95381
936.202	1619.84774
936.378	1583.893
936.553	1342.77877
936.729	1401.99965
936.904	1226.45595
937.08	1425.26517
937.255	1152.43685
937.431	1222.22617
937.606	900.81763
937.782	1171.4699
937.957	879.67749
938.133	1014.98719
938.308	831.05835
938.483	822.60332
938.659	710.58885
938.834	871.22166
939.009	719.04176
939.185	668.32696
939.36	691.57044
939.535	674.66595
939.71	537.34607
939.886	636.6336
940.061	655.64929
940.236	651.4235
940.411	512.00084
940.586	554.24401
940.761	495.10517
940.937	621.84429
941.112	478.21043
941.287	531.00957
941.462	446.5354
941.637	505.66485
941.812	410.64126
941.987	397.97385
942.162	427.53205
942.337	311.42946
942.512	353.64262
942.687	397.97385
942.862	376.86282
943.037	429.64347
943.212	412.75256
943.386	351.5318
943.561	300.87729
943.736	288.21528
943.911	353.64262
944.086	343.08867
944.26	359.9752
944.435	446.5354
944.61	309.31899
944.785	277.66411
944.959	389.52924
945.134	328.31388
945.309	305.0981
945.483	349.42099
945.658	387.41813
945.833	319.87153
946.007	326.20327
946.182	298.76691
946.357	385.30703
946.531	311.42946
946.706	243.90353
946.88	290.32557
947.055	353.64262
947.229	317.76099
947.404	292.43587
947.578	395.86267
947.752	359.9752
947.927	370.52983
948.101	343.08867
948.276	326.20327
948.45	296.65654
948.624	300.87729
948.799	355.75346
948.973	421.19789
949.147	326.20327
949.321	452.87013
949.496	385.30703
949.67	427.53205
949.844	307.20854
950.018	433.86636
950.193	378.97385
950.367	296.65654
950.541	298.76691
950.715	332.53516
950.889	406.41873
951.063	372.64081
951.237	309.31899
951.411	516.2249
951.585	338.86722
951.759	471.87515
951.933	334.64583
952.107	463.42832
952.281	406.41873
952.455	503.55289
952.629	374.75181
952.803	444.42385
952.977	345.19943
953.151	467.65171
953.325	353.64262
953.499	501.44093
953.672	378.97385
953.846	404.30748
954.02	389.52924
954.194	381.08489
954.368	349.42099
954.541	376.86282
954.715	425.42065
954.889	438.08931
955.062	421.19789
955.236	395.86267
955.41	442.31232
955.583	486.65768
955.757	353.64262
955.93	393.75151
956.104	359.9752
956.278	501.44093
956.451	402.19626
956.625	321.98209
956.798	416.97519
956.972	444.42385
957.145	419.08653
957.319	454.98174
957.492	393.75151
957.665	463.42832
957.839	366.30793
958.012	537.34607
958.185	376.86282
958.359	435.97783
958.532	410.64126
958.705	495.10517
958.879	423.30926
959.052	419.08653
959.225	444.42385
959.398	560.58096
959.572	421.19789
959.745	524.6732
959.918	391.64037
960.091	459.205
960.264	355.75346
960.438	486.65768
960.611	431.75491
960.784	448.64696
960.957	334.64583
961.13	469.76342
961.303	372.64081
961.476	478.21043
961.649	372.64081
961.822	452.87013
961.995	423.30926
962.168	423.30926
962.341	343.08867
962.514	476.09866
962.686	374.75181
962.859	512.00084
963.032	372.64081
963.205	478.21043
963.378	332.53516
963.551	393.75151
963.723	267.11341
963.896	402.19626
964.069	309.31899
964.242	425.42065
964.414	283.99475
964.587	378.97385
964.76	351.5318
964.932	421.19789
965.105	275.55393
965.278	381.08489
965.45	372.64081
965.623	296.65654
965.795	364.197
965.968	332.53516
966.14	311.42946
966.313	315.65046
966.485	406.41873
966.658	267.11341
966.83	265.00332
967.003	381.08489
967.175	271.33363
967.348	281.88452
967.52	258.67319
967.692	317.76099
967.865	260.78321
968.037	265.00332
968.209	298.76691
968.382	343.08867
968.554	300.87729
968.726	414.86386
968.898	216.47669
969.071	345.19943
969.243	286.10501
969.415	246.01343
969.587	201.70978
969.759	292.43587
969.932	186.94385
970.104	250.23327
970.276	193.27198
970.448	349.42099
970.62	267.11341
970.792	355.75346
970.964	227.02509
971.136	231.24458
971.308	199.6003
971.48	224.91537
971.652	208.03833
971.824	176.39736
971.996	216.47669
972.168	148.97893
972.339	267.11341
972.511	246.01343
972.683	191.16258
972.855	258.67319
973.027	256.56318
973.199	279.77431
973.37	305.0981
973.542	111.02086
973.714	195.3814
973.886	186.94385
974.057	216.47669
974.229	165.85139
974.401	250.23327
974.572	186.94385
974.744	203.81928
974.915	222.80567
975.087	123.67278
975.259	246.01343
975.43	191.16258
975.602	191.16258
975.773	212.25747
975.945	165.85139
976.116	144.76102
976.288	159.52406
976.459	184.83451
976.63	277.66411
976.802	89.9361
976.973	254.45319
977.145	119.45538
977.316	224.91537
977.487	148.97893
977.659	165.85139
977.83	220.69599
978.001	186.94385
978.172	148.97893
978.344	199.6003
978.515	123.67278
978.686	146.86997
978.857	106.80373
979.028	178.50662
979.2	77.2863
979.371	140.5432
979.542	83.6111
979.713	184.83451
979.884	157.41499
980.055	106.80373
980.226	85.71941
980.397	94.15287
980.568	89.9361
980.739	100.4782
980.91	106.80373
981.081	186.94385
981.252	106.80373
981.423	77.2863
981.594	127.89025
981.765	140.5432
981.936	64.63732
982.106	106.80373
982.277	184.83451
982.448	157.41499
982.619	56.20513
982.79	89.9361
982.96	92.04447
983.131	98.36974
983.302	157.41499
983.472	146.86997
983.643	125.7815
983.814	66.74543
983.984	-9.13173
984.155	98.36974
984.326	174.28813
984.496	54.09713
984.667	104.6952
984.837	106.80373
985.008	127.89025
985.178	58.31314
985.349	140.5432
985.519	73.06989
985.69	129.99903
985.86	70.96171
986.031	75.17808
986.201	102.58669
986.371	49.88122
986.542	148.97893
986.712	140.5432
986.882	94.15287
987.053	94.15287
987.223	73.06989
987.393	33.01848
987.563	125.7815
987.734	119.45538
987.904	102.58669
988.074	125.7815
988.244	125.7815
988.414	60.42118
988.585	5.61975
988.755	81.50281
988.925	58.31314
989.095	111.02086
989.265	106.80373
989.435	41.44967
989.605	49.88122
989.775	108.91229
989.945	37.23403
990.115	66.74543
990.285	56.20513
990.455	125.7815
990.625	43.55752
990.795	89.9361
990.965	92.04447
991.134	18.26482
991.304	98.36974
991.474	-17.56062
991.644	119.45538
991.814	60.42118
991.984	58.31314
992.153	22.48004
992.323	106.80373
992.493	108.91229
992.662	111.02086
992.832	77.2863
993.002	41.44967
993.171	47.77329
993.341	33.01848
993.511	22.48004
993.68	47.77329
993.85	39.34183
994.019	35.12624
994.189	75.17808
994.358	66.74543
994.528	22.48004
994.697	102.58669
994.867	18.26482
995.036	43.55752
995.206	43.55752
995.375	43.55752
995.544	73.06989
995.714	89.9361
995.883	117.34672
996.052	47.77329
996.222	-7.02445
996.391	47.77329
996.56	104.6952
996.73	64.63732
996.899	81.50281
997.068	18.26482
997.237	73.06989
997.406	89.9361
997.576	96.26129
997.745	41.44967
997.914	33.01848
998.083	75.17808
998.252	-4.91714
998.421	127.89025
998.59	-0.70246
998.759	-7.02445
998.928	167.96055
999.097	75.17808
999.266	1.40492
999.435	-13.34623
999.604	60.42118
999.773	28.80304
999.942	75.17808
1000.111	20.37242
1000.28	24.58768
1000.448	9.83468
1000.617	30.91075
1000.786	45.6654
1000.955	58.31314
1001.124	-42.84492
1001.292	81.50281
1001.461	-11.23899
1001.63	56.20513
1001.798	70.96171
1001.967	58.31314
1002.136	58.31314
1002.304	14.04971
1002.473	138.43433
1002.642	-7.02445
1002.81	18.26482
1002.979	66.74543
1003.147	58.31314
1003.316	43.55752
1003.484	75.17808
1003.653	24.58768
1003.821	-0.70246
1003.99	121.56407
1004.158	30.91075
1004.327	49.88122
1004.495	28.80304
1004.663	5.61975
1004.832	-28.09618
1005	60.42118
1005.168	81.50281
1005.337	89.9361
1005.505	30.91075
1005.673	49.88122
1005.842	30.91075
1006.01	89.9361
1006.178	60.42118
1006.346	64.63732
1006.514	49.88122
1006.683	54.09713
1006.851	-34.41722
1007.019	-28.09618
1007.187	83.6111
1007.355	41.44967
1007.523	-4.91714
1007.691	89.9361
1007.859	30.91075
1008.027	26.69535
1008.195	7.72721
1008.363	39.34183
1008.531	60.42118
1008.699	24.58768
1008.867	41.44967
1009.035	47.77329
1009.203	60.42118
1009.37	-11.23899
1009.538	26.69535
1009.706	-2.80981
1009.874	-9.13173
1010.042	75.17808
1010.209	77.2863
1010.377	-2.80981
1010.545	-49.16544
1010.713	-17.56062
1010.88	-2.80981
1011.048	-53.37899
1011.216	-0.70246
1011.383	-4.91714
1011.551	-44.95179
1011.718	-9.13173
1011.886	-23.88203
1012.054	-19.66778
1012.221	68.85356
1012.389	-11.23899
1012.556	58.31314
1012.724	9.83468
1012.891	7.72721
1013.058	56.20513
1013.226	-7.02445
1013.393	-0.70246
1013.561	3.51233
1013.728	-0.70246
1013.895	-11.23899
1014.063	18.26482
1014.23	11.94218
1014.397	75.17808
1014.565	1.40492
1014.732	-9.13173
1014.899	-21.77492
1015.066	-2.80981
1015.233	47.77329
1015.401	73.06989
1015.568	-7.02445
1015.735	-4.91714
1015.902	-28.09618
1016.069	51.98916
1016.236	-28.09618
1016.403	-28.09618
1016.57	14.04971
1016.737	35.12624
1016.904	5.61975
1017.071	-4.91714
1017.238	11.94218
1017.405	68.85356
1017.572	-42.84492
1017.739	-21.77492
1017.906	28.80304
1018.073	-15.45344
1018.24	58.31314
1018.407	-11.23899
1018.573	-11.23899
1018.74	60.42118
1018.907	-47.05863
1019.074	-30.20322
1019.241	-32.31023
1019.407	30.91075
1019.574	51.98916
1019.741	3.51233
1019.907	89.9361
1020.074	-53.37899
1020.241	39.34183
1020.407	18.26482
1020.574	47.77329
1020.74	-0.70246
1020.907	-11.23899
1021.073	11.94218
1021.24	-15.45344
1021.406	-32.31023
1021.573	33.01848
1021.739	-36.52418
1021.906	-19.66778
1022.072	60.42118
1022.239	47.77329
1022.405	7.72721
1022.571	49.88122
1022.738	73.06989
1022.904	-25.98912
1023.07	56.20513
1023.237	22.48004
1023.403	-0.70246
1023.569	24.58768
1023.735	30.91075
1023.902	-25.98912
1024.068	47.77329
1024.234	51.98916
1024.4	-0.70246
1024.566	14.04971
1024.732	-19.66778
1024.898	-42.84492
1025.065	37.23403
1025.231	-11.23899
1025.397	-25.98912
1025.563	-7.02445
1025.729	5.61975
1025.895	-15.45344
1026.061	14.04971
1026.227	22.48004
1026.392	-32.31023
1026.558	16.15725
1026.724	20.37242
1026.89	-19.66778
1027.056	-9.13173
1027.222	62.52924
1027.388	14.04971
1027.553	-19.66778
1027.719	35.12624
1027.885	47.77329
1028.051	5.61975
1028.216	-38.63112
1028.382	39.34183
1028.548	54.09713
1028.713	43.55752
1028.879	-15.45344
1029.045	14.04971
1029.21	-47.05863
1029.376	47.77329
1029.541	-13.34623
1029.707	-11.23899
1029.873	28.80304
1030.038	7.72721
1030.204	-59.69913
1030.369	37.23403
1030.534	111.02086
1030.7	39.34183
1030.865	41.44967
1031.031	-25.98912
1031.196	33.01848
1031.361	33.01848
1031.527	-28.09618
1031.692	-11.23899
1031.857	-44.95179
1032.023	14.04971
1032.188	7.72721
1032.353	73.06989
1032.518	41.44967
1032.684	49.88122
1032.849	26.69535
1033.014	41.44967
1033.179	1.40492
1033.344	30.91075
1033.509	3.51233
1033.674	-82.87101
1033.839	-13.34623
1034.004	-87.08375
1034.17	-28.09618
1034.335	43.55752
1034.5	-36.52418
1034.664	73.06989
1034.829	-17.56062
1034.994	-36.52418
1035.159	-19.66778
1035.324	35.12624
1035.489	18.26482
1035.654	39.34183
1035.819	-47.05863
1035.984	24.58768
1036.148	18.26482
1036.313	47.77329
1036.478	22.48004
1036.643	-7.02445
1036.807	16.15725
1036.972	-19.66778
1037.137	22.48004
1037.301	45.6654
1037.466	1.40492
1037.631	-44.95179
1037.795	-2.80981
1037.96	-59.69913
1038.124	-0.70246
1038.289	-49.16544
1038.454	28.80304
1038.618	18.26482
1038.783	-120.78186
1038.947	22.48004
1039.111	5.61975
1039.276	16.15725
1039.44	39.34183
1039.605	64.63732
1039.769	7.72721
1039.933	-9.13173
1040.098	-42.84492
1040.262	35.12624
1040.426	-40.73804
1040.591	28.80304
1040.755	-19.66778
1040.919	43.55752
1041.083	-32.31023
1041.248	5.61975
1041.412	56.20513
1041.576	35.12624
1041.74	-49.16544
1041.904	11.94218
1042.068	-42.84492
1042.232	-32.31023
1042.397	81.50281
1042.561	-38.63112
1042.725	75.17808
1042.889	68.85356
1043.053	-44.95179
1043.217	66.74543
1043.381	-44.95179
1043.544	66.74543
1043.708	-28.09618
1043.872	-21.77492
1044.036	-42.84492
1044.2	-53.37899
1044.364	-78.65817
1044.528	-2.80981
1044.691	-70.23219
1044.855	-11.23899
1045.019	-32.31023
1045.183	9.83468
1045.346	-9.13173
1045.51	20.37242
1045.674	39.34183
1045.837	-30.20322
1046.001	-9.13173
1046.165	26.69535
1046.328	1.40492
1046.492	-36.52418
1046.655	24.58768
1046.819	18.26482
1046.983	11.94218
1047.146	43.55752
1047.31	-4.91714
1047.473	18.26482
1047.636	-4.91714
1047.8	1.40492
1047.963	-15.45344
1048.127	7.72721
1048.29	14.04971
