Data from absorb_only_2.23.25_USB4F045381__80__0185.txt Node

Date: Sun Feb 23 19:28:49 EST 2025
User: ssocol
Spectrometer: USB4F04538
Trigger mode: 4
Integration Time (sec): 2.600000E-3
Scans to average: 1
Electric dark correction enabled: true
Nonlinearity correction enabled: true
Boxcar width: 0
XAxis mode: Wavelengths
Number of Pixels in Spectrum: 3648
>>>>>Begin Spectral Data<<<<<
345.52	49.17857
345.736	49.17857
345.952	49.17857
346.168	-33.01256
346.384	-28.79853
346.6	13.34719
346.816	-1.40491
347.032	-49.86771
347.248	28.10047
347.464	-39.33343
347.68	47.07066
347.896	-7.72688
348.112	49.17857
348.328	-3.51226
348.544	-47.7609
348.76	7.02472
348.975	4.91728
349.191	7.02472
349.407	-5.61958
349.623	9.13219
349.839	-18.26301
350.055	93.45007
350.27	55.50246
350.486	-18.26301
350.702	61.82655
350.918	-14.04863
351.133	9.13219
351.349	34.42366
351.565	28.10047
351.781	13.34719
351.996	-35.11954
352.212	-24.5844
352.428	4.91728
352.644	59.7185
352.859	21.7775
353.075	-3.51226
353.291	44.96277
353.506	11.23968
353.722	19.66988
353.938	34.42366
354.153	66.04272
354.369	19.66988
354.584	23.88513
354.8	-28.79853
355.016	40.74705
355.231	74.47535
355.447	21.7775
355.662	7.02472
355.878	-11.94141
356.093	51.28651
356.309	55.50246
356.524	85.01664
356.74	-7.72688
356.955	-11.94141
357.171	21.7775
357.386	17.5623
357.602	7.02472
357.817	-16.15583
358.033	-3.51226
358.248	-24.5844
358.464	23.88513
358.679	38.63923
358.895	-33.01256
359.11	-1.40491
359.325	38.63923
359.541	85.01664
359.756	99.77538
359.972	-37.2265
360.187	-26.69148
360.402	-24.5844
360.618	-33.01256
360.833	42.8549
361.048	13.34719
361.264	21.7775
361.479	21.7775
361.694	-3.51226
361.909	80.80005
362.125	-26.69148
362.34	2.80986
362.555	47.07066
362.77	-22.47729
362.986	19.66988
363.201	34.42366
363.416	47.07066
363.631	30.20817
363.847	106.10089
364.062	9.13219
364.277	25.99279
364.492	25.99279
364.707	-14.04863
364.922	55.50246
365.138	63.93463
365.353	-20.37016
365.568	-1.40491
365.783	34.42366
365.998	49.17857
366.213	19.66988
366.428	-11.94141
366.643	-18.26301
366.858	-54.08124
367.073	-18.26301
367.288	53.39447
367.503	38.63923
367.718	-7.72688
367.933	30.20817
368.148	47.07066
368.363	7.02472
368.578	-26.69148
368.793	30.20817
369.008	-7.72688
369.223	19.66988
369.438	30.20817
369.653	23.88513
369.868	59.7185
370.083	59.7185
370.298	13.34719
370.513	2.80986
370.728	70.25899
370.943	51.28651
371.157	32.3159
371.372	95.55848
371.587	4.91728
371.802	42.8549
372.017	55.50246
372.232	7.02472
372.446	15.45473
372.661	-3.51226
372.876	91.34168
373.091	-20.37016
373.306	21.7775
373.52	59.7185
373.735	40.74705
373.95	42.8549
374.165	-58.29468
374.379	36.53143
374.594	-18.26301
374.809	40.74705
375.023	34.42366
375.238	4.91728
375.453	47.07066
375.667	-7.72688
375.882	25.99279
376.097	40.74705
376.311	55.50246
376.526	-24.5844
376.741	38.63923
376.955	11.23968
377.17	-37.2265
377.384	70.25899
377.599	101.88386
377.813	44.96277
378.028	-3.51226
378.242	78.6918
378.457	47.07066
378.672	-20.37016
378.886	17.5623
379.101	49.17857
379.315	-28.79853
379.53	-3.51226
379.744	4.91728
379.958	0.70246
380.173	-91.99847
380.387	59.7185
380.602	-24.5844
380.816	34.42366
381.031	21.7775
381.245	72.36716
381.459	21.7775
381.674	63.93463
381.888	-24.5844
382.103	-1.40491
382.317	25.99279
382.531	4.91728
382.746	4.91728
382.96	99.77538
383.174	-7.72688
383.388	-18.26301
383.603	9.13219
383.817	47.07066
384.031	-1.40491
384.246	80.80005
384.46	-51.97449
384.674	15.45473
384.888	-41.44034
385.103	13.34719
385.317	7.02472
385.531	7.02472
385.745	17.5623
385.959	21.7775
386.174	13.34719
386.388	38.63923
386.602	-45.65407
386.816	7.02472
387.03	9.13219
387.244	-9.83416
387.458	25.99279
387.672	57.61047
387.887	-18.26301
388.101	25.99279
388.315	106.10089
388.529	23.88513
388.743	82.90833
388.957	66.04272
389.171	-3.51226
389.385	30.20817
389.599	42.8549
389.813	34.42366
390.027	-56.18797
390.241	68.15085
390.455	-41.44034
390.669	-20.37016
390.883	7.02472
391.097	13.34719
391.311	-24.5844
391.525	4.91728
391.738	25.99279
391.952	127.18734
392.166	-28.79853
392.38	21.7775
392.594	28.10047
392.808	-41.44034
393.022	36.53143
393.236	-18.26301
393.449	-45.65407
393.663	38.63923
393.877	-5.61958
394.091	40.74705
394.305	-24.5844
394.518	30.20817
394.732	-49.86771
394.946	-22.47729
395.16	38.63923
395.373	4.91728
395.587	-56.18797
395.801	-24.5844
396.015	4.91728
396.228	30.20817
396.442	19.66988
396.656	-1.40491
396.869	-43.54722
397.083	47.07066
397.297	15.45473
397.51	-5.61958
397.724	4.91728
397.938	51.28651
398.151	9.13219
398.365	36.53143
398.578	23.88513
398.792	76.58356
399.005	55.50246
399.219	49.17857
399.433	-20.37016
399.646	99.77538
399.86	4.91728
400.073	-3.51226
400.287	49.17857
400.5	51.28651
400.714	42.8549
400.927	93.45007
401.141	9.13219
401.354	9.13219
401.567	-9.83416
401.781	59.7185
401.994	-20.37016
402.208	-11.94141
402.421	42.8549
402.635	19.66988
402.848	42.8549
403.061	70.25899
403.275	-37.2265
403.488	51.28651
403.701	51.28651
403.915	7.02472
404.128	59.7185
404.341	-1.40491
404.555	-45.65407
404.768	-16.15583
404.981	28.10047
405.195	97.66692
405.408	21.7775
405.621	-20.37016
405.834	25.99279
406.048	11.23968
406.261	21.7775
406.474	55.50246
406.687	13.34719
406.9	-43.54722
407.114	-20.37016
407.327	21.7775
407.54	-1.40491
407.753	-9.83416
407.966	-9.83416
408.179	44.96277
408.392	49.17857
408.605	21.7775
408.819	38.63923
409.032	38.63923
409.245	15.45473
409.458	40.74705
409.671	-14.04863
409.884	42.8549
410.097	66.04272
410.31	34.42366
410.523	-26.69148
410.736	49.17857
410.949	55.50246
411.162	55.50246
411.375	-3.51226
411.588	19.66988
411.801	51.28651
412.014	-9.83416
412.227	28.10047
412.44	38.63923
412.653	25.99279
412.865	38.63923
413.078	55.50246
413.291	-7.72688
413.504	-28.79853
413.717	55.50246
413.93	4.91728
414.143	-28.79853
414.356	-18.26301
414.568	49.17857
414.781	80.80005
414.994	49.17857
415.207	38.63923
415.42	7.02472
415.632	-7.72688
415.845	15.45473
416.058	42.8549
416.271	-11.94141
416.483	44.96277
416.696	68.15085
416.909	-14.04863
417.121	7.02472
417.334	34.42366
417.547	9.13219
417.759	30.20817
417.972	15.45473
418.185	-22.47729
418.397	23.88513
418.61	63.93463
418.823	93.45007
419.035	-37.2265
419.248	87.12496
419.46	42.8549
419.673	-3.51226
419.885	17.5623
420.098	-3.51226
420.311	19.66988
420.523	51.28651
420.736	-5.61958
420.948	15.45473
421.161	-28.79853
421.373	74.47535
421.586	-16.15583
421.798	32.3159
422.01	34.42366
422.223	9.13219
422.435	80.80005
422.648	-7.72688
422.86	-3.51226
423.073	23.88513
423.285	72.36716
423.497	13.34719
423.71	-16.15583
423.922	21.7775
424.134	40.74705
424.347	-11.94141
424.559	57.61047
424.771	13.34719
424.984	34.42366
425.196	-3.51226
425.408	55.50246
425.621	11.23968
425.833	7.02472
426.045	2.80986
426.257	59.7185
426.47	9.13219
426.682	-7.72688
426.894	59.7185
427.106	42.8549
427.318	42.8549
427.531	51.28651
427.743	-3.51226
427.955	13.34719
428.167	30.20817
428.379	76.58356
428.591	-35.11954
428.804	-3.51226
429.016	21.7775
429.228	36.53143
429.44	40.74705
429.652	-37.2265
429.864	17.5623
430.076	-24.5844
430.288	15.45473
430.5	-11.94141
430.712	-5.61958
430.924	76.58356
431.136	0.70246
431.348	47.07066
431.56	21.7775
431.772	72.36716
431.984	106.10089
432.196	-11.94141
432.408	7.02472
432.62	-16.15583
432.832	68.15085
433.044	80.80005
433.256	42.8549
433.468	30.20817
433.679	11.23968
433.891	-20.37016
434.103	-9.83416
434.315	23.88513
434.527	-1.40491
434.739	80.80005
434.95	23.88513
435.162	42.8549
435.374	44.96277
435.586	106.10089
435.798	4.91728
436.009	44.96277
436.221	87.12496
436.433	-1.40491
436.645	76.58356
436.856	-68.82782
437.068	15.45473
437.28	7.02472
437.491	13.34719
437.703	40.74705
437.915	25.99279
438.126	-41.44034
438.338	106.10089
438.55	-35.11954
438.761	89.23331
438.973	40.74705
439.184	89.23331
439.396	68.15085
439.608	-60.40135
439.819	-56.18797
440.031	78.6918
440.242	106.10089
440.454	97.66692
440.665	-33.01256
440.877	4.91728
441.088	57.61047
441.3	78.6918
441.511	-1.40491
441.723	34.42366
441.934	23.88513
442.146	-18.26301
442.357	32.3159
442.569	40.74705
442.78	-7.72688
442.991	-54.08124
443.203	38.63923
443.414	101.88386
443.626	0.70246
443.837	30.20817
444.048	38.63923
444.26	-28.79853
444.471	21.7775
444.682	93.45007
444.894	93.45007
445.105	59.7185
445.316	110.318
445.528	116.64384
445.739	15.45473
445.95	68.15085
446.161	85.01664
446.373	44.96277
446.584	9.13219
446.795	89.23331
447.006	89.23331
447.217	-3.51226
447.429	17.5623
447.64	-16.15583
447.851	-66.72124
448.062	80.80005
448.273	21.7775
448.484	30.20817
448.695	55.50246
448.907	19.66988
449.118	80.80005
449.329	55.50246
449.54	72.36716
449.751	68.15085
449.962	4.91728
450.173	23.88513
450.384	-7.72688
450.595	91.34168
450.806	55.50246
451.017	25.99279
451.228	-11.94141
451.439	4.91728
451.65	9.13219
451.861	21.7775
452.072	21.7775
452.283	34.42366
452.494	-20.37016
452.705	15.45473
452.915	51.28651
453.126	93.45007
453.337	47.07066
453.548	53.39447
453.759	-1.40491
453.97	21.7775
454.181	34.42366
454.391	95.55848
454.602	76.58356
454.813	13.34719
455.024	57.61047
455.235	4.91728
455.445	74.47535
455.656	61.82655
455.867	21.7775
456.078	-20.37016
456.288	30.20817
456.499	42.8549
456.71	49.17857
456.921	95.55848
457.131	25.99279
457.342	114.5352
457.553	47.07066
457.763	15.45473
457.974	-18.26301
458.184	28.10047
458.395	38.63923
458.606	-7.72688
458.816	4.91728
459.027	25.99279
459.237	63.93463
459.448	129.2961
459.659	63.93463
459.869	99.77538
460.08	4.91728
460.29	57.61047
460.501	80.80005
460.711	66.04272
460.922	122.96987
461.132	38.63923
461.343	47.07066
461.553	15.45473
461.764	97.66692
461.974	72.36716
462.184	4.91728
462.395	28.10047
462.605	66.04272
462.816	13.34719
463.026	-28.79853
463.236	-24.5844
463.447	23.88513
463.657	116.64384
463.867	91.34168
464.078	97.66692
464.288	25.99279
464.498	28.10047
464.709	89.23331
464.919	40.74705
465.129	49.17857
465.339	4.91728
465.55	72.36716
465.76	108.20943
465.97	76.58356
466.18	34.42366
466.391	156.71198
466.601	110.318
466.811	118.75249
467.021	49.17857
467.231	154.60294
467.441	57.61047
467.651	85.01664
467.862	38.63923
468.072	101.88386
468.282	133.51369
468.492	51.28651
468.702	82.90833
468.912	89.23331
469.122	72.36716
469.332	76.58356
469.542	85.01664
469.752	97.66692
469.962	63.93463
470.172	85.01664
470.382	97.66692
470.592	80.80005
470.802	101.88386
471.012	57.61047
471.222	91.34168
471.432	66.04272
471.642	118.75249
471.852	40.74705
472.062	38.63923
472.272	55.50246
472.482	139.84024
472.691	101.88386
472.901	66.04272
473.111	116.64384
473.321	116.64384
473.531	40.74705
473.741	93.45007
473.95	106.10089
474.16	23.88513
474.37	114.5352
474.58	131.40488
474.79	127.18734
474.999	167.25749
475.209	85.01664
475.419	165.14835
475.628	156.71198
475.838	118.75249
476.048	127.18734
476.258	118.75249
476.467	182.02209
476.677	192.56884
476.886	158.82104
477.096	232.6511
477.306	116.64384
477.515	156.71198
477.725	108.20943
477.935	173.58505
478.144	110.318
478.354	108.20943
478.563	175.69428
478.773	173.58505
478.982	139.84024
479.192	215.77348
479.401	194.67826
479.611	232.6511
479.82	215.77348
480.03	131.40488
480.239	192.56884
480.449	217.88312
480.658	177.80353
480.868	207.33515
481.077	139.84024
481.287	182.02209
481.496	228.43158
481.705	253.74986
481.915	198.89714
482.124	257.96985
482.333	300.17382
482.543	198.89714
482.752	393.0478
482.961	276.96072
483.171	289.62213
483.38	276.96072
483.589	420.4941
483.799	310.72597
484.008	287.51185
484.217	319.16801
484.426	365.60428
484.636	342.38509
484.845	312.83645
485.054	295.95309
485.263	401.49252
485.472	393.0478
485.682	431.05109
485.891	333.94227
486.1	401.49252
486.309	388.82553
486.518	420.4941
486.727	477.5065
486.936	435.274
487.146	350.82819
487.355	439.49697
487.564	435.274
487.773	513.40885
487.982	483.8419
488.191	513.40885
488.4	536.64201
488.609	511.29683
488.818	549.31535
489.027	572.55109
489.236	502.8489
489.445	536.64201
489.654	502.8489
489.863	600.01358
490.072	564.10154
490.281	646.49347
490.49	555.65221
490.698	633.81654
490.907	547.20309
491.116	781.73945
491.325	511.29683
491.534	671.84861
491.743	623.25277
491.952	602.12617
492.16	688.75297
492.369	722.56386
492.578	604.23877
492.787	758.49094
492.996	756.3775
493.204	840.92273
493.413	815.55758
493.622	726.79042
493.831	785.96659
494.039	847.26422
494.248	832.46754
494.457	874.74491
494.665	840.92273
494.874	929.71042
495.083	802.8755
495.291	845.15038
495.5	902.227
495.709	900.11294
495.917	929.71042
496.126	929.71042
496.335	883.20079
496.543	984.68097
496.752	1033.3125
496.96	946.62393
497.169	993.13839
497.377	1069.25957
497.586	957.1951
497.794	1060.80129
498.003	976.22366
498.211	984.68097
498.42	925.48212
498.628	1145.38765
498.837	1111.55219
499.045	1136.92868
499.254	1058.68673
499.462	1221.52121
499.671	1166.53538
499.879	1128.46978
500.087	1198.25768
500.296	1297.65883
500.504	1120.01095
500.713	1202.48739
500.921	1153.84669
501.129	1289.19893
501.338	1153.84669
501.546	1331.49871
501.754	1179.2242
501.962	1361.10895
502.171	1204.60224
502.379	1323.03869
502.587	1323.03869
502.795	1331.49871
503.004	1282.85404
503.212	1445.71067
503.42	1382.25927
503.628	1523.96743
503.837	1229.98077
504.045	1399.17959
504.253	1314.57871
504.461	1458.40099
504.669	1257.47466
504.877	1485.89665
505.085	1378.0292
505.294	1568.38296
505.502	1511.2772
505.71	1610.68286
505.918	1466.86119
506.126	1509.16216
506.334	1449.94078
506.542	1710.08411
506.75	1464.74614
506.958	1553.57785
507.166	1585.303
507.374	1707.96925
507.582	1636.06243
507.79	1756.61008
507.998	1636.06243
508.206	1661.44167
508.414	1672.01624
508.622	1758.72485
508.83	1631.83252
509.037	1815.82228
509.245	1606.4529
509.453	1900.40499
509.661	1699.5098
509.869	1729.11766
510.077	1530.31254
510.285	1767.18392
510.492	1756.61008
510.7	1885.6036
510.908	1729.11766
511.116	1870.80195
511.324	1631.83252
511.531	1817.93694
511.739	1720.65834
511.947	1796.79014
512.155	1769.29867
512.362	1900.40499
512.57	1597.99297
512.778	1982.86484
512.985	1864.45831
513.193	1987.09331
513.401	1875.03101
513.608	1940.57885
513.816	1974.40784
514.024	2080.11279
514.231	2042.06097
514.439	1864.45831
514.646	2029.37653
514.854	1999.77855
515.061	1866.57286
515.269	2107.5932
515.477	1908.86281
515.684	2037.83285
515.892	2012.46355
516.099	2120.27604
516.307	2164.66374
516.514	2249.20163
516.722	2025.14832
516.929	2263.99431
517.136	2160.43649
517.344	2185.79949
517.551	2025.14832
517.759	2073.77098
517.966	2145.64087
518.173	2278.78655
518.381	2135.07233
518.588	2435.13253
518.796	2219.61494
519.003	2321.04757
519.21	2270.3339
519.418	2228.06845
519.625	2196.36705
519.832	2321.04757
520.039	2238.63515
520.247	2458.36832
520.454	2272.44708
520.661	2384.43178
520.868	2244.97506
521.076	2557.63334
521.283	2494.27557
521.49	2378.09376
521.697	2416.12046
521.904	2547.07444
522.112	2399.22012
522.319	2669.53918
522.526	2587.1967
522.733	2663.20581
522.94	2363.30471
523.147	2608.31194
523.354	2542.85079
523.561	2684.31658
523.768	2422.45791
523.975	2760.3046
524.183	2557.63334
524.39	2756.0835
524.597	2604.08899
524.804	2671.65027
525.011	2648.42752
525.218	2734.97716
525.425	2747.64112
525.632	2620.9805
525.838	2728.645
526.045	2760.3046
526.252	2604.08899
526.459	2996.59723
526.666	2711.75866
526.873	2992.37932
527.08	2760.3046
527.287	2836.27523
527.494	2827.83493
527.701	2903.78948
527.907	2785.63012
528.114	2971.28888
528.321	2897.46064
528.528	2840.4953
528.735	3007.14173
528.941	2903.78948
529.148	2945.97837
529.355	3064.07543
529.562	2962.85228
529.768	3002.92398
529.975	2865.81451
530.182	2920.66574
530.388	2983.94333
530.595	3021.9034
530.802	3017.68586
531.008	3156.83177
531.215	3186.33863
531.422	3024.01215
531.628	3038.77295
531.835	3262.19856
532.042	3019.79463
532.248	3350.67415
532.455	2996.59723
532.661	3291.69377
532.868	3059.85851
533.074	3405.42945
533.281	3201.09086
533.487	3333.82399
533.694	3196.87602
533.9	3466.48855
534.107	3249.55674
534.313	3426.48601
534.52	3245.34267
534.726	3525.42778
534.933	3367.5232
535.139	3510.69431
535.345	3394.90051
535.552	3645.36654
535.758	3344.35547
535.965	3603.28968
536.171	3521.21831
536.377	3750.52539
536.584	3175.80083
536.79	3611.70565
536.996	3544.36949
537.203	3575.93569
537.409	3531.74185
537.615	3666.40214
537.821	3437.01362
538.028	3916.57692
538.234	3502.27478
538.44	3519.11355
538.646	3657.98813
538.853	3603.28968
539.059	3615.91353
539.265	3679.02259
539.471	3510.69431
539.677	3674.81585
539.883	3626.43289
540.09	3687.43584
540.296	3641.1592
540.502	3870.34717
540.708	3567.51844
540.914	3981.70226
541.12	3771.55137
541.326	4074.10452
541.532	3691.64235
541.738	3981.70226
541.944	3725.29166
542.15	4084.60225
542.356	4048.90786
542.562	4128.68701
542.768	3885.05768
542.974	4034.20844
543.18	3948.09161
543.386	4204.23936
543.592	4074.10452
543.798	4086.70173
544.004	3897.66592
544.21	4069.90528
544.415	4023.70823
544.621	4137.08306
544.827	4057.30708
545.033	4200.04272
545.239	3941.78904
545.445	4332.19572
545.651	4101.39753
545.856	4151.77535
546.062	4095.09945
546.268	4317.51626
546.474	4168.56527
546.679	4095.09945
546.885	4134.98408
547.091	4147.57766
547.297	4046.80801
547.502	4233.61343
547.708	4032.10844
547.914	4258.78787
548.119	4212.63237
548.325	4464.26298
548.531	4170.66391
548.736	4342.6804
548.942	4107.69541
549.147	4145.47878
549.353	4286.05672
549.559	4485.21805
549.764	4204.23936
549.97	4485.21805
550.175	4346.87413
550.381	4679.99401
550.586	4283.95924
550.792	4644.40422
550.997	4304.93303
551.203	4677.90067
551.408	4489.4088
551.614	4443.30571
551.819	4462.16735
552.025	4585.77164
552.23	4361.55147
552.435	4705.1123
552.641	4646.49792
552.846	4824.37972
553.052	4422.34625
553.257	5020.90437
553.462	4587.86596
553.668	4652.77887
553.873	4560.63803
554.078	4694.64674
554.283	4644.40422
554.489	4782.53989
554.694	4723.94889
554.899	4606.71386
555.105	4711.39137
555.31	4920.57669
555.515	4795.09279
555.72	4826.47147
555.925	4700.92614
556.131	4847.38774
556.336	4562.73262
556.541	4922.66739
556.746	4847.38774
556.951	4939.39216
557.156	4703.01923
557.361	4931.02996
557.567	4803.46094
557.772	4864.11911
557.977	4623.46603
558.182	4818.10432
558.387	4675.80731
558.592	4997.91729
558.797	4761.61657
559.002	4928.93935
559.207	4811.82873
559.412	5008.36631
559.617	5106.5588
559.822	5106.5588
560.027	4853.66218
560.232	5254.79485
560.437	4836.92989
560.642	4987.4677
560.847	5192.17423
561.051	5096.11522
561.256	5123.26732
561.461	5029.26261
561.666	4903.85026
561.871	5137.88605
562.076	5081.49324
562.281	5129.53263
562.485	4977.01753
562.69	5142.06262
562.895	5006.27655
563.1	5190.08651
563.305	5068.95921
563.509	5329.91182
563.714	5041.79928
563.919	5471.71653
564.123	5156.67989
564.328	5334.0841
564.533	5284.01061
564.737	5177.55973
564.942	5206.78758
565.147	5477.97012
565.351	5213.0501
565.556	5325.73945
565.761	5265.22957
565.965	5557.16389
566.17	5319.48072
566.374	5465.46273
566.579	5206.78758
566.784	5371.63036
566.988	5365.37318
567.193	5513.40312
567.397	5252.70783
567.602	5496.72961
567.806	5304.8762
568.011	5621.74414
568.215	5515.4872
568.42	5732.10302
568.624	5348.68633
568.828	5438.36049
569.033	5142.06262
569.237	5738.34776
569.442	5413.33951
569.646	5469.63196
569.85	5413.33951
570.055	5648.81943
570.259	5569.66506
570.463	5690.46594
570.668	5334.0841
570.872	5438.36049
571.076	5338.25628
571.281	5804.94518
571.485	5379.97294
571.689	5696.71211
571.893	5457.12401
572.098	5609.2465
572.302	5340.34234
572.506	5754.99938
572.71	5538.41054
572.914	5759.16205
573.119	5590.49846
573.323	5652.98451
573.527	5661.31437
573.731	5865.27821
573.935	5831.99348
574.139	5688.38384
574.343	5690.46594
574.547	5938.06752
574.751	5759.16205
574.955	5848.6366
575.159	5665.47917
575.364	5659.23194
575.568	5765.40588
575.772	5817.42951
575.976	5446.70007
576.18	5696.71211
576.383	5750.83662
576.587	5727.93973
576.791	5819.51014
576.995	5734.18462
577.199	5555.08028
577.403	5759.16205
577.607	5850.71688
577.811	5886.07811
578.015	5694.63007
578.219	5921.43251
578.422	5831.99348
578.626	5981.72723
578.83	5634.24092
579.034	6004.59246
579.238	5973.4119
579.442	6233.08815
579.645	5904.79599
579.849	6120.95307
580.053	5987.96349
580.257	5992.12087
580.46	5898.55691
580.664	6324.40693
580.868	6062.78199
581.071	6054.47033
581.275	6050.31436
581.479	6270.45131
581.682	6116.79861
581.886	6241.39173
582.09	5973.4119
582.293	6241.39173
582.497	6060.70411
582.7	6125.10745
582.904	6158.33904
583.107	6191.56462
583.311	6220.63207
583.515	6374.1981
583.718	6087.71471
583.922	6477.8866
584.125	6228.93622
584.329	6332.70639
584.532	6264.22464
584.735	6324.40693
584.939	6164.56929
585.142	6428.12339
585.346	6123.03027
585.549	6255.92209
585.753	5992.12087
585.956	6278.7532
586.159	6303.65664
586.363	6552.50637
586.566	6253.8464
586.769	6569.08446
586.973	6324.40693
587.176	6531.78167
587.379	6446.78616
587.582	6382.49533
587.786	6299.5063
587.989	6759.62653
588.192	6239.31587
588.395	6560.7956
588.599	6426.04963
588.802	6361.75157
589.005	6463.37372
589.208	6654.024
589.411	6513.12746
589.615	6490.32532
589.818	6415.68049
590.021	6525.56381
590.224	6409.45872
590.427	6678.87702
590.63	6703.72674
590.833	6720.29138
591.036	6519.34574
591.239	6881.71996
591.442	6370.04935
591.645	6662.30871
591.848	6633.31061
592.051	6821.71785
592.254	6548.36161
592.457	6680.94796
592.66	6606.37977
592.863	6701.65606
593.066	6542.14431
593.269	6801.02302
593.472	6511.05465
593.675	6778.25608
593.878	6954.1109
594.081	6743.06537
594.284	6784.46552
594.486	7086.41148
594.689	6546.2892
594.892	6701.65606
595.095	6593.94883
595.298	6649.88151
595.5	6867.23844
595.703	7040.94353
595.906	7059.54536
596.109	7016.13826
596.311	6999.59961
596.514	6918.95305
596.717	6726.50274
596.92	7024.40704
597.122	6714.07981
597.325	6908.61126
597.528	6861.03174
597.73	6945.83905
597.933	6852.75581
598.136	7001.66702
598.338	6724.43231
598.541	7100.87628
598.743	7063.67886
598.946	7069.87893
599.148	6960.31455
599.351	6999.59961
599.554	6958.24669
599.756	6993.39725
599.959	7109.14139
600.161	7305.33337
600.363	6929.29427
600.566	7197.96883
600.768	7131.86861
600.971	7239.26994
601.173	6958.24669
601.376	7259.91718
601.578	7175.24944
601.78	7175.24944
601.983	6995.46472
602.185	7053.34495
602.388	7241.33477
602.59	7392.00753
602.792	7280.56222
602.995	7255.78791
603.197	7100.87628
603.399	7358.99335
603.601	7144.26413
603.804	7032.67547
604.006	7038.87655
604.208	7067.81226
604.41	7020.27269
604.613	7325.97357
604.815	7034.74252
605.017	7414.70155
605.219	7210.36009
605.421	7373.43774
605.623	7166.98718
605.826	7513.6993
606.028	7160.79025
606.23	7309.46159
606.432	7354.86618
606.634	7361.0569
606.836	7148.39579
607.038	7482.76785
607.24	7179.38044
607.442	7117.40615
607.644	7383.75451
607.846	7528.13232
608.048	7301.20506
608.25	7276.43339
608.452	7138.06647
608.654	7274.36894
608.856	7272.30447
609.058	7208.29494
609.26	7218.62049
609.462	7247.5291
609.664	7175.24944
609.866	7321.84571
610.067	7140.13238
610.269	7462.14419
610.471	7169.05278
610.673	7449.76895
610.875	7115.33999
611.077	7348.67527
611.278	7136.00054
611.48	7346.61159
611.682	7441.51836
611.884	7408.51253
612.085	7245.46435
612.287	7519.88501
612.489	7381.6912
612.69	7575.5477
612.892	7387.88107
613.094	7594.09846
613.295	7063.67886
613.497	7340.42041
613.699	7313.58971
613.9	7396.13391
614.102	7449.76895
614.304	7330.10135
614.505	7348.67527
614.707	7453.89412
614.908	7140.13238
615.11	7371.37432
615.311	7226.88054
615.513	7241.33477
615.714	7453.89412
615.916	7392.00753
616.117	7061.61212
616.319	7618.83012
616.52	7507.5134
616.722	7526.07053
616.923	7606.46467
617.124	7602.34268
617.326	7571.42507
617.527	7713.60649
617.729	7317.71776
617.93	7460.08171
618.131	7336.29286
618.333	7458.0192
618.534	7350.73893
618.735	7468.33152
618.937	7323.90965
619.138	7604.40369
619.339	7412.63857
619.54	7693.00674
619.742	7542.56429
619.943	7524.00871
620.144	7255.78791
620.345	7464.20665
620.546	7571.42507
620.748	7657.98231
620.949	7398.19707
621.15	7781.57075
621.351	7521.94687
621.552	7742.4426
621.753	7554.93371
621.954	7884.50358
622.155	7466.2691
622.356	7822.75012
622.558	7458.0192
622.759	7499.26523
622.96	7127.73659
623.161	7563.17956
623.362	7501.32731
623.563	7721.8458
623.764	7526.07053
623.965	7610.58657
624.166	7828.92631
624.366	7499.26523
624.567	7499.26523
624.768	7705.36684
624.969	7253.72324
625.17	7709.48671
625.371	7451.83155
625.572	7530.1941
625.773	7350.73893
625.973	7719.786
626.174	7524.00871
626.375	7651.8009
626.576	7662.10315
626.777	7859.80444
626.977	7458.0192
627.178	7668.28425
627.379	7412.63857
627.58	7715.66635
627.78	7606.46467
627.981	7670.34457
628.182	7528.13232
628.382	7678.58566
628.583	7569.36373
628.784	7484.8301
628.984	7464.20665
629.185	7870.09611
629.386	7511.63736
629.586	7911.25764
629.787	7540.50264
629.987	7612.64749
630.188	7684.76625
630.388	7610.58657
630.589	7307.39749
630.79	7589.97622
630.99	7573.48639
631.191	7653.86139
631.391	7474.51865
631.591	7713.60649
631.792	7622.95176
631.992	7839.21954
632.193	7552.87219
632.393	7690.94665
632.594	7538.44098
632.794	7690.94665
632.994	7521.94687
633.195	7528.13232
633.395	7561.11813
633.595	7789.80729
633.796	7594.09846
633.996	7806.27937
634.196	7662.10315
634.397	7787.74819
634.597	7660.04274
634.797	7927.71994
634.997	7641.49811
635.198	8032.63631
635.398	7835.10231
635.598	7721.8458
635.798	7396.13391
635.998	7721.8458
636.199	7622.95176
636.399	7843.33668
636.599	7610.58657
636.799	7810.39719
636.999	7451.83155
637.199	7841.27812
637.399	7645.61929
637.599	7693.00674
637.799	7571.42507
637.999	7861.86281
638.199	7569.36373
638.399	7900.96803
638.599	7668.28425
638.799	7835.10231
638.999	7750.68074
639.199	7944.18093
639.399	7929.77763
639.599	7655.92186
639.799	7857.74604
639.999	7917.43115
640.199	7800.1025
640.399	7896.85204
640.599	7526.07053
640.799	7886.56171
640.998	7614.70839
641.198	7824.80887
641.398	7960.6406
641.598	7898.91005
641.798	8018.23916
641.997	7861.86281
642.197	7594.09846
642.397	7944.18093
642.597	7701.24689
642.796	7977.09896
642.996	7791.86638
643.196	8088.15887
643.395	7536.37929
643.595	7882.44544
643.795	7713.60649
643.994	7812.45606
644.194	7754.79968
644.394	8170.38755
644.593	7940.0658
644.793	7991.49896
644.992	7699.18688
645.192	7903.02599
645.392	7964.75531
645.591	8055.25839
645.791	7880.38727
645.99	8098.43921
646.19	7886.56171
646.389	7870.09611
646.589	7791.86638
646.788	7905.08393
646.987	7940.0658
647.187	8096.38318
647.386	7717.72619
647.586	8022.35273
647.785	7919.48895
647.984	8192.99483
648.184	7993.55602
648.383	8036.7496
648.582	7931.83531
648.782	8227.92864
648.981	8203.27008
649.18	8244.3661
649.38	8112.83084
649.579	8186.82945
649.778	8145.72231
649.977	8295.72503
650.177	8090.21498
650.376	8236.14752
650.575	7940.0658
650.774	8121.05419
650.973	7929.77763
651.173	8240.25685
651.372	8057.31482
651.571	8221.76426
651.77	7931.83531
651.969	8073.76554
652.168	8063.48399
652.367	8199.16004
652.566	7890.67791
652.765	8371.7138
652.964	8055.25839
653.163	8104.60717
653.362	8022.35273
653.561	8281.34576
653.76	7824.80887
653.959	7808.33829
654.158	8125.16574
654.357	7944.18093
654.556	7952.41093
654.755	8137.49992
654.954	8061.42762
655.153	8299.83321
655.352	7966.81264
655.551	8250.52982
655.749	8088.15887
655.948	7993.55602
656.147	8016.18235
656.346	8065.54034
656.545	8195.04992
656.743	8211.48991
656.942	7921.54673
657.141	8147.77785
657.34	8090.21498
657.538	8355.28606
657.737	8363.50009
657.936	8158.05529
658.135	8149.83338
658.333	8201.21507
658.532	8155.99984
658.731	8225.87387
658.929	7917.43115
659.128	8195.04992
659.326	8067.59667
659.525	8275.18293
659.724	8116.94255
659.922	8262.85673
660.121	8098.43921
660.319	8312.1573
660.518	8129.27721
660.716	8334.74962
660.915	8182.71909
661.113	8554.38951
661.312	8209.43498
661.51	8248.47526
661.709	8139.55555
661.907	8232.03812
662.105	8026.46623
662.304	8328.58831
662.502	8014.12551
662.701	8361.44661
662.899	8217.65458
663.097	8435.35964
663.296	8123.10997
663.494	8186.82945
663.692	8022.35273
663.891	8435.35964
664.089	7946.23846
664.287	8246.42069
664.485	7972.9845
664.684	8258.74784
664.882	8151.88889
665.08	8357.33959
665.278	8116.94255
665.476	8145.72231
665.675	7940.0658
665.873	8289.5626
666.071	8032.63631
666.269	8162.16612
666.467	8010.01177
666.665	8232.03812
666.863	8158.05529
667.061	8186.82945
667.259	8155.99984
667.457	8297.77913
667.655	8061.42762
667.853	8215.59971
668.051	8203.27008
668.249	8139.55555
668.447	8114.88671
668.645	8254.63887
668.843	8121.05419
669.041	8112.83084
669.239	8166.27688
669.437	8363.50009
669.635	8055.25839
669.833	8205.32507
670.031	8145.72231
670.229	8199.16004
670.426	8044.97593
670.624	8090.21498
670.822	8110.77495
671.02	8112.83084
671.218	8104.60717
671.415	8236.14752
671.613	8170.38755
671.811	8149.83338
672.009	8170.38755
672.206	8162.16612
672.404	7841.27812
672.602	8129.27721
672.799	8063.48399
672.997	8110.77495
673.195	8014.12551
673.392	8047.03246
673.59	7837.16093
673.788	8318.31907
673.985	8108.71905
674.183	8141.61115
674.38	8010.01177
674.578	7931.83531
674.775	7892.73597
674.973	7915.37334
675.17	7931.83531
675.368	8007.95488
675.565	7845.39522
675.763	8016.18235
675.96	7810.39719
676.158	7981.21335
676.355	7824.80887
676.553	8188.8846
676.75	7645.61929
676.947	8092.27106
677.145	7874.21263
677.342	8137.49992
677.539	7849.51225
677.737	7995.61306
677.934	7835.10231
678.131	8044.97593
678.329	7956.5258
678.526	7991.49896
678.723	7769.21531
678.92	8047.03246
679.118	7571.42507
679.315	7907.14186
679.512	7989.44188
679.709	7882.44544
679.906	7660.04274
680.104	8145.72231
680.301	7715.66635
680.498	7977.09896
680.695	7719.786
680.892	7964.75531
681.089	7903.02599
681.286	8071.70927
681.483	7701.24689
681.68	7938.00821
681.877	7709.48671
682.075	7756.85912
682.272	7614.70839
682.469	7872.15438
682.665	7783.62992
682.862	8075.82179
683.059	7791.86638
683.256	7839.21954
683.453	7627.07332
683.65	7804.22044
683.847	7876.27087
684.044	7800.1025
684.241	7598.22061
684.438	7824.80887
684.635	7466.2691
684.831	7635.31619
685.028	7441.51836
685.225	7810.39719
685.422	7462.14419
685.619	7606.46467
685.815	7484.8301
686.012	7585.85389
686.209	7505.45139
686.405	7853.62918
686.602	7589.97622
686.799	7528.13232
686.996	7594.09846
687.192	7787.74819
687.389	7779.51156
687.586	7635.31619
687.782	7752.74022
687.979	7929.77763
688.175	7573.48639
688.372	7746.56171
688.568	7594.09846
688.765	7466.2691
688.962	7602.34268
689.158	7767.156
689.355	7579.67024
689.551	7573.48639
689.748	7466.2691
689.944	7521.94687
690.14	7363.12043
690.337	7750.68074
690.533	7385.8178
690.73	7445.6437
690.926	7643.55871
691.123	7429.14183
691.319	7414.70155
691.515	7610.58657
691.712	7408.51253
691.908	7546.68752
692.104	7429.14183
692.301	7526.07053
692.497	7311.52566
692.693	7472.45629
692.889	7538.44098
693.086	7579.67024
693.282	7406.44949
693.478	7594.09846
693.674	7472.45629
693.87	7563.17956
694.067	7257.85256
694.263	7418.82745
694.459	7111.20761
694.655	7462.14419
694.851	7404.38641
695.047	7420.89037
695.243	7501.32731
695.439	7546.68752
695.635	7127.73659
695.831	7521.94687
696.027	7268.17546
696.224	7513.6993
696.42	7202.09934
696.615	7524.00871
696.811	7125.67054
697.007	7090.54439
697.203	7253.72324
697.399	7032.67547
697.595	7272.30447
697.791	7280.56222
697.987	7152.52737
698.183	7348.67527
698.379	7412.63857
698.575	7410.57556
698.77	7156.65886
698.966	7439.45566
699.162	7020.27269
699.358	7032.67547
699.554	6763.76659
699.749	7094.67721
699.945	7171.11836
700.141	7096.74359
700.337	6995.46472
700.532	7208.29494
700.728	7241.33477
700.924	7408.51253
701.119	7266.11093
701.315	7288.81962
701.511	7082.27848
701.706	7350.73893
701.902	6958.24669
702.097	7243.39957
702.293	7259.91718
702.489	6844.47952
702.684	6889.99462
702.88	7197.96883
703.075	6952.04297
703.271	6931.36245
703.466	7090.54439
703.662	7235.14023
703.857	7032.67547
704.053	7123.60448
704.248	7065.74557
704.443	7377.56451
704.639	6997.53218
704.834	7210.36009
705.03	7043.01049
705.225	7125.67054
705.42	7074.0122
705.616	7187.64217
705.811	7181.4459
706.006	7113.27381
706.202	6949.97502
706.397	7272.30447
706.592	6850.68677
706.787	7038.87655
706.983	7059.54536
707.178	7189.70754
707.373	6931.36245
707.568	7020.27269
707.763	6931.36245
707.959	6966.518
708.154	6815.50964
708.349	6925.15785
708.544	6811.37072
708.739	6747.20579
708.934	6784.46552
709.129	7047.14434
709.324	6794.81413
709.519	7162.85592
709.714	6670.59305
709.909	7012.00373
710.104	6844.47952
710.299	6792.74445
710.494	6803.09261
710.689	7127.73659
710.884	6916.88474
711.079	6945.83905
711.274	6666.45093
711.469	7111.20761
711.664	6916.88474
711.859	7082.27848
712.054	6767.90656
712.249	6846.54863
712.443	6453.00667
712.638	6863.10066
712.833	6736.85456
713.028	6823.7872
713.223	6801.02302
713.417	6759.62653
713.612	6772.04643
713.807	6751.34613
714.002	6434.34452
714.196	6825.85654
714.391	6879.65124
714.586	6844.47952
714.78	6635.38205
714.975	6689.23147
715.17	6600.1644
715.364	6945.83905
715.559	6832.0644
715.754	6736.85456
715.948	6316.1071
716.143	6728.57315
716.337	6683.01887
716.532	6784.46552
716.726	6631.23915
716.921	6734.78424
717.115	6651.95276
717.31	6836.20287
717.504	6722.36186
717.699	6898.26891
717.893	6583.58908
718.088	6807.23171
718.282	6589.805
718.476	6722.36186
718.671	6446.78616
718.865	6769.97651
719.059	6423.97585
719.254	6774.11634
719.448	6527.63645
719.642	6827.92585
719.837	6438.49183
720.031	6716.15036
720.225	6581.51706
720.419	6807.23171
720.614	6527.63645
720.808	6602.23621
721.002	6531.78167
721.196	6751.34613
721.39	6467.52037
721.585	6440.56545
721.779	6444.71261
721.973	6554.57871
722.167	6430.19712
722.361	6496.54436
722.555	6311.95704
722.749	6421.90204
722.943	6270.45131
723.137	6423.97585
723.331	5921.43251
723.525	6392.86633
723.719	6131.33883
723.913	6338.93075
724.107	6212.32755
724.301	6616.73824
724.495	6112.64405
724.689	6531.78167
724.883	6374.1981
725.077	6208.17516
725.271	6287.05472
725.465	6019.14157
725.659	6272.52682
725.853	6488.25226
726.046	6428.12339
726.24	6166.646
726.434	6187.41175
726.628	6228.93622
726.822	6326.48183
727.015	6428.12339
727.209	6174.95258
727.403	6133.41591
727.596	6031.61132
727.79	6297.4311
727.984	6139.64701
728.177	6216.47986
728.371	6096.02487
728.565	6370.04935
728.758	6112.64405
728.952	6282.90401
729.146	6309.88197
729.339	6195.71739
729.533	6098.10235
729.726	6341.00548
729.92	6187.41175
730.113	6434.34452
730.307	6370.04935
730.5	6525.56381
730.694	6274.6023
730.887	6239.31587
731.081	6276.67776
731.274	6266.30022
731.468	6179.10573
731.661	6417.75436
731.854	6280.82862
732.048	6104.33465
732.241	6293.28062
732.435	6407.38476
732.628	6220.63207
732.821	6222.70814
733.014	6222.70814
733.208	6181.18227
733.401	6120.95307
733.594	6394.94046
733.788	6120.95307
733.981	6428.12339
734.174	6116.79861
734.367	6037.84588
734.56	6150.0317
734.754	6048.23634
734.947	6087.71471
735.14	6195.71739
735.333	6158.33904
735.526	6282.90401
735.719	6025.37655
735.912	6154.18542
736.105	6037.84588
736.298	5963.0172
736.491	5994.19953
736.684	5954.70101
736.877	5873.59845
737.07	6118.87585
737.263	6073.17104
737.456	6303.65664
737.649	6206.09892
737.842	6320.25706
738.035	6233.08815
738.228	6125.10745
738.421	6073.17104
738.614	6062.78199
738.807	6054.47033
739	5981.72723
739.192	5846.55629
739.385	5773.73065
739.578	5981.72723
739.771	6062.78199
739.964	5813.26816
740.156	5967.17515
740.349	5784.13608
740.542	5809.10672
740.735	5800.78355
740.927	5865.27821
741.12	5908.95526
741.313	5948.46363
741.505	5605.08043
741.698	5779.97398
741.891	5680.0552
742.083	5904.79599
742.276	6008.74947
742.468	6012.90638
742.661	5748.7552
742.854	5879.83839
743.046	5730.02139
743.239	5927.67081
743.431	5852.79714
743.624	5690.46594
743.816	5611.3295
744.009	5784.13608
744.201	5590.49846
744.393	5771.64949
744.586	5705.03999
744.778	5788.29809
744.971	5682.13739
745.163	5804.94518
745.355	5688.38384
745.548	5892.31761
745.74	5798.7027
745.932	5933.90891
746.125	5871.51843
746.317	5831.99348
746.509	5586.33197
746.702	5584.24869
746.894	5607.16348
747.086	5713.3675
747.278	5854.87738
747.471	5594.66486
747.663	5517.57126
747.855	5507.15073
748.047	5646.73686
748.239	5823.67135
748.431	5619.66126
748.623	5659.23194
748.815	5615.49542
749.008	5667.56153
749.2	5867.35831
749.392	5850.71688
749.584	5592.58167
749.776	5673.80847
749.968	5684.21957
750.16	5555.08028
750.352	5580.08205
750.544	5636.32363
750.736	5534.24288
750.928	5609.2465
751.12	5463.37809
751.311	5521.7393
751.503	5538.41054
751.695	5630.07542
751.887	5465.46273
752.079	5475.88562
752.271	5348.68633
752.463	5734.18462
752.654	5384.14409
752.846	5734.18462
753.038	5411.25428
753.23	5632.15818
753.421	5488.3923
753.613	5667.56153
753.805	5496.72961
753.997	5455.03926
754.188	5354.94407
754.38	5492.561
754.572	5613.41247
754.763	5765.40588
754.955	5561.33104
755.146	5519.65529
755.338	5394.57155
755.53	5448.7849
755.721	5613.41247
755.913	5625.90982
756.104	5415.42472
756.296	5519.65529
756.487	5192.17423
756.679	5515.4872
756.87	5288.18391
757.062	5075.22633
757.253	5020.90437
757.445	5379.97294
757.636	5183.82322
757.827	5334.0841
758.019	5290.27053
758.21	5206.78758
758.401	5127.44422
758.593	5238.09807
758.784	5240.18525
758.975	5281.92392
759.167	5396.65698
759.358	5146.2391
759.549	5238.09807
759.74	5064.78101
759.932	5246.44664
760.123	5073.13731
760.314	5142.06262
760.505	5190.08651
760.696	5094.02644
760.888	5150.41549
761.079	4920.57669
761.27	5204.70003
761.461	5077.31532
761.652	5238.09807
761.843	4995.82742
762.034	4979.10761
762.225	4981.19767
762.416	5022.99396
762.607	4778.35541
762.798	4901.75935
762.989	4958.20578
763.18	5079.40429
763.371	4985.37772
763.562	5073.13731
763.753	4749.06149
763.944	4755.33913
764.135	4543.88052
764.326	5012.54575
764.517	4688.36713
764.708	4761.61657
764.899	4866.21043
765.089	4782.53989
765.28	4776.26313
765.471	4839.02151
765.662	4713.48434
765.853	4874.57548
766.043	4682.08732
766.234	4799.27691
766.425	4516.64653
766.615	4728.13455
766.806	4569.01626
766.997	4887.12236
767.187	4376.22775
767.378	4935.21111
767.569	4604.61974
767.759	4646.49792
767.95	4659.05963
768.141	4434.92219
768.331	4527.12158
768.522	4677.90067
768.712	4422.34625
768.903	4556.44879
769.093	4499.88529
769.284	4392.99933
769.474	4569.01626
769.665	4587.86596
769.855	4355.26131
770.046	4481.02722
770.236	4342.6804
770.426	4696.7399
770.617	4455.88034
770.807	4338.4866
770.998	4208.43591
771.188	4636.02921
771.378	4426.53832
771.569	4489.4088
771.759	4481.02722
771.949	4353.16454
772.139	4300.73844
772.33	4336.38966
772.52	4351.06776
772.71	4589.96026
772.9	4439.11399
773.09	4430.7303
773.281	4355.26131
773.471	4363.64814
773.661	4304.93303
773.851	4246.20103
774.041	4176.95972
774.231	4493.59947
774.421	4109.79467
774.611	4246.20103
774.802	4277.66669
774.992	4191.6492
775.182	4210.53415
775.372	4294.4464
775.562	4099.29819
775.752	4330.09872
775.942	4210.53415
776.131	4487.31344
776.321	3899.76722
776.511	4124.48886
776.701	3996.40528
776.891	4174.86114
777.081	4109.79467
777.271	4166.4666
777.461	3939.68814
777.651	3899.76722
777.84	3952.29323
778.03	4149.67651
778.22	4134.98408
778.41	4120.29062
778.599	4080.40322
778.789	4200.04272
778.979	4067.80563
779.169	4147.57766
779.358	4120.29062
779.548	4233.61343
779.738	4034.20844
779.927	4191.6492
780.117	4055.20731
780.307	3849.33044
780.496	3668.5056
780.686	4011.1073
780.875	3742.11446
781.065	3906.07101
781.254	3578.03995
781.444	3912.37461
781.633	3765.24378
781.823	3866.14398
782.012	3769.44886
782.202	3758.93602
782.391	3636.95177
782.581	3775.75634
782.77	3649.57382
782.96	3786.2684
783.149	3645.36654
783.338	3647.47019
783.528	3653.78101
783.717	3882.95624
783.906	3609.60169
784.096	3899.76722
784.285	3546.47403
784.474	3573.83141
784.663	3382.26519
784.853	3500.16986
785.042	3512.79915
785.231	3731.60035
785.42	3689.5391
785.61	3643.26288
785.799	3401.21793
785.988	3462.27806
786.177	3468.59377
786.366	3432.80263
786.555	3388.58293
786.744	3285.37365
786.933	3392.79467
787.122	3449.64616
787.312	3390.68881
787.501	3512.79915
787.69	3418.0636
787.879	3563.30971
788.068	3344.35547
788.257	3552.78755
788.445	3230.59288
788.634	3607.4977
788.823	3502.27478
789.012	3689.5391
789.201	3312.75974
789.39	3388.58293
789.579	3279.05338
789.768	3392.79467
789.957	3350.67415
790.145	3397.00633
790.334	3388.58293
790.523	3329.61128
790.712	3390.68881
790.9	3521.21831
791.089	3422.27484
791.278	3592.76929
791.467	3443.32997
791.655	3729.49747
791.844	3184.2311
792.033	3298.01374
792.221	3184.2311
792.41	3272.73295
792.599	3243.2356
792.787	3369.62925
792.976	2990.27035
793.164	3106.24122
793.353	3135.7535
793.541	3350.67415
793.73	3177.90843
793.918	3346.46172
794.107	2905.89906
794.295	3110.45745
794.484	3156.83177
794.672	3245.34267
794.861	3192.66111
795.049	3217.94955
795.238	3068.29229
795.426	3220.05681
795.614	3045.09878
795.803	3308.54669
795.991	3110.45745
796.179	3032.44699
796.368	3036.66431
796.556	3331.71765
796.744	2813.06388
796.932	3131.53765
797.121	2931.21293
797.309	2916.44676
797.497	2857.375
797.685	3038.77295
797.874	2964.96145
798.062	3017.68586
798.25	2903.78948
798.438	3148.40066
798.626	2751.86233
798.814	2889.02199
799.002	2796.18184
799.19	2988.16135
799.378	2878.47335
799.566	3055.64152
799.755	2880.5831
799.943	2929.10352
800.131	2988.16135
800.318	2865.81451
800.506	2777.1885
800.694	2699.09336
800.882	2561.85682
801.07	2897.46064
801.258	2720.20193
801.446	2846.82529
801.634	2817.28425
801.822	2794.07152
802.01	2709.64781
802.197	2950.19694
802.385	2574.52697
802.573	2709.64781
802.761	2726.53425
802.949	2903.78948
803.136	2844.71531
803.324	2920.66574
803.512	2996.59723
803.699	2935.4317
803.887	2669.53918
804.075	2870.03418
804.262	2777.1885
804.45	2878.47335
804.638	2878.47335
804.825	3059.85851
805.013	2768.74666
805.201	2975.50709
805.388	2825.72482
805.576	3091.48391
805.763	2908.00863
805.951	3019.79463
806.138	2772.9676
806.326	3038.77295
806.513	2857.375
806.701	2922.7752
806.888	2886.91229
807.075	3024.01215
807.263	2688.53858
807.45	2836.27523
807.638	2770.85714
807.825	3089.37566
808.012	2815.17407
808.2	2922.7752
808.387	2931.21293
808.574	2846.82529
808.761	2675.87243
808.949	2895.351
809.136	2601.97749
809.323	2650.53874
809.51	2538.6271
809.698	2701.20427
809.885	2515.39598
810.072	2785.63012
810.259	2696.98243
810.446	2929.10352
810.633	2798.29214
810.82	2924.88466
811.008	2855.26508
811.195	2958.63389
811.382	2878.47335
811.569	2941.75975
811.756	2808.84345
811.943	3055.64152
812.13	2829.94503
812.317	2967.07061
812.504	2756.0835
812.691	2998.70616
812.878	2870.03418
813.064	2971.28888
813.251	2781.40933
813.438	2895.351
813.625	2880.5831
813.812	2996.59723
813.999	2762.41514
814.186	3104.13308
814.372	2823.6147
814.559	2992.37932
814.746	2775.07806
814.933	2806.73321
815.12	3021.9034
815.306	2897.46064
815.493	2855.26508
815.68	3021.9034
815.866	2739.19853
816.053	2840.4953
816.24	2675.87243
816.426	2964.96145
816.613	2920.66574
816.799	2914.33725
816.986	2781.40933
817.173	2760.3046
817.359	2523.84382
817.546	2863.70465
817.732	2606.20047
817.919	2827.83493
818.105	2671.65027
818.292	2874.25379
818.478	2639.98251
818.665	2722.31272
818.851	2762.41514
819.037	2777.1885
819.224	2633.64862
819.41	2745.53049
819.597	2701.20427
819.783	2701.20427
819.969	2686.42759
820.156	2802.5127
820.342	2652.64995
820.528	2713.8695
820.714	2680.09453
820.901	2827.83493
821.087	2618.8691
821.273	2756.0835
821.459	2506.94795
821.646	2623.09188
821.832	2561.85682
822.018	2724.42349
822.204	2380.20645
822.39	2815.17407
822.576	2614.64627
822.762	2804.62297
822.948	2707.53694
823.134	2857.375
823.32	2576.63862
823.507	2973.39799
823.693	2789.85085
823.879	2756.0835
824.065	2502.72387
824.25	2616.75769
824.436	2490.05136
824.622	2652.64995
824.808	2701.20427
824.994	2540.73895
825.18	2566.08025
825.366	2654.76115
825.552	2422.45791
825.738	2614.64627
825.923	2403.44527
826.109	2593.5314
826.295	2356.96639
826.481	2414.00795
826.667	2143.52718
826.852	2257.65464
827.038	2259.76788
827.224	2384.43178
827.409	2392.88232
827.595	2386.54443
827.781	2190.02654
827.966	2509.05998
828.152	2251.31489
828.338	2544.96262
828.523	2333.72512
828.709	2494.27557
828.894	2321.04757
829.08	2464.70513
829.266	2249.20163
829.451	2492.16347
829.637	2255.5414
829.822	2323.16052
830.008	2240.74846
830.193	2471.04183
830.378	2363.30471
830.564	2401.3327
830.749	2225.95509
830.935	2293.57834
831.12	2168.89096
831.305	2331.61222
831.491	2088.56844
831.676	2392.88232
831.861	2247.08835
832.047	2181.57241
832.232	2052.63115
832.417	2240.74846
832.602	2010.3494
832.788	2359.07917
832.973	1910.97725
833.158	2194.25356
833.343	2012.46355
833.528	2190.02654
833.714	2242.86177
833.899	2344.28948
834.084	2099.13783
834.269	2120.27604
834.454	1936.35012
834.639	2388.65707
834.824	2236.52183
835.009	2333.72512
835.194	1915.20612
835.379	2261.8811
835.564	1959.60784
835.749	2190.02654
835.934	2027.26243
836.119	2236.52183
836.304	1925.77819
836.489	2008.23524
836.674	1843.31252
836.859	2075.88493
837.044	2010.3494
837.228	1889.83259
837.413	1887.7181
837.598	2020.92009
837.783	1777.75766
837.968	2016.69184
838.152	1703.73953
838.337	1957.49353
838.522	1984.97908
838.707	2128.73111
838.891	1900.40499
839.076	1809.47828
839.261	1739.69174
839.445	2008.23524
839.63	1957.49353
839.815	1932.12136
839.999	2008.23524
840.184	1872.91648
840.368	1760.83962
840.553	1872.91648
840.737	1729.11766
840.922	1944.80755
841.106	1828.51018
841.291	1864.45831
841.475	1729.11766
841.66	1957.49353
841.844	1773.52817
842.029	1856.00005
842.213	1733.3473
842.397	1792.56073
842.582	1623.37268
842.766	1786.21658
842.951	1568.38296
843.135	1938.46448
843.319	1583.188
843.504	1779.8724
843.688	1693.16517
843.872	1678.36095
844.056	1559.9229
844.241	1868.6874
844.425	1748.15094
844.609	1661.44167
844.793	1513.39224
844.977	1858.11462
845.161	1640.29233
845.346	1614.91281
845.53	1543.00272
845.714	1665.6715
845.898	1496.47189
846.082	1604.33792
846.266	1589.533
846.45	1627.60261
846.634	1350.53383
846.818	1519.73736
847.002	1581.073
847.186	1678.36095
847.37	1494.35684
847.554	1578.958
847.738	1585.303
847.922	1585.303
848.106	1540.8877
848.29	1659.32674
848.473	1475.3214
848.657	1471.0913
848.841	1553.57785
849.025	1576.843
849.209	1466.86119
849.392	1475.3214
849.576	1570.49797
849.76	1646.63715
849.944	1373.79913
850.127	1591.64799
850.311	1301.88878
850.495	1375.91416
850.678	1255.35973
850.862	1504.93207
851.046	1409.75482
851.229	1500.70198
851.413	1331.49871
851.596	1483.7816
851.78	1297.65883
851.964	1413.98491
852.147	1268.04936
852.331	1456.28593
852.514	1280.73908
852.698	1477.43645
852.881	1382.25927
853.065	1348.41881
853.248	1187.68349
853.431	1310.34873
853.615	1139.04342
853.798	1276.50916
853.982	1147.50241
854.165	1181.33902
854.348	1234.21057
854.532	1394.94951
854.715	1198.25768
854.898	1435.13541
855.081	1198.25768
855.265	1172.87977
855.448	1215.17657
855.631	1189.79832
855.814	1200.37253
855.997	1238.44038
856.181	1088.291
856.364	1320.9237
856.547	1050.22857
856.73	1263.81947
856.913	1096.74954
857.096	1255.35973
857.279	1052.3431
857.462	1299.7738
857.645	1088.291
857.828	1189.79832
858.011	1153.84669
858.194	1132.69922
858.377	1086.17637
858.56	1189.79832
858.743	974.10935
858.926	1005.82471
859.109	1043.885
859.292	1035.42699
859.475	1090.40563
859.658	1081.94714
859.841	1014.28238
860.023	1088.291
860.206	910.6833
860.389	1162.3058
860.572	967.76645
860.755	1103.0935
860.937	1077.71793
861.12	908.56921
861.303	908.56921
861.486	986.79532
861.668	843.03655
861.851	919.13972
862.034	891.6568
862.216	1026.96908
862.399	845.15038
862.581	974.10935
862.764	840.92273
862.947	961.42362
863.129	828.23999
863.312	921.25385
863.494	771.1718
863.677	1026.96908
863.859	851.49193
864.042	988.90967
864.224	910.6833
864.406	976.22366
864.589	832.46754
864.771	908.56921
864.954	722.56386
865.136	933.93875
865.318	737.357
865.501	853.60579
865.683	785.96659
865.865	936.05293
866.048	629.59099
866.23	826.12623
866.412	728.90371
866.594	974.10935
866.777	811.33018
866.959	773.28531
867.141	754.26407
867.323	824.01248
867.505	741.5837
867.687	891.6568
867.869	773.28531
868.052	836.69512
868.234	750.03724
868.416	735.24366
868.598	701.43172
868.78	834.58132
868.962	809.21649
869.144	781.73945
869.326	695.0923
869.508	773.28531
869.69	733.13033
869.872	792.30735
870.054	758.49094
870.236	864.17524
870.417	747.92384
870.599	785.96659
870.781	743.69707
870.963	798.64821
871.145	633.81654
871.327	720.4506
871.508	640.15495
871.69	910.6833
871.872	690.86607
872.054	747.92384
872.235	557.76452
872.417	642.26777
872.599	747.92384
872.78	750.03724
872.962	623.25277
873.144	661.28376
873.325	614.80198
873.507	671.84861
873.689	572.55109
873.87	739.47034
874.052	699.31857
874.233	701.43172
874.415	557.76452
874.596	667.62264
874.778	604.23877
874.959	612.68931
875.141	714.11087
875.322	699.31857
875.503	572.55109
875.685	714.11087
875.866	646.49347
876.048	760.60439
876.229	646.49347
876.41	775.39883
876.592	627.47824
876.773	682.41375
876.954	526.08127
877.136	692.97918
877.317	676.07463
877.498	756.3775
877.679	581.00085
877.86	714.11087
878.042	589.45082
878.223	688.75297
878.404	614.80198
878.585	758.49094
878.766	625.3655
878.947	781.73945
879.128	610.57666
879.309	709.88445
879.49	612.68931
879.672	638.04213
879.853	551.42762
880.034	716.2241
880.215	619.02735
880.396	695.0923
880.576	629.59099
880.757	680.3007
880.938	635.92933
881.119	701.43172
881.3	654.94499
881.481	756.3775
881.662	633.81654
881.843	750.03724
882.023	743.69707
882.204	678.18766
882.385	663.39671
882.566	608.46402
882.747	561.98919
882.927	695.0923
883.108	650.7192
883.289	623.25277
883.469	703.54489
883.65	688.75297
883.831	650.7192
884.011	659.17083
884.192	669.73562
884.373	773.28531
884.553	680.3007
884.734	688.75297
884.914	604.23877
885.095	695.0923
885.275	604.23877
885.456	682.41375
885.636	496.5131
885.817	697.20543
885.997	644.38061
886.178	688.75297
886.358	511.29683
886.538	612.68931
886.719	521.85708
886.899	690.86607
887.08	680.3007
887.26	684.52681
887.44	638.04213
887.621	646.49347
887.801	739.47034
887.981	707.77125
888.161	625.3655
888.342	671.84861
888.522	733.13033
888.702	716.2241
888.882	600.01358
889.062	667.62264
889.242	635.92933
889.423	642.26777
889.603	542.97862
889.783	731.01702
889.963	583.11332
890.143	741.5837
890.323	581.00085
890.503	775.39883
890.683	697.20543
890.863	673.96162
891.043	587.33831
891.223	724.67713
891.403	517.63294
891.583	735.24366
891.763	595.78844
891.943	616.91466
892.122	587.33831
892.302	697.20543
892.482	678.18766
892.662	568.32629
892.842	642.26777
893.022	688.75297
893.201	585.22581
893.381	625.3655
893.561	519.745
893.741	697.20543
893.92	604.23877
894.1	654.94499
894.28	682.41375
894.459	756.3775
894.639	633.81654
894.819	623.25277
894.998	587.33831
895.178	650.7192
895.357	540.8664
895.537	570.43868
895.716	504.96086
895.896	640.15495
896.075	492.28931
896.255	538.7542
896.434	519.745
896.614	583.11332
896.793	570.43868
896.973	576.77594
897.152	521.85708
897.331	502.8489
897.511	485.95373
897.69	443.72001
897.87	464.83611
898.049	545.09085
898.228	412.04879
898.407	509.18483
898.587	479.61829
898.766	576.77594
898.945	460.61277
899.124	578.88839
899.304	450.05468
899.483	547.20309
899.662	435.274
899.841	581.00085
900.02	545.09085
900.199	640.15495
900.378	409.9375
900.557	528.19339
900.737	498.62502
900.916	549.31535
901.095	342.38509
901.274	471.17124
901.453	490.17744
901.632	490.17744
901.811	409.9375
901.989	426.82825
902.168	399.38131
902.347	418.38275
902.526	403.60374
902.705	350.82819
902.884	384.60334
903.063	426.82825
903.242	367.71522
903.42	401.49252
903.599	367.71522
903.778	369.82618
903.957	344.49584
904.135	426.82825
904.314	333.94227
904.493	407.82623
904.672	378.27017
904.85	409.9375
905.029	439.49697
905.207	416.27141
905.386	291.73244
905.565	428.93966
905.743	306.50506
905.922	355.04985
906.1	401.49252
906.279	384.60334
906.457	285.40159
906.636	386.71443
906.814	287.51185
906.993	279.07091
907.171	274.85054
907.35	359.27157
907.528	321.27857
907.707	298.06345
907.885	283.29134
908.063	279.07091
908.242	300.17382
908.42	281.18111
908.598	203.11611
908.777	283.29134
908.955	295.95309
909.133	327.61034
909.311	215.77348
909.49	287.51185
909.668	274.85054
909.846	230.54133
910.024	245.31013
910.202	257.96985
910.38	253.74986
910.559	270.63026
910.737	314.94696
910.915	260.07987
911.093	338.16365
911.271	304.39463
911.449	287.51185
911.627	329.72097
911.805	283.29134
911.983	308.61551
912.161	213.66387
912.339	177.80353
912.517	266.41005
912.695	283.29134
912.872	236.87069
913.05	291.73244
913.228	268.52014
913.406	257.96985
913.584	192.56884
913.762	304.39463
913.939	171.47585
914.117	219.99277
914.295	241.09037
914.473	285.40159
914.65	236.87069
914.828	257.96985
915.006	295.95309
915.184	175.69428
915.361	188.35008
915.539	228.43158
915.716	171.47585
915.894	268.52014
916.072	283.29134
916.249	219.99277
916.427	310.72597
916.604	213.66387
916.782	173.58505
916.959	249.52996
917.137	283.29134
917.314	327.61034
917.492	264.29997
917.669	190.45945
917.847	224.21213
918.024	188.35008
918.201	89.23331
918.379	236.87069
918.556	257.96985
918.733	196.78769
918.911	205.22562
919.088	268.52014
919.265	213.66387
919.442	165.14835
919.62	179.9128
919.797	230.54133
919.974	209.44471
920.151	184.1314
920.328	190.45945
920.506	150.38492
920.683	148.27594
920.86	186.24073
921.037	190.45945
921.214	165.14835
921.391	182.02209
921.568	207.33515
921.745	215.77348
921.922	226.32184
922.099	173.58505
922.276	238.98052
922.453	173.58505
922.63	215.77348
922.807	165.14835
922.984	158.82104
923.161	156.71198
923.338	131.40488
923.514	209.44471
923.691	165.14835
923.868	232.6511
924.045	276.96072
924.222	114.5352
924.399	205.22562
924.575	171.47585
924.752	173.58505
924.929	224.21213
925.105	190.45945
925.282	99.77538
925.459	165.14835
925.635	116.64384
925.812	131.40488
925.989	167.25749
926.165	150.38492
926.342	213.66387
926.518	167.25749
926.695	160.93012
926.871	125.07859
927.048	108.20943
927.224	177.80353
927.401	125.07859
927.577	139.84024
927.754	66.04272
927.93	127.18734
928.107	158.82104
928.283	106.10089
928.459	72.36716
928.636	198.89714
928.812	144.05805
928.988	148.27594
929.165	165.14835
929.341	131.40488
929.517	122.96987
929.693	97.66692
929.87	139.84024
930.046	184.1314
930.222	91.34168
930.398	63.93463
930.574	173.58505
930.751	175.69428
930.927	108.20943
931.103	169.36666
931.279	179.9128
931.455	144.05805
931.631	55.50246
931.807	97.66692
931.983	106.10089
932.159	93.45007
932.335	186.24073
932.511	114.5352
932.687	122.96987
932.863	82.90833
933.039	68.15085
933.215	139.84024
933.391	146.16698
933.566	38.63923
933.742	122.96987
933.918	106.10089
934.094	165.14835
934.27	173.58505
934.445	23.88513
934.621	59.7185
934.797	97.66692
934.973	72.36716
935.148	55.50246
935.324	150.38492
935.5	114.5352
935.675	32.3159
935.851	68.15085
936.027	38.63923
936.202	114.5352
936.378	85.01664
936.553	114.5352
936.729	91.34168
936.904	66.04272
937.08	110.318
937.255	47.07066
937.431	85.01664
937.606	82.90833
937.782	82.90833
937.957	91.34168
938.133	-30.90556
938.308	74.47535
938.483	49.17857
938.659	17.5623
938.834	59.7185
939.009	19.66988
939.185	47.07066
939.36	44.96277
939.535	-1.40491
939.71	40.74705
939.886	34.42366
940.061	-5.61958
940.236	-30.90556
940.411	85.01664
940.586	51.28651
940.761	-7.72688
940.937	4.91728
941.112	38.63923
941.287	51.28651
941.462	40.74705
941.637	47.07066
941.812	135.62252
941.987	15.45473
942.162	82.90833
942.337	44.96277
942.512	80.80005
942.687	89.23331
942.862	21.7775
943.037	9.13219
943.212	131.40488
943.386	59.7185
943.561	13.34719
943.736	17.5623
943.911	15.45473
944.086	-20.37016
944.26	0.70246
944.435	74.47535
944.61	4.91728
944.785	15.45473
944.959	42.8549
945.134	55.50246
945.309	61.82655
945.483	42.8549
945.658	74.47535
945.833	9.13219
946.007	55.50246
946.182	36.53143
946.357	30.20817
946.531	36.53143
946.706	0.70246
946.88	89.23331
947.055	51.28651
947.229	-7.72688
947.404	44.96277
947.578	42.8549
947.752	80.80005
947.927	59.7185
948.101	-11.94141
948.276	28.10047
948.45	-3.51226
948.624	97.66692
948.799	40.74705
948.973	25.99279
949.147	7.02472
949.321	55.50246
949.496	74.47535
949.67	110.318
949.844	17.5623
950.018	15.45473
950.193	55.50246
950.367	49.17857
950.541	76.58356
950.715	17.5623
950.889	78.6918
951.063	72.36716
951.237	2.80986
951.411	112.42659
951.585	125.07859
951.759	53.39447
951.933	25.99279
952.107	9.13219
952.281	72.36716
952.455	99.77538
952.629	78.6918
952.803	66.04272
952.977	61.82655
953.151	63.93463
953.325	47.07066
953.499	53.39447
953.672	59.7185
953.846	40.74705
954.02	17.5623
954.194	55.50246
954.368	82.90833
954.541	32.3159
954.715	70.25899
954.889	89.23331
955.062	66.04272
955.236	95.55848
955.41	30.20817
955.583	34.42366
955.757	40.74705
955.93	80.80005
956.104	40.74705
956.278	-5.61958
956.451	17.5623
956.625	-3.51226
956.798	0.70246
956.972	127.18734
957.145	89.23331
957.319	32.3159
957.492	72.36716
957.665	40.74705
957.839	89.23331
958.012	13.34719
958.185	78.6918
958.359	49.17857
958.532	-1.40491
958.705	57.61047
958.879	38.63923
959.052	38.63923
959.225	91.34168
959.398	108.20943
959.572	106.10089
959.745	55.50246
959.918	133.51369
960.091	74.47535
960.264	-9.83416
960.438	127.18734
960.611	25.99279
960.784	72.36716
960.957	114.5352
961.13	59.7185
961.303	17.5623
961.476	47.07066
961.649	82.90833
961.822	-3.51226
961.995	66.04272
962.168	13.34719
962.341	-1.40491
962.514	85.01664
962.686	108.20943
962.859	59.7185
963.032	72.36716
963.205	66.04272
963.378	30.20817
963.551	47.07066
963.723	133.51369
963.896	-35.11954
964.069	36.53143
964.242	72.36716
964.414	57.61047
964.587	61.82655
964.76	13.34719
964.932	66.04272
965.105	9.13219
965.278	110.318
965.45	127.18734
965.623	-16.15583
965.795	139.84024
965.968	59.7185
966.14	21.7775
966.313	-11.94141
966.485	80.80005
966.658	97.66692
966.83	-11.94141
967.003	-11.94141
967.175	63.93463
967.348	63.93463
967.52	99.77538
967.692	21.7775
967.865	76.58356
968.037	57.61047
968.209	-5.61958
968.382	9.13219
968.554	21.7775
968.726	72.36716
968.898	15.45473
969.071	63.93463
969.243	97.66692
969.415	63.93463
969.587	44.96277
969.759	49.17857
969.932	59.7185
970.104	-20.37016
970.276	101.88386
970.448	-11.94141
970.62	9.13219
970.792	-16.15583
970.964	72.36716
971.136	82.90833
971.308	68.15085
971.48	17.5623
971.652	9.13219
971.824	38.63923
971.996	80.80005
972.168	21.7775
972.339	-1.40491
972.511	85.01664
972.683	74.47535
972.855	59.7185
973.027	30.20817
973.199	13.34719
973.37	36.53143
973.542	80.80005
973.714	61.82655
973.886	-43.54722
974.057	25.99279
974.229	63.93463
974.401	44.96277
974.572	63.93463
974.744	17.5623
974.915	55.50246
975.087	0.70246
975.259	25.99279
975.43	9.13219
975.602	25.99279
975.773	9.13219
975.945	47.07066
976.116	89.23331
976.288	9.13219
976.459	93.45007
976.63	0.70246
976.802	9.13219
976.973	-18.26301
977.145	4.91728
977.316	76.58356
977.487	61.82655
977.659	51.28651
977.83	40.74705
978.001	23.88513
978.172	-35.11954
978.344	17.5623
978.515	-3.51226
978.686	21.7775
978.857	13.34719
979.028	47.07066
979.2	74.47535
979.371	59.7185
979.542	23.88513
979.713	49.17857
979.884	133.51369
980.055	9.13219
980.226	80.80005
980.397	68.15085
980.568	21.7775
980.739	21.7775
980.91	21.7775
981.081	49.17857
981.252	13.34719
981.423	-7.72688
981.594	0.70246
981.765	38.63923
981.936	-28.79853
982.106	36.53143
982.277	74.47535
982.448	4.91728
982.619	36.53143
982.79	59.7185
982.96	-3.51226
983.131	21.7775
983.302	32.3159
983.472	-35.11954
983.643	-26.69148
983.814	95.55848
983.984	28.10047
984.155	40.74705
984.326	74.47535
984.496	32.3159
984.667	-45.65407
984.837	38.63923
985.008	32.3159
985.178	74.47535
985.349	38.63923
985.519	72.36716
985.69	25.99279
985.86	53.39447
986.031	23.88513
986.201	32.3159
986.371	23.88513
986.542	38.63923
986.712	80.80005
986.882	51.28651
987.053	25.99279
987.223	66.04272
987.393	30.20817
987.563	15.45473
987.734	34.42366
987.904	34.42366
988.074	-30.90556
988.244	-20.37016
988.414	-7.72688
988.585	-20.37016
988.755	131.40488
988.925	-24.5844
989.095	40.74705
989.265	101.88386
989.435	34.42366
989.605	97.66692
989.775	68.15085
989.945	17.5623
990.115	74.47535
990.285	59.7185
990.455	106.10089
990.625	49.17857
990.795	47.07066
990.965	47.07066
991.134	59.7185
991.304	97.66692
991.474	34.42366
991.644	59.7185
991.814	4.91728
991.984	17.5623
992.153	17.5623
992.323	34.42366
992.493	-14.04863
992.662	72.36716
992.832	51.28651
993.002	49.17857
993.171	55.50246
993.341	51.28651
993.511	-22.47729
993.68	106.10089
993.85	-11.94141
994.019	51.28651
994.189	9.13219
994.358	2.80986
994.528	47.07066
994.697	-66.72124
994.867	32.3159
995.036	-7.72688
995.206	-7.72688
995.375	72.36716
995.544	47.07066
995.714	-9.83416
995.883	38.63923
996.052	15.45473
996.222	30.20817
996.391	93.45007
996.56	32.3159
996.73	-35.11954
996.899	25.99279
997.068	0.70246
997.237	68.15085
997.406	-3.51226
997.576	72.36716
997.745	-20.37016
997.914	112.42659
998.083	47.07066
998.252	-11.94141
998.421	74.47535
998.59	47.07066
998.759	38.63923
998.928	30.20817
999.097	-16.15583
999.266	49.17857
999.435	28.10047
999.604	-79.36032
999.773	-3.51226
999.942	63.93463
1000.111	15.45473
1000.28	-9.83416
1000.448	21.7775
1000.617	47.07066
1000.786	-1.40491
1000.955	144.05805
1001.124	-28.79853
1001.292	99.77538
1001.461	0.70246
1001.63	53.39447
1001.798	55.50246
1001.967	127.18734
1002.136	13.34719
1002.304	112.42659
1002.473	63.93463
1002.642	51.28651
1002.81	38.63923
1002.979	40.74705
1003.147	0.70246
1003.316	82.90833
1003.484	32.3159
1003.653	-49.86771
1003.821	21.7775
1003.99	68.15085
1004.158	-20.37016
1004.327	78.6918
1004.495	-41.44034
1004.663	30.20817
1004.832	68.15085
1005	82.90833
1005.168	122.96987
1005.337	55.50246
1005.505	80.80005
1005.673	-7.72688
1005.842	-11.94141
1006.01	-43.54722
1006.178	76.58356
1006.346	-33.01256
1006.514	53.39447
1006.683	93.45007
1006.851	44.96277
1007.019	-37.2265
1007.187	9.13219
1007.355	-1.40491
1007.523	30.20817
1007.691	25.99279
1007.859	-20.37016
1008.027	76.58356
1008.195	21.7775
1008.363	51.28651
1008.531	47.07066
1008.699	21.7775
1008.867	47.07066
1009.035	87.12496
1009.203	57.61047
1009.37	93.45007
1009.538	4.91728
1009.706	72.36716
1009.874	25.99279
1010.042	101.88386
1010.209	21.7775
1010.377	30.20817
1010.545	40.74705
1010.713	17.5623
1010.88	82.90833
1011.048	-7.72688
1011.216	42.8549
1011.383	44.96277
1011.551	36.53143
1011.718	63.93463
1011.886	32.3159
1012.054	4.91728
1012.221	32.3159
1012.389	25.99279
1012.556	9.13219
1012.724	59.7185
1012.891	-7.72688
1013.058	21.7775
1013.226	11.23968
1013.393	53.39447
1013.561	110.318
1013.728	40.74705
1013.895	-3.51226
1014.063	-3.51226
1014.23	4.91728
1014.397	-3.51226
1014.565	13.34719
1014.732	-11.94141
1014.899	-37.2265
1015.066	30.20817
1015.233	70.25899
1015.401	42.8549
1015.568	135.62252
1015.735	21.7775
1015.902	0.70246
1016.069	0.70246
1016.236	7.02472
1016.403	47.07066
1016.57	66.04272
1016.737	53.39447
1016.904	63.93463
1017.071	101.88386
1017.238	47.07066
1017.405	-20.37016
1017.572	40.74705
1017.739	53.39447
1017.906	78.6918
1018.073	72.36716
1018.24	-16.15583
1018.407	72.36716
1018.573	0.70246
1018.74	7.02472
1018.907	80.80005
1019.074	7.02472
1019.241	106.10089
1019.407	32.3159
1019.574	11.23968
1019.741	21.7775
1019.907	49.17857
1020.074	30.20817
1020.241	25.99279
1020.407	32.3159
1020.574	17.5623
1020.74	32.3159
1020.907	55.50246
1021.073	-11.94141
1021.24	63.93463
1021.406	0.70246
1021.573	76.58356
1021.739	21.7775
1021.906	59.7185
1022.072	38.63923
1022.239	34.42366
1022.405	-41.44034
1022.571	-11.94141
1022.738	32.3159
1022.904	-28.79853
1023.07	70.25899
1023.237	-11.94141
1023.403	72.36716
1023.569	63.93463
1023.735	103.99236
1023.902	21.7775
1024.068	-1.40491
1024.234	-3.51226
1024.4	76.58356
1024.566	38.63923
1024.732	32.3159
1024.898	21.7775
1025.065	7.02472
1025.231	32.3159
1025.397	17.5623
1025.563	70.25899
1025.729	93.45007
1025.895	-24.5844
1026.061	51.28651
1026.227	91.34168
1026.392	-18.26301
1026.558	80.80005
1026.724	13.34719
1026.89	21.7775
1027.056	-20.37016
1027.222	63.93463
1027.388	63.93463
1027.553	-3.51226
1027.719	15.45473
1027.885	-1.40491
1028.051	-28.79853
1028.216	-20.37016
1028.382	57.61047
1028.548	40.74705
1028.713	-11.94141
1028.879	21.7775
1029.045	47.07066
1029.21	51.28651
1029.376	47.07066
1029.541	25.99279
1029.707	-3.51226
1029.873	55.50246
1030.038	19.66988
1030.204	66.04272
1030.369	55.50246
1030.534	-24.5844
1030.7	89.23331
1030.865	38.63923
1031.031	17.5623
1031.196	19.66988
1031.361	-54.08124
1031.527	0.70246
1031.692	118.75249
1031.857	9.13219
1032.023	-3.51226
1032.188	-3.51226
1032.353	-37.2265
1032.518	4.91728
1032.684	-3.51226
1032.849	42.8549
1033.014	17.5623
1033.179	38.63923
1033.344	51.28651
1033.509	97.66692
1033.674	51.28651
1033.839	7.02472
1034.004	61.82655
1034.17	7.02472
1034.335	-11.94141
1034.5	-54.08124
1034.664	63.93463
1034.829	-9.83416
1034.994	63.93463
1035.159	42.8549
1035.324	-20.37016
1035.489	4.91728
1035.654	51.28651
1035.819	-14.04863
1035.984	9.13219
1036.148	38.63923
1036.313	34.42366
1036.478	120.86117
1036.643	21.7775
1036.807	95.55848
1036.972	47.07066
1037.137	-20.37016
1037.301	68.15085
1037.466	4.91728
1037.631	7.02472
1037.795	9.13219
1037.96	-7.72688
1038.124	21.7775
1038.289	55.50246
1038.454	44.96277
1038.618	34.42366
1038.783	68.15085
1038.947	55.50246
1039.111	40.74705
1039.276	72.36716
1039.44	2.80986
1039.605	-3.51226
1039.769	68.15085
1039.933	21.7775
1040.098	-11.94141
1040.262	55.50246
1040.426	30.20817
1040.591	0.70246
1040.755	36.53143
1040.919	34.42366
1041.083	15.45473
1041.248	55.50246
1041.412	21.7775
1041.576	32.3159
1041.74	44.96277
1041.904	38.63923
1042.068	44.96277
1042.232	36.53143
1042.397	32.3159
1042.561	49.17857
1042.725	36.53143
1042.889	108.20943
1043.053	-1.40491
1043.217	34.42366
1043.381	4.91728
1043.544	21.7775
1043.708	85.01664
1043.872	108.20943
1044.036	9.13219
1044.2	-18.26301
1044.364	25.99279
1044.528	76.58356
1044.691	4.91728
1044.855	91.34168
1045.019	11.23968
1045.183	38.63923
1045.346	51.28651
1045.51	-62.50801
1045.674	11.23968
1045.837	74.47535
1046.001	66.04272
1046.165	11.23968
1046.328	55.50246
1046.492	91.34168
1046.655	-45.65407
1046.819	97.66692
1046.983	21.7775
1047.146	15.45473
1047.31	13.34719
1047.473	9.13219
1047.636	-62.50801
1047.8	23.88513
1047.963	-3.51226
1048.127	61.82655
1048.29	85.01664
