Data from absorb_only_2.23.25_USB4F045381__54__0159.txt Node

Date: Sun Feb 23 19:22:46 EST 2025
User: ssocol
Spectrometer: USB4F04538
Trigger mode: 4
Integration Time (sec): 2.600000E-3
Scans to average: 1
Electric dark correction enabled: true
Nonlinearity correction enabled: true
Boxcar width: 0
XAxis mode: Wavelengths
Number of Pixels in Spectrum: 3648
>>>>>Begin Spectral Data<<<<<
345.52	24.76332
345.736	24.76332
345.952	24.76332
346.168	-32.13465
346.384	10.01031
346.6	18.44046
346.816	-19.49219
347.032	-110.07642
347.248	5.79537
347.464	47.94895
347.68	-46.88306
347.896	12.11781
348.112	26.87099
348.328	56.38079
348.544	3.68794
348.76	-25.81353
348.975	31.08639
349.191	-6.84884
349.407	1.58054
349.623	-8.95613
349.839	-112.18246
350.055	33.19413
350.27	-6.84884
350.486	-0.52684
350.702	-34.24164
350.918	-19.49219
351.133	26.87099
351.349	18.44046
351.565	-36.3486
351.781	-4.74153
351.996	-67.95008
352.212	20.54805
352.428	26.87099
352.644	-8.95613
352.859	-78.48264
353.075	-61.63024
353.291	66.92111
353.506	-8.95613
353.722	60.59685
353.938	64.813
354.153	47.94895
354.369	5.79537
354.584	-61.63024
354.8	24.76332
355.016	-0.52684
355.231	-2.6342
355.447	-8.95613
355.662	-19.49219
355.878	14.22533
356.093	33.19413
356.309	-32.13465
356.524	14.22533
356.74	-36.3486
356.955	-36.3486
357.171	-44.77622
357.386	-2.6342
357.602	-2.6342
357.817	1.58054
358.033	-32.13465
358.248	-11.06339
358.464	-25.81353
358.679	-36.3486
358.895	-44.77622
359.11	-42.66935
359.325	-34.24164
359.541	56.38079
359.756	-0.52684
359.972	-27.92059
360.187	5.79537
360.402	-19.49219
360.618	-2.6342
360.833	-17.38502
361.048	-0.52684
361.264	-44.77622
361.479	-6.84884
361.694	-63.73688
361.909	33.19413
362.125	69.02924
362.34	-27.92059
362.555	47.94895
362.77	-42.66935
362.986	71.13739
363.201	-0.52684
363.416	45.84105
363.631	-2.6342
363.847	31.08639
364.062	-38.45555
364.277	10.01031
364.492	41.62532
364.707	10.01031
364.922	10.01031
365.138	-11.06339
365.353	-32.13465
365.568	-19.49219
365.783	1.58054
365.998	-17.38502
366.213	35.30189
366.428	-15.27784
366.643	-55.31017
366.858	24.76332
367.073	92.22017
367.288	-13.17063
367.503	-11.06339
367.718	73.24557
367.933	39.51749
368.148	14.22533
368.363	-2.6342
368.578	-0.52684
368.793	-11.06339
369.008	7.90283
369.223	22.65567
369.438	22.65567
369.653	5.79537
369.868	-17.38502
370.083	22.65567
370.298	-19.49219
370.513	64.813
370.728	-8.95613
370.943	106.97945
371.157	47.94895
371.372	-19.49219
371.587	58.48881
371.802	-112.18246
372.017	-0.52684
372.232	-36.3486
372.446	-23.70644
372.661	-6.84884
372.876	79.57023
373.091	35.30189
373.306	-6.84884
373.52	-25.81353
373.735	-42.66935
373.95	-17.38502
374.165	-19.49219
374.379	-53.20343
374.594	16.33288
374.809	-57.41689
375.023	-2.6342
375.238	5.79537
375.453	24.76332
375.667	-51.09666
375.882	-57.41689
376.097	14.22533
376.311	-11.06339
376.526	39.51749
376.741	-2.6342
376.955	-0.52684
377.17	1.58054
377.384	-27.92059
377.599	-55.31017
377.813	-19.49219
378.028	-30.02763
378.242	-42.66935
378.457	10.01031
378.672	47.94895
378.886	35.30189
379.101	-17.38502
379.315	1.58054
379.53	43.73317
379.744	22.65567
379.958	-27.92059
380.173	60.59685
380.387	1.58054
380.602	31.08639
380.816	33.19413
381.031	10.01031
381.245	5.79537
381.459	54.2728
381.674	-11.06339
381.888	43.73317
382.103	12.11781
382.317	-27.92059
382.531	33.19413
382.746	81.6785
382.96	-25.81353
383.174	-86.90822
383.388	22.65567
383.603	35.30189
383.817	1.58054
384.031	-51.09666
384.246	-15.27784
384.46	-17.38502
384.674	-27.92059
384.888	58.48881
385.103	73.24557
385.317	-2.6342
385.531	-36.3486
385.745	24.76332
385.959	-34.24164
386.174	24.76332
386.388	45.84105
386.602	-36.3486
386.816	37.40968
387.03	-55.31017
387.244	98.54544
387.458	5.79537
387.672	26.87099
387.887	14.22533
388.101	39.51749
388.315	-59.52357
388.529	-32.13465
388.743	-8.95613
388.957	-51.09666
389.171	-30.02763
389.385	-17.38502
389.599	-11.06339
389.813	-6.84884
390.027	18.44046
390.241	-15.27784
390.455	-53.20343
390.669	1.58054
390.883	-65.84349
391.097	43.73317
391.311	56.38079
391.525	-19.49219
391.738	-13.17063
391.952	-15.27784
392.166	35.30189
392.38	73.24557
392.594	18.44046
392.808	-23.70644
393.022	-36.3486
393.236	-27.92059
393.449	-19.49219
393.663	60.59685
393.877	-27.92059
394.091	-32.13465
394.305	-6.84884
394.518	-23.70644
394.732	-25.81353
394.946	47.94895
395.16	28.97868
395.373	-42.66935
395.587	1.58054
395.801	16.33288
396.015	31.08639
396.228	-4.74153
396.442	-2.6342
396.656	-6.84884
396.869	20.54805
397.083	-6.84884
397.297	18.44046
397.51	39.51749
397.724	22.65567
397.938	-19.49219
398.151	-76.37618
398.365	-36.3486
398.578	-55.31017
398.792	-0.52684
399.005	26.87099
399.219	3.68794
399.433	22.65567
399.646	41.62532
399.86	26.87099
400.073	-2.6342
400.287	31.08639
400.5	-30.02763
400.714	-44.77622
400.927	35.30189
401.141	35.30189
401.354	12.11781
401.567	-44.77622
401.781	-42.66935
401.994	-25.81353
402.208	41.62532
402.421	14.22533
402.635	-2.6342
402.848	115.4138
403.061	37.40968
403.275	24.76332
403.488	3.68794
403.701	-44.77622
403.915	66.92111
404.128	-30.02763
404.341	31.08639
404.555	73.24557
404.768	-11.06339
404.981	-11.06339
405.195	7.90283
405.408	18.44046
405.621	35.30189
405.834	-23.70644
406.048	-2.6342
406.261	5.79537
406.474	39.51749
406.687	-27.92059
406.9	18.44046
407.114	-11.06339
407.327	-15.27784
407.54	-53.20343
407.753	81.6785
407.966	-36.3486
408.179	5.79537
408.392	5.79537
408.605	1.58054
408.819	18.44046
409.032	33.19413
409.245	39.51749
409.458	10.01031
409.671	12.11781
409.884	-27.92059
410.097	-21.59933
410.31	12.11781
410.523	-93.22713
410.736	18.44046
410.949	33.19413
411.162	-17.38502
411.375	3.68794
411.588	22.65567
411.801	-19.49219
412.014	73.24557
412.227	-30.02763
412.44	-21.59933
412.653	-23.70644
412.865	10.01031
413.078	7.90283
413.291	-21.59933
413.504	26.87099
413.717	79.57023
413.93	18.44046
414.143	16.33288
414.356	-32.13465
414.568	16.33288
414.781	18.44046
414.994	58.48881
415.207	64.813
415.42	-13.17063
415.632	-46.88306
415.845	24.76332
416.058	22.65567
416.271	41.62532
416.483	14.22533
416.696	5.79537
416.909	22.65567
417.121	24.76332
417.334	-19.49219
417.547	1.58054
417.759	-23.70644
417.972	33.19413
418.185	56.38079
418.397	-25.81353
418.61	-27.92059
418.823	10.01031
419.035	14.22533
419.248	16.33288
419.46	-17.38502
419.673	22.65567
419.885	-17.38502
420.098	-51.09666
420.311	37.40968
420.523	-6.84884
420.736	3.68794
420.948	1.58054
421.161	14.22533
421.373	64.813
421.586	-19.49219
421.798	5.79537
422.01	-11.06339
422.223	22.65567
422.435	10.01031
422.648	20.54805
422.86	1.58054
423.073	22.65567
423.285	64.813
423.497	-19.49219
423.71	43.73317
423.922	-63.73688
424.134	47.94895
424.347	14.22533
424.559	31.08639
424.771	14.22533
424.984	-25.81353
425.196	20.54805
425.408	64.813
425.621	31.08639
425.833	39.51749
426.045	56.38079
426.257	7.90283
426.47	35.30189
426.682	-2.6342
426.894	90.11179
427.106	14.22533
427.318	24.76332
427.531	-46.88306
427.743	-8.95613
427.955	16.33288
428.167	75.35377
428.379	33.19413
428.591	90.11179
428.804	-11.06339
429.016	18.44046
429.228	14.22533
429.44	134.39237
429.652	24.76332
429.864	96.437
430.076	-25.81353
430.288	35.30189
430.5	33.19413
430.712	47.94895
430.924	39.51749
431.136	14.22533
431.348	-42.66935
431.56	5.79537
431.772	-124.81816
431.984	-55.31017
432.196	-8.95613
432.408	56.38079
432.62	-2.6342
432.832	-42.66935
433.044	60.59685
433.256	1.58054
433.468	52.16483
433.679	5.79537
433.891	-32.13465
434.103	56.38079
434.315	81.6785
434.527	-34.24164
434.739	-2.6342
434.95	43.73317
435.162	1.58054
435.374	-40.56246
435.586	22.65567
435.798	73.24557
436.009	1.58054
436.221	37.40968
436.433	-48.98987
436.645	77.46199
436.856	-40.56246
437.068	24.76332
437.28	39.51749
437.491	-6.84884
437.703	18.44046
437.915	24.76332
438.126	115.4138
438.338	33.19413
438.55	81.6785
438.761	39.51749
438.973	35.30189
439.184	39.51749
439.396	24.76332
439.608	26.87099
439.819	24.76332
440.031	12.11781
440.242	31.08639
440.454	16.33288
440.665	-11.06339
440.877	-4.74153
441.088	119.63111
441.3	47.94895
441.511	52.16483
441.723	75.35377
441.934	1.58054
442.146	-0.52684
442.357	69.02924
442.569	39.51749
442.78	22.65567
442.991	52.16483
443.203	85.8951
443.414	18.44046
443.626	92.22017
443.837	73.24557
444.048	-11.06339
444.26	88.00344
444.471	26.87099
444.682	90.11179
444.894	71.13739
445.105	109.088
445.316	69.02924
445.528	37.40968
445.739	14.22533
445.95	64.813
446.161	39.51749
446.373	33.19413
446.584	20.54805
446.795	14.22533
447.006	64.813
447.217	62.70491
447.429	24.76332
447.64	31.08639
447.851	47.94895
448.062	33.19413
448.273	-6.84884
448.484	56.38079
448.695	69.02924
448.907	22.65567
449.118	31.08639
449.329	35.30189
449.54	31.08639
449.751	102.7624
449.962	79.57023
450.173	69.02924
450.384	20.54805
450.595	102.7624
450.806	77.46199
451.017	26.87099
451.228	117.52244
451.439	56.38079
451.65	35.30189
451.861	41.62532
452.072	43.73317
452.283	85.8951
452.494	69.02924
452.705	157.59075
452.915	-36.3486
453.126	37.40968
453.337	64.813
453.548	71.13739
453.759	39.51749
453.97	109.088
454.181	47.94895
454.391	43.73317
454.602	45.84105
454.813	111.19658
455.024	83.78679
455.235	75.35377
455.445	18.44046
455.656	111.19658
455.867	149.15468
456.078	92.22017
456.288	56.38079
456.499	98.54544
456.71	31.08639
456.921	41.62532
457.131	10.01031
457.342	94.32857
457.553	22.65567
457.763	45.84105
457.974	98.54544
458.184	12.11781
458.395	98.54544
458.606	73.24557
458.816	106.97945
459.027	60.59685
459.237	66.92111
459.448	43.73317
459.659	56.38079
459.869	130.17476
460.08	47.94895
460.29	153.37267
460.501	117.52244
460.711	12.11781
460.922	62.70491
461.132	102.7624
461.343	138.61006
461.553	140.71894
461.764	98.54544
461.974	100.65391
462.184	54.2728
462.395	132.28355
462.605	115.4138
462.816	102.7624
463.026	56.38079
463.236	98.54544
463.447	58.48881
463.657	60.59685
463.867	144.93677
464.078	100.65391
464.288	201.88557
464.498	132.28355
464.709	64.813
464.919	225.09118
465.129	172.35468
465.339	123.8485
465.55	119.63111
465.76	166.02716
465.97	123.8485
466.18	250.4091
466.391	115.4138
466.601	191.33836
466.811	218.76214
467.021	161.80891
467.231	201.88557
467.441	81.6785
467.651	187.11962
467.862	203.99507
468.072	203.99507
468.282	134.39237
468.492	187.11962
468.702	210.32369
468.912	203.99507
469.122	182.90097
469.332	277.83996
469.542	284.17061
469.752	326.37915
469.962	296.83241
470.172	296.83241
470.382	288.39113
470.592	320.04741
470.802	250.4091
471.012	292.61173
471.222	258.84902
471.432	334.82172
471.642	275.72978
471.852	345.37533
472.062	495.28116
472.272	396.03861
472.482	351.7077
472.691	417.15113
472.901	292.61173
473.111	396.03861
473.321	385.48296
473.531	444.59982
473.741	368.59479
473.95	440.37677
474.16	389.70517
474.37	516.40091
474.58	512.17684
474.79	666.39007
474.999	581.88105
475.209	524.84921
475.419	588.21852
475.628	600.89382
475.838	564.98169
476.048	698.0859
476.258	579.76858
476.467	664.2771
476.677	676.95506
476.886	818.55201
477.096	769.93892
477.306	835.46207
477.515	698.0859
477.725	841.80349
477.935	812.21088
478.144	892.53765
478.354	841.80349
478.563	922.13473
478.773	945.39064
478.982	1116.66268
479.192	1044.76605
479.401	1065.91149
479.611	1070.14064
479.82	1144.15405
480.03	1156.84262
480.239	1167.41654
480.449	1108.20395
480.658	1220.28753
480.868	1315.45996
481.077	1222.40241
481.287	1156.84262
481.496	1393.71573
481.705	1393.71573
481.915	1505.81334
482.124	1433.90163
482.333	1552.34408
482.543	1359.87518
482.752	1556.57412
482.961	1455.05215
483.171	1624.25392
483.38	1522.73366
483.589	1759.60601
483.799	1660.20796
484.008	1878.02659
484.217	1901.28602
484.426	1933.00235
484.636	1734.22848
484.845	1952.03154
485.054	1708.85044
485.263	2129.61184
485.472	1865.33937
485.682	2076.76574
485.891	2051.39797
486.1	2161.31717
486.309	2068.30993
486.518	2154.97625
486.727	2000.65946
486.936	2412.77565
487.146	2171.88521
487.355	2302.91101
487.564	2100.0186
487.773	2391.64996
487.982	2440.23747
488.191	2636.63964
488.4	2402.21294
488.609	2509.93998
488.818	2459.24844
489.027	2588.07652
489.236	2535.28331
489.445	2765.40504
489.654	2651.41842
489.863	2765.40504
490.072	2752.74175
490.281	2934.20123
490.49	2803.39198
490.698	2718.97063
490.907	2889.90102
491.116	3187.21676
491.325	2710.52733
491.534	3166.14083
491.743	2936.3106
491.952	3010.12927
492.16	2946.85725
492.369	3132.41596
492.578	3311.53094
492.787	3161.92545
492.996	3263.07644
493.204	3334.70163
493.413	3231.47086
493.622	3454.73409
493.831	3303.10472
494.039	3581.02096
494.248	3359.97637
494.457	3469.47093
494.665	3620.99794
494.874	3566.2909
495.083	3557.87332
495.291	3501.04691
495.5	3587.33357
495.709	3679.89898
495.917	3524.20003
496.126	3751.40152
496.335	3774.5299
496.543	3709.3439
496.752	3806.06478
496.96	3850.20618
497.169	3852.30793
497.377	3957.37007
497.586	3911.14893
497.794	4058.18198
498.003	3862.8164
498.211	4261.75966
498.42	4020.38305
498.628	4165.24237
498.837	3932.15975
499.045	3978.37644
499.254	4093.8748
499.462	4221.89927
499.671	4083.37754
499.879	4263.85736
500.087	3927.95775
500.296	4142.15551
500.504	4234.48759
500.713	4194.62195
500.921	4310.00137
501.129	4402.25805
501.338	4293.22293
501.546	4395.96915
501.754	4341.45722
501.962	4406.45053
502.171	4439.98728
502.379	4569.88897
502.587	4419.02747
502.795	4722.72805
503.004	4609.68049
503.212	4770.85798
503.42	4691.33253
503.628	4703.89135
503.837	4502.85353
504.045	4883.81146
504.253	4703.89135
504.461	4854.53361
504.669	4712.26344
504.877	4781.31943
505.085	4804.3326
505.294	4887.99364
505.502	4814.79223
505.71	5005.05752
505.918	4867.08181
506.126	5099.0743
506.334	4747.84082
506.542	5322.43626
506.75	5107.42907
506.958	5142.93273
507.166	5155.46183
507.374	5207.65739
507.582	5119.96054
507.79	5280.70667
507.998	5167.99009
508.206	5389.18411
508.414	5289.05334
508.622	5334.95331
508.83	5416.29355
509.037	5468.41594
509.245	5341.21152
509.453	5610.11442
509.661	5280.70667
509.869	5622.61199
510.077	5330.78105
510.285	5449.65358
510.492	5493.42947
510.7	5349.55547
510.908	5418.37873
511.116	5451.73838
511.324	5530.9434
511.531	5599.69913
511.739	5478.83866
511.947	5797.48886
512.155	5710.07124
512.362	5799.56972
512.57	5647.6046
512.778	5747.54103
512.985	5728.80709
513.193	5751.70387
513.401	5672.5938
513.608	5957.64637
513.816	5703.82553
514.024	5697.57961
514.231	5787.08418
514.439	5918.13998
514.646	5832.86034
514.854	6061.5699
515.061	5839.10166
515.269	5949.32995
515.477	5947.25078
515.684	5970.12031
515.892	6069.88124
516.099	6001.30143
516.307	6044.94609
516.514	6038.71177
516.722	6140.51242
516.929	6092.73548
517.136	6059.492
517.344	6182.04749
517.551	6053.25818
517.759	6287.91944
517.966	6119.74137
518.173	6383.3596
518.381	6404.10093
518.588	6356.39239
518.796	6375.06242
519.003	6538.86287
519.21	6404.10093
519.418	6372.98806
519.625	6416.5446
519.832	6362.61594
520.039	6323.19656
520.247	6402.0269
520.454	6563.73128
520.661	6737.71718
520.868	6298.29577
521.076	6671.45598
521.283	6495.33512
521.49	6685.95263
521.697	6723.22455
521.904	6946.70072
522.112	6547.15271
522.319	6861.89379
522.526	6505.6998
522.733	6954.97253
522.94	6706.66017
523.147	6669.38494
523.354	6820.51071
523.561	7149.25655
523.768	6663.17168
523.975	6909.4731
524.183	6917.74654
524.39	7052.1393
524.597	7008.7305
524.804	7370.17065
525.011	7050.07244
525.218	7089.33897
525.425	7118.26704
525.632	7087.27251
525.838	7126.5314
526.045	7233.93571
526.252	7110.00232
526.459	7221.54596
526.666	7118.26704
526.873	7359.85316
527.08	7132.72943
527.287	7489.81378
527.494	7019.06683
527.701	7574.34527
527.907	7231.87081
528.114	7355.72602
528.321	7339.21655
528.528	7454.75352
528.735	7551.66963
528.941	7541.36167
529.148	7174.04455
529.355	7667.08238
529.562	7417.62407
529.768	7594.95725
529.975	7236.00059
530.182	7718.58445
530.388	7607.32341
530.595	7722.70404
530.802	7423.8128
531.008	8076.67856
531.215	7733.00266
531.422	7776.25114
531.628	7660.90125
531.835	7893.59349
532.042	7870.95373
532.248	8138.35644
532.455	8101.35188
532.661	7945.03823
532.868	7897.70955
533.074	8156.85628
533.281	7961.49784
533.487	8243.16757
533.694	8000.58416
533.9	8154.80082
534.107	8197.96126
534.313	8183.57542
534.52	8006.75501
534.726	8158.91172
534.933	7891.53544
535.139	8460.847
535.345	8097.23986
535.552	8327.39026
535.758	8438.26774
535.965	8586.01747
536.171	8306.85118
536.377	8382.83605
536.584	8265.76714
536.79	8286.31014
536.996	8280.14745
537.203	8475.21442
537.409	8458.79444
537.615	8464.95207
537.821	8549.08925
538.028	8661.90641
538.234	8475.21442
538.44	8569.60568
538.646	8581.91464
538.853	8666.00779
539.059	8501.89428
539.265	8909.908
539.471	8776.71713
539.677	8612.68407
539.883	8836.15016
540.09	8735.71992
540.296	8883.2759
540.502	9049.16557
540.708	8692.66495
540.914	9110.57704
541.12	8868.93429
541.326	9079.87325
541.532	8844.34663
541.738	9141.27696
541.944	8918.10188
542.15	9204.71127
542.356	9131.04408
542.562	9075.77912
542.768	8940.6336
542.974	9145.36999
543.18	8911.9565
543.386	9468.50742
543.592	9178.11178
543.798	9390.82847
544.004	9079.87325
544.21	9392.87295
544.415	9241.53663
544.621	9437.84747
544.827	9288.58333
545.033	9390.82847
545.239	9237.44519
545.445	9613.58242
545.651	9245.628
545.856	9705.49044
546.062	9564.55192
546.268	9486.90165
546.474	9411.27257
546.679	9368.33807
546.885	9272.22026
547.091	9456.24388
547.297	9415.36119
547.502	9556.37928
547.708	9268.12933
547.914	9605.4113
548.119	9384.69492
548.325	9478.7266
548.531	9343.80082
548.736	9746.32845
548.942	9623.79598
549.147	9593.15415
549.353	9770.82833
549.559	9830.02741
549.764	9787.16037
549.97	9732.03584
550.175	9827.98627
550.381	9787.16037
550.586	9838.19181
550.792	10066.6998
550.997	9907.57964
551.203	10097.28986
551.408	10129.91577
551.614	9995.31057
551.819	9956.54905
552.025	10193.11833
552.23	9923.90371
552.435	9997.35051
552.641	10380.61021
552.846	10201.27253
553.052	10099.32908
553.257	10083.01489
553.462	9989.19068
553.668	10209.42651
553.873	9983.07065
554.078	10274.65053
554.283	10292.99228
554.489	10515.04649
554.694	10413.206
554.899	10419.31734
555.105	10309.29516
555.31	10572.06325
555.515	10443.76153
555.72	10396.90852
555.925	10435.61367
556.131	10690.13838
556.336	10502.82732
556.541	10460.05662
556.746	10335.7855
556.951	10551.70125
557.156	10515.04649
557.361	10553.73751
557.567	10537.44711
557.772	10570.02711
557.977	10276.68855
558.182	10521.1559
558.387	10413.206
558.592	10726.77404
558.797	10374.49812
559.002	10649.42749
559.207	10557.80998
559.412	10610.7476
559.617	10480.42432
559.822	10718.63312
560.027	10771.54568
560.232	10671.81908
560.437	10484.49771
560.642	11172.20805
560.847	10977.01568
561.051	11013.62192
561.256	11153.91298
561.461	11005.48751
561.666	10881.41553
561.871	10834.62327
562.076	11038.02409
562.281	11019.72261
562.485	10812.24219
562.69	11005.48751
562.895	10749.16058
563.1	10779.68536
563.305	10879.38121
563.509	11056.32468
563.714	11031.92369
563.919	10944.47375
564.123	11011.58833
564.328	11442.47137
564.533	10875.31254
564.737	10909.89479
564.942	11046.15779
565.147	11393.71516
565.351	10987.18444
565.556	11332.76192
565.761	11145.78157
565.965	11188.46961
566.17	11074.62438
566.374	11237.25028
566.579	11160.01143
566.784	11279.92847
566.988	11178.30621
567.193	11474.97241
567.397	11257.57379
567.602	11365.27143
567.806	11155.94581
568.011	11361.20788
568.215	11389.65189
568.42	11594.79898
568.624	11416.06246
568.828	11511.53314
569.033	11409.96786
569.237	11420.12547
569.442	11403.87317
569.646	11304.31399
569.85	11525.75037
570.055	11615.10536
570.259	11621.19709
570.463	11582.61471
570.668	11740.98475
570.872	11472.94116
571.076	11448.5655
571.281	11690.23106
571.485	11541.99808
571.689	11801.88198
571.893	11596.82966
572.098	11789.70316
572.302	11718.65381
572.506	11564.33769
572.71	11491.222
572.914	12027.1361
573.119	11862.77151
573.323	11667.89768
573.527	11649.62411
573.731	11797.82241
573.935	11787.67332
574.139	12083.94133
574.343	11635.41082
574.547	12148.85422
574.751	11994.67321
574.955	11876.97797
575.159	12120.45578
575.364	11682.10996
575.568	11787.67332
575.772	11781.58377
575.976	11998.73118
576.18	11726.77428
576.383	12146.82581
576.587	11911.4777
576.791	11868.86004
576.995	12201.59028
577.199	12087.99861
577.403	11976.41194
577.607	12071.76929
577.811	12126.54129
578.015	11718.65381
578.219	11907.41903
578.422	12150.88262
578.626	12321.24237
578.83	12008.87597
579.034	12380.04543
579.238	12311.10332
579.442	12189.42087
579.645	12063.65445
579.849	12240.12504
580.053	12067.71188
580.257	12309.07549
580.46	12154.9394
580.664	12428.70571
580.868	12319.21457
581.071	12367.87976
581.275	12428.70571
581.479	12598.98702
581.682	12331.38124
581.886	12538.17744
582.09	12499.66176
582.293	12609.12141
582.497	12519.93346
582.7	12396.26596
582.904	12209.70308
583.107	12477.36215
583.311	12521.96059
583.515	12740.85476
583.718	12242.15311
583.922	12546.28571
584.125	12501.68896
584.329	12661.81777
584.532	12594.93322
584.735	12785.43584
584.939	12357.7415
585.142	12576.69082
585.346	12554.39388
585.549	12886.74646
585.753	12761.11923
585.956	12884.72038
586.159	12801.64647
586.363	12844.19767
586.566	12515.87917
586.769	13054.89293
586.973	12712.48353
587.176	13109.58378
587.379	12706.40383
587.582	12813.8042
587.786	12761.11923
587.989	12955.63
588.192	13010.32739
588.395	13194.65162
588.599	12953.6041
588.802	12848.25004
589.005	12805.69907
589.208	13565.2169
589.411	12951.5782
589.615	13101.48165
589.818	13125.78781
590.021	13304.01295
590.224	13012.35315
590.427	13137.94064
590.63	13099.45611
590.833	13158.19497
591.036	13154.14414
591.239	13403.23759
591.442	13101.48165
591.645	13166.29658
591.848	13113.63482
592.051	13389.06324
592.254	12931.31886
592.457	13417.41175
592.66	13058.94423
592.863	13158.19497
593.066	13263.51023
593.269	13725.14926
593.472	13376.91364
593.675	13763.61099
593.878	13125.78781
594.081	13251.35908
594.284	13336.41392
594.486	13461.95787
594.689	13451.83391
594.892	13498.40332
595.095	13427.53603
595.298	13409.31225
595.5	13484.23024
595.703	13632.02662
595.906	13569.26608
596.109	13735.27088
596.311	13781.82933
596.514	13437.66022
596.717	13781.82933
596.92	13749.44101
597.122	13761.58672
597.325	13810.16847
597.528	13593.56088
597.73	13972.09588
597.933	13419.43661
598.136	13953.8799
598.338	13715.02756
598.541	13814.21688
598.743	14014.59904
598.946	13506.50215
599.148	13549.02003
599.351	13996.38353
599.554	13887.08617
599.756	13951.85589
599.959	14121.86425
600.161	13994.35958
600.363	13951.85589
600.566	14018.6469
600.768	14057.10112
600.971	13986.26372
601.173	14000.43144
601.376	14109.72134
601.578	13798.0232
601.78	14105.67368
601.983	13968.0479
602.185	14091.50682
602.388	13929.59161
602.59	14174.48263
602.792	14370.77805
602.995	14279.7153
603.197	14111.74516
603.399	14558.96445
603.601	14142.10226
603.804	14065.19664
604.006	13791.95052
604.208	14206.86248
604.41	14283.76261
604.613	14115.7928
604.815	13996.38353
605.017	14360.66013
605.219	13767.65953
605.421	14036.86217
605.623	14178.53014
605.826	14263.526
606.028	14285.78626
606.23	14326.25892
606.432	14283.76261
606.634	14463.86102
606.836	14421.36702
607.038	14666.20557
607.24	14028.76652
607.442	14251.38394
607.644	14324.2353
607.846	14435.53176
608.048	14018.6469
608.25	14538.72992
608.452	14073.29212
608.654	14129.95948
608.856	13897.20662
609.058	14255.4313
609.26	14049.00557
609.462	14178.53014
609.664	14306.02268
609.866	14140.07846
610.067	14127.93567
610.269	14623.71417
610.471	14194.7201
610.673	14295.90449
610.875	14411.2493
611.077	14360.66013
611.278	14208.8862
611.48	14467.90804
611.682	14275.66799
611.884	14773.44392
612.085	14356.61296
612.287	14419.34348
612.489	14297.92813
612.69	14447.6729
612.892	14386.96662
613.094	14334.35337
613.295	14160.31628
613.497	14065.19664
613.699	14263.526
613.9	14221.0285
614.102	14006.50328
614.304	14162.34005
614.505	14334.35337
614.707	14435.53176
614.908	14136.03088
615.11	14421.36702
615.311	14494.2135
615.513	14342.44779
615.714	14225.07592
615.916	14518.49526
616.117	14407.2022
616.319	14415.29639
616.52	14097.57835
616.722	14769.39723
616.923	14340.42418
617.124	14575.15199
617.326	14384.94306
617.527	14488.14303
617.729	14324.2353
617.93	14338.40058
618.131	14413.27285
618.333	14482.07254
618.534	14356.61296
618.735	14455.76697
618.937	14340.42418
619.138	14660.13539
619.339	14138.05467
619.54	14771.42057
619.742	14461.83751
619.943	14397.08443
620.144	14202.81503
620.345	14279.7153
620.546	14332.32976
620.748	14301.97541
620.949	14384.94306
621.15	14492.19001
621.351	14467.90804
621.552	14627.76099
621.753	14328.28253
621.954	14745.11704
622.155	14138.05467
622.356	14625.73758
622.558	14514.44831
622.759	14676.3225
622.96	14453.74346
623.161	14484.09604
623.362	14320.18806
623.563	14761.30384
623.764	14429.46116
623.965	14779.51394
624.166	14550.87065
624.366	14427.43763
624.567	14188.64888
624.768	14263.526
624.969	14482.07254
625.17	14581.2223
625.371	14451.71994
625.572	14560.9879
625.773	14275.66799
625.973	14534.683
626.174	14609.55027
626.375	14583.24573
626.576	14664.18218
626.777	14777.4906
626.977	14502.30744
627.178	14775.46726
627.379	14301.97541
627.58	14664.18218
627.78	14407.2022
627.981	14346.49499
628.182	14453.74346
628.382	14431.48469
628.583	14556.941
628.784	14558.96445
628.984	14362.68372
629.185	14953.5189
629.386	14647.99502
629.586	14850.33044
629.787	14862.47033
629.987	15109.31144
630.188	14672.27573
630.388	14571.10511
630.589	14348.51858
630.79	14769.39723
630.99	14658.112
631.191	14575.15199
631.391	14542.77683
631.591	14704.64979
631.792	14650.01842
631.992	14795.70064
632.193	14720.83673
632.393	14850.33044
632.594	14613.5971
632.794	14797.72398
632.994	14745.11704
633.195	14939.35585
633.395	14801.77065
633.595	14793.67731
633.796	14805.81731
633.996	14850.33044
634.196	14674.29911
634.397	15127.52088
634.597	14872.58689
634.797	15119.42779
634.997	14925.19278
635.198	14904.95979
635.398	14682.39265
635.598	15184.17246
635.798	14680.36927
635.998	14565.03479
636.199	14429.46116
636.399	14769.39723
636.599	14496.23698
636.799	15028.38044
636.999	14680.36927
637.199	14704.64979
637.399	14569.08167
637.599	14609.55027
637.799	14637.87802
637.999	15012.1942
638.199	14963.63535
638.399	14949.47232
638.599	14830.09724
638.799	15113.35798
638.999	14469.93154
639.199	14696.5563
639.399	14909.00639
639.599	15068.84597
639.799	14789.63064
639.999	15083.00889
640.199	14672.27573
640.399	15107.28816
640.599	14567.05823
640.799	15119.42779
640.998	14799.74731
641.198	15040.52011
641.398	14623.71417
641.598	14979.82166
641.798	15095.14853
641.997	14888.77335
642.197	14787.6073
642.397	15012.1942
642.597	14959.58877
642.796	15010.17091
642.996	14971.72851
643.196	15058.7296
643.395	14795.70064
643.595	15054.68304
643.795	14985.89151
643.994	15244.87061
644.194	14876.63351
644.394	15076.93907
644.593	14720.83673
644.793	15093.12526
644.992	14983.86823
645.192	14900.91318
645.392	15222.61461
645.591	15665.72014
645.791	15366.26742
645.99	15356.15098
646.19	15267.12663
646.389	15174.0561
646.589	15002.07779
646.788	15085.03216
646.987	14963.63535
647.187	15240.82406
647.386	15113.35798
647.586	15234.75424
647.785	14712.74327
647.984	15522.06204
648.184	15323.77843
648.383	15469.45572
648.582	15097.1718
648.782	15560.50539
648.981	15335.91812
649.18	15396.6168
649.38	15356.15098
649.579	15594.90229
649.778	15433.03618
649.977	15471.47903
650.177	15435.05948
650.376	15376.38387
650.575	15184.17246
650.774	15109.31144
650.973	15232.73097
651.173	15111.33471
651.372	15070.86925
651.571	15337.94141
651.77	15550.38869
651.969	15518.01538
652.168	15271.17318
652.367	15133.59069
652.566	15097.1718
652.765	15360.19756
652.964	15097.1718
653.163	15184.17246
653.362	15424.94297
653.561	15424.94297
653.76	15491.71219
653.959	15044.56666
654.158	15200.35862
654.357	15143.70705
654.556	15018.26404
654.755	15473.50235
654.954	14775.46726
655.153	15467.43241
655.352	15477.54897
655.551	15443.1527
655.749	15356.15098
655.948	15518.01538
656.147	15143.70705
656.346	14969.70522
656.545	15206.42844
656.743	15301.52234
656.942	15623.22931
657.141	15309.61546
657.34	15392.57021
657.538	15681.90722
657.737	15653.57986
657.936	15714.28156
658.135	15451.24593
658.333	15619.18258
658.532	15344.01126
658.731	15475.52566
658.929	15279.26628
659.128	15337.94141
659.326	15097.1718
659.525	15704.16456
659.724	15445.17601
659.922	15683.93061
660.121	15188.219
660.319	15546.34202
660.518	15323.77843
660.716	15459.33916
660.915	15524.08537
661.113	15679.88383
661.312	15548.36536
661.51	15768.91383
661.709	15499.80547
661.907	15635.36951
662.105	15129.54415
662.304	15544.31869
662.502	15465.4091
662.701	15400.66339
662.899	15360.19756
663.097	15461.36247
663.296	15588.83223
663.494	15443.1527
663.692	15267.12663
663.891	15483.61892
664.089	15426.96627
664.287	15493.73551
664.485	15291.40595
664.684	15959.12143
664.882	15289.38267
665.08	15356.15098
665.278	15325.80171
665.476	15242.84734
665.675	15263.08008
665.873	15163.93975
666.071	15396.6168
666.269	15319.73186
666.467	15246.89388
666.665	15441.1294
666.863	15437.08279
667.061	15661.67337
667.259	15437.08279
667.457	15572.64545
667.655	15499.80547
667.853	15437.08279
668.051	15307.59218
668.249	15483.61892
668.447	15392.57021
668.645	15443.1527
668.843	15594.90229
669.041	15805.33577
669.239	15546.34202
669.437	15303.54562
669.635	15259.03353
669.833	15445.17601
670.031	15299.49906
670.229	15406.73328
670.426	15238.80079
670.624	15400.66339
670.822	15153.8234
671.02	15600.97235
671.218	15267.12663
671.415	15602.9957
671.613	15259.03353
671.811	15093.12526
672.009	15119.42779
672.206	15139.6605
672.404	14872.58689
672.602	15078.96234
672.799	15354.12769
672.997	15313.66202
673.195	15192.26554
673.392	15404.70998
673.59	14979.82166
673.788	15058.7296
673.985	14959.58877
674.183	14947.44903
674.38	15206.42844
674.578	15289.38267
674.775	15202.38189
674.973	15433.03618
675.17	15113.35798
675.368	15226.66115
675.565	15089.07871
675.763	15402.68669
675.96	15038.49683
676.158	14996.00794
676.355	14896.86657
676.553	15151.80013
676.75	15149.77686
676.947	15117.40452
677.145	14852.35375
677.342	15186.19573
677.539	15321.75514
677.737	15228.68443
677.934	15161.91648
678.131	15380.43045
678.329	15335.91812
678.526	15497.78215
678.723	15196.31208
678.92	15101.21835
679.118	14791.65397
679.315	14840.21384
679.512	14745.11704
679.709	14704.64979
679.906	14996.00794
680.104	14870.56358
680.301	14694.53292
680.498	14929.23938
680.695	14838.19052
680.892	14828.07391
681.089	14617.64393
681.286	14896.86657
681.483	14490.16652
681.68	14730.95354
681.877	14817.95728
682.075	14639.90142
682.272	14698.57967
682.469	15174.0561
682.665	14947.44903
682.862	14801.77065
683.059	14724.88346
683.256	14745.11704
683.453	14447.6729
683.65	14730.95354
683.847	14476.00205
684.044	14534.683
684.241	14397.08443
684.438	14856.40038
684.635	14429.46116
684.831	14987.9148
685.028	14550.87065
685.225	14573.12855
685.422	14714.76663
685.619	14892.81997
685.815	14569.08167
686.012	14453.74346
686.209	14380.89592
686.405	14856.40038
686.602	14830.09724
686.799	14447.6729
686.996	14429.46116
687.192	14714.76663
687.389	14641.92482
687.586	14524.56567
687.782	14528.6126
687.979	14641.92482
688.175	14623.71417
688.372	14809.86397
688.568	14251.38394
688.765	14429.46116
688.962	14235.19443
689.158	14318.16444
689.355	14170.43511
689.551	14182.57764
689.748	14281.73896
689.944	14524.56567
690.14	14374.8252
690.337	14328.28253
690.533	14277.69165
690.73	14243.2892
690.926	14085.43527
691.123	13986.26372
691.319	14204.83875
691.515	14154.24496
691.712	13917.44732
691.908	14071.26826
692.104	13941.7358
692.301	14012.5751
692.497	13735.27088
692.693	14142.10226
692.889	14079.36371
693.086	14140.07846
693.282	14239.24182
693.478	14227.09962
693.674	14057.10112
693.87	14417.31993
694.067	14083.41142
694.263	14182.57764
694.459	14089.48297
694.655	14109.72134
694.851	14196.74383
695.047	13992.33562
695.243	13957.92792
695.439	13945.78385
695.635	14022.69476
695.831	13848.62783
696.027	14142.10226
696.224	13980.19181
696.42	14225.07592
696.615	14182.57764
696.811	13903.27886
697.007	13765.63527
697.203	14000.43144
697.399	13974.11987
697.595	13860.77268
697.791	13870.89331
697.987	13895.18254
698.183	14269.597
698.379	13660.36902
698.575	13951.85589
698.77	13514.60092
698.966	13753.48959
699.162	13518.65028
699.358	13632.02662
699.554	13225.03105
699.749	13449.80911
699.945	13168.32197
700.141	13285.78694
700.337	13453.85871
700.532	13632.02662
700.728	13767.65953
700.924	13808.14427
701.119	13662.39346
701.315	13891.13436
701.511	13476.13125
701.706	13935.66372
701.902	13233.13206
702.097	13546.9954
702.293	13484.23024
702.489	13553.06927
702.684	13293.88743
702.88	13423.48633
703.075	13449.80911
703.271	13743.36811
703.466	13516.6256
703.662	13684.662
703.857	13530.79828
704.053	13597.60996
704.248	13154.14414
704.443	13528.77362
704.639	13387.03831
704.834	13565.2169
705.03	13358.68896
705.225	13662.39346
705.42	13376.91364
705.616	13680.6132
705.811	13338.43894
706.006	13585.46267
706.202	13360.71394
706.397	13389.06324
706.592	13370.83878
706.787	13385.01339
706.983	13101.48165
707.178	13668.46673
707.373	13247.30867
707.568	13308.06313
707.763	13255.40948
707.959	13324.26368
708.154	13255.40948
708.349	13050.84162
708.544	13115.66033
708.739	12953.6041
708.934	13293.88743
709.129	13395.13798
709.324	12937.39671
709.519	13656.32015
709.714	13160.22038
709.909	13393.11307
710.104	13069.07238
710.299	13028.55904
710.494	13054.89293
710.689	13336.41392
710.884	13093.37945
711.079	13218.95525
711.274	13103.50719
711.469	13457.9083
711.664	13247.30867
711.859	13423.48633
712.054	13186.55027
712.249	13378.93858
712.443	13184.52492
712.638	13257.43468
712.833	12617.22881
713.028	12680.05787
713.223	12680.05787
713.417	12830.0142
713.612	12884.72038
713.807	12969.81116
714.002	12793.5412
714.196	13200.72759
714.391	12744.9077
714.586	13135.91518
714.78	13093.37945
714.975	13162.24578
715.17	13012.35315
715.364	12809.75165
715.559	12825.96174
715.754	12659.79106
715.948	12819.88299
716.143	12781.38313
716.337	12424.65084
716.532	13123.76232
716.726	12929.29289
716.921	12884.72038
717.115	12696.27088
717.31	12793.5412
717.504	12485.47119
717.699	12708.4304
717.893	12663.84447
718.088	12917.13701
718.282	12736.80179
718.476	12761.11923
718.671	12744.9077
718.865	12819.88299
719.059	12700.32408
719.254	12722.61624
719.448	12327.32571
719.642	12550.3398
719.837	12116.39874
720.031	12442.89756
720.225	12294.88048
720.419	12526.01484
720.614	12122.48429
720.808	12298.93623
721.002	12163.05288
721.196	12195.50561
721.39	12236.06887
721.585	12152.91102
721.779	12444.92495
721.973	12773.27764
722.167	12158.99616
722.361	12517.90632
722.555	12156.96778
722.749	12169.13791
722.943	12104.22744
723.137	12087.99861
723.331	11990.61521
723.525	12191.44912
723.719	11905.38968
723.913	12016.99166
724.107	11964.2374
724.301	12171.16624
724.495	11891.18403
724.689	11937.85824
724.883	11925.68278
725.077	12138.71209
725.271	11767.37451
725.465	11974.38287
725.659	11795.79261
725.853	12077.85534
726.046	11807.97128
726.24	11826.2387
726.434	11773.46424
726.628	12276.62924
726.822	11860.74198
727.015	12041.33798
727.209	11787.67332
727.403	11915.53633
727.596	11749.10484
727.79	12081.91267
727.984	11738.95471
728.177	11887.1252
728.371	12079.88401
728.565	11996.7022
728.758	12025.10723
728.952	12090.02724
729.146	12217.81576
729.339	12181.30777
729.533	12136.68364
729.726	12092.05587
729.92	12061.62571
730.113	12144.79739
730.307	12250.26533
730.5	12025.10723
730.694	11814.06049
730.887	12126.54129
731.081	11954.09173
731.274	11846.53504
731.468	11830.29804
731.661	12069.74059
731.854	11889.15462
732.048	12163.05288
732.241	12144.79739
732.435	12177.25118
732.628	12357.7415
732.821	12380.04543
733.014	12173.19456
733.208	12140.74053
733.401	12094.08448
733.594	12031.19382
733.788	12148.85422
733.981	12000.76016
734.174	12043.36679
734.367	12031.19382
734.56	12067.71188
734.754	12055.53948
734.947	11779.5539
735.14	11846.53504
735.333	11903.36033
735.526	11870.88954
735.719	11513.5642
735.912	11716.62367
736.105	11552.15258
736.298	11554.18346
736.491	11941.91666
736.684	11885.09577
736.877	11661.80657
737.07	11820.14964
737.263	11710.5332
737.456	11919.59493
737.649	11848.56463
737.842	12023.07835
738.035	11854.65334
738.228	11747.07483
738.421	11779.5539
738.614	12124.51279
738.807	11649.62411
739	11663.83695
739.192	11474.97241
739.385	11734.8946
739.578	11759.25474
739.771	11812.03076
739.964	11332.76192
740.156	11690.23106
740.349	11342.92141
740.542	11568.39931
740.735	11576.52245
740.927	11582.61471
741.12	11527.78137
741.313	11604.95229
741.505	11578.55322
741.698	11485.12848
741.891	11383.55691
742.083	11336.82575
742.276	11574.49168
742.468	11606.98292
742.661	11007.52113
742.854	11064.45799
743.046	11005.48751
743.239	11304.31399
743.431	11027.85671
743.624	11157.97863
743.816	10887.51842
744.009	11074.62438
744.201	10795.96415
744.393	11137.64998
744.586	11092.9232
744.778	11344.95328
744.971	11115.28724
745.163	11389.65189
745.355	11302.28192
745.548	11286.02499
745.74	11218.95823
745.932	11320.57019
746.125	11137.64998
746.317	11225.05567
746.509	10946.50771
746.702	11218.95823
746.894	10871.24382
747.086	10942.43979
747.278	11178.30621
747.471	10983.11697
747.663	10787.82485
747.855	11064.45799
748.047	11015.65549
748.239	11320.57019
748.431	10979.04945
748.623	11208.79562
748.815	11005.48751
749.008	11383.55691
749.2	11172.20805
749.392	11145.78157
749.584	11145.78157
749.776	11157.97863
749.968	11046.15779
750.16	11373.39841
750.352	10867.17505
750.544	11113.2542
750.736	11292.12142
750.928	11141.7158
751.12	10844.79602
751.311	10942.43979
751.503	11131.55118
751.695	11068.52458
751.887	10911.92894
752.079	11082.7573
752.271	10909.89479
752.463	11149.8473
752.654	10918.03131
752.846	11241.31506
753.038	10920.06541
753.23	10977.01568
753.421	10787.82485
753.613	10808.17275
753.805	10962.77894
753.997	10869.20944
754.188	10934.30381
754.38	10983.11697
754.572	10767.47577
754.763	10812.24219
754.955	10673.85461
755.146	10818.34626
755.338	10614.81938
755.53	10728.80924
755.721	10879.38121
755.913	11013.62192
756.104	10651.46315
756.296	10578.1716
756.487	10394.87128
756.679	10661.64127
756.87	10219.61868
757.062	10005.5101
757.253	10392.83402
757.445	10335.7855
757.636	10390.79675
757.827	10070.77866
758.019	10521.1559
758.21	10425.42856
758.401	10272.61249
758.593	10358.19865
758.784	10531.338
758.975	10531.338
759.167	10223.69546
759.358	10248.15495
759.549	10168.6544
759.74	10193.11833
759.932	10115.64237
760.123	10164.57688
760.314	10148.26627
760.505	10048.34424
760.696	9768.78675
760.888	9899.41725
761.079	9703.44838
761.27	9903.49847
761.461	10095.25062
761.652	10435.61367
761.843	10023.86836
762.034	9968.7901
762.225	9942.26717
762.416	9911.66075
762.607	9482.81415
762.798	9801.45012
762.989	9981.03062
763.18	10184.9639
763.371	10111.56413
763.562	10146.22738
763.753	10109.52499
763.944	9874.92867
764.135	9901.45787
764.326	10087.09352
764.517	9903.49847
764.708	10040.18584
764.899	9576.81039
765.089	9705.49044
765.28	9678.94245
765.471	9750.41191
765.662	9574.76735
765.853	9756.53699
766.043	9464.41964
766.234	9578.85342
766.425	9360.15925
766.615	10058.54191
766.806	9564.55192
766.997	9443.97975
767.187	9431.71504
767.378	9678.94245
767.569	9286.538
767.759	9443.97975
767.95	9723.8683
768.141	9351.98017
768.331	9335.62122
768.522	9306.9905
768.712	9484.85791
768.903	9503.25099
769.093	9298.8097
769.284	9124.90415
769.474	9417.40548
769.665	9294.7192
769.855	9180.15799
770.046	9300.85493
770.236	9143.32348
770.426	9278.35654
770.617	9374.47201
770.807	9358.1145
770.998	9063.49631
771.188	9049.16557
771.378	8983.64274
771.569	9241.53663
771.759	8778.7668
771.949	9106.48343
772.139	9288.58333
772.33	8836.15016
772.52	8893.51937
772.71	9126.95081
772.9	9008.2159
773.09	9264.03833
773.281	8967.25922
773.471	8975.45112
773.661	9153.55585
773.851	9106.48343
774.041	8754.16957
774.231	8930.39217
774.421	8838.1993
774.611	8684.46308
774.802	8979.54696
774.992	8987.73844
775.182	8975.45112
775.372	8983.64274
775.562	8579.86319
775.752	8745.96991
775.942	8692.66495
776.131	8940.6336
776.321	8764.41874
776.511	8813.60839
776.701	8413.63317
776.891	8604.4793
777.081	8399.26172
777.271	8372.56938
777.461	8456.74186
777.651	8210.29121
777.84	8485.47628
778.03	8403.36795
778.22	8271.93025
778.41	8261.65831
778.599	8325.33644
778.789	8606.53052
778.979	8567.55412
779.169	8721.36916
779.358	8356.1417
779.548	8647.551
779.738	8319.17486
779.927	8520.36307
780.117	8547.0375
780.307	8577.81173
780.496	8327.39026
780.686	8259.60386
780.875	8128.07804
781.065	8335.60535
781.254	7924.46188
781.444	8544.98574
781.633	8339.71277
781.823	8549.08925
782.012	8331.49784
782.202	8436.21497
782.391	8315.06705
782.581	8294.52679
782.77	8247.27676
782.96	8222.62044
783.149	8025.26647
783.338	8107.51976
783.528	8049.94585
783.717	8111.63157
783.906	8232.89425
784.096	8337.65907
784.285	7932.69267
784.474	7988.24191
784.663	7907.99932
784.853	8027.32319
785.042	7726.82355
785.231	8093.12776
785.42	7922.40413
785.61	7924.46188
785.799	7901.82552
785.988	7800.96041
786.177	7514.55844
786.366	7751.53886
786.555	7759.77662
786.744	7605.26243
786.933	7648.5384
787.122	7854.48687
787.312	7724.76381
787.501	7599.07939
787.69	7514.55844
787.879	7790.66525
788.068	7656.78039
788.257	7545.48492
788.445	7463.00355
788.634	8049.94585
788.823	7792.72432
789.012	7792.72432
789.201	7665.02203
789.39	7553.73116
789.579	7603.20144
789.768	7650.59893
789.957	7324.76962
790.145	7693.8651
790.334	7594.95725
790.523	7543.4233
790.712	7514.55844
790.9	7580.52909
791.089	7396.99357
791.278	7662.96165
791.467	7392.8672
791.655	7421.74991
791.844	7442.37782
792.033	7708.28509
792.221	7450.62837
792.41	7450.62837
792.599	7167.84785
792.787	7095.53821
792.976	6905.33625
793.164	6954.97253
793.353	7118.26704
793.541	7310.32162
793.73	7050.07244
793.918	7436.18967
794.107	7107.93609
794.295	6990.1237
794.484	6950.83667
794.672	7176.11007
794.861	7169.91344
795.049	7151.32234
795.238	6965.31179
795.426	6981.85342
795.614	7029.40259
795.803	6944.63271
795.991	6859.82485
796.179	6957.04043
796.368	6748.06837
796.556	6777.04867
796.744	6834.99582
796.932	6965.31179
797.121	6814.30246
797.309	7062.47327
797.497	6894.99371
797.685	6789.46742
797.874	6973.58278
798.062	6884.65061
798.25	6433.13487
798.438	6698.37743
798.626	6837.06504
798.814	6882.58192
799.002	6677.66897
799.19	6743.92796
799.378	6594.81212
799.566	6719.08359
799.755	6648.67326
799.943	6619.67304
800.131	6965.31179
800.318	6942.56468
800.506	6690.09432
800.694	6497.4081
800.882	6329.42124
801.07	6843.27253
801.258	6654.88701
801.446	6723.22455
801.634	6584.45241
801.822	6497.4081
802.01	6337.72047
802.197	6601.02766
802.385	6323.19656
802.573	6586.5244
802.761	6138.43542
802.949	6503.62691
803.136	6545.08028
803.324	6762.55908
803.512	6451.79714
803.699	6779.11851
803.887	6731.50619
804.075	6638.31656
804.262	6623.81621
804.45	6661.10054
804.638	6329.42124
804.825	6563.73128
805.013	6516.06389
805.201	6764.62909
805.388	6491.18909
805.576	6719.08359
805.763	6652.81578
805.951	6596.88399
806.138	6638.31656
806.326	6866.0316
806.513	6623.81621
806.701	6661.10054
806.888	6511.91832
807.075	6569.94786
807.263	6482.89674
807.45	6572.02001
807.638	6505.6998
807.825	6671.45598
808.012	6536.79035
808.2	6507.77266
808.387	6445.57659
808.574	6634.17372
808.761	6536.79035
808.949	6607.24299
809.136	6547.15271
809.323	6569.94786
809.51	6611.38644
809.698	6706.66017
809.885	6383.3596
810.072	6431.06117
810.259	6331.49608
810.446	6443.50303
810.633	6372.98806
810.82	6538.86287
811.008	6563.73128
811.195	6553.36985
811.382	6611.38644
811.569	6737.71718
811.756	6327.34637
811.943	6656.95821
812.13	6690.09432
812.317	6665.24279
812.504	6545.08028
812.691	6667.31388
812.878	6540.93536
813.064	6636.24515
813.251	6460.09088
813.438	6851.54888
813.625	6424.83992
813.812	6559.58678
813.999	6683.88175
814.186	6677.66897
814.372	6283.76875
814.559	6675.598
814.746	6422.76613
814.933	6464.23761
815.12	6482.89674
815.306	6627.95928
815.493	6410.32287
815.68	6619.67304
815.866	6441.42945
816.053	6735.64687
816.24	6677.66897
816.426	6561.65904
816.613	6428.98744
816.799	6702.51884
816.986	6681.81084
817.173	6797.74613
817.359	6422.76613
817.546	6598.95583
817.732	6209.04025
817.919	6696.30669
818.105	6273.39161
818.292	6482.89674
818.478	6453.87061
818.665	6679.73992
818.851	6366.76486
819.037	6582.38041
819.224	6358.46693
819.41	6375.06242
819.597	6103.12283
819.783	6163.35787
819.969	6179.97096
820.156	6364.69041
820.342	6435.20855
820.528	6422.76613
820.714	6354.31783
820.901	6468.38425
821.087	6279.61796
821.273	6441.42945
821.459	6092.73548
821.646	6256.78696
821.832	6103.12283
822.018	6277.54253
822.204	6084.42517
822.39	6350.16863
822.576	6304.52128
822.762	6321.12162
822.948	6327.34637
823.134	6530.57266
823.32	6298.29577
823.507	6391.65641
823.693	6169.58795
823.879	6055.33615
824.065	6094.81299
824.25	6204.88777
824.436	5905.66251
824.622	6223.57317
824.808	6105.20023
824.994	6250.55983
825.18	5999.22285
825.366	6071.95901
825.552	5762.11055
825.738	6098.96796
825.923	5703.82553
826.109	5959.72542
826.295	5597.616
826.481	5774.59779
826.667	5880.70503
826.852	5997.14425
827.038	5597.616
827.224	5889.02457
827.409	5630.94324
827.595	5920.21948
827.781	5660.09963
827.966	6055.33615
828.152	5714.23493
828.338	5735.05195
828.523	5676.75834
828.709	5720.48028
828.894	5714.23493
829.08	5683.00497
829.266	5616.36331
829.451	5876.54511
829.637	5497.59806
829.822	5868.22501
830.008	5574.70001
830.193	5697.57961
830.378	5774.59779
830.564	5926.45783
830.749	5380.84194
830.935	5832.86034
831.12	5549.69751
831.305	5716.31674
831.491	5562.19919
831.676	5880.70503
831.861	5501.76656
832.047	5710.07124
832.232	5483.00758
832.417	5614.28037
832.602	5245.22917
832.788	5489.26078
832.973	5203.48228
833.158	5626.77766
833.343	5134.57953
833.528	5441.31413
833.714	5293.22653
833.899	5578.86677
834.084	5188.86867
834.269	5407.95261
834.454	5299.48615
834.639	5324.52249
834.824	5397.5259
835.009	5253.57742
835.194	5322.43626
835.379	5334.95331
835.564	5163.8141
835.749	5366.24224
835.934	5353.7273
836.119	5330.78105
836.304	4940.26321
836.489	5063.56236
836.674	4825.25128
836.859	5203.48228
837.044	4921.44781
837.228	5126.22596
837.413	4741.56293
837.598	4929.81044
837.783	4695.51889
837.968	4938.1727
838.152	4919.3571
838.337	5132.49118
838.522	5055.20563
838.707	5307.83197
838.891	4714.35641
839.076	4898.4487
839.261	4695.51889
839.445	4938.1727
839.63	4726.91374
839.815	5067.74058
839.999	4869.17309
840.184	5132.49118
840.368	4873.3556
840.553	5243.14204
840.737	4988.33852
840.922	5130.4028
841.106	4829.43475
841.291	4862.89917
841.475	4908.90319
841.66	4929.81044
841.844	4680.86623
842.029	4768.76563
842.213	4712.26344
842.397	4850.35069
842.582	4507.04391
842.766	4921.44781
842.951	4620.15061
843.135	4950.7154
843.319	4689.23931
843.504	4798.05656
843.688	4615.96263
843.872	4523.80454
844.056	4379.19782
844.241	4638.9954
844.425	4305.80689
844.609	4720.63518
844.793	4664.11898
844.977	4578.2668
845.161	4265.95504
845.346	4431.60362
845.53	4261.75966
845.714	4555.22691
845.898	4014.08259
846.082	4446.27479
846.266	4165.24237
846.45	4488.18651
846.634	4251.27083
846.818	4324.68137
847.002	4112.76857
847.186	4330.97248
847.37	4056.08221
847.554	4198.81869
847.738	4053.98243
847.922	4295.32031
848.106	4282.73571
848.29	4249.173
848.473	4102.27224
848.657	4314.19576
848.841	4326.77843
849.025	4448.37059
849.209	4047.68295
849.392	4203.01535
849.576	3986.77842
849.76	4022.48317
849.944	3948.96696
850.127	4209.31018
850.311	3812.37123
850.495	4041.38328
850.678	3902.74403
850.862	4108.5701
851.046	4032.98344
851.229	4058.18198
851.413	3776.63236
851.596	3961.57151
851.78	3885.93328
851.964	4106.47084
852.147	3625.20565
852.331	3816.57543
852.514	3782.93963
852.698	3890.13609
852.881	3774.5299
853.065	4053.98243
853.248	3778.7348
853.431	4154.74866
853.615	3873.32437
853.798	3883.83184
853.982	3799.75816
854.165	3747.1961
854.348	3562.08215
854.532	3961.57151
854.715	3604.16635
854.898	3597.8542
855.081	3581.02096
855.265	3665.17512
855.448	3559.97774
855.631	3789.24673
855.814	3503.15183
855.997	3684.10563
856.181	3414.72965
856.364	3549.45544
856.547	3656.76106
856.73	3770.32491
856.913	3534.72344
857.096	3646.24307
857.279	3324.16976
857.462	3496.83702
857.645	3170.35615
857.828	3404.2011
858.011	3414.72965
858.194	3298.89151
858.377	3362.08248
858.56	3515.78097
858.743	3679.89898
858.926	3690.41545
859.109	3492.62705
859.292	3646.24307
859.475	3317.85043
859.658	3612.5823
859.841	3258.86258
860.023	3189.32426
860.206	3395.77794
860.389	3359.97637
860.572	3123.9841
860.755	3282.03797
860.937	3071.2792
861.12	3465.2605
861.303	3242.00648
861.486	3509.46648
861.668	3136.63179
861.851	3204.07633
862.034	3109.22773
862.216	3189.32426
862.399	3073.38758
862.581	3022.78205
862.764	2816.05331
862.947	3026.99951
863.129	2854.0343
863.312	3075.49595
863.494	2849.81441
863.677	2862.4739
863.859	2727.41373
864.042	3035.43427
864.224	2628.19434
864.406	2957.40352
864.589	2564.84842
864.771	2718.97063
864.954	2706.3056
865.136	2845.59447
865.318	2733.74591
865.501	2710.52733
865.683	2832.93431
865.865	3039.65155
866.048	2839.26445
866.23	2984.82209
866.412	2843.48448
866.594	2839.26445
866.777	2611.30317
866.959	3005.91156
867.141	2577.51847
867.323	2735.85661
867.505	2617.63745
867.687	2754.85233
867.869	2533.17143
868.052	2811.83292
868.234	2659.86316
868.416	2816.05331
868.598	2678.86309
868.78	2782.28867
868.962	2651.41842
869.144	2898.33965
869.326	2588.07652
869.508	2689.41816
869.69	2509.93998
869.872	2702.08382
870.054	2484.59501
870.236	2526.83572
870.417	2592.29966
870.599	2689.41816
870.781	2414.88816
870.963	2596.52274
871.145	2670.4188
871.327	2723.19221
871.508	2410.66313
871.69	2581.74173
871.872	2450.79923
872.054	2697.86198
872.235	2461.36071
872.417	2619.74885
872.599	2469.8097
872.78	2623.97162
872.962	2307.13707
873.144	2507.82796
873.325	2427.56301
873.507	2642.97347
873.689	2419.11315
873.87	2539.50704
874.052	2440.23747
874.233	2374.74866
874.415	2372.63596
874.596	2577.51847
874.778	2343.05699
874.959	2383.19939
875.141	2317.70204
875.322	2448.6869
875.503	2321.92796
875.685	2579.63011
875.866	2495.15561
876.048	2349.3955
876.229	2402.21294
876.41	2389.53733
876.592	2207.815
876.773	2516.27597
876.954	2347.28267
877.136	2408.5506
877.317	2279.66703
877.498	2425.45056
877.679	2258.53516
877.86	2431.78787
878.042	2237.40238
878.223	2474.03413
878.404	2309.25008
878.585	2547.95435
878.766	2292.34571
878.947	2588.07652
879.128	2482.48286
879.309	2493.04352
879.49	2381.08673
879.672	2672.52989
879.853	2305.02405
880.034	2581.74173
880.215	2294.45879
880.396	2374.74866
880.576	2402.21294
880.757	2526.83572
880.938	2220.49552
881.119	2535.28331
881.3	2486.70716
881.481	2647.19597
881.662	2448.6869
881.843	2488.81929
882.023	2233.17572
882.204	2330.37969
882.385	2362.07226
882.566	2528.94764
882.747	2332.4926
882.927	2463.47298
883.108	2307.13707
883.289	2482.48286
883.469	2167.65802
883.65	2423.3381
883.831	2372.63596
884.011	2383.19939
884.192	2359.9595
884.373	2550.06615
884.553	2370.52324
884.734	2400.10036
884.914	2321.92796
885.095	2509.93998
885.275	2157.0899
885.456	2495.15561
885.636	2400.10036
885.817	2562.7367
885.997	2343.05699
886.178	2535.28331
886.358	2262.76161
886.538	2431.78787
886.719	2397.98778
886.899	2522.61185
887.08	2254.30867
887.26	2474.03413
887.44	2222.60891
887.621	2440.23747
887.801	2114.81541
887.981	2444.46221
888.161	2465.58523
888.342	2425.45056
888.522	2417.00066
888.702	2619.74885
888.882	2338.83126
889.062	2389.53733
889.242	2302.91101
889.423	2575.40683
889.603	2427.56301
889.783	2619.74885
889.963	2402.21294
890.143	2541.61889
890.323	2207.815
890.503	2463.47298
890.683	2150.74893
890.863	2376.86136
891.043	2186.68013
891.223	2474.03413
891.403	2068.30993
891.583	2499.37978
891.763	2068.30993
891.943	2239.5157
892.122	2135.95305
892.302	2431.78787
892.482	2296.57186
892.662	2347.28267
892.842	2338.83126
893.022	2461.36071
893.201	2061.968
893.381	2315.58907
893.561	2135.95305
893.741	2313.47608
893.92	2034.48557
894.1	2440.23747
894.28	2252.19542
894.459	2288.11952
894.639	2218.38212
894.819	2446.57456
894.998	2237.40238
895.178	2321.92796
895.357	2271.21439
895.537	2119.043
895.716	2036.59964
895.896	2305.02405
896.075	1992.20267
896.255	2264.87482
896.434	2026.0292
896.614	2190.90717
896.793	1801.90066
896.973	2273.32756
897.152	2004.88781
897.331	2216.26871
897.511	1890.71363
897.69	2068.30993
897.87	1850.53738
898.049	2011.2303
898.228	1865.33937
898.407	1831.50591
898.587	1865.33937
898.766	2059.85401
898.945	1719.42468
899.124	1884.37013
899.304	1856.88112
899.483	1966.83169
899.662	1590.41425
899.841	1772.29457
900.02	1797.67127
900.199	1833.62054
900.378	1774.40932
900.557	1808.24471
900.737	1723.65435
900.916	1850.53738
901.095	1708.85044
901.274	1782.86827
901.453	1681.35705
901.632	1801.90066
901.811	1679.24216
901.989	1696.16125
902.168	1581.95425
902.347	2011.2303
902.526	1588.29925
902.705	1698.27612
902.884	1459.28226
903.063	1503.69829
903.242	1408.52104
903.42	1630.5988
903.599	1425.44143
903.778	1581.95425
903.957	1461.39731
904.135	1704.62072
904.314	1442.36184
904.493	1647.51838
904.672	1391.60069
904.85	1425.44143
905.029	1334.49497
905.207	1450.82205
905.386	1226.63219
905.565	1505.81334
905.743	1307
905.922	1524.8487
906.1	1213.9429
906.279	1281.62031
906.457	1095.516
906.636	1370.45033
906.814	1108.20395
906.993	1256.24095
907.171	1129.35091
907.35	1307
907.528	1158.9574
907.707	1192.79434
907.885	1123.00677
908.063	1224.5173
908.242	1072.25523
908.42	1044.76605
908.598	869.28389
908.777	985.56195
908.955	947.50485
909.133	1036.30803
909.311	926.36301
909.49	1197.02402
909.668	968.64741
909.846	1006.70571
910.024	934.81966
910.202	1125.12148
910.38	1027.8501
910.559	1156.84262
910.737	888.30962
910.915	1129.35091
911.093	1044.76605
911.271	1139.92456
911.449	1068.02606
911.627	1154.72785
911.805	920.02061
911.983	962.30457
912.161	920.02061
912.339	1137.80982
912.517	968.64741
912.695	1142.0393
912.872	1070.14064
913.05	1188.56467
913.228	1099.7453
913.406	1097.63065
913.584	1053.22416
913.762	1224.5173
913.939	1087.05747
914.117	1019.39227
914.295	907.336
914.473	1106.08928
914.65	994.01938
914.828	943.27643
915.006	951.73331
915.184	1101.85995
915.361	1015.1634
915.539	966.53312
915.716	892.53765
915.894	1076.48441
916.072	941.16222
916.249	981.33327
916.427	1040.53703
916.604	1129.35091
916.782	960.1903
916.959	1044.76605
917.137	955.96179
917.314	1002.47691
917.492	890.42363
917.669	1015.1634
917.847	803.75619
918.024	943.27643
918.201	816.43829
918.379	943.27643
918.556	911.56417
918.733	947.50485
918.911	884.08162
919.088	960.1903
919.265	820.66573
919.442	1019.39227
919.62	772.05243
919.797	934.81966
919.974	833.34828
920.151	835.46207
920.328	850.25884
920.506	791.07442
920.683	827.00696
920.86	846.03115
921.037	672.72903
921.214	958.07604
921.391	714.99138
921.568	757.2581
921.745	628.35855
921.922	742.46427
922.099	723.44439
922.276	824.89321
922.453	645.26097
922.63	850.25884
922.807	670.61603
922.984	689.63343
923.161	698.0859
923.338	674.84204
923.514	592.44357
923.691	791.07442
923.868	581.88105
924.045	723.44439
924.222	647.37382
924.399	723.44439
924.575	533.29774
924.752	850.25884
924.929	698.0859
925.105	712.87816
925.282	404.48342
925.459	588.21852
925.635	463.6043
925.812	539.63428
925.989	419.26247
926.165	552.30774
926.342	522.73711
926.518	503.72888
926.695	503.72888
926.871	579.76858
927.048	467.82768
927.224	571.31885
927.401	465.71598
927.577	495.28116
927.754	474.16288
927.93	469.9394
928.107	431.93086
928.283	541.74649
928.459	474.16288
928.636	564.98169
928.812	410.8172
928.988	512.17684
929.165	474.16288
929.341	410.8172
929.517	469.9394
929.693	514.28887
929.87	434.04231
930.046	351.7077
930.222	322.15797
930.398	446.71136
930.574	334.82172
930.751	406.59467
930.927	423.48521
931.103	453.0461
931.279	389.70517
931.455	383.37188
931.631	301.05315
931.807	328.48976
931.983	347.4861
932.159	343.26457
932.335	358.04023
932.511	330.6004
932.687	347.4861
932.863	377.03874
933.039	311.60534
933.215	322.15797
933.391	195.55718
933.566	244.07936
933.742	383.37188
933.918	322.15797
934.094	182.90097
934.27	305.27397
934.445	195.55718
934.621	279.95016
934.797	235.63997
934.973	220.8718
935.148	109.088
935.324	288.39113
935.5	254.62902
935.675	210.32369
935.851	203.99507
936.027	284.17061
936.202	151.26366
936.378	161.80891
936.553	161.80891
936.729	104.87091
936.904	88.00344
937.08	157.59075
937.255	147.04571
937.431	64.813
937.606	136.50121
937.782	140.71894
937.957	159.69982
938.133	132.28355
938.308	94.32857
938.483	106.97945
938.659	147.04571
938.834	52.16483
939.009	157.59075
939.185	90.11179
939.36	56.38079
939.535	149.15468
939.71	85.8951
939.886	115.4138
940.061	111.19658
940.236	90.11179
940.411	92.22017
940.586	79.57023
940.761	90.11179
940.937	45.84105
941.112	33.19413
941.287	24.76332
941.462	26.87099
941.637	60.59685
941.812	66.92111
941.987	47.94895
942.162	28.97868
942.337	85.8951
942.512	90.11179
942.687	-2.6342
942.862	52.16483
943.037	35.30189
943.212	102.7624
943.386	20.54805
943.561	56.38079
943.736	-15.27784
943.911	58.48881
944.086	-61.63024
944.26	47.94895
944.435	58.48881
944.61	33.19413
944.785	75.35377
944.959	33.19413
945.134	1.58054
945.309	3.68794
945.483	37.40968
945.658	60.59685
945.833	47.94895
946.007	43.73317
946.182	1.58054
946.357	14.22533
946.531	90.11179
946.706	41.62532
946.88	22.65567
947.055	31.08639
947.229	60.59685
947.404	77.46199
947.578	16.33288
947.752	14.22533
947.927	43.73317
948.101	132.28355
948.276	35.30189
948.45	10.01031
948.624	28.97868
948.799	1.58054
948.973	56.38079
949.147	50.05688
949.321	98.54544
949.496	33.19413
949.67	33.19413
949.844	-17.38502
950.018	-11.06339
950.193	77.46199
950.367	119.63111
950.541	5.79537
950.715	26.87099
950.889	31.08639
951.063	64.813
951.237	16.33288
951.411	56.38079
951.585	64.813
951.759	39.51749
951.933	47.94895
952.107	73.24557
952.281	56.38079
952.455	92.22017
952.629	35.30189
952.803	52.16483
952.977	69.02924
953.151	10.01031
953.325	-27.92059
953.499	69.02924
953.672	81.6785
953.846	79.57023
954.02	24.76332
954.194	24.76332
954.368	41.62532
954.541	79.57023
954.715	66.92111
954.889	100.65391
955.062	12.11781
955.236	73.24557
955.41	100.65391
955.583	66.92111
955.757	39.51749
955.93	52.16483
956.104	90.11179
956.278	47.94895
956.451	106.97945
956.625	69.02924
956.798	58.48881
956.972	47.94895
957.145	28.97868
957.319	43.73317
957.492	26.87099
957.665	16.33288
957.839	-23.70644
958.012	111.19658
958.185	88.00344
958.359	58.48881
958.532	39.51749
958.705	33.19413
958.879	69.02924
959.052	117.52244
959.225	14.22533
959.398	64.813
959.572	47.94895
959.745	-6.84884
959.918	52.16483
960.091	47.94895
960.264	5.79537
960.438	81.6785
960.611	-13.17063
960.784	92.22017
960.957	33.19413
961.13	106.97945
961.303	100.65391
961.476	60.59685
961.649	-53.20343
961.822	100.65391
961.995	66.92111
962.168	18.44046
962.341	-8.95613
962.514	88.00344
962.686	58.48881
962.859	31.08639
963.032	100.65391
963.205	60.59685
963.378	64.813
963.551	52.16483
963.723	71.13739
963.896	98.54544
964.069	-0.52684
964.242	77.46199
964.414	47.94895
964.587	66.92111
964.76	16.33288
964.932	14.22533
965.105	10.01031
965.278	24.76332
965.45	-13.17063
965.623	69.02924
965.795	77.46199
965.968	24.76332
966.14	77.46199
966.313	64.813
966.485	69.02924
966.658	81.6785
966.83	41.62532
967.003	43.73317
967.175	58.48881
967.348	18.44046
967.52	41.62532
967.692	1.58054
967.865	64.813
968.037	52.16483
968.209	1.58054
968.382	-13.17063
968.554	43.73317
968.726	75.35377
968.898	81.6785
969.071	12.11781
969.243	102.7624
969.415	64.813
969.587	22.65567
969.759	5.79537
969.932	69.02924
970.104	47.94895
970.276	-8.95613
970.448	-19.49219
970.62	54.2728
970.792	-19.49219
970.964	39.51749
971.136	33.19413
971.308	50.05688
971.48	28.97868
971.652	-11.06339
971.824	24.76332
971.996	14.22533
972.168	83.78679
972.339	39.51749
972.511	-15.27784
972.683	60.59685
972.855	83.78679
973.027	64.813
973.199	5.79537
973.37	115.4138
973.542	-40.56246
973.714	54.2728
973.886	22.65567
974.057	33.19413
974.229	14.22533
974.401	73.24557
974.572	-86.90822
974.744	35.30189
974.915	14.22533
975.087	98.54544
975.259	28.97868
975.43	16.33288
975.602	24.76332
975.773	64.813
975.945	10.01031
976.116	43.73317
976.288	100.65391
976.459	47.94895
976.63	39.51749
976.802	81.6785
976.973	56.38079
977.145	66.92111
977.316	58.48881
977.487	81.6785
977.659	16.33288
977.83	22.65567
978.001	7.90283
978.172	-2.6342
978.344	33.19413
978.515	43.73317
978.686	64.813
978.857	79.57023
979.028	52.16483
979.2	50.05688
979.371	39.51749
979.542	77.46199
979.713	22.65567
979.884	-19.49219
980.055	-36.3486
980.226	73.24557
980.397	73.24557
980.568	83.78679
980.739	77.46199
980.91	43.73317
981.081	-19.49219
981.252	-27.92059
981.423	22.65567
981.594	-6.84884
981.765	56.38079
981.936	50.05688
982.106	52.16483
982.277	62.70491
982.448	81.6785
982.619	45.84105
982.79	-2.6342
982.96	71.13739
983.131	18.44046
983.302	24.76332
983.472	-0.52684
983.643	-97.43961
983.814	-2.6342
983.984	102.7624
984.155	-8.95613
984.326	18.44046
984.496	20.54805
984.667	66.92111
984.837	-21.59933
985.008	71.13739
985.178	22.65567
985.349	-74.26969
985.519	26.87099
985.69	-53.20343
985.86	14.22533
986.031	-63.73688
986.201	-25.81353
986.371	-11.06339
986.542	39.51749
986.712	-27.92059
986.882	-11.06339
987.053	-8.95613
987.223	39.51749
987.393	-51.09666
987.563	14.22533
987.734	16.33288
987.904	66.92111
988.074	60.59685
988.244	50.05688
988.414	45.84105
988.585	60.59685
988.755	56.38079
988.925	56.38079
989.095	-15.27784
989.265	-11.06339
989.435	14.22533
989.605	35.30189
989.775	-2.6342
989.945	-11.06339
990.115	52.16483
990.285	66.92111
990.455	3.68794
990.625	-44.77622
990.795	-19.49219
990.965	69.02924
991.134	-36.3486
991.304	85.8951
991.474	-19.49219
991.644	7.90283
991.814	-57.41689
991.984	-8.95613
992.153	-2.6342
992.323	-0.52684
992.493	-8.95613
992.662	28.97868
992.832	-0.52684
993.002	1.58054
993.171	60.59685
993.341	22.65567
993.511	52.16483
993.68	22.65567
993.85	45.84105
994.019	5.79537
994.189	50.05688
994.358	-32.13465
994.528	64.813
994.697	18.44046
994.867	-23.70644
995.036	20.54805
995.206	31.08639
995.375	10.01031
995.544	10.01031
995.714	-36.3486
995.883	20.54805
996.052	-38.45555
996.222	98.54544
996.391	-19.49219
996.56	-2.6342
996.73	-2.6342
996.899	-8.95613
997.068	-2.6342
997.237	12.11781
997.406	-23.70644
997.576	-2.6342
997.745	-13.17063
997.914	-19.49219
998.083	-38.45555
998.252	43.73317
998.421	5.79537
998.59	16.33288
998.759	-8.95613
998.928	-36.3486
999.097	54.2728
999.266	45.84105
999.435	-44.77622
999.604	-72.16318
999.773	5.79537
999.942	22.65567
1000.111	-19.49219
1000.28	28.97868
1000.448	47.94895
1000.617	-27.92059
1000.786	56.38079
1000.955	18.44046
1001.124	-2.6342
1001.292	83.78679
1001.461	37.40968
1001.63	28.97868
1001.798	3.68794
1001.967	-25.81353
1002.136	3.68794
1002.304	16.33288
1002.473	18.44046
1002.642	-63.73688
1002.81	35.30189
1002.979	-70.05664
1003.147	-19.49219
1003.316	24.76332
1003.484	16.33288
1003.653	73.24557
1003.821	39.51749
1003.99	-4.74153
1004.158	-19.49219
1004.327	1.58054
1004.495	-84.80186
1004.663	31.08639
1004.832	20.54805
1005	-2.6342
1005.168	-19.49219
1005.337	24.76332
1005.505	56.38079
1005.673	14.22533
1005.842	-34.24164
1006.01	41.62532
1006.178	47.94895
1006.346	-84.80186
1006.514	-0.52684
1006.683	-11.06339
1006.851	-2.6342
1007.019	56.38079
1007.187	-30.02763
1007.355	45.84105
1007.523	33.19413
1007.691	-19.49219
1007.859	-76.37618
1008.027	14.22533
1008.195	3.68794
1008.363	54.2728
1008.531	20.54805
1008.699	7.90283
1008.867	22.65567
1009.035	-27.92059
1009.203	64.813
1009.37	-25.81353
1009.538	37.40968
1009.706	-40.56246
1009.874	-15.27784
1010.042	-19.49219
1010.209	45.84105
1010.377	-13.17063
1010.545	56.38079
1010.713	50.05688
1010.88	-2.6342
1011.048	31.08639
1011.216	1.58054
1011.383	14.22533
1011.551	26.87099
1011.718	-4.74153
1011.886	-11.06339
1012.054	1.58054
1012.221	-8.95613
1012.389	47.94895
1012.556	39.51749
1012.724	22.65567
1012.891	12.11781
1013.058	-51.09666
1013.226	92.22017
1013.393	83.78679
1013.561	1.58054
1013.728	-36.3486
1013.895	47.94895
1014.063	-27.92059
1014.23	39.51749
1014.397	-8.95613
1014.565	58.48881
1014.732	-40.56246
1014.899	31.08639
1015.066	35.30189
1015.233	7.90283
1015.401	45.84105
1015.568	-4.74153
1015.735	12.11781
1015.902	5.79537
1016.069	-17.38502
1016.236	12.11781
1016.403	-0.52684
1016.57	-65.84349
1016.737	-19.49219
1016.904	66.92111
1017.071	92.22017
1017.238	3.68794
1017.405	22.65567
1017.572	-11.06339
1017.739	81.6785
1017.906	-27.92059
1018.073	1.58054
1018.24	12.11781
1018.407	-86.90822
1018.573	-6.84884
1018.74	64.813
1018.907	1.58054
1019.074	-6.84884
1019.241	-30.02763
1019.407	-11.06339
1019.574	24.76332
1019.741	14.22533
1019.907	60.59685
1020.074	-84.80186
1020.241	-11.06339
1020.407	-84.80186
1020.574	24.76332
1020.74	-11.06339
1020.907	-57.41689
1021.073	35.30189
1021.24	5.79537
1021.406	7.90283
1021.573	64.813
1021.739	-0.52684
1021.906	16.33288
1022.072	-19.49219
1022.239	24.76332
1022.405	90.11179
1022.571	22.65567
1022.738	28.97868
1022.904	7.90283
1023.07	-46.88306
1023.237	-59.52357
1023.403	66.92111
1023.569	-11.06339
1023.735	24.76332
1023.902	-6.84884
1024.068	-15.27784
1024.234	12.11781
1024.4	-42.66935
1024.566	26.87099
1024.732	-6.84884
1024.898	-25.81353
1025.065	45.84105
1025.231	-34.24164
1025.397	14.22533
1025.563	-4.74153
1025.729	75.35377
1025.895	-76.37618
1026.061	26.87099
1026.227	-70.05664
1026.392	12.11781
1026.558	39.51749
1026.724	-27.92059
1026.89	10.01031
1027.056	22.65567
1027.222	69.02924
1027.388	-36.3486
1027.553	77.46199
1027.719	14.22533
1027.885	-8.95613
1028.051	39.51749
1028.216	-27.92059
1028.382	31.08639
1028.548	64.813
1028.713	-48.98987
1028.879	10.01031
1029.045	92.22017
1029.21	31.08639
1029.376	-38.45555
1029.541	-53.20343
1029.707	-42.66935
1029.873	37.40968
1030.038	22.65567
1030.204	-44.77622
1030.369	-32.13465
1030.534	45.84105
1030.7	-61.63024
1030.865	-46.88306
1031.031	56.38079
1031.196	-44.77622
1031.361	31.08639
1031.527	-67.95008
1031.692	22.65567
1031.857	-0.52684
1032.023	-51.09666
1032.188	39.51749
1032.353	-13.17063
1032.518	-27.92059
1032.684	-8.95613
1032.849	24.76332
1033.014	60.59685
1033.179	22.65567
1033.344	14.22533
1033.509	-36.3486
1033.674	12.11781
1033.839	-6.84884
1034.004	41.62532
1034.17	-40.56246
1034.335	81.6785
1034.5	14.22533
1034.664	52.16483
1034.829	31.08639
1034.994	-63.73688
1035.159	-15.27784
1035.324	39.51749
1035.489	-61.63024
1035.654	7.90283
1035.819	-15.27784
1035.984	-11.06339
1036.148	-2.6342
1036.313	-6.84884
1036.478	-27.92059
1036.643	-17.38502
1036.807	14.22533
1036.972	7.90283
1037.137	31.08639
1037.301	31.08639
1037.466	-23.70644
1037.631	-2.6342
1037.795	5.79537
1037.96	7.90283
1038.124	64.813
1038.289	-53.20343
1038.454	-65.84349
1038.618	-36.3486
1038.783	-27.92059
1038.947	22.65567
1039.111	-2.6342
1039.276	50.05688
1039.44	-4.74153
1039.605	7.90283
1039.769	18.44046
1039.933	-59.52357
1040.098	-2.6342
1040.262	3.68794
1040.426	-23.70644
1040.591	1.58054
1040.755	24.76332
1040.919	-2.6342
1041.083	-32.13465
1041.248	-15.27784
1041.412	-27.92059
1041.576	81.6785
1041.74	-25.81353
1041.904	45.84105
1042.068	-27.92059
1042.232	-2.6342
1042.397	10.01031
1042.561	31.08639
1042.725	16.33288
1042.889	7.90283
1043.053	-32.13465
1043.217	31.08639
1043.381	-57.41689
1043.544	71.13739
1043.708	-17.38502
1043.872	24.76332
1044.036	14.22533
1044.2	22.65567
1044.364	-61.63024
1044.528	24.76332
1044.691	-23.70644
1044.855	16.33288
1045.019	16.33288
1045.183	7.90283
1045.346	22.65567
1045.51	-25.81353
1045.674	14.22533
1045.837	5.79537
1046.001	-42.66935
1046.165	-11.06339
1046.328	66.92111
1046.492	-44.77622
1046.655	-65.84349
1046.819	-23.70644
1046.983	28.97868
1047.146	56.38079
1047.31	-48.98987
1047.473	-13.17063
1047.636	-55.31017
1047.8	-53.20343
1047.963	14.22533
1048.127	-36.3486
1048.29	22.65567
