Data from absorb_only_2.23.25_USB4F045381__45__0150.txt Node

Date: Sun Feb 23 19:21:00 EST 2025
User: ssocol
Spectrometer: USB4F04538
Trigger mode: 4
Integration Time (sec): 2.600000E-3
Scans to average: 1
Electric dark correction enabled: true
Nonlinearity correction enabled: true
Boxcar width: 0
XAxis mode: Wavelengths
Number of Pixels in Spectrum: 3648
>>>>>Begin Spectral Data<<<<<
345.52	-83.39761
345.736	-83.39761
345.952	-83.39761
346.168	13.52282
346.384	21.95313
346.6	13.52282
346.816	-9.65855
347.032	-18.08741
347.248	-45.4785
347.464	38.81488
347.68	13.52282
347.896	51.46218
348.112	-32.83698
348.328	30.38382
348.544	24.06077
348.76	-24.40881
348.975	-41.26476
349.191	19.84552
349.407	-5.44397
349.623	-30.72997
349.839	-18.08741
350.055	-7.55127
350.27	-53.90568
350.486	-3.33665
350.702	-26.51589
350.918	-64.43909
351.133	-15.98024
351.349	-22.3017
351.565	-37.05092
351.781	-24.40881
351.996	24.06077
352.212	51.46218
352.428	-53.90568
352.644	-58.11912
352.859	-7.55127
353.075	15.63036
353.291	5.09289
353.506	-56.01241
353.722	21.95313
353.938	-18.08741
354.153	-22.3017
354.369	9.30781
354.584	-56.01241
354.8	30.38382
355.016	-47.58533
355.231	-9.65855
355.447	-24.40881
355.662	-18.08741
355.878	2.98547
356.093	68.32652
356.309	9.30781
356.524	-45.4785
356.74	-77.07833
356.955	-37.05092
357.171	-9.65855
357.386	43.03055
357.602	47.24632
357.817	-5.44397
358.033	26.16843
358.248	-5.44397
358.464	-7.55127
358.679	26.16843
358.895	-77.07833
359.11	85.19233
359.325	-15.98024
359.541	-7.55127
359.756	-20.19457
359.972	-7.55127
360.187	26.16843
360.402	-13.87303
360.618	-11.7658
360.833	-32.83698
361.048	-45.4785
361.264	9.30781
361.479	30.38382
361.694	-49.69214
361.909	0.87808
362.125	-18.08741
362.34	17.73793
362.555	-49.69214
362.77	-117.09646
362.986	-11.7658
363.201	-83.39761
363.416	21.95313
363.631	-13.87303
363.847	2.98547
364.062	-9.65855
364.277	-81.29121
364.492	24.06077
364.707	40.92271
364.922	-18.08741
365.138	-7.55127
365.353	43.03055
365.568	17.73793
365.783	34.5993
365.998	-15.98024
366.213	-13.87303
366.428	-106.56629
366.643	15.63036
366.858	13.52282
367.073	7.20034
367.288	17.73793
367.503	-28.62294
367.718	51.46218
367.933	66.2184
368.148	38.81488
368.363	-7.55127
368.578	45.13842
368.793	19.84552
369.008	-24.40881
369.223	9.30781
369.438	-13.87303
369.653	2.98547
369.868	-98.14168
370.083	19.84552
370.298	30.38382
370.513	-56.01241
370.728	34.5993
370.943	2.98547
371.157	24.06077
371.372	-3.33665
371.587	-15.98024
371.802	-83.39761
372.017	-20.19457
372.232	24.06077
372.446	2.98547
372.661	38.81488
372.876	11.4153
373.091	-3.33665
373.306	-24.40881
373.52	2.98547
373.735	-5.44397
373.95	-7.55127
374.165	38.81488
374.379	-68.65227
374.594	-72.86535
374.809	-22.3017
375.023	-11.7658
375.238	-32.83698
375.453	-22.3017
375.667	66.2184
375.882	-32.83698
376.097	-87.61033
376.311	9.30781
376.526	-108.67238
376.741	-13.87303
376.955	55.67812
377.17	-47.58533
377.384	-70.75882
377.599	-3.33665
377.813	-45.4785
378.028	-13.87303
378.242	-7.55127
378.457	-72.86535
378.672	59.89417
378.886	26.16843
379.101	5.09289
379.315	5.09289
379.53	43.03055
379.744	-41.26476
379.958	0.87808
380.173	17.73793
380.387	53.57014
380.602	-37.05092
380.816	-22.3017
381.031	-68.65227
381.245	-7.55127
381.459	-32.83698
381.674	-1.2293
381.888	-1.2293
382.103	26.16843
382.317	2.98547
382.531	-15.98024
382.746	-58.11912
382.96	32.49155
383.174	-32.83698
383.388	78.86748
383.603	-89.71665
383.817	-28.62294
384.031	21.95313
384.246	-7.55127
384.46	72.54284
384.674	-79.18478
384.888	-11.7658
385.103	21.95313
385.317	-58.11912
385.531	-24.40881
385.745	53.57014
385.959	45.13842
386.174	-39.15785
386.388	-96.03546
386.602	-7.55127
386.816	-39.15785
387.03	2.98547
387.244	-39.15785
387.458	17.73793
387.672	76.75925
387.887	-20.19457
388.101	-15.98024
388.315	62.00222
388.529	7.20034
388.743	47.24632
388.957	-15.98024
389.171	-66.54569
389.385	64.1103
389.599	-5.44397
389.813	-49.69214
390.027	11.4153
390.241	-13.87303
390.455	-3.33665
390.669	-81.29121
390.883	13.52282
391.097	19.84552
391.311	-43.37164
391.525	89.40901
391.738	9.30781
391.952	-32.83698
392.166	-70.75882
392.38	11.4153
392.594	51.46218
392.808	9.30781
393.022	-30.72997
393.236	13.52282
393.449	13.52282
393.663	-18.08741
393.877	-39.15785
394.091	11.4153
394.305	76.75925
394.518	13.52282
394.732	-72.86535
394.946	17.73793
395.16	-5.44397
395.373	11.4153
395.587	-11.7658
395.801	-39.15785
396.015	-66.54569
396.228	38.81488
396.442	0.87808
396.656	5.09289
396.869	-37.05092
397.083	13.52282
397.297	-3.33665
397.51	-66.54569
397.724	47.24632
397.938	30.38382
398.151	-39.15785
398.365	5.09289
398.578	32.49155
398.792	-7.55127
399.005	53.57014
399.219	-58.11912
399.433	93.62577
399.646	-15.98024
399.86	-18.08741
400.073	2.98547
400.287	19.84552
400.5	-49.69214
400.714	15.63036
400.927	0.87808
401.141	30.38382
401.354	28.27611
401.567	-49.69214
401.781	-11.7658
401.994	-15.98024
402.208	62.00222
402.421	32.49155
402.635	5.09289
402.848	19.84552
403.061	45.13842
403.275	30.38382
403.488	11.4153
403.701	45.13842
403.915	-15.98024
404.128	-20.19457
404.341	2.98547
404.555	-7.55127
404.768	-15.98024
404.981	-13.87303
405.195	30.38382
405.408	9.30781
405.621	13.52282
405.834	-37.05092
406.048	11.4153
406.261	7.20034
406.474	76.75925
406.687	11.4153
406.9	-56.01241
407.114	-3.33665
407.327	-32.83698
407.54	0.87808
407.753	-3.33665
407.966	-43.37164
408.179	76.75925
408.392	13.52282
408.605	49.35423
408.819	38.81488
409.032	-41.26476
409.245	2.98547
409.458	9.30781
409.671	-34.94396
409.884	-37.05092
410.097	-5.44397
410.31	-11.7658
410.523	-22.3017
410.736	-37.05092
410.949	-83.39761
411.162	-43.37164
411.375	9.30781
411.588	-26.51589
411.801	-20.19457
412.014	55.67812
412.227	-41.26476
412.44	-7.55127
412.653	-22.3017
412.865	-5.44397
413.078	-56.01241
413.291	-37.05092
413.504	-15.98024
413.717	59.89417
413.93	-45.4785
414.143	62.00222
414.356	-74.97185
414.568	11.4153
414.781	51.46218
414.994	62.00222
415.207	-47.58533
415.42	28.27611
415.632	-9.65855
415.845	-15.98024
416.058	-11.7658
416.271	17.73793
416.483	-39.15785
416.696	9.30781
416.909	53.57014
417.121	-32.83698
417.334	-7.55127
417.547	-37.05092
417.759	13.52282
417.972	30.38382
418.185	-22.3017
418.397	21.95313
418.61	57.78613
418.823	64.1103
419.035	5.09289
419.248	-37.05092
419.46	15.63036
419.673	-70.75882
419.885	26.16843
420.098	-13.87303
420.311	26.16843
420.523	9.30781
420.736	-32.83698
420.948	-7.55127
421.161	5.09289
421.373	-3.33665
421.586	49.35423
421.798	47.24632
422.01	-13.87303
422.223	9.30781
422.435	-28.62294
422.648	95.73419
422.86	68.32652
423.073	30.38382
423.285	83.08402
423.497	9.30781
423.71	9.30781
423.922	89.40901
424.134	-47.58533
424.347	43.03055
424.559	-60.2258
424.771	28.27611
424.984	9.30781
425.196	146.34273
425.408	17.73793
425.621	32.49155
425.833	49.35423
426.045	-53.90568
426.257	-43.37164
426.47	51.46218
426.682	70.43467
426.894	26.16843
427.106	2.98547
427.318	-5.44397
427.531	64.1103
427.743	-62.33245
427.955	-37.05092
428.167	-49.69214
428.379	51.46218
428.591	17.73793
428.804	17.73793
429.016	49.35423
429.228	-32.83698
429.44	9.30781
429.652	-41.26476
429.864	-13.87303
430.076	-49.69214
430.288	28.27611
430.5	7.20034
430.712	17.73793
430.924	11.4153
431.136	26.16843
431.348	59.89417
431.56	26.16843
431.772	-18.08741
431.984	-39.15785
432.196	45.13842
432.408	2.98547
432.62	-98.14168
432.832	64.1103
433.044	89.40901
433.256	51.46218
433.468	-22.3017
433.679	34.5993
433.891	55.67812
434.103	59.89417
434.315	51.46218
434.527	19.84552
434.739	26.16843
434.95	-7.55127
435.162	17.73793
435.374	43.03055
435.586	38.81488
435.798	-18.08741
436.009	30.38382
436.221	70.43467
436.433	45.13842
436.645	0.87808
436.856	11.4153
437.068	-15.98024
437.28	13.52282
437.491	15.63036
437.703	13.52282
437.915	43.03055
438.126	-49.69214
438.338	2.98547
438.55	68.32652
438.761	-11.7658
438.973	76.75925
439.184	-64.43909
439.396	74.65103
439.608	62.00222
439.819	9.30781
440.031	-56.01241
440.242	-9.65855
440.454	34.5993
440.665	26.16843
440.877	68.32652
441.088	21.95313
441.3	15.63036
441.511	-28.62294
441.723	0.87808
441.934	11.4153
442.146	-11.7658
442.357	43.03055
442.569	13.52282
442.78	53.57014
442.991	47.24632
443.203	15.63036
443.414	59.89417
443.626	-15.98024
443.837	55.67812
444.048	7.20034
444.26	26.16843
444.471	-51.79892
444.682	32.49155
444.894	-3.33665
445.105	30.38382
445.316	-7.55127
445.528	-32.83698
445.739	-41.26476
445.95	-9.65855
446.161	49.35423
446.373	72.54284
446.584	-41.26476
446.795	-15.98024
447.006	-58.11912
447.217	68.32652
447.429	34.5993
447.64	-1.2293
447.851	51.46218
448.062	19.84552
448.273	13.52282
448.484	-5.44397
448.695	0.87808
448.907	5.09289
449.118	87.30066
449.329	131.58062
449.54	51.46218
449.751	2.98547
449.962	26.16843
450.173	0.87808
450.384	17.73793
450.595	76.75925
450.806	89.40901
451.017	19.84552
451.228	83.08402
451.439	68.32652
451.65	127.36306
451.861	51.46218
452.072	-11.7658
452.283	51.46218
452.494	30.38382
452.705	28.27611
452.915	51.46218
453.126	0.87808
453.337	47.24632
453.548	28.27611
453.759	83.08402
453.97	38.81488
454.181	24.06077
454.391	21.95313
454.602	9.30781
454.813	34.5993
455.024	76.75925
455.235	74.65103
455.445	47.24632
455.656	62.00222
455.867	-81.29121
456.078	76.75925
456.288	104.16807
456.499	28.27611
456.71	7.20034
456.921	34.5993
457.131	47.24632
457.342	13.52282
457.553	34.5993
457.763	26.16843
457.974	62.00222
458.184	64.1103
458.395	106.2766
458.606	59.89417
458.816	55.67812
459.027	49.35423
459.237	89.40901
459.448	68.32652
459.659	30.38382
459.869	-15.98024
460.08	135.79826
460.29	68.32652
460.501	40.92271
460.711	104.16807
460.922	110.49372
461.132	93.62577
461.343	34.5993
461.553	24.06077
461.764	55.67812
461.974	163.21498
462.184	85.19233
462.395	43.03055
462.605	64.1103
462.816	87.30066
463.026	9.30781
463.236	93.62577
463.447	66.2184
463.657	43.03055
463.867	125.25432
464.078	38.81488
464.288	116.81956
464.498	62.00222
464.709	106.2766
464.919	93.62577
465.129	68.32652
465.339	104.16807
465.55	114.71092
465.76	150.56067
465.97	156.88773
466.18	99.95108
466.391	127.36306
466.601	135.79826
466.811	57.78613
467.021	194.85404
467.231	154.77869
467.441	110.49372
467.651	85.19233
467.862	127.36306
468.072	144.23379
468.282	62.00222
468.492	182.19786
468.702	226.49765
468.912	129.47183
469.122	142.12488
469.332	182.19786
469.542	95.73419
469.752	108.38515
469.962	129.47183
470.172	156.88773
470.382	211.73008
470.592	245.48595
470.802	228.60739
471.012	165.32411
471.222	190.63523
471.432	249.70578
471.642	163.21498
471.852	289.79799
472.062	243.37606
472.272	205.40141
472.482	194.85404
472.691	232.82691
472.901	220.16857
473.111	279.24676
473.321	239.15634
473.531	224.38794
473.741	270.8061
473.95	251.81573
474.16	338.33954
474.37	262.36575
474.58	346.78251
474.79	359.44748
474.999	323.56502
475.209	272.91624
475.419	338.33954
475.628	382.66819
475.838	458.67709
476.048	382.66819
476.258	441.78444
476.467	498.80101
476.677	507.24884
476.886	492.4653
477.096	416.44736
477.306	484.01789
477.515	422.78141
477.725	576.95198
477.935	543.15464
478.144	564.27757
478.354	551.60365
478.563	541.04242
478.773	617.09072
478.982	572.72712
479.192	623.42883
479.401	633.9926
479.611	703.72099
479.82	638.2182
480.03	617.09072
480.239	788.2563
480.449	697.38152
480.658	822.07489
480.868	794.5971
481.077	961.59981
481.287	710.06055
481.496	951.02856
481.705	830.52991
481.915	1039.83219
482.124	910.85947
482.333	997.54333
482.543	923.54416
482.752	1054.63385
482.961	959.48555
483.171	1111.72841
483.38	1120.18717
483.589	1065.20663
483.799	1137.10491
484.008	1219.58257
484.217	1276.68541
484.426	1471.26755
484.636	1234.38681
484.845	1513.56849
485.054	1259.76584
485.263	1445.88693
485.472	1354.94013
485.682	1331.67496
485.891	1435.31167
486.1	1335.90498
486.309	1606.62915
486.518	1450.11703
486.727	1581.24925
486.936	1608.74413
487.146	1428.96651
487.355	1615.08906
487.564	1490.303
487.773	1720.83457
487.982	1640.46857
488.191	1839.25952
488.4	1657.38806
488.609	1894.23777
488.818	1777.93389
489.027	1826.57176
489.236	1786.39281
489.445	1953.44109
489.654	1936.52631
489.863	2088.7446
490.072	1902.69566
490.281	2190.20267
490.49	1913.26789
490.698	2109.88318
490.907	1928.06878
491.116	2092.97237
491.325	2114.1108
491.534	2215.56424
491.743	2071.8332
491.952	2270.51
492.16	2154.2717
492.369	2325.44953
492.578	2342.3527
492.787	2530.35557
492.996	2388.83312
493.204	2621.15645
493.413	2374.04443
493.622	2450.09512
493.831	2342.3527
494.039	2587.37266
494.248	2433.19615
494.457	2692.93644
494.665	2627.49056
494.874	2676.04835
495.083	2733.04234
495.291	2684.4925
495.5	2756.25938
495.709	2665.49287
495.917	2578.92623
496.126	2766.81204
496.335	2777.36436
496.543	2884.97838
496.752	2756.25938
496.96	2802.68856
497.169	2922.95099
497.377	3053.70871
497.586	2865.99033
497.794	3135.92916
498.003	2882.86866
498.211	3087.44308
498.42	3060.03421
498.628	3140.14494
498.837	3019.97037
499.045	3344.53099
499.254	3068.46799
499.462	3266.58794
499.671	3272.90852
499.879	3342.42473
500.087	3171.76124
500.296	3405.60493
500.504	3264.48105
500.713	3279.22894
500.921	3352.95586
501.129	3350.84967
501.338	3357.16819
501.546	3464.55875
501.754	3342.42473
501.962	3506.65999
502.171	3506.65999
502.379	3683.40453
502.587	3426.66147
502.795	3590.8405
503.004	3519.28894
503.212	3735.98129
503.42	3515.07937
503.628	3574.00676
503.837	3494.03038
504.045	3632.91959
504.253	3582.42378
504.461	3641.3345
504.669	3834.79272
504.877	3870.5223
505.085	3788.54595
505.294	4000.78099
505.502	3727.56982
505.71	3834.79272
505.918	3590.8405
506.126	4072.17988
506.334	3895.73971
506.542	4055.38229
506.75	3956.66983
506.958	4200.21759
507.166	4162.4441
507.374	4099.47313
507.582	3971.37455
507.79	4166.64149
507.998	3958.77056
508.206	4246.37586
508.414	4053.28249
508.622	4288.32896
508.83	4162.4441
509.037	4309.30229
509.245	4097.37378
509.453	4338.66134
509.661	4248.47372
509.869	4330.27347
510.077	4112.06883
510.285	4412.04038
510.492	4261.06042
510.7	4581.75746
510.908	4300.91322
511.116	4391.07766
511.324	4231.69025
511.531	4315.59387
511.739	4275.74393
511.947	4742.95803
512.155	4541.96029
512.362	4409.94421
512.57	4531.48603
512.778	4518.91617
512.985	4470.72436
513.193	4491.67876
513.401	4573.37977
513.608	4573.37977
513.816	4437.19276
514.024	4533.58092
514.231	4487.48805
514.439	4583.85182
514.646	4550.33931
514.854	4669.70155
515.061	4644.5787
515.269	4734.58726
515.477	4726.21613
515.684	4916.56945
515.892	4732.49451
516.099	4839.19581
516.307	4809.91114
516.514	4860.11069
516.722	5033.61571
516.929	4824.55403
517.136	4998.09145
517.344	4941.65687
517.551	4818.27864
517.759	5186.08499
517.966	4987.64187
518.173	5121.35288
518.381	5050.3307
518.588	5213.22405
518.796	5052.41997
519.003	5342.6022
519.21	5077.48941
519.418	5121.35288
519.625	5112.99872
519.832	5075.40041
520.039	5037.7946
520.247	5332.17182
520.454	5344.68821
520.661	5557.33752
520.868	5173.55794
521.076	5302.96362
521.283	5300.87714
521.49	5413.51328
521.697	5346.77419
521.904	5430.19429
522.112	5369.71847
522.319	5576.08894
522.526	5505.24023
522.733	5617.75193
522.94	5592.75527
523.147	5571.92213
523.354	5384.31789
523.561	5559.42111
523.768	5398.91616
523.975	5961.11144
524.183	5728.11321
524.39	5771.82292
524.597	5619.83483
524.804	5842.56897
525.011	5701.04959
525.218	5742.68427
525.425	5696.88561
525.632	5794.71434
525.838	5880.01171
526.045	5967.34839
526.252	5892.49093
526.459	5915.36729
526.666	5767.66054
526.873	6025.54974
527.08	6000.60857
527.287	5950.71604
527.494	5952.79517
527.701	6102.43036
527.907	5911.20816
528.114	6197.96677
528.321	6175.12563
528.528	6011.00114
528.735	6202.1194
528.941	6307.97981
529.148	6083.73263
529.355	6401.33555
529.562	5979.82167
529.768	6449.03248
529.975	6017.2364
530.182	6268.54874
530.388	6089.96542
530.595	6166.81905
530.802	6256.09507
531.008	6515.37297
531.215	6274.77526
531.422	6359.84994
531.628	6515.37297
531.835	6446.95896
532.042	6328.72962
532.248	6353.6263
532.455	6560.96829
532.661	6552.67906
532.868	6463.54649
533.074	6672.83666
533.281	6612.76756
533.487	6809.47368
533.694	6534.02696
533.9	6780.4984
534.107	6523.66386
534.313	6786.70777
534.52	6722.5344
534.726	6792.91693
534.933	6685.26234
535.139	6534.02696
535.345	6565.11276
535.552	6699.75791
535.758	6813.61265
535.965	6941.87533
536.171	6666.62352
536.377	6958.41901
536.584	6813.61265
536.79	6656.26781
536.996	6871.54854
537.203	6968.75808
537.409	6799.12588
537.615	7092.78301
537.821	6734.95677
538.028	7105.18107
538.234	7235.3123
538.44	7132.04077
538.646	7144.43629
538.853	7280.73426
539.059	6873.61735
539.265	7233.24741
539.471	7078.3176
539.677	7084.5172
539.883	7235.3123
540.09	7309.63359
540.296	7220.85762
540.502	7499.43707
540.708	7342.65614
540.914	7476.75284
541.12	7375.67309
541.326	7697.29853
541.532	7515.93305
541.738	7608.69738
541.944	7429.31373
542.15	7542.73609
542.356	7575.71947
542.562	7583.96446
542.768	7534.48939
542.974	7781.74235
543.18	7573.65817
543.386	7781.74235
543.592	7734.37577
543.798	7649.91209
544.004	7600.45341
544.21	7771.44621
544.415	7342.65614
544.621	7831.15655
544.827	7771.44621
545.033	7977.2704
545.239	7649.91209
545.445	7872.3259
545.651	7969.04139
545.856	7929.94911
546.062	7771.44621
546.268	8036.92098
546.474	8043.09076
546.679	7870.26763
546.885	7820.86292
547.091	7911.42913
547.297	7672.57657
547.502	7876.44238
547.708	7812.62763
547.914	7946.40992
548.119	8092.4424
548.325	8038.97759
548.531	7746.73334
548.736	8028.69433
548.942	7814.68648
549.147	8160.282
549.353	7960.81205
549.559	7993.72744
549.764	8090.38632
549.97	7997.8415
550.175	8260.97349
550.381	8456.05766
550.586	8345.18922
550.792	8433.4779
550.997	8281.51695
551.203	8104.7785
551.408	8256.86457
551.614	8256.86457
551.819	8014.29691
552.025	8609.94918
552.23	8217.82582
552.435	8529.93888
552.641	8786.2821
552.846	8646.86739
553.052	8470.42538
553.257	8562.76708
553.462	8546.35358
553.668	8751.43638
553.873	8495.0536
554.078	8814.97462
554.283	8404.73667
554.489	8845.71268
554.694	8583.28226
554.899	8829.31955
555.105	8648.91823
555.31	8759.63585
555.515	8804.7277
555.72	8784.2325
555.925	8718.63558
556.131	8814.97462
556.336	8544.30181
556.541	8806.77712
556.746	8806.77712
556.951	8751.43638
557.156	8776.03391
557.361	8995.24705
557.567	8829.31955
557.772	8888.73914
557.977	8708.38437
558.182	8862.10464
558.387	8642.76566
558.592	8950.19186
558.797	8882.59299
559.002	8962.48048
559.207	8919.4675
559.412	9056.67225
559.617	8882.59299
559.822	9314.48934
560.027	8929.7094
560.232	9183.56832
560.437	8991.15147
560.642	9179.47592
560.847	9036.19893
561.051	9154.92013
561.256	9054.625
561.461	9193.79901
561.666	9028.00911
561.871	9234.71753
562.076	9169.24464
562.281	9120.12854
562.485	9304.2636
562.69	9361.52241
562.895	8956.33625
563.1	9373.79047
563.305	9242.90042
563.509	9287.90155
563.714	9381.96885
563.919	9279.72013
564.123	9161.05931
564.328	9349.25375
564.533	9453.51856
564.737	9161.05931
564.942	9332.89462
565.147	9610.85874
565.351	9512.78763
565.556	9494.39522
565.761	9312.44422
565.965	9543.43876
566.17	9465.78224
566.374	9349.25375
566.579	9408.54678
566.784	9619.0297
566.988	9545.48205
567.193	9555.69822
567.397	9600.6447
567.602	9692.55713
567.806	9555.69822
568.011	9465.78224
568.215	9731.35522
568.42	9692.55713
568.624	9332.89462
568.828	9641.49855
569.033	9484.17666
569.237	9919.14262
569.442	9465.78224
569.646	9733.39707
569.85	9659.88075
570.055	9561.82773
570.259	9674.17715
570.463	9723.18766
570.668	9616.98699
570.872	9847.71664
571.076	9870.16676
571.281	9859.96238
571.485	9845.67563
571.689	10139.43098
571.893	9988.51068
572.098	10033.387
572.302	9582.25842
572.506	9772.18937
572.71	9749.73134
572.914	9904.85887
573.119	9727.27147
573.323	9966.06991
573.527	9906.89945
573.731	9894.65575
573.935	10017.06914
574.139	10165.93606
574.343	9829.34703
574.547	10208.74702
574.751	9857.92146
574.955	10216.9008
575.159	10000.75037
575.364	9941.58707
575.568	9961.98958
575.772	10023.18845
575.976	10335.10629
576.18	10004.83015
576.383	10310.65369
576.587	10259.70458
576.791	10178.16838
576.995	10090.49234
577.199	10353.44448
577.403	10312.69148
577.607	10233.20771
577.811	10506.22158
578.015	10059.90158
578.219	10371.7816
578.422	10235.24601
578.626	10363.6319
578.83	10059.90158
579.034	10418.63831
579.238	10253.59012
579.442	10498.0753
579.645	10049.70395
579.849	10167.97482
580.053	10436.97166
580.257	10504.18503
580.46	10758.65746
580.664	10892.94312
580.868	10457.34083
581.071	10530.6592
581.275	10322.88023
581.479	10638.57043
581.682	10540.84101
581.886	10589.7093
582.09	10646.71326
582.293	10679.28262
582.497	10636.53469
582.7	10599.88929
582.904	10575.45679
583.107	10913.28503
583.311	10667.06947
583.515	10831.91048
583.718	10447.15641
583.922	10858.35924
584.125	10451.23021
584.329	10833.94507
584.532	10579.529
584.735	10774.93723
584.939	10652.82025
585.142	11041.41315
585.346	10581.56509
585.549	10844.11785
585.753	10964.13484
585.956	10785.1117
586.159	10917.35328
586.363	11082.07956
586.566	10988.54025
586.769	11012.94406
586.973	10605.99713
587.176	10962.10098
587.379	11059.71358
587.582	10888.8746
587.786	11348.33971
587.989	11299.57248
588.192	10986.50653
588.395	11508.82504
588.599	11112.57652
588.802	11323.95682
589.005	11086.14596
589.208	11169.49772
589.411	10966.16869
589.615	11149.16968
589.818	11167.46497
590.021	10958.03324
590.224	10998.7087
590.427	11246.73471
590.63	11165.4322
590.833	11354.43521
591.036	11332.08461
591.239	11165.4322
591.442	11210.15065
591.645	11214.21571
591.848	11230.47554
592.051	11344.27599
592.254	11527.10437
592.457	11655.03858
592.66	11208.1181
592.863	11535.22827
593.066	11273.15446
593.269	11417.4168
593.472	11317.86087
593.675	11620.52024
593.878	11453.98244
594.081	11285.3476
594.284	11301.60456
594.486	11549.44474
594.689	11502.73176
594.892	11360.53062
595.095	11588.02998
595.298	11563.66075
595.5	11401.16439
595.703	12148.17808
595.906	11738.27803
596.109	11608.33667
596.311	11636.76449
596.514	11864.12452
596.717	11632.70348
596.92	11720.00723
597.122	11811.35418
597.325	11876.30148
597.528	11819.47307
597.73	11975.73559
597.933	11592.0914
598.136	11535.22827
598.338	11835.71043
598.541	11726.09758
598.743	11815.41364
598.946	11799.1756
599.148	11888.47815
599.351	11993.99688
599.554	11821.50277
599.756	12012.25753
599.959	11693.61481
600.161	11961.53191
600.363	11896.59576
600.566	12257.70142
600.768	11959.50278
600.971	12213.08338
601.173	11866.15403
601.376	12119.77961
601.578	11945.29865
601.78	12196.85776
601.983	11736.24798
602.185	11943.26946
602.388	11977.76465
602.59	12133.97903
602.792	11862.095
602.995	12127.89361
603.197	12058.92073
603.399	12355.03794
603.601	11983.8518
603.804	12162.37676
604.006	12089.35103
604.208	12249.58931
604.41	11971.67743
604.613	12077.17912
604.815	11856.00638
605.017	12466.54994
605.219	12166.43346
605.421	12265.81342
605.623	12103.55125
605.826	12324.62201
606.028	12054.86322
606.23	12399.64518
606.432	12069.06436
606.634	12342.87176
606.836	12162.37676
607.038	12166.43346
607.24	12198.88599
607.442	12280.00914
607.644	12387.4799
607.846	12596.28449
608.048	12338.81631
608.25	12353.01026
608.452	12273.92531
608.654	12419.92011
608.856	11908.77192
609.058	11955.4445
609.26	12170.49013
609.462	12318.53864
609.664	12215.11155
609.866	11989.93887
610.067	12083.26511
610.269	11973.70651
610.471	11870.21304
610.673	12215.11155
610.875	12501.01323
611.077	12249.58931
611.278	12004.14176
611.48	12348.95488
611.682	12350.98257
611.884	12740.17926
612.085	12444.24915
612.287	12263.78543
612.489	12318.53864
612.69	12340.84404
612.892	12312.4552
613.094	12628.71412
613.295	12217.13971
613.497	12174.54677
613.699	12300.28814
613.9	12395.59011
614.102	12058.92073
614.304	12344.89947
614.505	11947.32784
614.707	12253.64538
614.908	12091.37966
615.11	12077.17912
615.311	12407.75523
615.513	12336.78857
615.714	12312.4552
615.916	12336.78857
616.117	12332.73308
616.319	12549.66412
616.52	12411.81022
616.722	12403.70022
616.923	12460.46798
617.124	12513.1763
617.326	12077.17912
617.527	12492.90439
617.729	12399.64518
617.93	12434.11217
618.131	12452.35862
618.333	12204.97063
618.534	12403.70022
618.735	12565.88028
618.937	12413.8377
619.138	12723.96726
619.339	12458.44065
619.54	12551.69116
619.742	12280.00914
619.943	12182.65996
620.144	12192.80129
620.345	12490.87716
620.546	12065.00693
620.748	12298.26027
620.949	12221.19601
621.15	12350.98257
621.351	12602.36517
621.552	12634.7945
621.753	12144.12125
621.954	12703.70173
622.155	12142.09282
622.356	12693.56874
622.558	12353.01026
622.759	12790.83942
622.96	12312.4552
623.161	12403.70022
623.362	12428.0299
623.563	12594.25759
623.764	12492.90439
623.965	12377.34197
624.166	12328.67756
624.366	12318.53864
624.567	12344.89947
624.768	12537.50174
624.969	12196.85776
625.17	12350.98257
625.371	12257.70142
625.572	12430.05733
625.773	12401.6727
625.973	12521.28488
626.174	12353.01026
626.375	12683.43561
626.576	12452.35862
626.777	12693.56874
626.977	12537.50174
627.178	12843.52227
627.379	12638.84806
627.58	12367.20388
627.78	12452.35862
627.981	12750.31158
628.182	12484.79544
628.382	12391.53502
628.583	12450.33126
628.784	12498.98603
628.984	12294.20452
629.185	12634.7945
629.386	12407.75523
629.586	12677.35566
629.787	12590.20376
629.987	12606.41892
630.188	12417.89265
630.388	12651.00859
630.589	12369.23151
630.79	12807.04993
630.99	12387.4799
631.191	13013.70365
631.391	12444.24915
631.591	12456.41332
631.792	12432.08475
631.992	12513.1763
632.193	12563.85328
632.393	12772.60218
632.594	12634.7945
632.794	12894.17537
632.994	12709.78145
633.195	12689.51551
633.395	12715.86111
633.595	12590.20376
633.796	12596.28449
633.996	12790.83942
634.196	12683.43561
634.397	12764.49658
634.597	12573.9882
634.797	12835.41746
634.997	12590.20376
635.198	12592.23068
635.398	12515.20345
635.598	12620.60686
635.798	12496.95882
635.998	12790.83942
636.199	12490.87716
636.399	12926.5916
636.599	12553.7182
636.799	12651.00859
636.999	12294.20452
637.199	12661.1422
637.399	12683.43561
637.599	12681.40897
637.799	12488.84993
637.999	13009.65214
638.199	12748.28513
638.399	12934.69545
638.599	12728.02029
638.799	12890.12325
638.999	12693.56874
639.199	12906.33162
639.399	12651.00859
639.599	12934.69545
639.799	12877.96674
639.999	12725.99378
640.199	12521.28488
640.399	12725.99378
640.599	12229.30853
640.799	13147.39272
640.998	12999.52326
641.198	12946.85107
641.398	12653.03532
641.598	13157.51984
641.798	13060.29465
641.997	13044.08938
642.197	12857.70548
642.397	12977.23929
642.597	13011.6779
642.796	12944.82514
642.996	13031.93522
643.196	13238.5327
643.395	12823.26008
643.595	13177.77373
643.795	12918.48767
643.994	13185.87516
644.194	12815.15505
644.394	13159.54525
644.593	12725.99378
644.793	12910.38365
644.992	12869.8623
645.192	13019.78089
645.392	12817.18132
645.591	13299.28773
645.791	12920.51366
645.99	13258.78481
646.19	12912.40967
646.389	13080.5508
646.589	13175.74836
646.788	12942.79921
646.987	12713.83456
647.187	13183.84981
647.386	12934.69545
647.586	12819.20758
647.785	13125.11265
647.984	13104.85755
648.184	12961.03238
648.383	13236.50746
648.582	12922.53965
648.782	13301.31283
648.981	12910.38365
649.18	13137.26548
649.38	13179.79909
649.579	13453.18378
649.778	13179.79909
649.977	13319.53855
650.177	13270.93586
650.376	13414.71193
650.575	13080.5508
650.774	13185.87516
650.973	12884.04502
651.173	13104.85755
651.372	13078.52521
651.571	13198.02717
651.77	13463.30772
651.969	13473.43157
652.168	13054.21771
652.367	13378.2636
652.566	13200.05248
652.765	13171.69761
652.964	13058.26901
653.163	13311.43827
653.362	13341.81397
653.561	13291.18728
653.76	13216.25488
653.959	13007.62637
654.158	12944.82514
654.357	13256.75961
654.556	13090.6787
654.755	13181.82445
654.954	12993.44588
655.153	12969.13588
655.352	13100.80647
655.551	13202.0778
655.749	13133.21456
655.948	13262.83517
656.147	13202.0778
656.346	13343.83899
656.545	13167.64684
656.743	13236.50746
656.942	13487.6048
657.141	13663.74308
657.34	13187.9005
657.538	13151.44358
657.737	13062.32029
657.936	13414.71193
658.135	13339.78896
658.333	13222.3307
658.532	13025.85808
658.731	13473.43157
658.929	13329.6638
659.128	13355.98898
659.326	12999.52326
659.525	13402.56263
659.724	13117.01067
659.922	13552.39439
660.121	12979.26513
660.319	13264.86035
660.518	13193.97651
660.716	13386.36334
660.915	13167.64684
661.113	13542.27126
661.312	13218.28015
661.51	13206.12841
661.709	13110.93413
661.907	13351.939
662.105	13396.48792
662.304	13343.83899
662.502	13380.28854
662.701	13281.06162
662.899	13351.939
663.097	13424.83623
663.296	13238.5327
663.494	13617.18034
663.692	13009.65214
663.891	13238.5327
664.089	13139.29094
664.287	13388.38826
664.485	13331.68884
664.684	13416.73679
664.882	13015.7294
665.08	13228.40648
665.278	13720.42581
665.476	13497.72842
665.675	13147.39272
665.873	13406.61241
666.071	13169.67223
666.269	13246.63359
666.467	13479.50583
666.665	13558.46823
666.863	13027.8838
667.061	13214.22959
667.259	13161.57065
667.457	13353.964
667.655	12859.73163
667.853	13303.33792
668.051	12845.54846
668.249	12926.5916
668.447	12946.85107
668.645	13096.75538
668.843	13044.08938
669.041	13540.24663
669.239	12977.23929
669.437	13214.22959
669.635	13196.00184
669.833	13185.87516
670.031	13048.14073
670.229	13329.6638
670.426	13145.36728
670.624	13058.26901
670.822	12837.44367
671.02	13228.40648
671.218	13222.3307
671.415	13044.08938
671.613	12995.47168
671.811	12764.49658
672.009	12584.12297
672.206	13238.5327
672.404	12920.51366
672.602	12821.23383
672.799	13169.67223
672.997	13453.18378
673.195	13141.31639
673.392	13157.51984
673.59	13159.54525
673.788	13317.51349
673.985	13151.44358
674.183	13187.9005
674.38	12920.51366
674.578	13277.01133
674.775	12829.3388
674.973	13270.93586
675.17	13171.69761
675.368	13568.59122
675.565	13104.85755
675.763	12476.68639
675.96	12800.97103
676.158	12977.23929
676.355	12699.64855
676.553	13048.14073
676.75	12565.88028
676.947	13007.62637
677.145	12963.05826
677.342	13088.65313
677.539	12705.72831
677.737	13133.21456
677.934	12529.39336
678.131	13208.15372
678.329	12884.04502
678.526	12877.96674
678.723	12687.48888
678.92	12841.49608
679.118	12758.41733
679.315	12523.31201
679.512	12529.39336
679.709	12713.83456
679.906	12501.01323
680.104	13017.75515
680.301	12646.9551
680.498	12618.58003
680.695	12618.58003
680.892	12626.68732
681.089	12478.71367
681.286	12764.49658
681.483	12525.33913
681.68	12553.7182
681.877	12492.90439
682.075	12515.20345
682.272	12399.64518
682.469	12837.44367
682.665	12565.88028
682.862	12882.01893
683.059	12373.28676
683.256	12693.56874
683.453	12448.3039
683.65	12651.00859
683.847	12606.41892
684.044	12482.76819
684.241	12434.11217
684.438	12594.25759
684.635	12310.42738
684.831	13033.96093
685.028	12571.96123
685.225	12924.56563
685.422	12657.08877
685.619	12503.04042
685.815	12357.06562
686.012	12492.90439
686.209	12263.78543
686.405	12488.84993
686.602	12269.86938
686.799	12432.08475
686.996	12249.58931
687.192	12517.2306
687.389	12150.20649
687.586	12415.86518
687.782	12282.03708
687.979	12488.84993
688.175	12166.43346
688.372	12202.94242
688.568	12249.58931
688.765	12411.81022
688.962	12466.54994
689.158	12505.06761
689.355	12314.48302
689.551	12172.51846
689.748	12507.09479
689.944	12395.59011
690.14	12600.33828
690.337	12440.19438
690.533	12436.13958
690.73	12209.02702
690.926	12344.89947
691.123	12288.12083
691.319	12202.94242
691.515	12332.73308
691.712	12012.25753
691.908	12148.17808
692.104	11981.82276
692.301	12249.58931
692.497	12170.49013
692.693	12008.19966
692.889	11963.56103
693.086	12296.2324
693.282	12012.25753
693.478	12188.74478
693.674	12067.03565
693.87	12277.9812
694.067	12259.72943
694.263	12014.28645
694.459	12050.80569
694.655	11955.4445
694.851	12099.49408
695.047	12077.17912
695.243	11973.70651
695.439	12095.43689
695.635	11853.97682
695.831	12054.86322
696.027	11959.50278
696.224	11969.64834
696.42	11711.88665
696.615	12176.57508
696.811	11720.00723
697.007	12071.09306
697.203	11659.09939
697.399	11853.97682
697.595	11687.52404
697.791	11821.50277
697.987	11925.00635
698.183	12209.02702
698.379	12000.08383
698.575	11979.79371
698.77	11989.93887
698.966	11890.50756
699.162	11711.88665
699.358	11809.32444
699.554	11695.64505
699.749	11711.88665
699.945	11632.70348
700.141	11831.65114
700.337	11541.3211
700.532	11969.64834
700.728	11780.90715
700.924	12030.51753
701.119	11849.91768
701.315	11697.67528
701.511	11675.34226
701.706	11902.68388
701.902	11484.45141
702.097	11502.73176
702.293	11506.79396
702.489	11423.51129
702.684	11484.45141
702.88	11500.70065
703.075	11362.5624
703.271	11784.96686
703.466	11504.76287
703.662	11673.31193
703.857	11543.35202
704.053	11590.06069
704.248	11663.16016
704.443	11799.1756
704.639	11626.6119
704.834	11772.78761
705.03	11291.44404
705.225	11543.35202
705.42	11514.91824
705.616	11815.41364
705.811	11384.91136
706.006	11762.63799
706.202	11413.35376
706.397	11553.5065
706.592	11427.57424
706.787	11612.3979
706.983	11356.46702
707.178	11516.94928
707.373	11301.60456
707.568	11388.97467
707.763	11293.47616
707.959	11283.31544
708.154	11350.37155
708.349	11388.97467
708.544	11395.06958
708.739	11222.34571
708.934	10949.89761
709.129	11199.98781
709.324	10892.94312
709.519	11330.05268
709.714	11153.23537
709.909	11577.8763
710.104	11206.08554
710.299	11065.81352
710.494	11151.20253
710.689	11206.08554
710.884	11104.44423
711.079	11242.66998
711.274	11019.04476
711.469	11486.4826
711.664	11078.01312
711.859	11407.25912
712.054	11092.24548
712.249	11269.09
712.443	11155.2682
712.638	11384.91136
712.833	10962.10098
713.028	11114.60956
713.223	11122.74163
713.417	10988.54025
713.612	11051.58016
713.807	11141.03816
714.002	10945.82972
714.196	11299.57248
714.391	11195.9226
714.586	11782.93701
714.78	10949.89761
714.975	11340.21224
715.17	10856.32479
715.364	10996.67503
715.559	11197.95521
715.754	11088.17915
715.948	11002.776
716.143	10970.23634
716.337	10762.72748
716.532	10888.8746
716.726	11108.5104
716.921	11303.63664
717.115	11256.89636
717.31	11167.46497
717.504	10829.87588
717.699	11059.71358
717.893	10685.38903
718.088	10823.77201
718.282	10793.25107
718.476	10905.1484
718.671	10660.96274
718.865	10844.11785
719.059	10711.84887
719.254	10799.35547
719.448	10426.7866
719.642	10567.31223
719.837	10306.57807
720.031	10577.4929
720.225	10347.33187
720.419	10811.56395
720.614	10536.76832
720.808	10652.82025
721.002	10494.00208
721.196	10475.67197
721.39	10455.30397
721.585	10434.93468
721.779	10567.31223
721.973	10888.8746
722.167	10479.74542
722.361	10591.74532
722.555	10532.69559
722.749	10343.25673
722.943	10070.09885
723.137	10538.80467
723.331	10202.63154
723.525	10516.40415
723.719	10139.43098
723.913	10351.40696
724.107	10337.14392
724.301	10420.6754
724.495	10320.84251
724.689	10318.80477
724.883	10414.56409
725.077	10514.36766
725.271	10428.82364
725.465	10237.2843
725.659	10227.09272
725.853	10298.42667
726.046	10320.84251
726.24	10601.92525
726.434	10298.42667
726.628	10485.8555
726.822	10068.05943
727.015	10473.63523
727.209	10012.98953
727.403	10424.74954
727.596	10204.67005
727.79	10406.41549
727.984	10412.52696
728.177	10546.94994
728.371	10353.44448
728.565	10377.89374
728.758	10636.53469
728.952	10500.11189
729.146	10237.2843
729.339	10343.25673
729.533	10451.23021
729.726	10322.88023
729.92	10061.94106
730.113	10475.67197
730.307	10265.81892
730.5	10269.89508
730.694	10192.4388
730.887	10212.82394
731.081	10017.06914
731.274	10170.01356
731.468	10172.05228
731.661	10282.12323
731.854	10257.66644
732.048	10233.20771
732.241	10206.70854
732.435	10302.5024
732.628	10408.45266
732.821	10265.81892
733.014	10622.28418
733.208	10394.1922
733.401	10004.83015
733.594	10347.33187
733.788	10106.80612
733.981	10178.16838
734.174	10170.01356
734.367	10188.36161
734.56	10206.70854
734.754	10066.01998
734.947	10045.6248
735.14	10143.50884
735.333	10208.74702
735.526	10457.34083
735.719	9968.11005
735.912	9949.74825
736.105	10061.94106
736.298	9841.59357
736.491	10149.62552
736.684	10165.93606
736.877	10082.33511
737.07	10066.01998
737.263	10172.05228
737.456	10249.51375
737.649	10078.25642
737.842	10447.15641
738.035	10180.20706
738.228	9751.77305
738.421	9992.59063
738.614	10159.81971
738.807	9931.38527
739	10000.75037
739.192	9872.20759
739.385	10080.29577
739.578	9935.46603
739.771	9782.39696
739.964	9810.97621
740.156	9849.75764
740.349	9698.68351
740.542	9943.62738
740.735	9837.51145
740.927	10063.98053
741.12	9915.06162
741.313	9902.81827
741.505	9808.93493
741.698	9506.65697
741.891	9547.52531
742.083	9719.10379
742.276	9727.27147
742.468	9984.43067
742.661	9935.46603
742.854	9886.49299
743.046	9902.81827
743.239	9878.32999
743.431	9749.73134
743.624	9512.78763
743.816	9567.95711
744.009	9447.38651
744.201	9510.74409
744.393	9878.32999
744.586	9580.21542
744.778	9645.58359
744.971	9643.54108
745.163	9900.77767
745.355	9700.72561
745.548	9788.52133
745.74	9764.02302
745.932	9800.76967
746.125	9672.13485
746.317	9596.55897
746.509	9717.06183
746.702	9625.15776
746.894	9539.35215
747.086	9339.02942
747.278	9388.10246
747.471	9651.71104
747.663	9490.30785
747.855	9463.73833
748.047	9371.74583
748.239	9578.17241
748.431	9625.15776
748.623	9772.18937
748.815	9424.90107
749.008	9692.55713
749.2	9551.6118
749.392	9508.70054
749.584	9610.85874
749.776	9424.90107
749.968	9339.02942
750.16	9588.38732
750.352	9388.10246
750.544	9602.68754
750.736	9592.47318
750.928	9537.30882
751.12	9349.25375
751.311	9177.4297
751.503	9619.0297
751.695	9678.2617
751.887	9163.10567
752.079	9523.00507
752.271	9081.23795
752.463	9633.32828
752.654	9482.1329
752.846	9365.61183
753.038	9334.93957
753.23	9253.12866
753.421	9420.81259
753.613	9210.16723
753.805	9324.71466
753.997	9465.78224
754.188	9044.38847
754.38	9441.25431
754.572	9249.03742
754.763	9535.26548
754.955	9469.87
755.146	9275.62932
755.338	9023.9141
755.53	9289.94687
755.721	9359.47767
755.913	9396.28039
756.104	9177.4297
756.296	9187.66064
756.487	9062.81391
756.679	9418.76833
756.87	9142.64131
757.062	9169.24464
757.253	8941.99909
757.445	9023.9141
757.636	8987.05583
757.827	9175.38346
758.019	9163.10567
758.21	8866.20246
758.401	8712.48491
758.593	8882.59299
758.784	8665.32423
758.975	8470.42538
759.167	8544.30181
759.358	8726.83622
759.549	8788.33168
759.74	8925.61269
759.932	8669.42555
760.123	8708.38437
760.314	8849.81078
760.505	8499.15803
760.696	8675.57739
760.888	8501.21022
761.079	8521.73107
761.27	8612.00035
761.461	8437.58349
761.652	8591.4878
761.843	8443.74171
762.034	8839.56539
762.225	8687.88056
762.416	8550.45707
762.607	8166.44815
762.798	8250.70103
762.989	8316.43633
763.18	8129.44852
763.371	8180.83515
763.562	8125.33705
763.753	8339.02821
763.944	8614.0515
764.135	8347.24285
764.326	8708.38437
764.517	8431.42508
764.708	8525.83501
764.899	8162.3374
765.089	8172.61413
765.28	8250.70103
765.471	8355.45719
765.662	8059.5426
765.853	8474.53028
766.043	8330.81325
766.234	8316.43633
766.425	8232.20935
766.615	8092.4424
766.806	8024.58089
766.997	8131.50423
767.187	8045.14731
767.378	8158.22657
767.569	7932.00678
767.759	7862.03434
767.95	7843.50823
768.141	7923.77597
768.331	8075.99315
768.522	8147.94915
768.712	8026.63762
768.903	8180.83515
769.093	8038.97759
769.284	8199.33129
769.474	7890.84941
769.665	7804.39202
769.855	7639.60921
770.046	7779.68316
770.236	7678.75734
770.426	7647.85156
770.617	7623.12349
770.807	7674.63685
770.998	7517.99496
771.188	7853.80072
771.378	7524.18053
771.569	7633.42723
771.759	7843.50823
771.949	7843.50823
772.139	7783.80151
772.33	7489.12638
772.52	7371.54627
772.71	7505.62323
772.9	7474.69051
773.09	7346.78356
773.281	7664.33524
773.471	7689.05821
773.661	7491.18856
773.851	7662.27485
774.041	7293.12021
774.231	7425.18805
774.421	7152.69952
774.611	7140.30454
774.802	7235.3123
774.992	7324.08165
775.182	7377.73646
775.372	7414.87347
775.562	7074.18442
775.752	7293.12021
775.942	7082.45069
776.131	7383.92645
776.321	7268.34751
776.511	7305.50538
776.701	7425.18805
776.891	7491.18856
777.081	7322.0177
777.271	7111.3798
777.461	7082.45069
777.651	6987.36698
777.84	6933.60295
778.03	6981.16421
778.22	7123.77665
778.41	7352.97454
778.599	7202.27144
778.789	7270.41202
778.979	7125.84271
779.169	7233.24741
779.358	7276.60543
779.548	7503.5612
779.738	7024.5793
779.927	7369.48284
780.117	7129.97477
780.307	7010.10871
780.496	6761.86907
780.686	7047.31659
780.875	6867.41085
781.065	6950.14735
781.254	6797.05625
781.444	6935.67108
781.633	6908.78363
781.823	6964.62252
782.012	6776.35871
782.202	7096.91579
782.391	6739.09737
782.581	7028.71356
782.77	6886.02972
782.96	6985.29941
783.149	6589.97766
783.338	6540.24453
783.528	6598.26522
783.717	6790.84723
783.906	6846.72105
784.096	6917.0571
784.285	6664.55242
784.474	6722.5344
784.663	6681.12054
784.853	6488.42501
785.042	6475.98617
785.231	6701.82861
785.42	6374.37097
785.61	6625.19724
785.799	6411.7055
785.988	6631.41177
786.177	6222.88115
786.366	6527.80917
786.555	6312.12996
786.744	6434.51733
786.933	6245.71636
787.122	6734.95677
787.312	6283.07696
787.501	6399.26149
787.69	6355.70087
787.879	6475.98617
788.068	6353.6263
788.257	6531.95438
788.445	6266.47318
788.634	6442.81184
788.823	6353.6263
789.012	6469.76644
789.201	6382.66818
789.39	6210.42438
789.579	6152.28164
789.768	6256.09507
789.957	6143.97404
790.145	6337.02888
790.334	6218.72899
790.523	6141.89708
790.712	6017.2364
790.9	6229.10922
791.089	6104.50776
791.278	6173.04902
791.467	6008.92267
791.655	6092.04297
791.844	5942.3993
792.033	6121.12618
792.221	6067.11083
792.41	5981.90046
792.599	5746.84722
792.787	6004.76567
792.976	5832.16685
793.164	5880.01171
793.353	5877.93176
793.541	5986.05799
793.73	6177.20221
793.918	5944.47852
794.107	5846.72965
794.295	5713.54099
794.484	5751.01007
794.672	5775.98521
794.861	5692.72153
795.049	5925.76469
795.238	5784.3095
795.426	5830.08636
795.614	5730.19486
795.803	5919.52632
795.991	5842.56897
796.179	5676.06426
796.368	5813.44155
796.556	5986.05799
796.744	5617.75193
796.932	5929.92348
797.121	5459.38245
797.309	5809.28011
797.497	5619.83483
797.685	5646.9104
797.874	5513.57679
798.062	5717.7046
798.25	5646.9104
798.438	5844.64932
798.626	5559.42111
798.814	5742.68427
799.002	5509.40856
799.19	5490.65036
799.378	5696.88561
799.566	5551.08663
799.755	5188.17275
799.943	5398.91616
800.131	5419.76884
800.318	5584.42229
800.506	5263.31658
800.694	5630.24898
800.882	5284.1845
801.07	5505.24023
801.258	5538.5842
801.446	5686.47523
801.634	5092.1117
801.822	5265.40348
802.01	5411.42805
802.197	5442.70407
802.385	5050.3307
802.573	5403.08688
802.761	5018.98888
802.949	5546.91924
803.136	5357.20376
803.324	5455.21299
803.512	5526.08092
803.699	5378.06113
803.887	5246.62057
804.075	5553.17028
804.262	5215.31151
804.45	5421.85397
804.638	5476.05932
804.825	5621.91771
805.013	5496.9033
805.201	5746.84722
805.388	5434.36431
805.576	5580.25567
805.763	5571.92213
805.951	5544.83552
806.138	5378.06113
806.326	5505.24023
806.513	5413.51328
806.701	5423.93909
806.888	5411.42805
807.075	5651.07552
807.263	5428.10925
807.45	5603.17096
807.638	5451.04345
807.825	5471.89025
808.012	5430.19429
808.2	5509.40856
808.387	5394.74534
808.574	5217.39895
808.761	5192.3482
808.949	5413.51328
809.136	5390.57443
809.323	5417.68367
809.51	5453.12823
809.698	5478.14383
809.885	5219.48636
810.072	5409.34279
810.259	5286.27116
810.446	5361.37542
810.633	5365.54699
810.82	5613.58605
811.008	5396.83076
811.195	5594.83845
811.382	5409.34279
811.569	5617.75193
811.756	5273.75083
811.943	5728.11321
812.13	5519.82896
812.317	5534.41653
812.504	5409.34279
812.691	5717.7046
812.878	5517.74493
813.064	5601.08787
813.251	5555.25391
813.438	5509.40856
813.625	5415.59849
813.812	5421.85397
813.999	5501.07182
814.186	5455.21299
814.372	5409.34279
814.559	5388.48894
814.746	5225.74845
814.933	5576.08894
815.12	5549.00295
815.306	5430.19429
815.493	5161.03005
815.68	5561.50467
815.866	5133.88342
816.053	5390.57443
816.24	5313.39565
816.426	5571.92213
816.613	5275.83761
816.799	5413.51328
816.986	5302.96362
817.173	5640.66255
817.359	5317.56829
817.546	5528.16486
817.732	5246.62057
817.919	5492.7347
818.105	5296.70412
818.292	5642.74519
818.478	5526.08092
818.665	5503.15604
818.851	5350.94609
819.037	5434.36431
819.224	5342.6022
819.41	5198.6112
819.597	5217.39895
819.783	5319.65458
819.969	5257.05575
820.156	5181.9094
820.342	5121.35288
820.528	5062.86598
820.714	4931.20418
820.901	5000.1813
821.087	5094.20051
821.273	5330.08567
821.459	4952.10898
821.646	5305.05007
821.832	5133.88342
822.018	5300.87714
822.204	5094.20051
822.39	5252.88175
822.576	5069.1333
822.762	5367.63274
822.948	5192.3482
823.134	5363.46122
823.32	5054.50922
823.507	5219.48636
823.693	5052.41997
823.879	5282.09781
824.065	5142.23665
824.25	5054.50922
824.436	4927.02294
824.622	5014.80958
824.808	4809.91114
824.994	4866.38471
825.18	4692.72799
825.366	4724.12329
825.552	4742.95803
825.738	4732.49451
825.923	4583.85182
826.109	4803.63527
826.295	4816.1868
826.481	4970.92134
826.667	4732.49451
826.852	4929.11357
827.038	4872.65852
827.224	5027.34721
827.409	4734.58726
827.595	4901.93359
827.781	4680.16845
827.966	4648.76606
828.152	4424.61696
828.338	4541.96029
828.523	4439.28865
828.709	4573.37977
828.894	4615.26462
829.08	4730.40174
829.266	4567.09628
829.451	4678.07512
829.637	4581.75746
829.822	4550.33931
830.008	4468.6288
830.193	4623.64052
830.378	4588.04049
830.564	4565.00173
830.749	4577.56866
830.935	4537.77065
831.12	4443.48036
831.305	4837.10419
831.491	4374.30591
831.676	4701.10057
831.861	4351.24249
832.047	4636.2037
832.232	4338.66134
832.417	4546.14985
832.602	4309.30229
832.788	4483.29726
832.973	4298.8159
833.158	4481.20184
833.343	4065.88094
833.528	4430.90496
833.714	4386.88485
833.899	4514.72604
834.084	4156.14785
834.269	4399.46301
834.454	4021.78313
834.639	4267.35348
834.824	4332.37047
835.009	4588.04049
835.194	4491.67876
835.379	4596.41754
835.564	4223.29801
835.749	4495.86937
835.934	4298.8159
836.119	4531.48603
836.304	4130.96097
836.489	4321.88526
836.674	4214.90542
836.859	4273.64635
837.044	4214.90542
837.228	4330.27347
837.413	3973.47514
837.598	4271.54875
837.783	3969.27393
837.968	4168.74015
838.152	4082.6777
838.337	4198.11924
838.522	3939.86322
838.707	4208.61076
838.891	3817.97681
839.076	4063.78125
839.261	3889.43562
839.445	4002.8813
839.63	3962.97197
839.815	4145.65369
839.999	3981.87731
840.184	4246.37586
840.368	3878.92842
840.553	3960.87128
840.737	3881.0299
840.922	4044.88312
841.106	3868.42072
841.291	4130.96097
841.475	3803.26186
841.66	3918.85313
841.844	3826.38492
842.029	3952.4683
842.213	3765.419
842.397	3912.54971
842.582	3590.8405
842.766	3937.7623
842.951	3662.37047
843.135	3925.15637
843.319	3630.81581
843.504	3843.20019
843.688	3691.81762
843.872	3820.07887
844.056	3548.75393
844.241	3712.849
844.425	3662.37047
844.609	3645.54185
844.793	3416.13342
844.977	3706.53978
845.161	3717.05504
845.346	3790.64828
845.53	3515.07937
845.714	3552.96292
845.898	3374.0168
846.082	3460.34823
846.266	3348.74346
846.45	3546.64941
846.634	3329.78681
846.818	3571.90246
847.002	3302.40252
847.186	3729.67271
847.37	3384.54662
847.554	3544.54487
847.738	3321.36119
847.922	3588.73634
848.106	3510.86971
848.29	3487.71533
848.473	3479.29501
848.657	3735.98129
848.841	3435.08359
849.025	3651.85272
849.209	3317.14827
849.392	3376.1228
849.576	3382.44069
849.76	3397.18182
849.944	3093.76783
850.127	3418.23907
850.311	3428.76703
850.495	3350.84967
850.678	3034.73138
850.862	3194.94419
851.046	3070.5764
851.229	3226.5541
851.413	3133.82125
851.596	3367.6987
851.78	3034.73138
851.964	3312.93529
852.147	3026.29661
852.331	3224.44689
852.514	2952.48197
852.698	3062.14268
852.881	2956.70045
853.065	3135.92916
853.248	3024.18787
853.431	3095.87605
853.615	2859.66072
853.798	3169.6536
853.982	2790.02671
854.165	2986.2281
854.348	2963.02805
854.532	3140.14494
854.715	2804.79882
854.898	2842.78114
855.081	2741.48509
855.265	2724.59939
855.448	2849.11109
855.631	2865.99033
855.814	2663.38174
855.997	2811.12952
856.181	2540.91494
856.364	2948.26344
856.547	2857.55082
856.73	2927.16988
856.913	2532.46747
857.096	2918.73205
857.279	2498.67575
857.462	2678.15941
857.645	2646.49222
857.828	2705.60197
858.011	2481.77881
858.194	2688.7145
858.377	2690.82548
858.56	2855.44091
858.743	2547.25042
858.926	2849.11109
859.109	2625.3792
859.292	2756.25938
859.475	2388.83312
859.658	2595.8189
859.841	2376.15713
860.023	2587.37266
860.206	2420.52147
860.389	2787.91635
860.572	2553.58579
860.755	2663.38174
860.937	2557.80932
861.12	2515.57198
861.303	2540.91494
861.486	2559.92106
861.668	2505.01192
861.851	2642.26972
862.034	2494.45158
862.216	2553.58579
862.399	2143.70332
862.581	2481.77881
862.764	2287.41515
862.947	2409.95895
863.129	2099.31398
863.312	2243.03788
863.494	1845.60333
863.677	2175.40785
863.859	2162.72626
864.042	2388.83312
864.224	2133.13474
864.406	2259.94398
864.589	2046.46523
864.771	2219.79105
864.954	2166.95349
865.136	2266.28362
865.318	2124.67973
865.501	2048.57927
865.683	1890.0088
865.865	2054.92133
866.048	1964.01264
866.23	2156.38535
866.412	2008.41142
866.594	2052.80732
866.777	2050.6933
866.959	2109.88318
867.141	2042.23714
867.323	2033.78087
867.505	2029.5527
867.687	2139.47591
867.869	2207.11052
868.052	2251.491
868.234	2114.1108
868.416	2302.20667
868.598	1974.58403
868.78	2120.45219
868.962	2118.3384
869.144	2025.3245
869.326	1894.23777
869.508	1932.29756
869.69	1801.19576
869.872	1894.23777
870.054	1839.25952
870.236	1953.44109
870.417	1949.21243
870.599	2054.92133
870.781	1851.94711
870.963	1932.29756
871.145	1860.4054
871.327	1919.61116
871.508	1691.22653
871.69	1877.32175
871.872	1708.14549
872.054	2004.18309
872.235	1708.14549
872.417	1978.81254
872.599	1915.38232
872.78	2158.49899
872.962	1980.92679
873.144	1964.01264
873.325	1856.17626
873.507	1896.35225
873.689	1807.53982
873.87	2097.20012
874.052	1699.68604
874.233	1970.35549
874.415	1887.8943
874.596	1881.55079
874.778	1750.44196
874.959	1930.18318
875.141	1862.51996
875.322	2114.1108
875.503	1737.75316
875.685	2080.28895
875.866	1670.07757
876.048	1589.70925
876.229	1640.46857
876.41	1786.39281
876.592	1672.19248
876.773	1830.80103
876.954	1608.74413
877.136	1822.34247
877.317	1712.3752
877.498	1864.63452
877.679	1741.98278
877.86	1915.38232
878.042	1686.99676
878.223	1970.35549
878.404	1718.71973
878.585	1915.38232
878.766	1606.62915
878.947	1942.8694
879.128	1710.26034
879.309	1767.36015
879.49	1911.15346
879.672	1832.91566
879.853	1752.55675
880.034	2008.41142
880.215	1811.76917
880.396	1729.2939
880.576	1693.34141
880.757	1868.86362
880.938	1765.24539
881.119	1902.69566
881.3	1589.70925
881.481	1868.86362
881.662	1648.92834
881.843	1617.20403
882.023	1822.34247
882.204	1722.94941
882.385	1758.90108
882.566	1980.92679
882.747	1593.93924
882.927	1788.50753
883.108	1598.16922
883.289	1784.27808
883.469	1615.08906
883.65	1737.75316
883.831	1792.73696
884.011	1805.42514
884.192	1735.63835
884.373	1930.18318
884.553	1703.91577
884.734	1716.60489
884.914	1551.63908
885.095	1771.58965
885.275	1676.42229
885.456	1769.4749
885.636	1530.48879
885.817	1733.52354
885.997	1659.50299
886.178	1792.73696
886.358	1661.61791
886.538	1777.93389
886.719	1693.34141
886.899	1830.80103
887.08	1782.16336
887.26	1894.23777
887.44	1921.72558
887.621	1917.49675
887.801	1894.23777
887.981	1885.7798
888.161	1780.04862
888.342	1710.26034
888.522	1710.26034
888.702	1919.61116
888.882	1678.53719
889.062	1919.61116
889.242	1796.96637
889.423	2031.66679
889.603	1934.41194
889.783	2021.09627
889.963	1725.06424
890.143	1936.52631
890.323	1636.23868
890.503	2018.98215
890.683	1763.13062
890.863	1837.1449
891.043	1371.86035
891.223	1900.58119
891.403	1678.53719
891.583	1999.95473
891.763	1712.3752
891.943	1803.31045
892.122	1750.44196
892.302	1913.26789
892.482	1577.01925
892.662	1777.93389
892.842	1699.68604
893.022	1870.97816
893.201	1661.61791
893.381	1870.97816
893.561	1752.55675
893.741	1716.60489
893.92	1634.12372
894.1	1644.69846
894.28	1513.56849
894.459	1809.6545
894.639	1560.09916
894.819	1784.27808
894.998	1517.79857
895.178	1763.13062
895.357	1505.10832
895.537	1591.82424
895.716	1462.80734
895.896	1579.13425
896.075	1390.89568
896.255	1547.40903
896.434	1340.135
896.614	1585.47925
896.793	1371.86035
896.973	1511.45345
897.152	1418.39126
897.331	1585.47925
897.511	1464.9224
897.69	1555.86912
897.87	1335.90498
898.049	1543.17898
898.228	1285.14525
898.407	1412.04612
898.587	1340.135
898.766	1448.00198
898.945	1217.46769
899.124	1467.03745
899.304	1308.40999
899.483	1435.31167
899.662	1253.42105
899.841	1483.95785
900.02	1496.64814
900.199	1431.08156
900.378	1314.75496
900.557	1615.08906
900.737	1259.76584
900.916	1384.55056
901.095	1352.8251
901.274	1263.99572
901.453	1236.50171
901.632	1259.76584
901.811	1158.25247
901.989	1219.58257
902.168	1067.3212
902.347	1211.12307
902.526	1075.77955
902.705	1230.15701
902.884	1086.35259
903.063	1107.49906
903.242	989.08586
903.42	967.94264
903.599	948.91433
903.778	1022.91636
903.957	997.54333
904.135	1187.85973
904.314	1018.68746
904.493	1109.61373
904.672	1035.6032
904.85	1031.37423
905.029	1003.88651
905.207	1060.9775
905.386	948.91433
905.565	1050.40478
905.743	896.06103
905.922	934.11494
906.1	813.62002
906.279	991.20022
906.457	796.71072
906.636	946.80011
906.814	703.72099
906.993	883.37696
907.171	822.07489
907.35	866.46532
907.528	642.44384
907.707	752.32677
907.885	602.30222
908.063	822.07489
908.242	541.04242
908.42	737.53311
908.598	602.30222
908.777	815.73372
908.955	636.1054
909.133	769.23442
909.311	693.15527
909.49	803.05163
909.668	642.44384
909.846	803.05163
910.024	642.44384
910.202	642.44384
910.38	720.6267
910.559	669.9117
910.737	777.68849
910.915	676.25072
911.093	627.6543
911.271	750.21336
911.449	627.6543
911.627	784.02915
911.805	549.49137
911.983	830.52991
912.161	735.41977
912.339	860.12359
912.517	722.73996
912.695	773.46144
912.872	726.96652
913.05	642.44384
913.228	604.41482
913.406	612.86537
913.584	636.1054
913.762	824.18863
913.939	693.15527
914.117	779.80203
914.295	722.73996
914.473	591.73939
914.65	697.38152
914.828	777.68849
915.006	524.14517
915.184	659.3469
915.361	534.70585
915.539	676.25072
915.716	595.96448
915.894	642.44384
916.072	574.83955
916.249	720.6267
916.427	614.97804
916.604	678.36375
916.782	549.49137
916.959	650.89528
917.137	612.86537
917.314	600.18963
917.492	526.25728
917.669	560.05288
917.847	604.41482
918.024	633.9926
918.201	636.1054
918.379	560.05288
918.556	481.90607
918.733	617.09072
918.911	526.25728
919.088	614.97804
919.265	524.14517
919.442	566.38994
919.62	496.6891
919.797	583.28936
919.974	475.57071
920.151	469.23549
920.328	441.78444
920.506	570.61472
920.683	500.91295
920.86	536.81802
921.037	503.0249
921.214	522.03308
921.391	484.01789
921.568	541.04242
921.745	490.35343
921.922	507.24884
922.099	498.80101
922.276	481.90607
922.453	448.11907
922.63	435.44996
922.807	382.66819
922.984	427.0042
923.161	401.66845
923.338	397.44606
923.514	376.33506
923.691	479.79427
923.868	397.44606
924.045	460.78874
924.222	408.00217
924.399	450.23064
924.575	439.67293
924.752	416.44736
924.929	321.45445
925.105	439.67293
925.282	329.89685
925.459	323.56502
925.635	283.46719
925.812	427.0042
925.989	353.11491
926.165	329.89685
926.342	277.13656
926.518	325.67561
926.695	291.9083
926.871	359.44748
927.048	249.70578
927.224	389.00146
927.401	302.46008
927.577	289.79799
927.754	260.25571
927.93	315.12283
928.107	338.33954
928.283	281.35697
928.459	268.69598
928.636	281.35697
928.812	289.79799
928.988	359.44748
929.165	237.04651
929.341	279.24676
929.517	272.91624
929.693	380.55713
929.87	287.68771
930.046	260.25571
930.222	232.82691
930.398	323.56502
930.574	262.36575
930.751	203.2919
930.927	228.60739
931.103	256.03568
931.279	182.19786
931.455	232.82691
931.631	203.2919
931.807	239.15634
931.983	169.54242
932.159	256.03568
932.335	211.73008
932.511	213.83967
932.687	150.56067
932.863	190.63523
933.039	169.54242
933.215	163.21498
933.391	171.65161
933.566	260.25571
933.742	222.27825
933.918	215.94929
934.094	110.49372
934.27	207.51095
934.445	135.79826
934.621	112.60231
934.797	129.47183
934.973	144.23379
935.148	110.49372
935.324	127.36306
935.5	180.08857
935.675	110.49372
935.851	146.34273
936.027	169.54242
936.202	17.73793
936.378	146.34273
936.553	123.1456
936.729	104.16807
936.904	146.34273
937.08	95.73419
937.255	68.32652
937.431	112.60231
937.606	85.19233
937.782	97.84262
937.957	135.79826
938.133	47.24632
938.308	85.19233
938.483	68.32652
938.659	102.05957
938.834	13.52282
939.009	47.24632
939.185	135.79826
939.36	30.38382
939.535	106.2766
939.71	76.75925
939.886	47.24632
940.061	53.57014
940.236	47.24632
940.411	91.51738
940.586	-15.98024
940.761	64.1103
940.937	72.54284
941.112	66.2184
941.287	85.19233
941.462	51.46218
941.637	38.81488
941.812	-1.2293
941.987	85.19233
942.162	-3.33665
942.337	68.32652
942.512	123.1456
942.687	131.58062
942.862	-7.55127
943.037	-11.7658
943.212	13.52282
943.386	93.62577
943.561	-7.55127
943.736	-41.26476
943.911	9.30781
944.086	55.67812
944.26	80.97574
944.435	110.49372
944.61	21.95313
944.785	34.5993
944.959	55.67812
945.134	70.43467
945.309	-3.33665
945.483	-28.62294
945.658	26.16843
945.833	59.89417
946.007	38.81488
946.182	26.16843
946.357	85.19233
946.531	43.03055
946.706	89.40901
946.88	9.30781
947.055	0.87808
947.229	43.03055
947.404	72.54284
947.578	43.03055
947.752	17.73793
947.927	19.84552
948.101	13.52282
948.276	30.38382
948.45	-1.2293
948.624	-1.2293
948.799	62.00222
948.973	51.46218
949.147	21.95313
949.321	64.1103
949.496	45.13842
949.67	11.4153
949.844	45.13842
950.018	-3.33665
950.193	68.32652
950.367	93.62577
950.541	28.27611
950.715	123.1456
950.889	51.46218
951.063	19.84552
951.237	34.5993
951.411	102.05957
951.585	26.16843
951.759	87.30066
951.933	17.73793
952.107	-5.44397
952.281	62.00222
952.455	9.30781
952.629	80.97574
952.803	0.87808
952.977	26.16843
953.151	59.89417
953.325	-20.19457
953.499	59.89417
953.672	97.84262
953.846	99.95108
954.02	11.4153
954.194	-85.50398
954.368	32.49155
954.541	53.57014
954.715	21.95313
954.889	30.38382
955.062	36.70708
955.236	97.84262
955.41	-22.3017
955.583	66.2184
955.757	97.84262
955.93	-41.26476
956.104	19.84552
956.278	59.89417
956.451	93.62577
956.625	62.00222
956.798	127.36306
956.972	-37.05092
957.145	28.27611
957.319	76.75925
957.492	-5.44397
957.665	51.46218
957.839	-7.55127
958.012	45.13842
958.185	28.27611
958.359	43.03055
958.532	91.51738
958.705	93.62577
958.879	57.78613
959.052	55.67812
959.225	13.52282
959.398	47.24632
959.572	53.57014
959.745	72.54284
959.918	17.73793
960.091	104.16807
960.264	76.75925
960.438	85.19233
960.611	93.62577
960.784	15.63036
960.957	76.75925
961.13	9.30781
961.303	34.5993
961.476	106.2766
961.649	21.95313
961.822	-9.65855
961.995	-7.55127
962.168	85.19233
962.341	36.70708
962.514	53.57014
962.686	47.24632
962.859	-47.58533
963.032	-5.44397
963.205	87.30066
963.378	68.32652
963.551	-32.83698
963.723	85.19233
963.896	7.20034
964.069	15.63036
964.242	93.62577
964.414	97.84262
964.587	66.2184
964.76	-22.3017
964.932	15.63036
965.105	102.05957
965.278	34.5993
965.45	83.08402
965.623	32.49155
965.795	-7.55127
965.968	43.03055
966.14	26.16843
966.313	146.34273
966.485	32.49155
966.658	9.30781
966.83	43.03055
967.003	45.13842
967.175	19.84552
967.348	11.4153
967.52	34.5993
967.692	59.89417
967.865	57.78613
968.037	55.67812
968.209	53.57014
968.382	28.27611
968.554	28.27611
968.726	87.30066
968.898	43.03055
969.071	68.32652
969.243	-22.3017
969.415	66.2184
969.587	30.38382
969.759	64.1103
969.932	-5.44397
970.104	9.30781
970.276	95.73419
970.448	2.98547
970.62	30.38382
970.792	13.52282
970.964	17.73793
971.136	19.84552
971.308	-5.44397
971.48	-15.98024
971.652	62.00222
971.824	7.20034
971.996	64.1103
972.168	38.81488
972.339	76.75925
972.511	36.70708
972.683	24.06077
972.855	11.4153
973.027	78.86748
973.199	19.84552
973.37	21.95313
973.542	-3.33665
973.714	53.57014
973.886	34.5993
974.057	43.03055
974.229	47.24632
974.401	0.87808
974.572	-37.05092
974.744	26.16843
974.915	24.06077
975.087	51.46218
975.259	-32.83698
975.43	36.70708
975.602	-64.43909
975.773	68.32652
975.945	49.35423
976.116	-66.54569
976.288	21.95313
976.459	36.70708
976.63	87.30066
976.802	-53.90568
976.973	30.38382
977.145	5.09289
977.316	93.62577
977.487	13.52282
977.659	45.13842
977.83	0.87808
978.001	87.30066
978.172	17.73793
978.344	26.16843
978.515	30.38382
978.686	43.03055
978.857	-11.7658
979.028	30.38382
979.2	43.03055
979.371	0.87808
979.542	-9.65855
979.713	-22.3017
979.884	9.30781
980.055	64.1103
980.226	59.89417
980.397	28.27611
980.568	-22.3017
980.739	28.27611
980.91	9.30781
981.081	-5.44397
981.252	17.73793
981.423	11.4153
981.594	-15.98024
981.765	-18.08741
981.936	-47.58533
982.106	-37.05092
982.277	-5.44397
982.448	-72.86535
982.619	-45.4785
982.79	-18.08741
982.96	34.5993
983.131	26.16843
983.302	45.13842
983.472	-22.3017
983.643	11.4153
983.814	0.87808
983.984	-11.7658
984.155	32.49155
984.326	-7.55127
984.496	19.84552
984.667	-3.33665
984.837	53.57014
985.008	0.87808
985.178	38.81488
985.349	17.73793
985.519	-22.3017
985.69	19.84552
985.86	-41.26476
986.031	-32.83698
986.201	95.73419
986.371	30.38382
986.542	80.97574
986.712	-3.33665
986.882	28.27611
987.053	26.16843
987.223	-5.44397
987.393	26.16843
987.563	-13.87303
987.734	38.81488
987.904	-24.40881
988.074	-74.97185
988.244	-7.55127
988.414	0.87808
988.585	-32.83698
988.755	59.89417
988.925	-28.62294
989.095	-81.29121
989.265	9.30781
989.435	28.27611
989.605	-32.83698
989.775	-11.7658
989.945	-11.7658
990.115	0.87808
990.285	108.38515
990.455	28.27611
990.625	93.62577
990.795	-32.83698
990.965	-47.58533
991.134	17.73793
991.304	-24.40881
991.474	36.70708
991.644	95.73419
991.814	72.54284
991.984	17.73793
992.153	-24.40881
992.323	9.30781
992.493	-3.33665
992.662	9.30781
992.832	-58.11912
993.002	-3.33665
993.171	53.57014
993.341	-58.11912
993.511	43.03055
993.68	13.52282
993.85	43.03055
994.019	93.62577
994.189	-18.08741
994.358	-58.11912
994.528	24.06077
994.697	-34.94396
994.867	-51.79892
995.036	19.84552
995.206	51.46218
995.375	-9.65855
995.544	55.67812
995.714	15.63036
995.883	-39.15785
996.052	21.95313
996.222	-32.83698
996.391	93.62577
996.56	-70.75882
996.73	-24.40881
996.899	102.05957
997.068	28.27611
997.237	-7.55127
997.406	36.70708
997.576	26.16843
997.745	30.38382
997.914	64.1103
998.083	30.38382
998.252	19.84552
998.421	-45.4785
998.59	70.43467
998.759	-45.4785
998.928	26.16843
999.097	26.16843
999.266	19.84552
999.435	97.84262
999.604	36.70708
999.773	-20.19457
999.942	32.49155
1000.111	53.57014
1000.28	45.13842
1000.448	38.81488
1000.617	64.1103
1000.786	9.30781
1000.955	72.54284
1001.124	-47.58533
1001.292	62.00222
1001.461	-47.58533
1001.63	43.03055
1001.798	-1.2293
1001.967	36.70708
1002.136	51.46218
1002.304	0.87808
1002.473	17.73793
1002.642	2.98547
1002.81	85.19233
1002.979	-87.61033
1003.147	51.46218
1003.316	17.73793
1003.484	-70.75882
1003.653	-58.11912
1003.821	-5.44397
1003.99	26.16843
1004.158	40.92271
1004.327	-58.11912
1004.495	-11.7658
1004.663	-53.90568
1004.832	11.4153
1005	-1.2293
1005.168	-5.44397
1005.337	0.87808
1005.505	-3.33665
1005.673	-32.83698
1005.842	-13.87303
1006.01	-51.79892
1006.178	-56.01241
1006.346	55.67812
1006.514	49.35423
1006.683	19.84552
1006.851	28.27611
1007.019	0.87808
1007.187	-87.61033
1007.355	40.92271
1007.523	-3.33665
1007.691	64.1103
1007.859	-32.83698
1008.027	13.52282
1008.195	-24.40881
1008.363	-58.11912
1008.531	-7.55127
1008.699	40.92271
1008.867	-24.40881
1009.035	85.19233
1009.203	36.70708
1009.37	-11.7658
1009.538	2.98547
1009.706	5.09289
1009.874	19.84552
1010.042	-41.26476
1010.209	0.87808
1010.377	-15.98024
1010.545	36.70708
1010.713	2.98547
1010.88	-53.90568
1011.048	17.73793
1011.216	-7.55127
1011.383	34.5993
1011.551	-32.83698
1011.718	7.20034
1011.886	26.16843
1012.054	-11.7658
1012.221	-37.05092
1012.389	55.67812
1012.556	0.87808
1012.724	-5.44397
1012.891	-43.37164
1013.058	19.84552
1013.226	36.70708
1013.393	-20.19457
1013.561	38.81488
1013.728	40.92271
1013.895	62.00222
1014.063	-24.40881
1014.23	40.92271
1014.397	-41.26476
1014.565	-13.87303
1014.732	76.75925
1014.899	0.87808
1015.066	-66.54569
1015.233	38.81488
1015.401	11.4153
1015.568	40.92271
1015.735	24.06077
1015.902	-5.44397
1016.069	85.19233
1016.236	-53.90568
1016.403	72.54284
1016.57	21.95313
1016.737	-7.55127
1016.904	38.81488
1017.071	43.03055
1017.238	-47.58533
1017.405	-53.90568
1017.572	26.16843
1017.739	-37.05092
1017.906	17.73793
1018.073	-5.44397
1018.24	28.27611
1018.407	13.52282
1018.573	11.4153
1018.74	2.98547
1018.907	36.70708
1019.074	17.73793
1019.241	28.27611
1019.407	13.52282
1019.574	-24.40881
1019.741	-58.11912
1019.907	36.70708
1020.074	-100.24787
1020.241	-22.3017
1020.407	32.49155
1020.574	-47.58533
1020.74	-28.62294
1020.907	78.86748
1021.073	-20.19457
1021.24	-32.83698
1021.406	2.98547
1021.573	5.09289
1021.739	28.27611
1021.906	43.03055
1022.072	-7.55127
1022.239	26.16843
1022.405	-47.58533
1022.571	-32.83698
1022.738	49.35423
1022.904	-41.26476
1023.07	-26.51589
1023.237	-5.44397
1023.403	-66.54569
1023.569	-91.82295
1023.735	15.63036
1023.902	-11.7658
1024.068	34.5993
1024.234	-9.65855
1024.4	34.5993
1024.566	76.75925
1024.732	-37.05092
1024.898	64.1103
1025.065	-83.39761
1025.231	45.13842
1025.397	21.95313
1025.563	-81.29121
1025.729	-26.51589
1025.895	34.5993
1026.061	28.27611
1026.227	-15.98024
1026.392	34.5993
1026.558	21.95313
1026.724	11.4153
1026.89	-22.3017
1027.056	26.16843
1027.222	0.87808
1027.388	0.87808
1027.553	21.95313
1027.719	36.70708
1027.885	-58.11912
1028.051	-39.15785
1028.216	-15.98024
1028.382	34.5993
1028.548	-7.55127
1028.713	-39.15785
1028.879	38.81488
1029.045	43.03055
1029.21	-28.62294
1029.376	45.13842
1029.541	5.09289
1029.707	17.73793
1029.873	-58.11912
1030.038	-62.33245
1030.204	32.49155
1030.369	21.95313
1030.534	-45.4785
1030.7	-37.05092
1030.865	-26.51589
1031.031	-3.33665
1031.196	-81.29121
1031.361	-24.40881
1031.527	-64.43909
1031.692	-74.97185
1031.857	-28.62294
1032.023	9.30781
1032.188	-7.55127
1032.353	24.06077
1032.518	-58.11912
1032.684	51.46218
1032.849	-7.55127
1033.014	-30.72997
1033.179	0.87808
1033.344	-32.83698
1033.509	-28.62294
1033.674	68.32652
1033.839	-7.55127
1034.004	17.73793
1034.17	38.81488
1034.335	17.73793
1034.5	-32.83698
1034.664	-72.86535
1034.829	5.09289
1034.994	28.27611
1035.159	-20.19457
1035.324	34.5993
1035.489	17.73793
1035.654	9.30781
1035.819	9.30781
1035.984	-11.7658
1036.148	26.16843
1036.313	-32.83698
1036.478	-74.97185
1036.643	-72.86535
1036.807	5.09289
1036.972	-39.15785
1037.137	0.87808
1037.301	7.20034
1037.466	-22.3017
1037.631	0.87808
1037.795	47.24632
1037.96	-62.33245
1038.124	-26.51589
1038.289	-39.15785
1038.454	51.46218
1038.618	43.03055
1038.783	-7.55127
1038.947	-30.72997
1039.111	93.62577
1039.276	-15.98024
1039.44	0.87808
1039.605	-22.3017
1039.769	5.09289
1039.933	-20.19457
1040.098	-37.05092
1040.262	-7.55127
1040.426	-5.44397
1040.591	43.03055
1040.755	-45.4785
1040.919	38.81488
1041.083	-11.7658
1041.248	-39.15785
1041.412	5.09289
1041.576	38.81488
1041.74	-45.4785
1041.904	9.30781
1042.068	-13.87303
1042.232	59.89417
1042.397	-30.72997
1042.561	102.05957
1042.725	-60.2258
1042.889	24.06077
1043.053	-37.05092
1043.217	-22.3017
1043.381	28.27611
1043.544	0.87808
1043.708	-3.33665
1043.872	93.62577
1044.036	28.27611
1044.2	-49.69214
1044.364	-24.40881
1044.528	38.81488
1044.691	-7.55127
1044.855	-32.83698
1045.019	-22.3017
1045.183	-24.40881
1045.346	11.4153
1045.51	21.95313
1045.674	47.24632
1045.837	0.87808
1046.001	47.24632
1046.165	-5.44397
1046.328	-3.33665
1046.492	-60.2258
1046.655	-56.01241
1046.819	53.57014
1046.983	-3.33665
1047.146	40.92271
1047.31	9.30781
1047.473	5.09289
1047.636	30.38382
1047.8	-9.65855
1047.963	59.89417
1048.127	-37.05092
1048.29	59.89417
