Data from absorb_only_2.23.25_USB4F045381__57__0162.txt Node

Date: Sun Feb 23 19:23:19 EST 2025
User: ssocol
Spectrometer: USB4F04538
Trigger mode: 4
Integration Time (sec): 2.600000E-3
Scans to average: 1
Electric dark correction enabled: true
Nonlinearity correction enabled: true
Boxcar width: 0
XAxis mode: Wavelengths
Number of Pixels in Spectrum: 3648
>>>>>Begin Spectral Data<<<<<
345.52	-96.3865
345.736	-96.3865
345.952	-96.3865
346.168	46.895
346.384	-16.33143
346.6	-16.33143
346.816	-3.68787
347.032	11.06405
347.248	4.74166
347.464	-12.11701
347.68	0.52684
347.896	36.35578
348.112	82.73264
348.328	-104.8112
348.544	-22.65289
348.76	-22.65289
348.975	46.895
349.191	-41.61591
349.407	44.78711
349.623	21.60186
349.839	49.00291
350.055	-16.33143
350.27	59.54283
350.486	32.14026
350.702	0.52684
350.918	-7.90249
351.133	-26.86706
351.349	-7.90249
351.565	36.35578
351.781	11.06405
351.996	-7.90249
352.212	-54.2568
352.428	-31.08114
352.644	38.46358
352.859	25.81715
353.075	-24.75999
353.291	8.95656
353.506	-62.68356
353.722	38.46358
353.938	-33.18815
354.153	0.52684
354.369	6.8491
354.584	23.70949
354.8	-94.28026
355.016	36.35578
355.231	8.95656
355.447	0.52684
355.662	17.38667
355.878	-41.61591
356.093	127.01161
356.309	-7.90249
356.524	25.81715
356.74	21.60186
356.955	11.06405
357.171	25.81715
357.386	11.06405
357.602	25.81715
357.817	-16.33143
358.033	-33.18815
358.248	8.95656
358.464	-33.18815
358.679	-22.65289
358.895	36.35578
359.11	-24.75999
359.325	-54.2568
359.541	15.2791
359.756	67.97517
359.972	-7.90249
360.187	13.17157
360.402	36.35578
360.618	19.49425
360.833	19.49425
361.048	84.84094
361.264	-16.33143
361.479	-5.79519
361.694	13.17157
361.909	51.11085
362.125	63.75895
362.34	4.74166
362.555	-64.79019
362.77	55.32679
362.986	6.8491
363.201	-3.68787
363.416	-41.61591
363.631	-43.72279
363.847	-16.33143
364.062	-5.79519
364.277	11.06405
364.492	-3.68787
364.707	32.14026
364.922	15.2791
365.138	51.11085
365.353	-1.58052
365.568	42.67924
365.783	36.35578
365.998	51.11085
366.213	8.95656
366.428	19.49425
366.643	6.8491
366.858	4.74166
367.073	-3.68787
367.288	-20.54576
367.503	8.95656
367.718	-18.43861
367.933	-22.65289
368.148	-39.50901
368.363	27.92483
368.578	-1.58052
368.793	-39.50901
369.008	55.32679
369.223	0.52684
369.438	42.67924
369.653	63.75895
369.868	11.06405
370.083	13.17157
370.298	30.03253
370.513	-3.68787
370.728	-16.33143
370.943	-54.2568
371.157	53.21881
371.372	25.81715
371.587	72.19148
371.802	19.49425
372.017	-1.58052
372.232	51.11085
372.446	65.86705
372.661	25.81715
372.876	15.2791
373.091	124.90287
373.306	49.00291
373.52	-10.00976
373.735	-83.74867
373.95	30.03253
374.165	89.05761
374.379	34.24801
374.594	4.74166
374.809	42.67924
375.023	70.08331
375.238	2.63424
375.453	-45.82964
375.667	80.62436
375.882	34.24801
376.097	-12.11701
376.311	17.38667
376.526	4.74166
376.741	49.00291
376.955	-33.18815
377.17	-50.04327
377.384	34.24801
377.599	0.52684
377.813	-3.68787
378.028	-24.75999
378.242	15.2791
378.457	30.03253
378.672	-3.68787
378.886	13.17157
379.101	124.90287
379.315	11.06405
379.53	4.74166
379.744	4.74166
379.958	-24.75999
380.173	-14.22423
380.387	-39.50901
380.602	-10.00976
380.816	-50.04327
381.031	103.81665
381.245	-41.61591
381.459	19.49425
381.674	76.40788
381.888	-20.54576
382.103	-22.65289
382.317	-45.82964
382.531	11.06405
382.746	38.46358
382.96	-1.58052
383.174	36.35578
383.388	-50.04327
383.603	55.32679
383.817	-18.43861
384.031	-39.50901
384.246	51.11085
384.46	17.38667
384.674	8.95656
384.888	51.11085
385.103	21.60186
385.317	-24.75999
385.531	34.24801
385.745	53.21881
385.959	-16.33143
386.174	27.92483
386.388	-47.93647
386.602	49.00291
386.816	11.06405
387.03	4.74166
387.244	78.51611
387.458	-18.43861
387.672	80.62436
387.887	-20.54576
388.101	0.52684
388.315	-22.65289
388.529	-3.68787
388.743	-35.29512
388.957	-1.58052
389.171	-31.08114
389.385	-16.33143
389.599	-22.65289
389.813	19.49425
390.027	-33.18815
390.241	53.21881
390.455	34.24801
390.669	17.38667
390.883	21.60186
391.097	72.19148
391.311	40.5714
391.525	49.00291
391.738	86.94927
391.952	59.54283
392.166	17.38667
392.38	-37.40208
392.594	-18.43861
392.808	25.81715
393.022	11.06405
393.236	-58.47023
393.449	30.03253
393.663	-37.40208
393.877	-16.33143
394.091	139.6645
394.305	51.11085
394.518	19.49425
394.732	-7.90249
394.946	32.14026
395.16	78.51611
395.373	8.95656
395.587	0.52684
395.801	89.05761
396.015	-1.58052
396.228	59.54283
396.442	-54.2568
396.656	46.895
396.869	25.81715
397.083	-12.11701
397.297	6.8491
397.51	15.2791
397.724	0.52684
397.938	55.32679
398.151	59.54283
398.365	61.65088
398.578	17.38667
398.792	-12.11701
399.005	36.35578
399.219	21.60186
399.433	-14.22423
399.646	2.63424
399.86	25.81715
400.073	17.38667
400.287	13.17157
400.5	51.11085
400.714	-24.75999
400.927	30.03253
401.141	40.5714
401.354	78.51611
401.567	19.49425
401.781	13.17157
401.994	42.67924
402.208	8.95656
402.421	65.86705
402.635	51.11085
402.848	-54.2568
403.061	15.2791
403.275	76.40788
403.488	59.54283
403.701	34.24801
403.915	-24.75999
404.128	34.24801
404.341	84.84094
404.555	-5.79519
404.768	-52.15005
404.981	59.54283
405.195	4.74166
405.408	-56.36353
405.621	-5.79519
405.834	38.46358
406.048	11.06405
406.261	-22.65289
406.474	13.17157
406.687	-50.04327
406.9	-10.00976
407.114	36.35578
407.327	8.95656
407.54	23.70949
407.753	53.21881
407.966	17.38667
408.179	2.63424
408.392	-20.54576
408.605	57.4348
408.819	61.65088
409.032	-33.18815
409.245	-5.79519
409.458	42.67924
409.671	42.67924
409.884	-33.18815
410.097	34.24801
410.31	-7.90249
410.523	-7.90249
410.736	-1.58052
410.949	19.49425
411.162	76.40788
411.375	21.60186
411.588	57.4348
411.801	34.24801
412.014	13.17157
412.227	32.14026
412.44	-1.58052
412.653	-24.75999
412.865	36.35578
413.078	-16.33143
413.291	23.70949
413.504	-33.18815
413.717	21.60186
413.93	34.24801
414.143	-14.22423
414.356	97.49122
414.568	19.49425
414.781	36.35578
414.994	8.95656
415.207	15.2791
415.42	38.46358
415.632	-10.00976
415.845	36.35578
416.058	-14.22423
416.271	76.40788
416.483	49.00291
416.696	34.24801
416.909	65.86705
417.121	38.46358
417.334	51.11085
417.547	110.14229
417.759	-39.50901
417.972	8.95656
418.185	-3.68787
418.397	30.03253
418.61	30.03253
418.823	86.94927
419.035	-7.90249
419.248	-39.50901
419.46	63.75895
419.673	36.35578
419.885	-18.43861
420.098	17.38667
420.311	-14.22423
420.523	42.67924
420.736	40.5714
420.948	46.895
421.161	25.81715
421.373	49.00291
421.586	42.67924
421.798	67.97517
422.01	27.92483
422.223	38.46358
422.435	34.24801
422.648	-22.65289
422.86	78.51611
423.073	13.17157
423.285	59.54283
423.497	38.46358
423.71	40.5714
423.922	25.81715
424.134	4.74166
424.347	-56.36353
424.559	-31.08114
424.771	36.35578
424.984	-41.61591
425.196	27.92483
425.408	8.95656
425.621	25.81715
425.833	23.70949
426.045	11.06405
426.257	57.4348
426.47	8.95656
426.682	42.67924
426.894	72.19148
427.106	63.75895
427.318	89.05761
427.531	-12.11701
427.743	42.67924
427.955	-16.33143
428.167	42.67924
428.379	34.24801
428.591	53.21881
428.804	53.21881
429.016	89.05761
429.228	72.19148
429.44	19.49425
429.652	34.24801
429.864	32.14026
430.076	38.46358
430.288	-5.79519
430.5	-18.43861
430.712	53.21881
430.924	51.11085
431.136	-28.97412
431.348	-10.00976
431.56	127.01161
431.772	25.81715
431.984	30.03253
432.196	51.11085
432.408	55.32679
432.62	-58.47023
432.832	65.86705
433.044	59.54283
433.256	51.11085
433.468	59.54283
433.679	15.2791
433.891	17.38667
434.103	44.78711
434.315	11.06405
434.527	30.03253
434.739	122.79415
434.95	44.78711
435.162	61.65088
435.374	-22.65289
435.586	42.67924
435.798	76.40788
436.009	-7.90249
436.221	-39.50901
436.433	59.54283
436.645	2.63424
436.856	51.11085
437.068	101.70815
437.28	25.81715
437.491	93.27437
437.703	-16.33143
437.915	27.92483
438.126	2.63424
438.338	110.14229
438.55	78.51611
438.761	57.4348
438.973	89.05761
439.184	59.54283
439.396	70.08331
439.608	118.57677
439.819	19.49425
440.031	30.03253
440.242	-1.58052
440.454	51.11085
440.665	101.70815
440.877	105.92518
441.088	63.75895
441.3	46.895
441.511	4.74166
441.723	59.54283
441.934	-28.97412
442.146	86.94927
442.357	67.97517
442.569	76.40788
442.78	61.65088
442.991	80.62436
443.203	101.70815
443.414	17.38667
443.626	116.46812
443.837	122.79415
444.048	-7.90249
444.26	42.67924
444.471	-58.47023
444.682	36.35578
444.894	17.38667
445.105	74.29967
445.316	-5.79519
445.528	55.32679
445.739	57.4348
445.95	-1.58052
446.161	110.14229
446.373	-37.40208
446.584	70.08331
446.795	63.75895
447.006	67.97517
447.217	25.81715
447.429	80.62436
447.64	42.67924
447.851	84.84094
448.062	42.67924
448.273	17.38667
448.484	34.24801
448.695	93.27437
448.907	38.46358
449.118	38.46358
449.329	120.68545
449.54	78.51611
449.751	30.03253
449.962	51.11085
450.173	63.75895
450.384	80.62436
450.595	61.65088
450.806	-12.11701
451.017	36.35578
451.228	59.54283
451.439	55.32679
451.65	171.30008
451.861	55.32679
452.072	-5.79519
452.283	93.27437
452.494	51.11085
452.705	34.24801
452.915	67.97517
453.126	27.92483
453.337	93.27437
453.548	80.62436
453.759	51.11085
453.97	86.94927
454.181	135.44678
454.391	76.40788
454.602	76.40788
454.813	97.49122
455.024	120.68545
455.235	59.54283
455.445	118.57677
455.656	86.94927
455.867	97.49122
456.078	89.05761
456.288	93.27437
456.499	76.40788
456.71	76.40788
456.921	160.75436
457.131	76.40788
457.342	135.44678
457.553	148.10019
457.763	143.8823
457.974	80.62436
458.184	93.27437
458.395	103.81665
458.606	110.14229
458.816	137.55563
459.027	93.27437
459.237	110.14229
459.448	67.97517
459.659	61.65088
459.869	152.31817
460.08	118.57677
460.29	103.81665
460.501	120.68545
460.711	46.895
460.922	108.03372
461.132	97.49122
461.343	61.65088
461.553	129.12037
461.764	78.51611
461.974	150.20917
462.184	152.31817
462.395	177.62776
462.605	156.53622
462.816	171.30008
463.026	171.30008
463.236	207.15936
463.447	160.75436
463.657	67.97517
463.867	110.14229
464.078	152.31817
464.288	154.42718
464.498	120.68545
464.709	137.55563
464.919	141.77339
465.129	141.77339
465.339	169.1909
465.55	114.35949
465.76	200.83082
465.97	194.50247
466.18	148.10019
466.391	175.51851
466.601	133.33796
466.811	148.10019
467.021	205.04983
467.231	198.72135
467.441	156.53622
467.651	295.77723
467.862	281.00526
468.072	194.50247
468.282	207.15936
468.492	278.89506
468.702	255.68401
468.912	299.99796
469.122	278.89506
469.332	281.00526
469.542	312.66058
469.752	346.43071
469.962	354.87394
470.172	378.09425
470.382	321.10269
470.592	354.87394
470.802	371.76124
471.012	278.89506
471.222	371.76124
471.432	416.09547
471.642	365.42837
471.852	401.31658
472.062	437.20952
472.272	517.45693
472.482	515.34488
472.691	477.33052
472.901	384.42741
473.111	371.76124
473.321	449.87871
473.531	432.98659
473.741	538.57818
473.95	595.61239
474.16	490.00145
474.37	585.04977
474.58	608.28796
474.79	612.51326
474.999	650.54313
475.209	612.51326
475.419	711.82155
475.628	726.61431
475.838	580.82481
476.048	735.06755
476.258	720.27449
476.467	819.60887
476.677	792.13122
476.886	902.05083
477.096	857.65739
477.306	929.53424
477.515	954.90467
477.725	866.113
477.935	912.62122
478.144	988.73347
478.354	976.04747
478.563	984.50478
478.773	1016.22061
478.982	1083.88554
479.192	1109.26129
479.401	1058.51052
479.611	1100.80262
479.82	1265.75817
480.03	1200.1963
480.239	1407.46352
480.449	1253.06856
480.658	1350.35758
480.868	1386.31309
481.077	1375.73791
481.287	1352.4726
481.496	1508.9859
481.705	1437.07421
481.915	1606.27666
482.124	1528.02125
482.333	1659.1505
482.543	1466.68494
482.752	1720.4821
482.961	1868.51119
483.171	1828.33396
483.38	1750.08949
483.589	1750.08949
483.799	1910.80105
484.008	2065.13897
484.217	1781.8109
484.426	1982.68866
484.636	1953.0887
484.845	2175.05559
485.054	2107.41705
485.263	2265.93142
485.472	2060.911
485.682	2249.02552
485.891	2206.75828
486.1	2259.59177
486.309	2225.77897
486.518	2413.83191
486.727	2418.05691
486.936	2432.84408
487.146	2487.76322
487.355	2521.55588
487.564	2544.78663
487.773	2627.13867
487.982	2470.86582
488.191	2549.01026
488.4	2561.68084
488.609	2768.57078
488.818	2603.91303
489.027	2909.94239
489.236	2732.69056
489.445	2994.31254
489.654	2897.28484
489.863	3017.51012
490.072	2836.0994
490.281	3084.98342
490.49	2821.32872
490.698	3154.54837
490.907	3087.09171
491.116	3339.96741
491.325	3203.02263
491.534	3371.55978
491.743	3205.13001
491.952	3348.39243
492.16	3316.79719
492.369	3333.64847
492.578	3561.02995
492.787	3531.56646
492.996	3622.04988
493.204	3628.36138
493.413	3666.22685
493.622	3813.42229
493.831	3459.99735
494.039	3693.5703
494.248	3636.77646
494.457	3926.90723
494.665	3689.36383
494.874	3962.62186
495.083	3817.62647
495.291	3943.71485
495.5	3670.43375
495.709	3889.08539
495.917	3725.11641
496.126	4004.63154
496.335	4000.43094
496.543	4153.69926
496.752	3977.32617
496.96	4233.43859
497.169	4086.52677
497.377	4082.32778
497.586	4099.12324
497.794	4352.98981
498.003	4128.51209
498.211	4292.17423
498.42	4147.40275
498.628	4589.78574
498.837	4290.07682
499.045	4482.94803
499.254	4355.08658
499.462	4602.35108
499.671	4656.7916
499.879	4673.53948
500.087	4623.29153
500.296	4797.01053
500.504	4524.85203
500.713	4566.74719
500.921	4738.42391
501.129	4769.81181
501.338	4445.22689
501.546	4824.2054
501.754	4790.73424
501.962	4769.81181
502.171	4834.66395
502.379	5058.33945
502.587	4573.0307
502.795	4886.9481
503.004	4834.66395
503.212	5066.69603
503.42	5152.32963
503.628	5062.51779
503.837	4824.2054
504.045	5206.61362
504.253	5179.4736
504.461	5192.00025
504.669	5033.26747
504.877	5185.73703
505.085	5125.18174
505.294	5323.47938
505.502	5271.31623
505.71	5202.43849
505.918	5118.91629
506.126	5425.67667
506.334	5206.61362
506.542	5475.71191
506.75	5396.48319
506.958	5542.40447
507.166	5425.67667
507.374	5606.98989
507.582	5519.48162
507.79	5763.15119
507.998	5600.74068
508.206	5900.46332
508.414	5469.45824
508.622	5794.36752
508.83	5467.37364
509.037	5854.70403
509.245	5571.57489
509.453	5792.28659
509.661	5625.73626
509.869	5910.86156
510.077	5761.06991
510.285	5954.52776
510.492	5917.10023
510.7	5935.81495
510.908	5869.26504
511.116	5744.41884
511.324	5709.0303
511.531	5821.41737
511.739	5887.98464
511.947	5973.23866
512.155	6110.39362
512.362	6253.67342
512.57	6116.6255
512.778	6079.23104
512.985	5962.84395
513.193	6129.08863
513.401	6116.6255
513.608	6133.24282
513.816	6108.31628
514.024	6133.24282
514.231	6243.29458
514.439	6226.68721
514.646	6075.07563
514.854	6374.02524
515.061	6282.73106
515.269	6380.2482
515.477	6456.98077
515.684	6498.44458
515.892	6187.23871
516.099	6369.87649
516.307	6425.87681
516.514	6463.20094
516.722	6400.98988
516.929	6361.5787
517.136	6421.72922
517.344	6747.03328
517.551	6639.35225
517.759	6631.06652
517.966	6622.78042
518.173	6589.63234
518.381	6606.20712
518.588	6873.27255
518.796	6809.12877
519.003	6800.85056
519.21	6691.12973
519.418	6829.8227
519.625	6908.4389
519.832	6821.5454
520.039	6898.09653
520.247	7203.99246
520.454	6852.58339
520.661	7251.48649
520.868	6896.02799
521.076	7197.79672
521.283	6790.50228
521.49	7077.97317
521.697	7201.92724
521.904	7038.7043
522.112	7208.12284
522.319	7402.1514
522.526	7139.96022
522.733	7509.40356
522.94	7286.58328
523.147	7435.1583
523.354	7088.30574
523.561	7416.5926
523.768	7402.1514
523.975	7476.40912
524.183	7303.09721
524.39	7540.33084
524.597	7154.42098
524.804	7503.21752
525.011	7338.18466
525.218	7676.35373
525.425	7507.34157
525.632	7416.5926
525.838	7540.33084
526.045	7358.82139
526.252	7554.76192
526.459	7680.47419
526.666	7746.39008
526.873	7867.86629
527.08	7717.55453
527.287	7791.69479
527.494	7507.34157
527.701	7781.39915
527.907	7898.73855
528.114	7958.41176
528.321	7876.09935
528.528	8020.12456
528.735	8018.06776
528.941	7941.95191
529.148	7678.41397
529.355	8174.32687
529.562	7981.04192
529.768	8272.95742
529.975	7851.39919
530.182	8077.70667
530.388	8032.46492
530.595	8254.46766
530.802	7898.73855
531.008	8429.0301
531.215	8277.06604
531.422	8373.59607
531.628	8244.19488
531.835	8285.28304
532.042	8135.27297
532.248	8381.80941
532.455	8309.93217
532.661	8494.71156
532.868	8332.52473
533.074	8387.96921
533.281	8636.27111
533.487	8611.65849
533.694	8708.04266
533.9	8539.85624
534.107	8482.39778
534.313	8718.29388
534.52	8396.182
534.726	8584.99177
534.933	8439.29412
535.139	8712.1432
535.345	8831.02722
535.552	8800.28723
535.758	8896.59233
535.965	8843.32208
536.171	8804.38613
536.377	8878.154
536.584	8824.87955
536.79	8994.90575
536.996	8996.95351
537.203	9093.17871
537.409	8925.2713
537.615	9109.55364
537.821	9029.71535
538.028	9324.37382
538.234	8955.9949
538.44	9074.75558
538.646	9056.33105
538.853	9305.96792
539.059	9066.56707
539.265	9428.64878
539.471	9252.78773
539.677	9224.14756
539.883	9084.99082
540.09	9506.31637
540.296	9449.08987
540.502	9477.7047
540.708	9408.20606
540.914	9651.37063
541.12	9569.65968
541.326	9702.42734
541.532	9442.95771
541.738	9684.04804
541.944	9422.51613
542.15	9404.11732
542.356	9428.64878
542.562	9929.00479
542.768	9506.31637
542.974	9992.25064
543.18	9910.64047
543.386	9896.35629
543.592	9992.25064
543.798	9784.09819
544.004	9796.34672
544.21	9894.31564
544.415	9808.59472
544.621	10228.79134
544.827	9784.09819
545.033	10053.44312
545.239	9769.80754
545.445	10255.2886
545.651	9869.82662
545.856	10322.54061
546.062	10137.05221
546.268	10077.91652
546.474	10057.52216
546.679	9953.48871
546.885	10002.45028
547.091	10271.59346
547.297	9824.92454
547.502	10037.12638
547.708	10155.40227
547.914	10363.29233
548.119	10230.82968
548.325	10253.25043
548.531	10128.89626
548.736	10291.97333
548.942	10206.36879
549.147	10210.44574
549.353	10155.40227
549.559	10212.4842
549.764	10039.16602
549.97	10322.54061
550.175	10373.47943
550.381	10721.68599
550.586	10477.36925
550.792	10530.31981
550.997	10532.35619
551.203	10497.73587
551.408	10428.48413
551.614	10424.41003
551.819	10607.69374
552.025	10662.65906
552.23	10799.01634
552.435	10717.61549
552.641	10803.08588
552.846	10691.15609
553.052	10695.2269
553.257	10925.15062
553.462	10699.29766
553.668	10585.29788
553.873	10735.93234
554.078	10792.91193
554.283	10882.43268
554.489	10951.59254
554.694	10961.76201
554.899	11077.67424
555.105	11010.57154
555.31	11169.15893
555.515	11006.50432
555.72	11171.19168
555.925	11264.68678
556.131	11295.16959
556.336	11026.83996
556.541	11287.04107
556.746	10986.16757
556.951	11240.29887
557.156	10986.16757
557.361	11291.10535
557.567	11116.30376
557.772	11161.02783
557.977	10980.06633
558.182	11189.48594
558.387	11161.02783
558.592	11366.28731
558.797	11262.65451
559.002	11457.70654
559.207	11173.22442
559.412	11331.74595
559.617	11104.10538
559.822	11701.39735
560.027	11423.17271
560.232	11354.09657
560.437	11396.76259
560.642	11648.60889
560.847	11516.61078
561.051	11538.95168
561.256	11413.01517
561.461	11518.64182
561.666	11677.0342
561.871	11652.66975
562.076	11855.66812
562.281	11808.98615
562.485	11457.70654
562.69	11709.51812
562.895	11441.45567
563.1	11536.92073
563.305	11695.30668
563.509	11746.05982
563.714	11384.57274
563.919	11802.89687
564.123	11404.88896
564.328	11815.07536
564.533	11748.08983
564.737	11583.63008
564.942	11543.01354
565.147	11908.4337
565.351	11585.66081
565.556	12005.83256
565.761	11727.78932
565.965	11880.02216
566.17	11668.91286
566.374	12044.38119
566.579	12139.72631
566.784	11993.65871
566.988	11823.19418
567.193	12214.77352
567.397	11884.08105
567.602	12269.53138
567.806	11654.70017
568.011	12082.927
568.215	12279.67115
568.42	12084.95565
568.624	12188.40674
568.828	12157.98197
569.033	12007.8615
569.237	12283.72701
569.442	12099.15599
569.646	12318.20067
569.85	12383.08682
570.055	12070.75494
570.259	12253.30738
570.463	12385.11439
570.668	12198.54795
570.872	12149.86842
571.076	12247.22326
571.281	12228.97051
571.485	12220.85799
571.689	12399.30726
571.893	12362.81065
572.098	12411.47231
572.302	12123.49854
572.506	12456.07543
572.71	12113.35594
572.914	12393.22464
573.119	12593.91977
573.323	12642.5638
573.527	12269.53138
573.731	12668.9112
573.935	12549.32628
574.139	12790.5017
574.343	12419.5822
574.547	12918.15
574.751	12889.78557
574.955	12626.34951
575.159	12494.59374
575.364	12766.18526
575.568	12478.37579
575.772	12701.33738
575.976	12646.61731
576.18	12318.20067
576.383	12630.40312
576.587	12762.13244
576.791	12541.21805
576.995	12484.45757
577.199	12520.94703
577.403	12847.23695
577.607	12839.13218
577.811	12837.10597
578.015	12557.43441
578.219	12914.09801
578.422	12885.73342
578.626	12985.00499
578.83	12687.15111
579.034	12865.47236
579.238	13290.84976
579.442	13136.92791
579.645	13049.82879
579.849	13033.62331
580.053	13080.2132
580.257	13068.05957
580.46	12954.61706
580.664	13353.6265
580.868	13003.2372
581.071	13161.23308
581.275	13015.39178
581.479	12954.61706
581.682	13019.44326
581.886	13072.1108
582.09	13351.6015
582.293	13513.58857
582.497	13357.67647
582.7	13136.92791
582.904	13226.04368
583.107	13246.29606
583.311	13230.09419
583.515	13305.0255
583.718	13179.46153
583.922	13479.16837
584.125	13406.27493
584.329	13357.67647
584.532	13274.64865
584.735	13420.44905
584.939	13386.02585
585.142	13633.03886
585.346	13509.53919
585.549	13639.11228
585.753	13278.69895
585.956	13606.72035
586.159	13428.54846
586.363	13675.55219
586.566	14124.89996
586.769	13673.52778
586.973	13681.6254
587.176	13750.45316
587.379	13695.79612
587.582	13853.6882
587.786	13475.11887
587.989	13942.74781
588.192	13695.79612
588.395	13707.94233
588.599	13859.76061
588.802	14037.87412
589.005	13560.1554
589.208	14084.42335
589.411	13618.86743
589.615	14096.56643
589.818	14074.30406
590.021	13659.35681
590.224	13827.3741
590.427	13948.81987
590.63	14045.96973
590.833	14122.87615
591.036	14098.59026
591.239	14442.6141
591.442	13979.17982
591.645	14116.80471
591.848	14082.39949
592.051	14246.32473
592.254	13896.19458
592.457	14290.84538
592.66	14086.4472
592.863	14430.47293
593.066	14337.38878
593.269	14090.4949
593.472	14220.01664
593.675	14616.63222
593.878	14246.32473
594.081	14110.73325
594.284	14137.04277
594.486	14715.77832
594.689	14444.63762
594.892	14446.66114
595.095	14052.04141
595.298	14679.35757
595.5	14404.16687
595.703	14723.87177
595.906	14551.88238
596.109	14375.83699
596.311	14420.35525
596.514	14222.04036
596.717	14464.87277
596.92	14551.88238
597.122	14507.36614
597.325	14592.35117
597.528	14594.3746
597.73	14784.57229
597.933	14586.28088
598.136	14818.96895
598.338	14845.27214
598.541	14825.03893
598.743	14869.55192
598.946	14327.27073
599.148	14649.00672
599.351	14792.66564
599.554	14683.40434
599.756	14697.56798
599.959	14873.59854
600.161	14663.17048
600.363	14920.13454
600.566	14760.29217
600.768	14992.97301
600.971	14695.54461
601.173	14582.23402
601.376	14885.73839
601.578	15116.39289
601.78	15023.32224
601.983	15314.67366
602.185	14948.46067
602.388	15007.13599
602.59	15015.22912
602.792	15381.4421
602.995	15122.4627
603.197	14950.48397
603.399	15276.23137
603.601	15019.27568
603.804	14962.62371
604.006	14748.15207
604.208	15100.20671
604.41	14861.45867
604.613	15019.27568
604.815	15154.83503
605.017	14940.3675
605.219	14869.55192
605.421	14869.55192
605.623	15173.04447
605.826	15221.60297
606.028	15292.41759
606.23	15199.34699
606.432	14889.78501
606.634	15191.2539
606.836	15162.92812
607.038	15298.48742
607.24	15148.76522
607.442	15144.71868
607.644	15168.99793
607.846	14944.41409
608.048	15033.43863
608.25	15193.27718
608.452	15079.97398
608.654	15330.85992
608.856	15025.34552
609.058	14918.11124
609.26	15011.18256
609.462	15088.06707
609.664	15090.09035
609.866	15219.5797
610.067	15249.92879
610.269	15381.4421
610.471	15049.62485
610.673	15280.27792
610.875	15017.2524
611.077	15316.69694
611.278	14970.71686
611.48	15213.50989
611.682	15276.23137
611.884	15409.76823
612.085	15162.92812
612.287	15608.0541
612.489	15488.67721
612.69	15075.92743
612.892	15168.99793
613.094	15318.72022
613.295	15237.78915
613.497	15318.72022
613.699	15033.43863
613.9	15215.53316
614.102	15144.71868
614.304	15043.55502
614.505	14982.85659
614.707	15622.21762
614.908	14984.87987
615.11	15276.23137
615.311	15595.91396
615.513	15711.24646
615.714	15290.39431
615.916	15413.81482
616.117	15247.90552
616.319	15606.03074
616.52	15029.39208
616.722	15468.44406
616.923	15444.16436
617.124	15707.19966
617.326	15130.55579
617.527	15521.05038
617.729	15355.13934
617.93	15359.18591
618.131	15223.62625
618.333	15330.85992
618.534	15387.51198
618.735	15549.37703
618.937	15199.34699
619.138	15527.12036
619.339	15262.06844
619.54	15387.51198
619.742	15581.75051
619.943	15330.85992
620.144	15310.6271
620.345	15300.5107
620.546	15359.18591
620.748	15549.37703
620.949	15365.25578
621.15	15719.34008
621.351	15630.31109
621.552	15430.00123
621.753	15173.04447
621.954	15737.55077
622.155	15336.92977
622.356	15660.66168
622.558	15336.92977
622.759	15476.53732
622.96	15357.16262
623.161	15292.41759
623.362	15500.81713
623.563	15786.11304
623.764	15340.97634
623.965	15782.06616
624.166	15308.60382
624.366	15464.39744
624.567	15306.58054
624.768	15488.67721
624.969	15177.09101
625.17	15616.14754
625.371	15581.75051
625.572	15727.43371
625.773	15519.02705
625.973	15606.03074
626.174	15636.38119
626.375	15838.72285
626.576	15662.68507
626.777	15751.71471
626.977	15579.72716
627.178	15767.90212
627.379	15510.93375
627.58	15674.82536
627.78	15272.18482
627.981	15266.11499
628.182	15466.42075
628.382	15604.00738
628.583	15741.59761
628.784	15650.5448
628.984	15304.55726
629.185	15802.30059
629.386	15472.49069
629.586	15937.87429
629.787	15486.6539
629.987	16055.24132
630.188	15322.76679
630.388	15646.49805
630.589	15484.63058
630.79	15626.26435
630.99	15336.92977
631.191	15662.68507
631.391	15780.04272
631.591	15606.03074
631.792	15606.03074
631.992	15905.49798
632.193	15994.53365
632.393	15747.66786
632.594	15950.01549
632.794	15751.71471
632.994	15804.32404
633.195	16079.52476
633.395	16045.12328
633.595	15838.72285
633.796	15778.01928
633.996	16111.90302
634.196	15907.52149
634.397	16449.87729
634.597	15881.21596
634.797	16401.30294
634.997	15885.26295
635.198	15682.91892
635.398	15891.33345
635.598	15976.3216
635.798	15575.68046
635.998	15517.00372
636.199	15778.01928
636.399	15962.15674
636.599	15757.78498
636.799	15662.68507
636.999	15549.37703
637.199	15660.66168
637.399	16032.98169
637.599	15810.3944
637.799	15474.514
637.999	16111.90302
638.199	15826.58206
638.399	15883.23946
638.599	15523.0737
638.799	15935.85076
638.999	15747.66786
639.199	15856.93412
639.399	15812.41785
639.599	15929.78018
639.799	15962.15674
639.999	16022.86373
640.199	15867.05153
640.399	15913.59203
640.599	15077.95071
640.799	16087.61928
640.998	15982.39227
641.198	15733.50395
641.398	15490.70053
641.598	16417.49426
641.798	16057.26493
641.997	16103.80841
642.197	15834.67592
642.397	16213.08772
642.597	15972.27449
642.796	16069.40663
642.996	16152.37641
643.196	15954.06257
643.395	16051.1941
643.595	15911.56852
643.795	15915.61554
643.994	16065.35939
644.194	16111.90302
644.394	16320.3482
644.593	15850.86369
644.793	15780.04272
644.992	16164.51855
645.192	16257.61033
645.392	16215.11146
645.591	16464.04503
645.791	16119.99764
645.99	16743.37351
646.19	15978.34515
646.389	16294.03856
646.589	15905.49798
646.788	16316.30054
646.987	15848.84021
647.187	16370.94455
647.386	16124.04497
647.586	16364.87293
647.785	16122.0213
647.984	16188.80302
648.184	16233.32517
648.383	16391.18343
648.582	16204.99279
648.782	16498.45281
648.981	16237.37268
649.18	16346.65816
649.38	16336.5389
649.579	16767.66501
649.778	16253.56279
649.977	16808.15162
650.177	16439.75754
650.376	16595.60751
650.575	16142.258
650.774	16326.4197
650.973	16605.72808
651.173	16146.30536
651.372	16334.51506
651.571	16397.25513
651.77	16508.57286
651.969	16253.56279
652.168	16407.37467
652.367	16656.33178
652.566	16504.52484
652.765	16368.92068
652.964	16182.73188
653.163	16030.95809
653.362	16615.84871
653.561	16518.69297
653.76	16215.11146
653.959	16484.28483
654.158	16542.98143
654.357	16115.95033
654.556	16294.03856
654.755	16289.99095
654.954	16200.94534
655.153	16269.75301
655.352	16225.23017
655.551	16617.87284
655.749	16545.00549
655.948	16464.04503
656.147	16417.49426
656.346	16370.94455
656.545	16233.32517
656.743	16435.70965
656.942	16368.92068
657.141	16595.60751
657.34	16547.02954
657.538	16893.17675
657.737	16913.42149
657.936	16749.44636
658.135	16538.93333
658.333	16439.75754
658.532	16522.74102
658.731	16462.02106
658.929	16344.6343
659.128	16342.61045
659.326	16277.84816
659.525	16708.96115
659.724	16395.23123
659.922	16298.08617
660.121	16451.90125
660.319	16545.00549
660.518	16510.59688
660.716	16597.63162
660.915	16381.06397
661.113	16322.37203
661.312	16265.70544
661.51	16721.10661
661.709	16638.11429
661.907	16524.76505
662.105	16302.1338
662.304	16678.59786
662.502	16559.17392
662.701	16613.82458
662.899	16508.57286
663.097	16694.79155
663.296	16419.51819
663.494	16648.23509
663.692	16079.52476
663.891	16464.04503
664.089	16168.56595
664.287	16765.64071
664.485	16593.58341
664.684	16970.10815
664.882	16579.41472
665.08	16336.5389
665.278	16091.66656
665.476	16401.30294
665.675	16395.23123
665.873	16146.30536
666.071	16374.99231
666.269	16314.27672
666.467	16314.27672
666.665	16864.83455
666.863	16534.88524
667.061	16540.95738
667.259	16374.99231
667.457	16761.59211
667.655	16362.84906
667.853	16563.22206
668.051	16532.8612
668.249	16459.99709
668.447	16178.68446
668.645	16824.34655
668.843	16901.27462
669.041	16846.61482
669.239	16298.08617
669.437	16484.28483
669.635	16263.68166
669.833	16419.51819
670.031	16338.56275
670.229	16411.4225
670.426	16213.08772
670.624	16638.11429
670.822	16374.99231
671.02	16281.89575
671.218	16358.80132
671.415	16498.45281
671.613	16482.26084
671.811	16431.66178
672.009	16126.06863
672.206	16269.75301
672.404	15939.89782
672.602	16253.56279
672.799	16298.08617
672.997	16419.51819
673.195	16362.84906
673.392	16688.7189
673.59	16316.30054
673.788	16099.76112
673.985	16287.96715
674.183	16049.17049
674.38	16144.28168
674.578	16140.23432
674.775	16336.5389
674.973	16326.4197
675.17	16318.32437
675.368	16231.30142
675.565	16277.84816
675.763	16377.0162
675.96	16360.82519
676.158	16316.30054
676.355	15701.12946
676.553	16411.4225
676.75	15990.48652
676.947	16429.63784
677.145	16182.73188
677.342	16154.40009
677.539	16061.31216
677.737	16287.96715
677.934	16150.35272
678.131	16326.4197
678.329	16158.44747
678.526	16257.61033
678.723	16209.04026
678.92	16170.58965
679.118	15887.28645
679.315	15915.61554
679.512	15739.57419
679.709	15931.80371
679.906	16016.79298
680.104	16178.68446
680.301	15915.61554
680.498	16111.90302
680.695	15913.59203
680.892	16020.84015
681.089	15644.47467
681.286	16047.14689
681.483	15597.93732
681.68	16083.57202
681.877	15895.38045
682.075	15854.91064
682.272	15549.37703
682.469	15810.3944
682.665	15648.52142
682.862	15871.09851
683.059	15715.29327
683.256	15608.0541
683.453	15456.3042
683.65	15749.69128
683.847	15585.7972
684.044	15438.09444
684.241	15521.05038
684.438	15597.93732
684.635	15484.63058
684.831	16010.72223
685.028	15446.18766
685.225	15727.43371
685.422	15326.81335
685.619	15739.57419
685.815	15492.72385
686.012	15824.5586
686.209	15444.16436
686.405	16101.78477
686.602	15693.03587
686.799	15652.56817
686.996	15272.18482
687.192	15620.19426
687.389	15688.98909
687.586	15709.22306
687.782	15565.56374
687.979	16077.50113
688.175	15541.28368
688.372	15757.78498
688.568	15670.77859
688.765	15581.75051
688.962	15284.32448
689.158	15411.79152
689.355	15302.53398
689.551	15411.79152
689.748	15255.99862
689.944	15446.18766
690.14	15462.37413
690.337	15535.21368
690.533	15373.34893
690.73	14912.04134
690.926	15436.07114
691.123	15150.78849
691.319	15075.92743
691.515	15318.72022
691.712	15013.20584
691.908	15134.60233
692.104	15077.95071
692.301	14974.76344
692.497	15039.50847
692.693	14875.62185
692.889	15225.64952
693.086	15201.37026
693.282	15322.76679
693.478	15492.72385
693.674	15191.2539
693.87	15537.23702
694.067	15395.60515
694.263	15397.62845
694.459	14910.01804
694.655	15009.15927
694.851	15013.20584
695.047	15203.39353
695.243	15124.48597
695.439	15146.74195
695.635	15088.06707
695.831	14930.25103
696.027	15241.8357
696.224	15160.90485
696.42	14812.89896
696.615	14849.31878
696.811	14782.54895
697.007	14738.03529
697.203	14903.94814
697.399	14960.60042
697.595	14837.17886
697.791	14541.76511
697.987	14614.60881
698.183	14869.55192
698.379	14796.71231
698.575	14766.36221
698.77	14705.66147
698.966	14905.97144
699.162	14458.80224
699.358	14899.90153
699.554	14086.4472
699.749	14191.68449
699.945	14159.3044
700.141	14487.13128
700.337	14495.22524
700.532	14719.82505
700.728	14555.92928
700.924	14873.59854
701.119	14578.18715
701.315	14764.33887
701.511	14580.21058
701.706	14709.70821
701.902	14347.50678
702.097	14568.06995
702.293	14649.00672
702.489	14499.27221
702.684	14481.0608
702.88	14590.32774
703.075	14440.59057
703.271	14481.0608
703.466	14673.28742
703.662	14851.3421
703.857	14282.75079
704.053	14392.02553
704.248	14418.3317
704.443	14861.45867
704.639	14553.90583
704.834	14539.74165
705.03	14564.02307
705.225	14604.49172
705.42	14440.59057
705.616	14598.42145
705.811	14529.62434
706.006	14280.72713
706.202	14383.93127
706.397	14319.17625
706.592	14278.70348
706.787	14574.14027
706.983	14278.70348
707.178	14559.97618
707.373	14315.12901
707.568	14501.2957
707.763	14220.01664
707.959	14464.87277
708.154	14294.89267
708.349	14226.08777
708.544	14268.58517
708.739	14161.32817
708.934	13987.27571
709.129	14264.53783
709.324	14052.04141
709.519	14464.87277
709.714	14319.17625
709.909	14258.46682
710.104	14043.94583
710.299	13952.8679
710.494	13942.74781
710.689	13962.98792
710.884	14161.32817
711.079	14177.51826
711.274	14272.6325
711.469	14274.65616
711.664	14145.13794
711.859	14217.99293
712.054	14029.77848
712.249	14197.7557
712.443	13938.69976
712.638	13896.19458
712.833	13969.0599
713.028	13989.29967
713.223	13760.57458
713.417	13924.5315
713.612	14037.87412
713.807	13786.88993
714.002	13762.59886
714.196	13916.43529
714.391	13772.72019
714.586	14367.74268
714.78	14169.42323
714.975	13930.60363
715.17	13827.3741
715.364	13900.24274
715.559	13790.9384
715.754	13803.08374
715.948	13331.35134
716.143	13570.27837
716.337	13784.86569
716.532	14015.61101
716.726	13651.25904
716.921	13886.07412
717.115	13711.99104
717.31	13867.85713
717.504	13628.9899
717.699	13628.9899
717.893	13760.57458
718.088	14145.13794
718.282	13890.12231
718.476	13932.62766
718.671	13622.91642
718.865	14027.75456
719.059	13598.62223
719.254	13835.4708
719.448	13434.62297
719.642	13592.5486
719.837	13096.41778
720.031	13464.99504
720.225	13315.15091
720.419	13410.32469
720.614	13663.40567
720.808	13420.44905
721.002	13136.92791
721.196	13493.34153
721.39	13072.1108
721.585	13406.27493
721.779	13149.08058
721.973	13521.68729
722.167	13086.28996
722.361	13045.77745
722.555	12999.18563
722.749	13059.95705
722.943	13092.36667
723.137	13286.79951
723.331	13088.31553
723.525	12812.79107
723.719	12966.77237
723.913	13023.49473
724.107	12824.94862
724.301	13015.39178
724.495	13153.13143
724.689	13001.21142
724.883	12703.36396
725.077	13169.33466
725.271	12721.60298
725.465	12762.13244
725.659	12940.43562
725.853	13207.81617
726.046	12974.8758
726.24	12768.21166
726.434	12634.45671
726.628	13268.57317
726.822	12903.96792
727.015	13217.94261
727.209	12745.92093
727.403	12826.97486
727.596	12780.36995
727.79	12871.55074
727.984	12837.10597
728.177	12814.81734
728.371	12837.10597
728.565	12920.176
728.758	12905.99394
728.952	13145.02971
729.146	12926.25394
729.339	13207.81617
729.533	13161.23308
729.726	12942.46156
729.92	12944.48749
730.113	13400.20025
730.307	13205.79086
730.5	12942.46156
730.694	12926.25394
730.887	12879.65516
731.081	12867.49849
731.274	13106.54549
731.468	12670.93788
731.661	13147.05514
731.854	13242.24562
732.048	12968.79823
732.241	12978.92749
732.435	13145.02971
732.628	13327.30125
732.821	13114.64757
733.014	13203.76556
733.208	13226.04368
733.401	13130.85151
733.594	13066.03394
733.788	13260.47246
733.981	13274.64865
734.174	13041.72609
734.367	12908.01997
734.56	13007.28874
734.754	12717.5499
734.947	13116.67308
735.14	12743.89446
735.333	12668.9112
735.526	12561.48844
735.719	12488.51205
735.912	12498.64816
736.105	12677.01788
736.298	12622.29588
736.491	12703.36396
736.684	12760.10602
736.877	12810.76479
737.07	12711.47025
737.263	12310.08941
737.456	12741.86799
737.649	12877.62906
737.842	12822.92237
738.035	12699.31078
738.228	12622.29588
738.421	13009.31451
738.614	13001.21142
738.807	12865.47236
739	12514.86559
739.192	12484.45757
739.385	12486.48481
739.578	12699.31078
739.771	12488.51205
739.964	12567.56944
740.156	12595.94667
740.349	12391.19709
740.542	12525.00128
740.735	12597.97357
740.927	12589.86594
741.12	12539.19098
741.313	12269.53138
741.505	12464.18474
741.698	12379.03164
741.891	12445.93863
742.083	12567.56944
742.276	12587.83902
742.468	12439.85648
742.661	12125.52704
742.854	12034.23709
743.046	11949.01882
743.239	12147.84001
743.431	12147.84001
743.624	11865.81578
743.816	11752.14983
744.009	11946.98964
744.201	11756.20979
744.393	12022.06391
744.586	12034.23709
744.778	12147.84001
744.971	12095.09879
745.163	12155.9536
745.355	12188.40674
745.548	11946.98964
745.74	12143.78318
745.932	12174.20872
746.125	12046.40999
746.317	12123.49854
746.509	12133.64095
746.702	11995.68771
746.894	12089.01293
747.086	12168.12375
747.278	12040.32357
747.471	11804.92664
747.663	11914.52168
747.855	11869.87479
748.047	12129.58401
748.239	12151.89682
748.431	11995.68771
748.623	12034.23709
748.815	11867.84529
749.008	11804.92664
749.2	12135.66941
749.392	12247.22326
749.584	11825.22387
749.776	12391.19709
749.968	12105.24173
750.16	12082.927
750.352	11656.73058
750.544	11916.55099
750.736	11890.16933
750.928	11977.42647
751.12	11766.35954
751.311	11664.85214
751.503	12058.5826
751.695	11867.84529
751.887	11944.96046
752.079	11953.07715
752.271	11857.69767
752.463	12160.01034
752.654	11975.39741
752.846	11959.16459
753.038	11995.68771
753.23	11800.86709
753.421	11819.13479
753.613	11739.96973
753.805	11811.01589
753.997	11912.49236
754.188	11940.90206
754.38	11900.31628
754.572	11896.25753
754.763	12034.23709
754.955	11685.15539
755.146	11922.63886
755.338	11516.61078
755.53	11804.92664
755.721	11672.97355
755.913	11863.78627
756.104	11417.07821
756.296	11352.06475
756.487	11130.53471
756.679	11368.31906
756.87	11026.83996
757.062	10951.59254
757.253	11030.90695
757.445	11171.19168
757.636	11236.23408
757.827	11319.5542
758.019	11177.28986
758.21	11079.70747
758.401	11134.60059
758.593	11213.87696
758.784	11205.74678
758.975	11341.90548
759.167	11124.43579
759.358	11165.0934
759.549	10959.72814
759.74	11073.60775
759.932	11053.27464
760.123	10957.69426
760.314	11087.84028
760.505	10839.70968
760.696	11012.60513
760.888	10790.87711
761.079	10740.00262
761.27	11122.4028
761.461	10978.03256
761.652	11091.90662
761.843	10880.39837
762.034	10855.98571
762.225	10733.89719
762.416	10825.46754
762.607	10473.29577
762.798	10662.65906
762.989	10644.33828
763.18	10971.93119
763.371	11100.03917
763.562	10900.74099
763.753	10662.65906
763.944	10957.69426
764.135	10847.84779
764.326	10845.81328
764.517	10640.26686
764.708	10676.90787
764.899	10640.26686
765.089	10304.2006
765.28	10589.36996
765.471	10534.39257
765.662	10139.09116
765.853	10558.8281
766.043	10326.61602
766.234	10556.79187
766.425	10298.08702
766.615	10799.01634
766.806	10465.14867
766.997	10514.02824
767.187	10228.79134
767.378	10499.77246
767.569	10163.5575
767.759	10459.0382
767.95	10359.2174
768.141	10310.31406
768.331	10120.74009
768.522	10450.89073
768.712	10501.80904
768.903	10265.47924
769.093	10073.83776
769.284	10065.68008
769.474	10165.59627
769.665	10157.4411
769.855	9847.37648
770.046	10147.24683
770.236	9924.92394
770.426	10122.77916
770.617	10057.52216
770.807	9941.24701
770.998	9947.36793
771.188	9906.55935
771.378	9922.88348
771.569	10020.80873
771.759	9943.28733
771.949	10163.5575
772.139	9982.05064
772.33	9586.00388
772.52	9757.55783
772.71	9863.70403
772.9	9690.17461
773.09	9847.37648
773.281	9869.82662
773.471	10008.56989
773.661	9890.23428
773.851	9763.68275
774.041	9559.44405
774.231	9620.73195
774.421	9445.00178
774.611	9810.636
774.802	9690.17461
774.992	9859.62223
775.182	9477.7047
775.372	9755.51616
775.562	9714.67952
775.752	9369.3604
775.942	9551.27126
776.131	9739.18223
776.321	9616.64653
776.511	9561.48721
776.701	9246.65083
776.891	9510.4035
777.081	8999.00126
777.271	9308.01308
777.461	9258.92448
777.651	9191.41188
777.84	9084.99082
778.03	9263.01557
778.22	9003.0967
778.41	9109.55364
778.599	9019.47776
778.789	9449.08987
778.979	9449.08987
779.169	9218.00995
779.358	9220.05583
779.548	9420.47188
779.738	9316.19359
779.927	9367.31573
780.117	9240.51377
780.307	9481.79227
780.496	9021.52531
780.686	9281.42462
780.875	8892.49505
781.065	9279.37923
781.254	8900.68954
781.444	9064.5199
781.633	9293.69657
781.823	9242.55947
782.012	9150.48618
782.202	9232.3308
782.391	8960.09108
782.581	9078.84973
782.77	8939.60947
782.96	8886.34899
783.149	8826.92879
783.338	9191.41188
783.528	8751.09473
783.717	8898.64094
783.906	8722.39425
784.096	8896.59233
784.285	8947.80233
784.474	8712.1432
784.663	8683.43783
784.853	8646.52558
785.042	8387.96921
785.231	8824.87955
785.42	8589.09455
785.61	8712.1432
785.799	8445.4523
785.988	8779.79163
786.177	8449.55766
786.366	8597.29988
786.555	8634.22016
786.744	8468.03083
786.933	8660.88106
787.122	8496.76379
787.312	8375.64943
787.501	8465.97833
787.69	8379.7561
787.879	8451.61031
788.068	8297.60796
788.257	8513.18095
788.445	8461.87328
788.634	8560.37352
788.823	8281.17458
789.012	8576.78599
789.201	8279.12032
789.39	8400.28829
789.579	8268.84872
789.768	8361.27548
789.957	8071.53792
790.145	8379.7561
790.334	8305.82417
790.523	8186.65819
790.712	8309.93217
790.9	8223.64784
791.089	8145.55101
791.278	8244.19488
791.467	8266.79434
791.655	8129.10591
791.844	8133.2173
792.033	8235.9763
792.221	8042.748
792.41	8124.99443
792.599	7909.02827
792.787	8190.76847
792.976	7633.08378
793.164	7931.66384
793.353	7606.29292
793.541	7911.08615
793.73	7894.62251
793.918	8094.15579
794.107	7441.34647
794.295	7544.45411
794.484	7727.85342
794.672	7781.39915
794.861	7509.40356
795.049	7775.22152
795.238	7707.25512
795.426	7845.22368
795.614	7754.62806
795.803	7865.80798
795.991	7614.53665
796.179	7758.74692
796.368	7532.08404
796.556	7670.17288
796.744	7474.34679
796.932	7766.98439
797.121	7408.34061
797.309	7548.5773
797.497	7530.02228
797.685	7651.62919
797.874	7565.06919
798.062	7672.23318
798.25	7201.92724
798.438	7523.83689
798.626	7631.02307
798.814	7393.8988
799.002	7385.64586
799.19	7437.22104
799.378	7185.40465
799.566	7154.42098
799.755	7154.42098
799.943	7497.03129
800.131	7466.09723
800.318	7742.27097
800.506	7404.21449
800.694	7286.58328
800.882	7001.49474
801.07	7222.57847
801.258	7317.54576
801.446	7270.06794
801.634	7420.71846
801.822	7090.37219
802.01	7294.84042
802.197	7352.6306
802.385	7051.10587
802.573	7179.20832
802.761	7278.32578
802.949	7259.74513
803.136	7168.88065
803.324	7503.21752
803.512	7420.71846
803.699	7398.02514
803.887	7375.32919
804.075	7534.14577
804.262	7472.28443
804.45	7554.76192
804.638	7418.65554
804.825	7245.29228
805.013	7115.16781
805.201	7383.58257
805.388	7177.14283
805.576	7276.26136
805.763	7187.47005
805.951	7565.06919
806.138	7441.34647
806.326	7490.84487
806.513	7261.80974
806.701	7391.8356
806.888	7160.61811
807.075	7303.09721
807.263	7034.57026
807.45	7542.39249
807.638	7243.2275
807.825	7383.58257
808.012	7113.10163
808.2	7391.8356
808.387	7327.86548
808.574	7358.82139
808.761	7206.05766
808.949	7507.34157
809.136	7077.97317
809.323	7478.47144
809.51	7435.1583
809.698	7094.50501
809.885	7022.16761
810.072	7160.61811
810.259	7094.50501
810.446	7131.69644
810.633	7284.51894
810.82	7402.1514
811.008	7319.60974
811.195	7321.67371
811.382	7210.188
811.569	7478.47144
811.756	7040.77128
811.943	7422.78136
812.13	6972.54893
812.317	7270.06794
812.504	7375.32919
812.691	7329.92936
812.878	7334.05706
813.064	7488.78268
813.251	6995.29244
813.438	7218.4484
813.625	7065.57335
813.812	7230.83835
813.999	7098.63775
814.186	7226.70846
814.372	7265.93888
814.559	7416.5926
814.746	7044.90518
814.933	7296.90465
815.12	7257.68051
815.306	7150.28944
815.493	7009.76416
815.68	7270.06794
815.866	7129.63044
816.053	7358.82139
816.24	7152.35522
816.426	7148.22364
816.613	7243.2275
816.799	7451.65967
816.986	7257.68051
817.173	7532.08404
817.359	6929.12193
817.546	7121.36621
817.732	6896.02799
817.919	7146.15782
818.105	7077.97317
818.292	7061.43989
818.478	7119.3001
818.665	7146.15782
818.851	7098.63775
819.037	7288.6476
819.224	7094.50501
819.41	7311.35365
819.597	6879.47885
819.783	6848.44529
819.969	6980.81961
820.156	7276.26136
820.342	6933.25826
820.528	7106.90296
820.714	7121.36621
820.901	7263.87432
821.087	6953.93858
821.273	7162.68378
821.459	6825.68409
821.646	7049.039
821.832	6626.92352
822.018	7024.23478
822.204	6854.65241
822.39	6939.46259
822.576	6916.71238
822.762	7059.37313
822.948	7234.96815
823.134	6968.41345
823.32	6815.33719
823.507	7129.63044
823.693	6864.99716
823.879	6840.16881
824.065	6707.69549
824.25	7049.039
824.436	6747.03328
824.622	6920.84899
824.808	6633.13799
824.994	6761.52407
825.18	6657.9938
825.366	6618.63724
825.552	6539.89912
825.738	6747.03328
825.923	6390.61933
826.109	6527.46373
826.295	6191.39158
826.481	6558.55064
826.667	6394.76762
826.852	6467.3476
827.038	6324.23402
827.224	6510.88192
827.409	6378.1739
827.595	6384.39672
827.781	6216.30685
827.966	6539.89912
828.152	6413.43376
828.338	6539.89912
828.523	6158.16597
828.709	6492.2256
828.894	6365.72764
829.08	6732.54137
829.266	6442.46624
829.451	6479.78702
829.637	6270.27835
829.822	6237.06699
830.008	6295.18293
830.193	6400.98988
830.378	6407.21192
830.564	6610.35058
830.749	6016.89
830.935	6226.68721
831.12	6141.55091
831.305	6035.59454
831.491	6166.47294
831.676	6320.08415
831.861	6066.76453
832.047	6151.9355
832.232	6124.93435
832.417	6139.47392
832.602	5806.85256
832.788	6043.90705
832.973	5829.7396
833.158	6066.76453
833.343	5967.0019
833.528	6104.16153
833.714	5923.33868
833.899	5946.21119
834.084	5885.90478
834.269	6035.59454
834.454	5858.86444
834.639	6324.23402
834.824	5835.98103
835.009	6216.30685
835.194	5948.29037
835.379	6108.31628
835.564	6058.45305
835.749	6029.3599
835.934	5892.1443
836.119	5871.34509
836.304	5544.48823
836.489	5650.72843
836.674	5563.24095
836.859	5513.22944
837.044	5525.73359
837.228	5692.37451
837.413	5434.01681
837.598	5404.82466
837.783	5047.89319
837.968	5500.72444
838.152	5456.95028
838.337	5659.05841
838.522	5579.90844
838.707	5750.66317
838.891	5519.48162
839.076	5521.56564
839.261	5379.79914
839.445	5644.48071
839.63	5556.99026
839.815	5679.88168
839.999	5556.99026
840.184	5829.7396
840.368	5375.62789
840.553	5688.21033
840.737	5477.79641
840.922	5546.57196
841.106	5354.77025
841.291	5679.88168
841.475	5296.35637
841.66	5534.06922
841.844	5411.08051
842.029	5531.98535
842.213	5290.09665
842.397	5331.82413
842.582	5108.4734
842.766	5367.28512
842.951	5288.01003
843.135	5404.82466
843.319	5179.4736
843.504	5265.05566
843.688	5175.29786
843.872	5246.27272
844.056	4912.03942
844.241	5250.44687
844.425	5066.69603
844.609	5244.18561
844.793	5024.9094
844.977	5164.85811
845.161	4811.6544
845.346	4974.75326
845.53	4861.85349
845.714	5020.73023
845.898	4698.65861
846.082	4930.85574
846.266	4761.4422
846.45	5121.0048
846.634	4623.29153
846.818	4750.97968
847.002	4665.16572
847.186	4895.31224
847.37	4692.37913
847.554	4753.07223
847.738	4725.86733
847.922	4815.83816
848.106	4505.99632
848.29	4742.60926
848.473	4815.83816
848.657	4960.12188
848.841	4853.48789
849.025	4786.54994
849.209	4650.51077
849.392	4671.44608
849.576	4482.94803
849.76	4719.58873
849.944	4457.80139
850.127	4654.69801
850.311	4308.95276
850.495	4321.53574
850.678	4313.14717
850.862	4560.46348
851.046	4384.43901
851.229	4430.55563
851.413	4313.14717
851.596	4392.82463
851.78	4380.24607
851.964	4499.71069
852.147	4000.43094
852.331	4258.61306
852.514	4225.04642
852.698	4290.07682
852.881	4422.17158
853.065	4673.53948
853.248	4422.17158
853.431	4614.91562
853.615	4505.99632
853.798	4461.99272
853.982	4352.98981
854.165	4239.7325
854.348	3954.21894
854.532	4149.50161
854.715	3994.12988
854.898	4321.53574
855.081	4044.53314
855.265	4273.29675
855.448	4139.00711
855.631	4010.93228
855.814	3945.81571
855.997	4040.33332
856.181	4006.7318
856.364	4256.51531
856.547	4195.67114
856.73	4191.47433
856.913	4006.7318
857.096	4103.3219
857.279	3910.09833
857.462	3977.32617
857.645	3765.06857
857.828	3935.3112
858.011	3842.84989
858.194	4052.93253
858.377	3985.72819
858.56	4088.62624
858.743	4073.92955
858.926	4136.90815
859.109	3962.62186
859.292	4071.82994
859.475	3815.52439
859.658	4078.12871
859.841	3710.39543
860.023	3876.47667
860.206	3666.22685
860.389	3790.29789
860.572	3535.77575
860.755	3830.23853
860.937	3718.80754
861.12	3945.81571
861.303	3699.87987
861.486	3674.64057
861.668	3476.83903
861.851	3701.98302
862.034	3544.19411
862.216	3558.92553
862.399	3447.36533
862.581	3407.35971
862.764	3342.07369
862.947	3481.04927
863.129	3243.06001
863.312	3565.23872
863.494	3411.57113
863.677	3310.47768
863.859	3160.87159
864.042	3455.78675
864.224	3238.84584
864.406	3304.15801
864.589	3110.28178
864.771	3203.02263
864.954	3074.44177
865.136	3512.62374
865.318	3287.30482
865.501	3304.15801
865.683	3148.22501
865.865	3449.47071
866.048	3205.13001
866.23	3422.09937
866.412	3211.45205
866.594	3346.2862
866.777	3146.11719
866.959	3348.39243
867.141	2899.39446
867.323	3287.30482
867.505	2909.94239
867.687	3110.28178
867.869	3165.08699
868.052	3377.87779
868.234	3120.82208
868.416	3283.09135
868.598	3011.18369
868.78	3106.06554
868.962	3038.59723
869.144	3114.49795
869.326	3009.07485
869.508	3131.36199
869.69	3009.07485
869.872	3181.94793
870.054	2899.39446
870.236	3194.59295
870.417	2931.03714
870.599	3283.09135
870.781	2933.14654
870.963	3059.6828
871.145	3047.03165
871.327	3023.83642
871.508	2884.62676
871.69	3025.94515
871.872	2987.9856
872.054	3044.92307
872.235	2874.07798
872.417	3230.41728
872.599	2745.35461
872.78	3017.51012
872.962	2850.86939
873.144	3040.70586
873.325	2920.48995
873.507	3002.74824
873.689	2833.98934
873.87	3009.07485
874.052	3106.06554
874.233	2912.05193
874.415	2886.73648
874.596	3038.59723
874.778	2722.13682
874.959	3030.16257
875.141	2644.0291
875.322	2895.17519
875.503	2690.47365
875.685	2926.81831
875.866	2715.80442
876.048	2798.11628
876.229	2663.02988
876.41	2793.89566
876.592	2829.76919
876.773	2912.05193
876.954	2646.14035
877.136	3042.81447
877.317	2730.57984
877.498	2842.42948
877.679	2633.47267
877.86	2954.23968
878.042	2806.55736
878.223	3051.24876
878.404	2641.91784
878.585	2793.89566
878.766	2924.70887
878.947	3038.59723
879.128	2487.76322
879.309	3009.07485
879.49	2882.51703
879.672	3082.87512
879.853	2857.19917
880.034	2817.1084
880.215	2711.58275
880.396	2983.76757
880.576	2707.36104
880.757	2933.14654
880.938	2817.1084
881.119	2831.87927
881.3	2713.69359
881.481	2952.13043
881.662	2840.31946
881.843	2827.65909
882.023	2758.01818
882.204	3011.18369
882.385	2764.34978
882.566	2886.73648
882.747	2755.90761
882.927	2977.44041
883.108	2874.07798
883.289	2954.23968
883.469	2732.69056
883.65	2945.8026
883.831	2768.57078
884.011	2897.28484
884.192	2734.80127
884.373	2781.23347
884.553	2747.46523
884.734	2840.31946
884.914	2698.91745
885.095	2979.54948
885.275	2656.6964
885.456	2943.69329
885.636	2663.02988
885.817	2846.64946
885.997	2633.47267
886.178	2848.75943
886.358	2587.02073
886.538	3000.63933
886.719	2646.14035
886.899	2947.91189
887.08	2935.25592
887.26	2783.34387
887.44	2544.78663
887.621	3006.96599
887.801	2648.25159
887.981	2819.21857
888.161	2637.69528
888.342	2791.78533
888.522	2798.11628
888.702	2886.73648
888.882	2793.89566
889.062	2802.33685
889.242	2895.17519
889.423	2844.53948
889.603	2675.6965
889.783	3034.37993
889.963	2682.02964
890.143	2977.44041
890.323	2641.91784
890.503	2831.87927
890.683	2663.02988
890.863	2833.98934
891.043	2578.57429
891.223	2871.96817
891.403	2747.46523
891.583	3042.81447
891.763	2747.46523
891.943	2791.78533
892.122	2580.68592
892.302	2880.40729
892.482	2766.46029
892.662	2616.58174
892.842	2443.40603
893.022	2684.14066
893.201	2610.24744
893.381	2546.89845
893.561	2711.58275
893.741	2679.91861
893.92	2521.55588
894.1	2667.25214
894.28	2608.13598
894.459	2720.02603
894.639	2717.91523
894.819	2836.0994
894.998	2665.14102
895.178	2848.75943
895.357	2504.65991
895.537	2713.69359
895.716	2377.91771
895.896	2823.43886
896.075	2477.20243
896.255	2648.25159
896.434	2422.28187
896.614	2568.01597
896.793	2346.22626
896.973	2572.23934
897.152	2367.35414
897.331	2544.78663
897.511	2310.30659
897.69	2392.70627
897.87	2236.34572
898.049	2451.85539
898.228	2113.7585
898.407	2325.09738
898.587	2105.30322
898.766	2451.85539
898.945	2079.93663
899.124	2375.80501
899.304	2225.77897
899.483	2232.11905
899.662	2172.94201
899.841	2141.23733
900.02	2063.02499
900.199	2297.62839
900.378	2147.57841
900.557	2230.0057
900.737	2282.83673
900.916	2240.57235
901.095	1953.0887
901.274	2274.38415
901.453	2048.22693
901.632	2151.80576
901.811	1955.20303
901.989	1948.86004
902.168	1819.87538
902.347	2082.05056
902.526	1925.60199
902.705	1957.31734
902.884	1606.27666
903.063	2020.74392
903.242	1735.28588
903.42	1870.62573
903.599	1779.69617
903.778	1868.51119
903.957	1756.43384
904.135	1984.80289
904.314	1750.08949
904.493	2039.77074
904.672	1728.94142
904.85	1781.8109
905.029	1676.06981
905.207	1745.85991
905.386	1673.9549
905.565	1876.96933
905.743	1530.13629
905.922	1572.43673
906.1	1428.614
906.279	1523.79118
906.457	1388.42813
906.636	1589.35675
906.814	1462.45484
906.993	1606.27666
907.171	1415.92371
907.35	1572.43673
907.528	1297.48258
907.707	1470.91504
907.885	1212.88546
908.063	1536.48138
908.242	1333.43747
908.42	1445.53442
908.598	1166.35914
908.777	1225.57474
908.955	1105.03195
909.133	1299.59756
909.311	1187.50725
909.49	1221.34497
909.668	1134.63772
909.846	1202.31115
910.024	1352.4726
910.202	1354.58762
910.38	1284.79275
910.559	1494.18059
910.737	1217.11521
910.915	1399.00334
911.093	1191.73692
911.271	1335.55247
911.449	1121.94942
911.627	1305.9425
911.805	1126.17884
911.983	1492.06554
912.161	1293.25263
912.339	1473.03009
912.517	1403.23343
912.695	1289.02269
912.872	1269.98806
913.05	1314.40246
913.228	1047.93783
913.406	1430.72906
913.584	1386.31309
913.762	1344.01253
913.939	1176.93315
914.117	1259.41335
914.295	1132.52299
914.473	1174.81834
914.65	1157.90001
914.828	1149.44094
915.006	1170.58874
915.184	1303.82752
915.361	1126.17884
915.539	1346.12754
915.716	1215.00033
915.894	1289.02269
916.072	1149.44094
916.249	1219.23009
916.427	1204.426
916.604	1344.01253
916.782	1115.60533
916.959	1369.39281
917.137	1132.52299
917.314	1198.08145
917.492	1077.54171
917.669	1107.14661
917.847	1024.67841
918.024	1162.12957
918.201	1043.70879
918.379	1231.91943
918.556	1077.54171
918.733	1295.3676
918.911	1064.8542
919.088	1164.24435
919.265	1041.59428
919.442	1238.26414
919.62	1031.02181
919.797	1217.11521
919.974	806.92668
920.151	1005.64851
920.328	908.39304
920.506	1119.83472
920.683	937.99093
920.86	1107.14661
921.037	918.96355
921.214	1020.4495
921.391	916.84943
921.568	1066.96877
921.745	895.70869
921.922	954.90467
922.099	813.26773
922.276	1090.22941
922.453	806.92668
922.63	912.62122
922.807	777.33623
922.984	853.42963
923.161	893.59466
923.338	1075.42711
923.514	851.31577
923.691	904.16489
923.868	849.20191
924.045	891.48064
924.222	887.25261
924.399	770.99567
924.575	773.10918
924.752	830.17761
924.929	813.26773
925.105	775.2227
925.282	637.86606
925.459	735.06755
925.635	692.80309
925.812	804.81301
925.989	633.64047
926.165	735.06755
926.342	608.28796
926.518	669.55954
926.695	680.12461
926.871	690.68998
927.048	551.2516
927.224	654.76892
927.401	616.7386
927.577	658.99475
927.754	591.3873
927.93	506.89684
928.107	599.83753
928.283	779.44977
928.459	627.30218
928.636	703.36879
928.812	517.45693
928.988	595.61239
929.165	519.56899
929.341	623.07671
929.517	528.01738
929.693	572.37505
929.87	568.15026
930.046	492.11332
930.222	447.76714
930.398	509.00883
930.574	458.32515
930.751	532.24166
930.927	454.1019
931.103	568.15026
931.279	428.76371
931.455	401.31658
931.631	413.98415
931.807	525.90526
931.983	451.9903
932.159	532.24166
932.335	342.2092
932.511	403.4278
932.687	350.65229
932.863	464.66014
933.039	363.31745
933.215	361.20655
933.391	356.9848
933.566	289.44628
933.742	405.53904
933.918	337.98775
934.094	306.32919
934.27	333.76638
934.445	304.21876
934.621	285.22573
934.797	348.54149
934.973	325.32385
935.148	333.76638
935.324	340.09847
935.5	291.55658
935.675	299.99796
935.851	291.55658
936.027	232.47528
936.202	177.62776
936.378	278.89506
936.553	224.03632
936.729	253.57403
936.904	131.22915
937.08	221.92663
937.255	95.38278
937.431	186.06495
937.606	219.81696
937.782	152.31817
937.957	139.6645
938.133	143.8823
938.308	93.27437
938.483	131.22915
938.659	160.75436
938.834	101.70815
939.009	131.22915
939.185	95.38278
939.36	120.68545
939.535	110.14229
939.71	46.895
939.886	154.42718
940.061	2.63424
940.236	53.21881
940.411	93.27437
940.586	101.70815
940.761	139.6645
940.937	74.29967
941.112	72.19148
941.287	114.35949
941.462	78.51611
941.637	114.35949
941.812	59.54283
941.987	65.86705
942.162	120.68545
942.337	143.8823
942.512	70.08331
942.687	78.51611
942.862	25.81715
943.037	93.27437
943.212	103.81665
943.386	103.81665
943.561	141.77339
943.736	8.95656
943.911	91.16598
944.086	42.67924
944.26	114.35949
944.435	-14.22423
944.61	76.40788
944.785	101.70815
944.959	72.19148
945.134	76.40788
945.309	129.12037
945.483	86.94927
945.658	135.44678
945.833	51.11085
946.007	55.32679
946.182	129.12037
946.357	72.19148
946.531	86.94927
946.706	84.84094
946.88	17.38667
947.055	59.54283
947.229	30.03253
947.404	59.54283
947.578	80.62436
947.752	101.70815
947.927	65.86705
948.101	21.60186
948.276	143.8823
948.45	137.55563
948.624	67.97517
948.799	93.27437
948.973	44.78711
949.147	53.21881
949.321	55.32679
949.496	152.31817
949.67	93.27437
949.844	101.70815
950.018	38.46358
950.193	84.84094
950.367	84.84094
950.541	46.895
950.715	95.38278
950.889	4.74166
951.063	80.62436
951.237	139.6645
951.411	93.27437
951.585	76.40788
951.759	61.65088
951.933	97.49122
952.107	110.14229
952.281	63.75895
952.455	46.895
952.629	152.31817
952.803	42.67924
952.977	112.25088
953.151	63.75895
953.325	76.40788
953.499	143.8823
953.672	53.21881
953.846	36.35578
954.02	101.70815
954.194	78.51611
954.368	78.51611
954.541	67.97517
954.715	120.68545
954.889	46.895
955.062	61.65088
955.236	91.16598
955.41	114.35949
955.583	63.75895
955.757	86.94927
955.93	53.21881
956.104	89.05761
956.278	65.86705
956.451	133.33796
956.625	76.40788
956.798	103.81665
956.972	53.21881
957.145	97.49122
957.319	186.06495
957.492	110.14229
957.665	70.08331
957.839	-58.47023
958.012	97.49122
958.185	78.51611
958.359	76.40788
958.532	118.57677
958.705	160.75436
958.879	46.895
959.052	127.01161
959.225	103.81665
959.398	118.57677
959.572	129.12037
959.745	76.40788
959.918	76.40788
960.091	67.97517
960.264	101.70815
960.438	118.57677
960.611	84.84094
960.784	49.00291
960.957	97.49122
961.13	72.19148
961.303	84.84094
961.476	72.19148
961.649	61.65088
961.822	133.33796
961.995	74.29967
962.168	42.67924
962.341	95.38278
962.514	141.77339
962.686	38.46358
962.859	30.03253
963.032	84.84094
963.205	93.27437
963.378	59.54283
963.551	86.94927
963.723	34.24801
963.896	152.31817
964.069	53.21881
964.242	89.05761
964.414	42.67924
964.587	86.94927
964.76	8.95656
964.932	72.19148
965.105	27.92483
965.278	89.05761
965.45	135.44678
965.623	34.24801
965.795	67.97517
965.968	34.24801
966.14	59.54283
966.313	93.27437
966.485	17.38667
966.658	78.51611
966.83	59.54283
967.003	25.81715
967.175	0.52684
967.348	46.895
967.52	70.08331
967.692	51.11085
967.865	11.06405
968.037	114.35949
968.209	105.92518
968.382	122.79415
968.554	91.16598
968.726	40.5714
968.898	74.29967
969.071	127.01161
969.243	34.24801
969.415	67.97517
969.587	177.62776
969.759	38.46358
969.932	65.86705
970.104	46.895
970.276	84.84094
970.448	-24.75999
970.62	108.03372
970.792	13.17157
970.964	30.03253
971.136	131.22915
971.308	4.74166
971.48	27.92483
971.652	27.92483
971.824	89.05761
971.996	84.84094
972.168	93.27437
972.339	42.67924
972.511	67.97517
972.683	84.84094
972.855	2.63424
973.027	30.03253
973.199	40.5714
973.37	55.32679
973.542	42.67924
973.714	25.81715
973.886	36.35578
974.057	44.78711
974.229	89.05761
974.401	42.67924
974.572	86.94927
974.744	8.95656
974.915	110.14229
975.087	38.46358
975.259	44.78711
975.43	82.73264
975.602	59.54283
975.773	97.49122
975.945	2.63424
976.116	36.35578
976.288	36.35578
976.459	21.60186
976.63	49.00291
976.802	17.38667
976.973	30.03253
977.145	158.64528
977.316	59.54283
977.487	8.95656
977.659	2.63424
977.83	-28.97412
978.001	105.92518
978.172	61.65088
978.344	21.60186
978.515	55.32679
978.686	51.11085
978.857	42.67924
979.028	23.70949
979.2	105.92518
979.371	25.81715
979.542	25.81715
979.713	-33.18815
979.884	55.32679
980.055	-7.90249
980.226	95.38278
980.397	53.21881
980.568	-33.18815
980.739	40.5714
980.91	101.70815
981.081	30.03253
981.252	19.49425
981.423	32.14026
981.594	4.74166
981.765	2.63424
981.936	80.62436
982.106	40.5714
982.277	-24.75999
982.448	27.92483
982.619	-41.61591
982.79	65.86705
982.96	4.74166
983.131	38.46358
983.302	36.35578
983.472	42.67924
983.643	44.78711
983.814	84.84094
983.984	51.11085
984.155	44.78711
984.326	-14.22423
984.496	21.60186
984.667	-3.68787
984.837	84.84094
985.008	51.11085
985.178	51.11085
985.349	30.03253
985.519	44.78711
985.69	59.54283
985.86	46.895
986.031	6.8491
986.201	72.19148
986.371	63.75895
986.542	74.29967
986.712	76.40788
986.882	105.92518
987.053	13.17157
987.223	19.49425
987.393	30.03253
987.563	89.05761
987.734	61.65088
987.904	51.11085
988.074	55.32679
988.244	-22.65289
988.414	120.68545
988.585	-5.79519
988.755	13.17157
988.925	82.73264
989.095	101.70815
989.265	-28.97412
989.435	131.22915
989.605	0.52684
989.775	-5.79519
989.945	72.19148
990.115	59.54283
990.285	89.05761
990.455	49.00291
990.625	13.17157
990.795	84.84094
990.965	84.84094
991.134	4.74166
991.304	76.40788
991.474	-12.11701
991.644	46.895
991.814	51.11085
991.984	0.52684
992.153	-5.79519
992.323	17.38667
992.493	44.78711
992.662	110.14229
992.832	51.11085
993.002	-12.11701
993.171	143.8823
993.341	15.2791
993.511	30.03253
993.68	34.24801
993.85	-7.90249
994.019	25.81715
994.189	44.78711
994.358	8.95656
994.528	78.51611
994.697	59.54283
994.867	25.81715
995.036	-24.75999
995.206	78.51611
995.375	21.60186
995.544	76.40788
995.714	-37.40208
995.883	-31.08114
996.052	53.21881
996.222	6.8491
996.391	55.32679
996.56	11.06405
996.73	36.35578
996.899	15.2791
997.068	17.38667
997.237	0.52684
997.406	6.8491
997.576	124.90287
997.745	2.63424
997.914	-7.90249
998.083	8.95656
998.252	53.21881
998.421	21.60186
998.59	6.8491
998.759	38.46358
998.928	13.17157
999.097	70.08331
999.266	21.60186
999.435	25.81715
999.604	11.06405
999.773	19.49425
999.942	-7.90249
1000.111	-7.90249
1000.28	-1.58052
1000.448	36.35578
1000.617	23.70949
1000.786	25.81715
1000.955	86.94927
1001.124	42.67924
1001.292	103.81665
1001.461	25.81715
1001.63	-7.90249
1001.798	23.70949
1001.967	38.46358
1002.136	-3.68787
1002.304	76.40788
1002.473	-5.79519
1002.642	42.67924
1002.81	-3.68787
1002.979	34.24801
1003.147	80.62436
1003.316	11.06405
1003.484	-12.11701
1003.653	-10.00976
1003.821	76.40788
1003.99	44.78711
1004.158	-12.11701
1004.327	-41.61591
1004.495	13.17157
1004.663	59.54283
1004.832	70.08331
1005	-24.75999
1005.168	11.06405
1005.337	-28.97412
1005.505	46.895
1005.673	-3.68787
1005.842	0.52684
1006.01	25.81715
1006.178	13.17157
1006.346	8.95656
1006.514	51.11085
1006.683	19.49425
1006.851	46.895
1007.019	13.17157
1007.187	101.70815
1007.355	17.38667
1007.523	-1.58052
1007.691	36.35578
1007.859	40.5714
1008.027	-33.18815
1008.195	-7.90249
1008.363	46.895
1008.531	17.38667
1008.699	-14.22423
1008.867	-12.11701
1009.035	34.24801
1009.203	-1.58052
1009.37	-24.75999
1009.538	-12.11701
1009.706	25.81715
1009.874	6.8491
1010.042	42.67924
1010.209	-56.36353
1010.377	-12.11701
1010.545	70.08331
1010.713	59.54283
1010.88	84.84094
1011.048	-22.65289
1011.216	-7.90249
1011.383	21.60186
1011.551	114.35949
1011.718	2.63424
1011.886	-5.79519
1012.054	-24.75999
1012.221	4.74166
1012.389	38.46358
1012.556	51.11085
1012.724	30.03253
1012.891	-26.86706
1013.058	-58.47023
1013.226	8.95656
1013.393	55.32679
1013.561	-16.33143
1013.728	21.60186
1013.895	23.70949
1014.063	-41.61591
1014.23	-22.65289
1014.397	67.97517
1014.565	11.06405
1014.732	67.97517
1014.899	53.21881
1015.066	11.06405
1015.233	19.49425
1015.401	17.38667
1015.568	38.46358
1015.735	25.81715
1015.902	2.63424
1016.069	-14.22423
1016.236	38.46358
1016.403	-47.93647
1016.57	59.54283
1016.737	8.95656
1016.904	-20.54576
1017.071	17.38667
1017.238	15.2791
1017.405	34.24801
1017.572	6.8491
1017.739	-20.54576
1017.906	-22.65289
1018.073	-10.00976
1018.24	67.97517
1018.407	-16.33143
1018.573	8.95656
1018.74	55.32679
1018.907	-37.40208
1019.074	-16.33143
1019.241	-16.33143
1019.407	51.11085
1019.574	36.35578
1019.741	32.14026
1019.907	-14.22423
1020.074	51.11085
1020.241	59.54283
1020.407	25.81715
1020.574	30.03253
1020.74	15.2791
1020.907	-12.11701
1021.073	59.54283
1021.24	19.49425
1021.406	21.60186
1021.573	0.52684
1021.739	-41.61591
1021.906	23.70949
1022.072	78.51611
1022.239	34.24801
1022.405	51.11085
1022.571	49.00291
1022.738	97.49122
1022.904	17.38667
1023.07	-52.15005
1023.237	23.70949
1023.403	-14.22423
1023.569	0.52684
1023.735	44.78711
1023.902	4.74166
1024.068	25.81715
1024.234	51.11085
1024.4	21.60186
1024.566	59.54283
1024.732	34.24801
1024.898	25.81715
1025.065	-41.61591
1025.231	38.46358
1025.397	-58.47023
1025.563	4.74166
1025.729	-22.65289
1025.895	25.81715
1026.061	63.75895
1026.227	19.49425
1026.392	-75.32294
1026.558	-28.97412
1026.724	59.54283
1026.89	-7.90249
1027.056	15.2791
1027.222	-24.75999
1027.388	-16.33143
1027.553	27.92483
1027.719	55.32679
1027.885	67.97517
1028.051	46.895
1028.216	11.06405
1028.382	-31.08114
1028.548	55.32679
1028.713	-3.68787
1028.879	-66.89679
1029.045	86.94927
1029.21	8.95656
1029.376	-45.82964
1029.541	53.21881
1029.707	-12.11701
1029.873	59.54283
1030.038	70.08331
1030.204	-31.08114
1030.369	4.74166
1030.534	17.38667
1030.7	55.32679
1030.865	-54.2568
1031.031	21.60186
1031.196	80.62436
1031.361	-60.57691
1031.527	49.00291
1031.692	6.8491
1031.857	15.2791
1032.023	-73.21644
1032.188	-31.08114
1032.353	13.17157
1032.518	63.75895
1032.684	-31.08114
1032.849	2.63424
1033.014	27.92483
1033.179	25.81715
1033.344	-31.08114
1033.509	30.03253
1033.674	-16.33143
1033.839	49.00291
1034.004	51.11085
1034.17	0.52684
1034.335	-50.04327
1034.5	-12.11701
1034.664	17.38667
1034.829	-1.58052
1034.994	51.11085
1035.159	44.78711
1035.324	2.63424
1035.489	-18.43861
1035.654	-16.33143
1035.819	101.70815
1035.984	-7.90249
1036.148	-35.29512
1036.313	19.49425
1036.478	21.60186
1036.643	4.74166
1036.807	-58.47023
1036.972	32.14026
1037.137	21.60186
1037.301	42.67924
1037.466	-31.08114
1037.631	84.84094
1037.795	-24.75999
1037.96	49.00291
1038.124	-41.61591
1038.289	17.38667
1038.454	0.52684
1038.618	-7.90249
1038.783	-5.79519
1038.947	59.54283
1039.111	19.49425
1039.276	70.08331
1039.44	0.52684
1039.605	49.00291
1039.769	-3.68787
1039.933	30.03253
1040.098	-37.40208
1040.262	-3.68787
1040.426	4.74166
1040.591	-33.18815
1040.755	44.78711
1040.919	53.21881
1041.083	34.24801
1041.248	61.65088
1041.412	-3.68787
1041.576	27.92483
1041.74	-31.08114
1041.904	25.81715
1042.068	-16.33143
1042.232	84.84094
1042.397	8.95656
1042.561	89.05761
1042.725	-79.53586
1042.889	-20.54576
1043.053	63.75895
1043.217	-22.65289
1043.381	2.63424
1043.544	-22.65289
1043.708	2.63424
1043.872	-33.18815
1044.036	59.54283
1044.2	-20.54576
1044.364	-24.75999
1044.528	17.38667
1044.691	53.21881
1044.855	2.63424
1045.019	-12.11701
1045.183	8.95656
1045.346	-64.79019
1045.51	32.14026
1045.674	-3.68787
1045.837	25.81715
1046.001	17.38667
1046.165	13.17157
1046.328	38.46358
1046.492	84.84094
1046.655	-7.90249
1046.819	21.60186
1046.983	0.52684
1047.146	25.81715
1047.31	-16.33143
1047.473	25.81715
1047.636	-22.65289
1047.8	49.00291
1047.963	21.60186
1048.127	67.97517
1048.29	-35.29512
