Data from absorb_only_2.23.25_USB4F045381__62__0167.txt Node

Date: Sun Feb 23 19:23:51 EST 2025
User: ssocol
Spectrometer: USB4F04538
Trigger mode: 4
Integration Time (sec): 2.600000E-3
Scans to average: 1
Electric dark correction enabled: true
Nonlinearity correction enabled: true
Boxcar width: 0
XAxis mode: Wavelengths
Number of Pixels in Spectrum: 3648
>>>>>Begin Spectral Data<<<<<
345.52	-51.79892
345.736	-51.79892
345.952	-51.79892
346.168	-20.19457
346.384	-15.98024
346.6	64.1103
346.816	7.20034
347.032	34.5993
347.248	0.87808
347.464	-1.2293
347.68	66.2184
347.896	13.52282
348.112	5.09289
348.328	-66.54569
348.544	-93.92922
348.76	26.16843
348.975	-56.01241
349.191	19.84552
349.407	-26.51589
349.623	-32.83698
349.839	0.87808
350.055	15.63036
350.27	-26.51589
350.486	15.63036
350.702	7.20034
350.918	-45.4785
351.133	7.20034
351.349	45.13842
351.565	-49.69214
351.781	32.49155
351.996	24.06077
352.212	32.49155
352.428	19.84552
352.644	-11.7658
352.859	28.27611
353.075	13.52282
353.291	-5.44397
353.506	7.20034
353.722	13.52282
353.938	-1.2293
354.153	-26.51589
354.369	40.92271
354.584	19.84552
354.8	30.38382
355.016	43.03055
355.231	-22.3017
355.447	-26.51589
355.662	87.30066
355.878	-41.26476
356.093	32.49155
356.309	76.75925
356.524	2.98547
356.74	7.20034
356.955	11.4153
357.171	-7.55127
357.386	53.57014
357.602	125.25432
357.817	32.49155
358.033	-85.50398
358.248	19.84552
358.464	55.67812
358.679	15.63036
358.895	32.49155
359.11	11.4153
359.325	-20.19457
359.541	7.20034
359.756	49.35423
359.972	-43.37164
360.187	30.38382
360.402	28.27611
360.618	-13.87303
360.833	-1.2293
361.048	-24.40881
361.264	-15.98024
361.479	-123.41424
361.694	49.35423
361.909	-49.69214
362.125	-56.01241
362.34	76.75925
362.555	34.5993
362.77	9.30781
362.986	-1.2293
363.201	28.27611
363.416	40.92271
363.631	-26.51589
363.847	-43.37164
364.062	9.30781
364.277	9.30781
364.492	-1.2293
364.707	15.63036
364.922	26.16843
365.138	7.20034
365.353	21.95313
365.568	28.27611
365.783	99.95108
365.998	-32.83698
366.213	7.20034
366.428	2.98547
366.643	19.84552
366.858	32.49155
367.073	80.97574
367.288	-43.37164
367.503	76.75925
367.718	-26.51589
367.933	-22.3017
368.148	7.20034
368.363	19.84552
368.578	-37.05092
368.793	11.4153
369.008	36.70708
369.223	-1.2293
369.438	91.51738
369.653	-34.94396
369.868	-18.08741
370.083	-18.08741
370.298	66.2184
370.513	49.35423
370.728	30.38382
370.943	-5.44397
371.157	15.63036
371.372	-18.08741
371.587	19.84552
371.802	9.30781
372.017	62.00222
372.232	-1.2293
372.446	-81.29121
372.661	17.73793
372.876	28.27611
373.091	-1.2293
373.306	-53.90568
373.52	-13.87303
373.735	2.98547
373.95	15.63036
374.165	-9.65855
374.379	45.13842
374.594	70.43467
374.809	11.4153
375.023	-26.51589
375.238	7.20034
375.453	2.98547
375.667	15.63036
375.882	5.09289
376.097	-56.01241
376.311	-18.08741
376.526	7.20034
376.741	-49.69214
376.955	49.35423
377.17	-13.87303
377.384	70.43467
377.599	34.5993
377.813	-9.65855
378.028	-22.3017
378.242	49.35423
378.457	2.98547
378.672	7.20034
378.886	-1.2293
379.101	49.35423
379.315	-26.51589
379.53	17.73793
379.744	-5.44397
379.958	17.73793
380.173	11.4153
380.387	32.49155
380.602	40.92271
380.816	59.89417
381.031	-15.98024
381.245	49.35423
381.459	15.63036
381.674	-26.51589
381.888	11.4153
382.103	-13.87303
382.317	43.03055
382.531	2.98547
382.746	-62.33245
382.96	7.20034
383.174	-32.83698
383.388	7.20034
383.603	-22.3017
383.817	-26.51589
384.031	9.30781
384.246	-18.08741
384.46	43.03055
384.674	2.98547
384.888	7.20034
385.103	45.13842
385.317	-30.72997
385.531	26.16843
385.745	49.35423
385.959	-13.87303
386.174	40.92271
386.388	32.49155
386.602	-22.3017
386.816	47.24632
387.03	-5.44397
387.244	-56.01241
387.458	45.13842
387.672	66.2184
387.887	-15.98024
388.101	24.06077
388.315	-93.92922
388.529	32.49155
388.743	34.5993
388.957	-18.08741
389.171	-93.92922
389.385	49.35423
389.599	17.73793
389.813	-1.2293
390.027	57.78613
390.241	-13.87303
390.455	7.20034
390.669	-3.33665
390.883	-9.65855
391.097	45.13842
391.311	26.16843
391.525	26.16843
391.738	-11.7658
391.952	0.87808
392.166	36.70708
392.38	40.92271
392.594	9.30781
392.808	49.35423
393.022	28.27611
393.236	0.87808
393.449	26.16843
393.663	32.49155
393.877	7.20034
394.091	2.98547
394.305	-11.7658
394.518	24.06077
394.732	-32.83698
394.946	36.70708
395.16	-24.40881
395.373	-85.50398
395.587	-43.37164
395.801	68.32652
396.015	-93.92922
396.228	2.98547
396.442	17.73793
396.656	43.03055
396.869	-32.83698
397.083	85.19233
397.297	-26.51589
397.51	47.24632
397.724	2.98547
397.938	24.06077
398.151	66.2184
398.365	-11.7658
398.578	74.65103
398.792	7.20034
399.005	7.20034
399.219	7.20034
399.433	19.84552
399.646	34.5993
399.86	-22.3017
400.073	-7.55127
400.287	40.92271
400.5	17.73793
400.714	28.27611
400.927	68.32652
401.141	-18.08741
401.354	9.30781
401.567	9.30781
401.781	5.09289
401.994	17.73793
402.208	7.20034
402.421	0.87808
402.635	-34.94396
402.848	19.84552
403.061	78.86748
403.275	97.84262
403.488	38.81488
403.701	78.86748
403.915	11.4153
404.128	21.95313
404.341	-34.94396
404.555	-11.7658
404.768	91.51738
404.981	49.35423
405.195	9.30781
405.408	32.49155
405.621	133.68943
405.834	47.24632
406.048	24.06077
406.261	11.4153
406.474	74.65103
406.687	-24.40881
406.9	17.73793
407.114	-43.37164
407.327	-18.08741
407.54	-24.40881
407.753	-26.51589
407.966	24.06077
408.179	43.03055
408.392	30.38382
408.605	64.1103
408.819	-15.98024
409.032	24.06077
409.245	30.38382
409.458	26.16843
409.671	0.87808
409.884	85.19233
410.097	59.89417
410.31	74.65103
410.523	108.38515
410.736	51.46218
410.949	-70.75882
411.162	-5.44397
411.375	102.05957
411.588	40.92271
411.801	72.54284
412.014	85.19233
412.227	38.81488
412.44	-13.87303
412.653	76.75925
412.865	36.70708
413.078	26.16843
413.291	17.73793
413.504	68.32652
413.717	32.49155
413.93	34.5993
414.143	-43.37164
414.356	66.2184
414.568	17.73793
414.781	9.30781
414.994	-30.72997
415.207	-1.2293
415.42	11.4153
415.632	85.19233
415.845	19.84552
416.058	68.32652
416.271	9.30781
416.483	-30.72997
416.696	114.71092
416.909	57.78613
417.121	15.63036
417.334	26.16843
417.547	36.70708
417.759	9.30781
417.972	26.16843
418.185	64.1103
418.397	49.35423
418.61	-28.62294
418.823	-1.2293
419.035	26.16843
419.248	91.51738
419.46	7.20034
419.673	51.46218
419.885	70.43467
420.098	40.92271
420.311	32.49155
420.523	62.00222
420.736	9.30781
420.948	15.63036
421.161	83.08402
421.373	49.35423
421.586	2.98547
421.798	-49.69214
422.01	47.24632
422.223	-39.15785
422.435	-1.2293
422.648	57.78613
422.86	32.49155
423.073	28.27611
423.285	-43.37164
423.497	76.75925
423.71	-56.01241
423.922	36.70708
424.134	2.98547
424.347	78.86748
424.559	59.89417
424.771	-9.65855
424.984	-11.7658
425.196	-1.2293
425.408	30.38382
425.621	9.30781
425.833	34.5993
426.045	30.38382
426.257	45.13842
426.47	-43.37164
426.682	15.63036
426.894	7.20034
427.106	24.06077
427.318	83.08402
427.531	68.32652
427.743	99.95108
427.955	-5.44397
428.167	51.46218
428.379	7.20034
428.591	43.03055
428.804	-18.08741
429.016	49.35423
429.228	-1.2293
429.44	68.32652
429.652	118.92822
429.864	150.56067
430.076	51.46218
430.288	-7.55127
430.5	-32.83698
430.712	125.25432
430.924	85.19233
431.136	51.46218
431.348	-24.40881
431.56	53.57014
431.772	51.46218
431.984	2.98547
432.196	95.73419
432.408	57.78613
432.62	112.60231
432.832	-15.98024
433.044	24.06077
433.256	-9.65855
433.468	32.49155
433.679	83.08402
433.891	43.03055
434.103	45.13842
434.315	66.2184
434.527	38.81488
434.739	78.86748
434.95	59.89417
435.162	106.2766
435.374	102.05957
435.586	15.63036
435.798	26.16843
436.009	40.92271
436.221	-1.2293
436.433	-9.65855
436.645	62.00222
436.856	-22.3017
437.068	-5.44397
437.28	-9.65855
437.491	47.24632
437.703	140.01598
437.915	40.92271
438.126	45.13842
438.338	32.49155
438.55	-43.37164
438.761	36.70708
438.973	66.2184
439.184	-3.33665
439.396	133.68943
439.608	11.4153
439.819	28.27611
440.031	-18.08741
440.242	24.06077
440.454	47.24632
440.665	85.19233
440.877	104.16807
441.088	72.54284
441.3	32.49155
441.511	64.1103
441.723	112.60231
441.934	34.5993
442.146	17.73793
442.357	17.73793
442.569	62.00222
442.78	-15.98024
442.991	68.32652
443.203	40.92271
443.414	99.95108
443.626	15.63036
443.837	9.30781
444.048	57.78613
444.26	95.73419
444.471	64.1103
444.682	112.60231
444.894	26.16843
445.105	-1.2293
445.316	152.66967
445.528	-15.98024
445.739	62.00222
445.95	15.63036
446.161	108.38515
446.373	76.75925
446.584	-51.79892
446.795	91.51738
447.006	116.81956
447.217	110.49372
447.429	40.92271
447.64	83.08402
447.851	83.08402
448.062	76.75925
448.273	47.24632
448.484	32.49155
448.695	129.47183
448.907	112.60231
449.118	91.51738
449.329	43.03055
449.54	95.73419
449.751	13.52282
449.962	57.78613
450.173	36.70708
450.384	26.16843
450.595	51.46218
450.806	19.84552
451.017	85.19233
451.228	53.57014
451.439	190.63523
451.65	102.05957
451.861	-28.62294
452.072	118.92822
452.283	133.68943
452.494	121.0369
452.705	129.47183
452.915	163.21498
453.126	40.92271
453.337	-20.19457
453.548	40.92271
453.759	-37.05092
453.97	99.95108
454.181	97.84262
454.391	99.95108
454.602	116.81956
454.813	110.49372
455.024	49.35423
455.235	47.24632
455.445	83.08402
455.656	68.32652
455.867	144.23379
456.078	62.00222
456.288	110.49372
456.499	102.05957
456.71	40.92271
456.921	99.95108
457.131	112.60231
457.342	99.95108
457.553	97.84262
457.763	95.73419
457.974	72.54284
458.184	83.08402
458.395	108.38515
458.606	114.71092
458.816	131.58062
459.027	146.34273
459.237	5.09289
459.448	146.34273
459.659	180.08857
459.869	142.12488
460.08	205.40141
460.29	99.95108
460.501	173.76082
460.711	118.92822
460.922	142.12488
461.132	135.79826
461.343	108.38515
461.553	205.40141
461.764	144.23379
461.974	177.9793
462.184	150.56067
462.395	209.6205
462.605	158.99679
462.816	171.65161
463.026	203.2919
463.236	74.65103
463.447	201.1824
463.657	203.2919
463.867	91.51738
464.078	209.6205
464.288	218.05892
464.498	184.30718
464.709	262.36575
464.919	186.41651
465.129	196.96348
465.339	230.71714
465.55	213.83967
465.76	142.12488
465.97	152.66967
466.18	192.74463
466.391	251.81573
466.601	218.05892
466.811	279.24676
467.021	205.40141
467.231	258.14568
467.441	281.35697
467.651	310.90184
467.862	344.67174
468.072	201.1824
468.282	294.01862
468.492	260.25571
468.702	319.34389
468.912	317.23335
469.122	344.67174
469.332	454.45383
469.542	363.66927
469.752	367.89113
469.962	304.5705
470.172	397.44606
470.382	403.77968
470.592	397.44606
470.802	446.00751
471.012	342.56099
471.222	450.23064
471.432	530.48154
471.642	545.26687
471.852	479.79427
472.062	481.90607
472.272	532.59368
472.482	566.38994
472.691	625.54156
472.901	574.83955
473.111	602.30222
473.321	513.58486
473.531	688.92907
473.741	555.82823
473.95	674.1377
474.16	568.50232
474.37	716.40021
474.58	682.58984
474.79	874.92107
474.999	695.26839
475.209	800.93799
475.419	877.03503
475.628	1016.57302
475.838	847.44038
476.048	970.05694
476.258	963.71408
476.467	927.77245
476.677	921.43002
476.886	1130.76072
477.096	986.97151
477.306	1128.646
477.515	1063.09206
477.725	1107.49906
477.935	1189.97456
478.144	1270.34055
478.354	1052.51931
478.563	1401.47089
478.773	1365.51526
478.982	1388.78064
479.192	1342.25001
479.401	1543.17898
479.611	1488.18795
479.82	1435.31167
480.03	1418.39126
480.239	1486.0729
480.449	1572.78923
480.658	1623.54893
480.868	1758.90108
481.077	1782.16336
481.287	1642.58352
481.496	1790.62224
481.705	1756.78631
481.915	1938.64068
482.124	1906.92457
482.333	1961.89834
482.543	1902.69566
482.752	2086.6307
482.961	2111.997
483.171	2086.6307
483.38	1947.09809
483.589	2095.08625
483.799	2310.65875
484.008	2450.09512
484.217	2361.36801
484.426	2462.76889
484.636	2454.31975
484.845	2390.94575
485.054	2433.19615
485.263	2654.93708
485.472	2376.15713
485.682	2549.36222
485.891	2665.49287
486.1	2450.09512
486.309	2695.0474
486.518	2960.91886
486.727	2847.00112
486.936	3041.0573
487.146	2804.79882
487.355	2937.71684
487.564	3041.0573
487.773	3167.54594
487.982	2965.13722
488.191	3068.46799
488.4	3081.1182
488.609	3262.37414
488.818	3237.08991
489.027	3289.76264
489.236	3087.44308
489.445	3454.03231
489.654	3363.48655
489.863	3588.73634
490.072	3414.02776
490.281	3571.90246
490.49	3635.02335
490.698	3451.92697
490.907	3599.25692
491.116	3674.99113
491.325	3515.07937
491.534	3597.15284
491.743	3616.08885
491.952	3862.11585
492.16	3723.36396
492.369	3874.7254
492.578	3885.2328
492.787	3946.16585
492.996	4046.98299
493.204	4042.78322
493.413	4229.59222
493.622	4237.98421
493.831	4160.34537
494.039	4244.27798
494.248	4151.95025
494.457	4080.57818
494.665	4151.95025
494.874	4512.63095
495.083	4305.1078
495.291	4407.84801
495.5	4185.52871
495.709	4565.00173
495.917	4441.38452
496.126	4569.1908
496.335	4447.67199
496.543	4780.62202
496.752	4500.0599
496.96	4765.97578
497.169	4751.32844
497.377	4608.98246
497.586	4606.88837
497.794	4707.37976
498.003	4715.75171
498.211	4983.46187
498.42	4753.42099
498.628	5177.73372
498.837	4935.38532
499.045	5050.3307
499.254	5004.36092
499.462	5192.3482
499.671	5002.27112
499.879	5225.74845
500.087	5083.75624
500.296	5294.61758
500.504	5108.8215
500.713	5290.44441
500.921	5261.22966
501.129	5390.57443
501.338	5073.3114
501.546	5398.91616
501.754	5423.93909
501.962	5484.3972
502.171	5244.53346
502.379	5673.98199
502.587	5344.68821
502.795	5603.17096
503.004	5367.63274
503.212	5528.16486
503.42	5605.25402
503.628	5751.01007
503.837	5542.75177
504.045	5773.90408
504.253	5765.57932
504.461	5769.74174
504.669	5753.09146
504.877	5755.17283
505.085	5648.99298
505.294	6079.57732
505.502	5990.21541
505.71	5965.26943
505.918	5715.6228
506.126	5886.25143
506.334	5690.63945
506.542	6285.15232
506.75	5973.58514
506.958	6181.35531
507.166	6081.65499
507.374	6044.2534
507.582	6183.43183
507.79	6060.87727
507.998	6102.43036
508.206	6299.67923
508.414	6141.89708
508.622	6359.84994
508.83	6293.45356
509.037	6368.14781
509.245	5986.05799
509.453	6602.40886
509.661	6233.26114
509.869	6339.10364
510.077	6177.20221
510.285	6552.67906
510.492	6583.76175
510.7	6436.59099
510.908	6314.205
511.116	6623.12569
511.324	6432.44364
511.531	6498.79008
511.739	6666.62352
511.947	6838.4445
512.155	6730.81607
512.362	6879.82364
512.57	6606.55241
512.778	6708.04059
512.985	6780.4984
513.193	6670.76564
513.401	6689.40404
513.608	6728.74568
513.816	6815.68209
514.024	6925.33021
514.231	6823.95965
514.439	6919.12541
514.646	6799.12588
514.854	6859.1352
515.061	6801.19549
515.269	6993.56954
515.477	7140.30454
515.684	7080.38415
515.892	6879.82364
516.099	7094.84941
516.307	6921.1937
516.514	7214.66243
516.722	7179.55256
516.929	7435.50209
517.136	7249.7659
517.344	7233.24741
517.551	7334.40103
517.759	7385.98974
517.966	7194.01034
518.173	7328.20947
518.381	7324.08165
518.588	7460.25358
518.796	7530.36591
519.003	7600.45341
519.21	7266.28297
519.418	7800.27408
519.625	7532.42766
519.832	7594.27022
520.039	7352.97454
520.247	7796.15607
520.454	7604.57544
520.661	7649.91209
520.868	7583.96446
521.076	7989.6133
521.283	7779.68316
521.49	7804.39202
521.697	7872.3259
521.904	8004.01243
522.112	7827.03916
522.319	7909.37125
522.526	7859.97597
522.733	8088.33021
522.94	7911.42913
523.147	8038.97759
523.354	7966.98408
523.561	8193.16609
523.768	8047.20384
523.975	8281.51695
524.183	7835.27386
524.39	8143.83804
524.597	8139.72685
524.804	8254.81007
525.011	8098.61054
525.218	8390.36464
525.425	7820.86292
525.632	8324.65183
525.838	8098.61054
526.045	8316.43633
526.252	8094.49847
526.459	8462.21537
526.666	8191.11098
526.873	8560.71546
527.08	8271.24547
527.287	8661.22284
527.494	8332.86702
527.701	8470.42538
527.907	8371.88492
528.114	8683.77958
528.321	8550.45707
528.528	8671.47618
528.735	8870.3002
528.941	8976.81641
529.148	8599.69304
529.355	8687.88056
529.562	8573.0249
529.768	9075.09676
529.975	8566.87027
530.182	8962.48048
530.388	8675.57739
530.595	9093.51986
530.802	8776.03391
531.008	9095.56679
531.215	8929.7094
531.422	9105.80115
531.628	8911.27367
531.835	9238.80901
532.042	8776.03391
532.248	9122.17524
532.455	8858.00676
532.661	9447.38651
532.868	9367.65651
533.074	9224.48853
533.281	9246.99177
533.487	9367.65651
533.694	9414.67976
533.9	9518.91814
534.107	9089.42596
534.313	9398.32483
534.52	9189.70678
534.726	9480.08912
534.933	9412.63545
535.139	9492.35154
535.345	9246.99177
535.552	9614.94425
535.758	9676.21943
535.965	9741.56433
536.171	9808.93493
536.377	9804.85233
536.584	9745.64786
536.79	9747.68961
536.996	9821.18237
537.203	9955.86898
537.409	9735.43891
537.615	9894.65575
537.821	9721.14573
538.028	10059.90158
538.234	9725.22957
538.44	10076.21705
538.646	9739.52253
538.853	10010.94971
539.059	9868.12591
539.265	10123.119
539.471	10094.57087
539.677	9964.02975
539.883	10035.42667
540.09	10127.19708
540.296	10153.70324
540.502	10284.1612
540.708	10441.0456
540.914	10434.93468
541.12	10559.16746
541.326	10245.43732
541.532	10276.00921
541.738	10396.22944
541.944	10263.78082
542.15	10614.14075
542.356	10487.89216
542.562	10601.92525
542.768	10408.45266
542.974	10630.4274
543.18	10434.93468
543.386	10750.51729
543.592	10628.39161
543.798	10685.38903
544.004	10687.42447
544.21	10748.48222
544.415	10870.56569
544.621	10927.52369
544.827	10781.04195
545.033	11012.94406
545.239	10917.35328
545.445	10789.18141
545.651	10878.7031
545.856	11071.91337
546.062	10758.65746
546.268	11037.34627
546.474	10546.94994
546.679	10813.59866
546.885	10840.04877
547.091	11014.97764
547.297	10899.04581
547.502	11084.11277
547.708	11012.94406
547.914	11252.83173
548.119	11094.27864
548.325	11338.18035
548.531	10795.28588
548.736	11110.54346
548.942	10878.7031
549.147	10960.06712
549.353	11004.80963
549.559	11236.57281
549.764	11134.93942
549.97	11100.37803
550.175	11401.16439
550.381	11784.96686
550.586	11159.33383
550.792	11447.88838
550.997	11311.76483
551.203	11746.39816
551.408	11648.9473
551.614	11758.57809
551.819	11423.51129
552.025	11441.79424
552.23	11256.89636
552.435	11386.94302
552.641	11827.59182
552.846	11653.00816
553.052	11370.68943
553.257	11529.13536
553.462	11569.75318
553.668	11774.81751
553.873	11468.20156
554.078	11821.50277
554.283	11750.45817
554.489	11998.05486
554.694	11914.8599
554.899	11789.02655
555.105	11939.21105
555.31	12192.80129
555.515	11902.68388
555.72	11831.65114
555.925	11965.59014
556.131	12008.19966
556.336	11991.96788
556.541	12251.61735
556.746	11847.8881
556.951	11906.74258
557.156	11967.61925
557.361	12284.065
557.567	12182.65996
557.772	12235.39284
557.977	12065.00693
558.182	12158.32003
558.387	12144.12125
558.592	12397.61765
558.797	11862.095
559.002	12138.03594
559.207	12176.57508
559.412	12121.80812
559.617	11985.88083
559.822	12606.41892
560.027	12198.88599
560.232	12419.92011
560.437	12168.4618
560.642	12490.87716
560.847	12588.17684
561.051	12446.27653
561.256	12196.85776
561.461	12728.02029
561.666	12397.61765
561.871	12334.76083
562.076	12602.36517
562.281	12486.82269
562.485	12369.23151
562.69	12624.6605
562.895	12275.95326
563.1	12665.1956
563.305	12515.20345
563.509	12857.70548
563.714	12624.6605
563.919	12533.44757
564.123	12618.58003
564.328	12580.06908
564.533	12640.87483
564.737	12513.1763
564.942	12823.26008
565.147	12946.85107
565.351	12711.80801
565.556	12551.69116
565.761	12748.28513
565.965	12882.01893
566.17	12833.39124
566.374	13013.70365
566.579	12884.04502
566.784	12985.34262
566.988	13064.34592
567.193	13068.39717
567.397	13167.64684
567.602	13070.42279
567.806	12802.99734
568.011	13005.6006
568.215	13086.62755
568.42	13434.96044
568.624	13025.85808
568.828	13187.9005
569.033	12705.72831
569.237	13064.34592
569.442	13102.83201
569.646	12849.60082
569.85	12884.04502
570.055	13123.08716
570.259	13027.8838
570.463	13315.48842
570.668	12956.9806
570.872	13384.33841
571.076	13015.7294
571.281	13112.95965
571.485	13317.51349
571.689	13556.44362
571.893	13524.0494
572.098	13532.14804
572.302	13145.36728
572.506	13281.06162
572.71	13031.93522
572.914	13392.4381
573.119	13200.05248
573.323	13455.20858
573.527	13388.38826
573.731	13667.79193
573.935	13637.42523
574.139	13449.13418
574.343	13410.66217
574.547	13560.49283
574.751	13943.08515
574.955	13762.93624
575.159	13825.68729
575.364	13706.25536
575.568	13572.64039
575.772	13728.52314
575.976	13517.97539
576.18	13447.10937
576.383	13536.19734
576.587	13681.9628
576.791	13777.10608
576.995	13955.22924
577.199	13574.66497
577.403	13831.75982
577.607	13754.83912
577.811	13795.32423
578.015	13394.46301
578.219	13886.41147
578.422	13827.71147
578.626	13870.2186
578.83	13821.63892
579.034	13945.10917
579.238	13775.08182
579.442	14189.99804
579.645	14042.25925
579.849	13985.58907
580.053	13886.41147
580.257	14151.54659
580.46	13769.00904
580.664	14159.64169
580.868	13894.50784
581.071	14007.85258
581.275	13892.48375
581.479	14137.38007
581.682	13854.02555
581.886	14372.1271
582.09	14323.56076
582.293	14398.43347
582.497	14477.35105
582.7	14321.53714
582.904	14467.23353
583.107	14453.06895
583.311	14388.31567
583.515	14343.79685
583.718	14086.78451
583.922	14592.68841
584.125	14523.89118
584.329	14181.90306
584.532	14214.28279
584.735	14386.2921
584.939	14234.51986
585.142	14616.96946
585.346	14418.66896
585.549	14900.23875
585.753	14675.64804
585.956	14623.0397
586.159	14683.74157
586.363	14651.36735
586.566	14416.64542
586.769	14712.06881
586.973	14580.54782
587.176	14525.91465
587.379	14618.99287
587.582	14831.44612
587.786	14505.67991
587.989	14746.46594
588.192	14705.9987
588.395	14952.84447
588.599	14831.44612
588.802	14892.14553
589.005	14641.25036
589.208	14851.67931
589.411	15013.54305
589.615	14805.14287
589.818	14910.35526
590.021	14975.10065
590.224	14815.25951
590.427	14967.0075
590.63	14912.37856
590.833	14916.42516
591.036	14871.91245
591.239	15151.1257
591.442	14942.72801
591.645	15260.38238
591.848	15282.63841
592.051	15397.96566
592.254	15100.54392
592.457	15337.26698
592.66	15308.94103
592.863	15402.01225
593.066	15250.26601
593.269	15228.01
593.472	15244.19619
593.675	15752.05194
593.878	15312.98759
594.081	15189.56785
594.284	15416.17534
594.486	15474.85122
594.689	15458.66473
594.892	15276.56858
595.095	15660.99891
595.298	15426.29184
595.5	15480.92117
595.703	15798.59094
595.906	15576.01769
596.109	15606.36797
596.311	15559.83094
596.514	15614.4614
596.717	15379.75602
596.92	15919.99983
597.122	15614.4614
597.325	15695.3965
597.528	15201.70747
597.73	15940.23508
597.933	15604.34461
598.136	15796.56749
598.338	15717.65391
598.541	16027.24818
598.743	16045.46055
598.946	15193.61439
599.148	15778.35652
599.351	15865.3653
599.554	15944.28214
599.756	15818.82546
599.959	16017.13024
600.161	15671.11583
600.363	15808.70818
600.566	16312.5902
600.768	15839.0601
600.971	16148.66632
601.173	15741.93484
601.376	15952.37629
601.578	15899.76471
601.78	15887.6237
601.983	15915.9528
602.185	16217.47249
602.388	16092.00383
602.59	16205.33008
602.792	16140.5716
602.995	16316.63785
603.197	16179.02174
603.399	16221.51997
603.601	16106.16934
603.804	15847.15398
604.006	15788.47372
604.208	16148.66632
604.41	16015.10666
604.613	16136.52425
604.815	16100.0984
605.017	16310.56637
605.219	15990.82378
605.421	16116.2876
605.623	16140.5716
605.826	16678.93523
606.028	16255.92385
606.23	16385.44906
606.432	16316.63785
606.634	16533.19854
606.836	16393.54465
607.038	16318.66167
607.24	16409.73591
607.442	16413.78374
607.644	16405.68808
607.846	16215.44875
608.048	15956.42337
608.25	16397.59245
608.452	16207.35381
608.654	16264.01896
608.856	16205.33008
609.058	16221.51997
609.26	16205.33008
609.462	16164.85583
609.664	16164.85583
609.866	16150.69
610.067	16213.42501
610.269	16770.02671
610.471	16278.18546
610.673	16357.11477
610.875	16253.90008
611.077	16332.82852
611.278	16183.06916
611.48	16102.12204
611.682	16094.02747
611.884	16782.1726
612.085	16316.63785
612.287	16500.81415
612.489	16213.42501
612.69	16306.51873
612.892	16239.73373
613.094	16599.99309
613.295	15867.38878
613.497	16221.51997
613.699	16506.88618
613.9	16290.32825
614.102	16284.25685
614.304	16199.2589
614.505	16300.44729
614.707	16203.30635
614.908	16302.4711
615.11	16379.3774
615.311	16401.64026
615.513	16259.9714
615.714	16259.9714
615.916	16510.93422
616.117	16282.23305
616.319	16539.27068
616.52	16320.6855
616.722	16553.43906
616.923	16496.76614
617.124	16682.98363
617.326	16351.04318
617.527	16385.44906
617.729	16377.35351
617.93	16486.64615
618.131	16626.30675
618.333	16312.5902
618.534	16261.99518
618.735	16508.9102
618.937	16442.11881
619.138	16187.11659
619.339	16290.32825
619.54	16662.74168
619.742	16687.03205
619.943	16737.63807
620.144	16108.19299
620.345	16292.35205
620.546	16027.24818
620.748	16551.415
620.949	16539.27068
621.15	16751.80802
621.351	16494.74214
621.552	16539.27068
621.753	16300.44729
621.954	16885.41634
622.155	16413.78374
622.356	16484.62216
622.558	16721.44398
622.759	16820.6352
622.96	16490.69414
623.161	16296.39967
623.362	16249.85254
623.563	16836.83024
623.764	16583.80025
623.965	17012.96194
624.166	16478.5502
624.366	16237.70997
624.567	16482.59817
624.768	16685.00784
624.969	16195.21146
625.17	16393.54465
625.371	16383.42517
625.572	16711.32276
625.773	16442.11881
625.973	16577.72797
626.174	16355.0909
626.375	16567.60756
626.576	16705.25005
626.777	16950.2001
626.977	16478.5502
627.178	16774.07533
627.379	16282.23305
627.58	16531.1745
627.78	16527.12643
627.981	16330.80468
628.182	16389.49685
628.382	16660.7175
628.583	16840.87902
628.784	16923.88137
628.984	16241.75749
629.185	16729.54101
629.386	16583.80025
629.586	16816.58646
629.787	16703.22582
629.987	16867.19638
630.188	16472.47825
630.388	16595.94486
630.589	16365.21024
630.79	16903.6365
630.99	16687.03205
631.191	16980.56841
631.391	16753.83231
631.591	16715.37124
631.792	16506.88618
631.992	16978.54384
632.193	16713.347
632.393	17085.84992
632.594	16964.3719
632.794	16786.22126
632.994	16875.29411
633.195	16960.3228
633.395	16891.4897
633.595	16867.19638
633.796	16676.91102
633.996	17006.8881
634.196	17075.72637
634.397	17302.51079
634.597	17067.62759
634.797	17274.16075
634.997	17142.54305
635.198	17021.06043
635.398	16636.42749
635.598	17124.32002
635.798	16934.00391
635.998	16563.5594
636.199	16689.05627
636.399	16996.76509
636.599	16788.24559
636.799	16964.3719
636.999	16539.27068
637.199	16834.80585
637.399	16765.97809
637.599	16838.85463
637.799	16697.15314
637.999	16966.39646
638.199	16925.90588
638.399	17142.54305
638.599	17049.40548
638.799	17023.08506
638.999	16966.39646
639.199	17130.39433
639.399	16982.59299
639.599	17083.8252
639.799	16763.95379
639.999	17004.86349
640.199	16958.29826
640.399	17004.86349
640.599	16138.54793
640.799	17185.06435
640.998	17347.06205
641.198	17118.24572
641.398	17045.35616
641.598	17150.64225
641.798	17189.11407
641.997	17462.4972
642.197	16899.58756
642.397	17201.26328
642.597	17006.8881
642.796	17484.77532
642.996	17395.6651
643.196	17071.67697
643.395	17282.2607
643.595	17132.41911
643.795	16798.36727
643.994	17221.51219
644.194	16685.00784
644.394	17118.24572
644.593	16873.26967
644.793	17239.73647
644.992	17122.29525
645.192	17120.27048
645.392	17276.18573
645.591	17539.4596
645.791	17401.74061
645.99	17687.32148
646.19	17110.1467
646.389	17241.7614
646.589	17019.0358
646.788	17104.07247
646.987	16972.47014
647.187	17407.81614
647.386	17300.48577
647.586	17474.64885
647.785	17235.68661
647.984	17345.03697
648.184	17004.86349
648.383	17689.34711
648.582	17209.36281
648.782	17577.94253
648.981	17375.41362
649.18	17209.36281
649.38	17432.11855
649.579	17709.60356
649.778	17667.0654
649.977	17557.68821
650.177	17494.90186
650.376	17717.70623
650.575	16940.07746
650.774	17571.8662
650.973	17290.3607
651.173	17219.48729
651.372	17257.96098
651.571	17476.67414
651.77	17249.86117
651.969	17654.9119
652.168	17381.48903
652.367	17555.6628
652.566	17282.2607
652.765	17600.22265
652.964	17312.63595
653.163	17543.51038
653.362	17559.71363
653.561	17375.41362
653.76	17509.07916
653.959	17697.44965
654.158	17543.51038
654.357	17237.71154
654.556	17140.51826
654.755	17567.81533
654.954	17596.17169
655.153	17432.11855
655.352	17511.1045
655.551	17421.99249
655.749	17306.56085
655.948	17525.28197
656.147	17387.56447
656.346	17604.27363
656.545	17136.46868
656.743	17343.01188
656.942	17272.13576
657.141	17853.43406
657.34	17620.47765
657.538	17812.91669
657.737	17709.60356
657.936	17808.86503
658.135	17816.96836
658.333	17895.97878
658.532	17618.45214
658.731	17891.92684
658.929	17590.09527
659.128	17316.68604
659.326	17195.18866
659.525	17646.80964
659.724	17498.9525
659.922	17658.96305
660.121	17468.57301
660.319	17703.52659
660.518	17630.60527
660.716	17541.48499
660.915	17679.21901
661.113	17760.24615
661.312	17691.37274
661.51	17993.22965
661.709	17448.32041
661.907	17622.50317
662.105	17458.44667
662.304	17744.04029
662.502	17705.55224
662.701	17762.2719
662.899	17440.21946
663.097	17594.14622
663.296	17484.77532
663.494	17383.51418
663.692	17395.6651
663.891	17417.94209
664.089	17270.11079
664.287	17835.20107
664.485	17375.41362
664.684	17966.89008
664.882	17705.55224
665.08	17634.65635
665.278	17349.08715
665.476	17709.60356
665.675	17604.27363
665.873	17652.88633
666.071	17266.06084
666.269	17588.06981
666.467	17357.18754
666.665	17936.499
666.863	17731.88604
667.061	17889.90087
667.259	17577.94253
667.457	17859.51178
667.655	17278.21072
667.853	17249.86117
668.051	17470.59829
668.249	17409.84133
668.447	17569.84076
668.645	17401.74061
668.843	17620.47765
669.041	17930.42088
669.239	17486.80062
669.437	17721.75759
669.635	17247.83622
669.833	17604.27363
670.031	17810.89086
670.229	17503.00315
670.426	17500.97783
670.624	17557.68821
670.822	17296.43573
671.02	17438.19423
671.218	17298.46075
671.415	17484.77532
671.613	17302.51079
671.811	17029.15896
672.009	17154.69186
672.206	17419.96729
672.404	17124.32002
672.602	17527.30734
672.799	17174.94012
672.997	17413.8917
673.195	17395.6651
673.392	17306.56085
673.59	17251.88612
673.788	17183.0395
673.985	17097.99826
674.183	17377.43875
674.38	17302.51079
674.578	17168.86561
674.775	17308.58588
674.973	17336.93664
675.17	17193.16379
675.368	17197.21353
675.565	17397.69027
675.763	17276.18573
675.96	17118.24572
676.158	17373.38849
676.355	17253.91107
676.553	17452.3709
676.75	16994.74049
676.947	17359.21265
677.145	16948.17557
677.342	17160.76631
677.539	16871.24524
677.737	17290.3607
677.934	17150.64225
678.131	17644.78408
678.329	17474.64885
678.526	17152.66705
678.723	17201.26328
678.92	17695.42401
679.118	16913.7589
679.315	16907.68545
679.512	16680.95943
679.709	16713.347
679.906	16879.34299
680.104	17006.8881
680.301	17029.15896
680.498	17154.69186
680.695	17324.78624
680.892	16968.42101
681.089	17008.91271
681.286	16668.81424
681.483	16547.36688
681.68	17045.35616
681.877	16798.36727
682.075	16634.40334
682.272	16470.45428
682.469	17170.89044
682.665	16822.65957
682.862	17039.28219
683.059	16691.08048
683.256	16915.78339
683.453	16304.49492
683.65	16794.31859
683.847	16660.7175
684.044	16446.16671
684.241	16753.83231
684.438	16664.76587
684.635	16308.54255
684.831	16523.07836
685.028	16399.61635
685.225	16889.46524
685.422	16646.54829
685.619	16703.22582
685.815	16804.44031
686.012	16903.6365
686.209	16581.77616
686.405	16826.70832
686.602	16535.22258
686.799	16446.16671
686.996	16381.40128
687.192	16691.08048
687.389	16632.37919
687.586	16618.2102
687.782	16735.6138
687.979	17061.55353
688.175	16626.30675
688.372	16800.39162
688.568	16624.28261
688.765	16575.70389
688.962	16626.30675
689.158	16545.34283
689.355	16351.04318
689.551	16622.25847
689.748	16193.18774
689.944	16591.89665
690.14	16308.54255
690.337	16316.63785
690.533	16152.71369
690.73	16087.95656
690.926	16264.01896
691.123	15992.84734
691.319	16055.57859
691.515	16136.52425
691.712	15998.91805
691.908	16243.78125
692.104	16033.31895
692.301	15565.90097
692.497	15922.02335
692.693	16302.4711
692.889	16041.41335
693.086	16179.02174
693.282	16191.16402
693.478	16085.93292
693.674	16296.39967
693.87	16235.68621
694.067	16207.35381
694.263	16174.97433
694.459	16004.98877
694.655	16377.35351
694.851	16114.26395
695.047	16007.01234
695.243	15960.47046
695.439	16061.64943
695.635	15873.45925
695.831	16081.88566
696.027	16174.97433
696.224	16351.04318
696.42	16308.54255
696.615	16144.61896
696.811	15614.4614
697.007	15806.68473
697.203	15489.01443
697.399	15707.53689
697.595	15897.74121
697.791	15752.05194
697.987	15543.64424
698.183	15922.02335
698.379	15454.61811
698.575	15915.9528
698.77	15839.0601
698.966	15511.27097
699.162	15418.19864
699.358	15620.53149
699.554	15262.40565
699.749	15240.14964
699.945	15507.22432
700.141	15153.14897
700.337	15414.15204
700.532	15523.41092
700.728	15606.36797
700.924	16365.21024
701.119	15646.83528
701.315	15703.49009
701.511	15474.85122
701.706	15932.14096
701.902	15616.48476
702.097	15497.10771
702.293	15412.12874
702.489	15911.90577
702.684	15250.26601
702.88	15660.99891
703.075	15337.26698
703.271	15519.36427
703.466	15315.01087
703.662	15660.99891
703.857	15646.83528
704.053	15887.6237
704.248	15367.61628
704.443	15525.43425
704.639	15256.33583
704.834	15379.75602
705.03	15120.77664
705.225	15752.05194
705.42	15331.19713
705.616	15549.71425
705.811	15428.31514
706.006	15317.03415
706.202	15110.66028
706.397	15272.52203
706.592	15292.7548
706.787	15215.87037
706.983	15450.57149
707.178	15563.87762
707.373	14989.26366
707.568	15280.61514
707.763	15276.56858
707.959	15497.10771
708.154	15343.33683
708.349	14888.09892
708.544	15007.47321
708.739	14969.03079
708.934	15223.96346
709.129	15397.96566
709.324	14958.91434
709.519	15375.70944
709.714	15098.52065
709.909	15151.1257
710.104	14886.07561
710.299	14685.76495
710.494	14663.50771
710.689	15039.84568
710.884	14875.95907
711.079	15031.75257
711.274	14851.67931
711.469	15157.19552
711.664	14766.69944
711.859	15084.35774
712.054	15096.49738
712.249	14770.74613
712.443	14718.13891
712.638	14760.6294
712.833	14471.28054
713.028	14884.05231
713.223	14398.43347
713.417	14884.05231
713.612	14795.0262
713.807	14880.00569
714.002	14659.46093
714.196	15056.0319
714.391	14641.25036
714.586	15169.33514
714.78	14853.70263
714.975	15126.84645
715.17	14906.30866
715.364	14981.17051
715.559	14386.2921
715.754	14497.58598
715.948	14406.52769
716.143	14222.37764
716.337	14544.12581
716.532	14730.27909
716.726	14815.25951
716.921	14772.76947
717.115	14778.83949
717.31	14797.04953
717.504	14750.51265
717.699	14979.14723
717.893	14714.09218
718.088	14821.3295
718.282	14815.25951
718.476	14509.72687
718.671	14305.34813
718.865	14673.62465
719.059	14341.77325
719.254	14511.75034
719.448	14289.15901
719.642	14418.66896
719.837	13663.74308
720.031	14070.59363
720.225	13908.67638
720.419	14317.4899
720.614	13847.95312
720.808	14171.78429
721.002	14054.40261
721.196	14036.18753
721.39	14078.68909
721.585	14183.92681
721.779	14291.18266
721.973	14665.5311
722.167	14076.66523
722.361	14183.92681
722.555	13513.92602
722.749	14050.35483
722.943	13955.22924
723.137	13856.0497
723.331	14181.90306
723.525	14094.87989
723.719	13930.94097
723.913	14111.07055
724.107	13819.61473
724.301	14137.38007
724.495	13643.49863
724.689	13973.4452
724.883	13661.71865
725.077	13605.03324
725.271	13766.98478
725.465	13758.88768
725.659	13760.91196
725.853	14281.06441
726.046	14111.07055
726.24	14005.82864
726.434	13570.6158
726.628	13995.70888
726.822	13833.78399
727.015	13957.25325
727.209	13819.61473
727.403	13698.15789
727.596	13473.43157
727.79	13580.73868
727.984	13513.92602
728.177	13681.9628
728.371	13562.51743
728.565	13718.40147
728.758	13819.61473
728.952	13941.06113
729.146	13983.5651
729.339	14214.28279
729.533	13795.32423
729.726	13965.34925
729.92	13811.51794
730.113	14026.06796
730.307	13860.09797
730.5	14173.80804
730.694	13702.20663
730.887	13716.37713
731.081	13696.13352
731.274	13904.62824
731.468	13744.71765
731.661	13900.58009
731.854	13932.965
732.048	14050.35483
732.241	13819.61473
732.435	13908.67638
732.628	13914.74857
732.821	13908.67638
733.014	13566.56663
733.208	13823.6631
733.401	13722.45015
733.594	13752.81483
733.788	14058.45038
733.981	14046.30704
734.174	13973.4452
734.367	13793.3
734.56	13515.95071
734.754	13331.68884
734.947	13495.7037
735.14	13485.58006
735.333	13400.53773
735.526	13362.06393
735.719	13384.33841
735.912	13390.41318
736.105	13029.90951
736.298	13274.98618
736.491	13198.02717
736.684	13702.20663
736.877	13360.03895
737.07	13503.80255
737.263	13426.86108
737.456	13584.78781
737.649	13643.49863
737.842	13621.22934
738.035	13382.31348
738.228	13362.06393
738.421	13787.2273
738.614	13447.10937
738.807	13629.32731
739	13451.15898
739.192	13455.20858
739.385	13151.44358
739.578	13451.15898
739.771	13505.82725
739.964	13459.25816
740.156	13222.3307
740.349	13064.34592
740.542	13426.86108
740.735	13305.36302
740.927	13094.72982
741.12	13402.56263
741.313	13046.11506
741.505	13376.23866
741.698	13260.80999
741.891	12794.89208
742.083	13139.29094
742.276	13430.91077
742.468	13200.05248
742.661	13025.85808
742.854	13062.32029
743.046	12983.3168
743.239	13131.18909
743.431	12892.14931
743.624	12754.36447
743.816	12788.81309
744.009	12600.33828
744.201	12697.62195
744.393	12742.20574
744.586	12646.9551
744.778	12827.31256
744.971	12807.04993
745.163	13131.18909
745.355	12853.65316
745.548	12904.30559
745.74	12948.87698
745.932	12981.29097
746.125	12736.1263
746.317	12916.46167
746.509	12565.88028
746.702	12798.94472
746.894	12754.36447
747.086	12786.78674
747.278	12713.83456
747.471	12474.65912
747.663	12501.01323
747.855	12884.04502
748.047	12800.97103
748.239	13038.01233
748.431	12689.51551
748.623	12687.48888
748.815	12342.87176
749.008	12701.67514
749.2	12646.9551
749.392	12669.24898
749.584	12657.08877
749.776	13029.90951
749.968	12817.18132
750.16	12865.81005
750.352	12434.11217
750.544	12904.30559
750.736	12636.82128
750.928	12725.99378
751.12	12567.90727
751.311	12513.1763
751.503	12616.55319
751.695	12470.60454
751.887	12505.06761
752.079	12817.18132
752.271	12399.64518
752.463	12679.38232
752.654	12669.24898
752.846	12697.62195
753.038	12600.33828
753.23	12642.90159
753.421	12904.30559
753.613	12648.98185
753.805	12811.1025
753.997	12498.98603
754.188	12578.04213
754.38	12381.39716
754.572	12336.78857
754.763	12328.67756
754.955	12361.12094
755.146	11965.59014
755.338	12393.56257
755.53	12391.53502
755.721	12223.22415
755.913	12470.60454
756.104	12093.40828
756.296	12304.34386
756.487	12006.17072
756.679	11870.21304
756.87	11689.55431
757.062	11920.94779
757.253	11720.00723
757.445	11987.90985
757.636	11939.21105
757.827	11945.29865
758.019	11764.66793
758.21	11815.41364
758.401	11602.24476
758.593	11957.47364
758.784	12075.15044
758.975	11886.44872
759.167	11965.59014
759.358	11756.54812
759.549	11724.06747
759.74	11768.72779
759.932	11691.58457
760.123	11752.48816
760.314	11496.6384
760.505	11665.19053
760.696	11435.70001
760.888	11328.02073
761.079	11425.54277
761.27	11805.26493
761.461	11878.33095
761.652	12091.37966
761.843	11707.8263
762.034	11711.88665
762.225	11525.07337
762.416	11409.29067
762.607	11301.60456
762.798	11447.88838
762.989	11691.58457
763.18	11740.30807
763.371	11701.73572
763.562	11695.64505
763.753	11492.57611
763.944	11937.18183
764.135	11413.35376
764.326	11638.79498
764.517	11254.86405
764.708	11240.6376
764.899	11220.31323
765.089	10890.90886
765.28	11047.51339
765.471	11053.61353
765.662	10880.73742
765.853	11102.41114
766.043	10870.56569
766.234	11057.68024
766.425	10970.23634
766.615	11490.54495
766.806	11000.74236
766.997	10964.13484
767.187	10787.14656
767.378	11407.25912
767.569	11037.34627
767.759	10917.35328
767.95	11218.28073
768.141	10929.55774
768.331	11037.34627
768.522	10996.67503
768.712	11017.0112
768.903	10795.28588
769.093	10854.29033
769.284	10654.85589
769.474	10756.62244
769.665	10622.28418
769.855	10365.66935
770.046	10587.67327
770.236	10506.22158
770.426	10500.11189
770.617	10667.06947
770.807	10691.49533
770.998	10496.0387
771.188	10449.19332
771.378	10553.05876
771.569	10658.92713
771.759	10447.15641
771.949	10278.04723
772.139	10463.45133
772.33	10178.16838
772.52	10324.91794
772.71	10561.20367
772.9	10715.91944
773.09	10699.63689
773.281	10695.56613
773.471	10445.11948
773.661	10471.59848
773.851	10465.48813
774.041	9976.27048
774.231	10196.51594
774.421	10074.17766
774.611	10233.20771
774.802	10316.76702
774.992	10278.04723
775.182	10147.58664
775.372	10276.00921
775.562	10010.94971
775.752	10353.44448
775.942	10090.49234
776.131	10294.35089
776.321	10121.07994
776.511	10096.61011
776.701	10041.54559
776.891	9937.50639
777.081	9794.64557
777.271	9778.31397
777.461	9833.42927
777.651	9878.32999
777.84	9600.6447
778.03	9631.28567
778.22	9623.11509
778.41	9565.914
778.599	9567.95711
778.789	9941.58707
778.979	10051.7435
779.169	10194.47738
779.358	9933.42566
779.548	10053.78304
779.738	9959.94939
779.927	10125.15804
780.117	10155.74208
780.307	9921.1831
780.496	9770.1478
780.686	9908.94001
780.875	9951.78851
781.065	9702.76769
781.254	9780.35547
781.444	9684.3884
781.633	9723.18766
781.823	9712.97786
782.012	9682.34618
782.202	9696.6414
782.391	9610.85874
782.581	9584.3014
782.77	9289.94687
782.96	9576.12938
783.149	9339.02942
783.338	9332.89462
783.528	9369.70118
783.717	9451.47456
783.906	9318.57952
784.096	9565.914
784.285	9167.19833
784.474	9259.26541
784.663	9161.05931
784.853	9025.96162
785.042	9314.48934
785.231	9330.84966
785.42	9214.25911
785.61	9390.14697
785.799	9066.90826
785.988	9300.17319
786.177	9124.22193
786.366	9269.49298
786.555	8894.88514
786.744	9206.07527
786.933	8950.19186
787.122	9214.25911
787.312	8632.51103
787.501	8872.34904
787.69	8749.38647
787.879	8939.95085
788.068	8747.33654
788.257	9013.67626
788.445	8894.88514
788.634	8964.52853
788.823	8933.80603
789.012	9071.00255
789.201	8894.88514
789.39	8882.59299
789.579	8929.7094
789.768	8911.27367
789.957	8958.38434
790.145	8808.82652
790.334	8527.88695
790.523	8636.61294
790.712	8488.8968
790.9	8763.73547
791.089	8556.61216
791.278	8722.73594
791.467	8538.14638
791.655	8653.01984
791.844	8419.10776
792.033	8765.78526
792.221	8634.56199
792.41	8599.69304
792.599	8353.40363
792.787	8291.78794
792.976	8435.5307
793.164	8382.15162
793.353	8293.84208
793.541	8330.81325
793.73	8145.8936
793.918	8328.75946
794.107	7958.75466
794.295	8361.61773
794.484	8316.43633
794.672	8437.58349
794.861	8304.11249
795.049	8527.88695
795.238	8365.72467
795.426	8480.68747
795.614	8158.22657
795.803	8388.31141
795.991	8283.57119
796.179	8098.61054
796.368	8164.39279
796.556	8131.50423
796.744	8129.44852
796.932	8199.33129
797.121	7897.02354
797.309	7765.26828
797.497	7944.35239
797.685	8047.20384
797.874	7940.23727
798.062	8053.37331
798.25	7649.91209
798.438	7938.17968
798.626	7794.09703
798.814	8010.18318
799.002	7787.91978
799.19	7882.61695
799.378	7726.13697
799.566	7855.85916
799.755	7792.03796
799.943	7915.54482
800.131	8119.1697
800.318	8053.37331
800.506	7625.18428
800.694	7843.50823
800.882	7553.04399
801.07	7827.03916
801.258	7668.45594
801.446	7765.26828
801.634	7503.5612
801.822	7814.68648
802.01	7814.68648
802.197	7907.31335
802.385	7651.9726
802.573	7958.75466
802.761	7901.13953
802.949	7787.91978
803.136	7513.87113
803.324	7911.42913
803.512	7777.62396
803.699	7925.8337
803.887	7909.37125
804.075	7761.14955
804.262	7859.97597
804.45	7872.3259
804.638	7499.43707
804.825	7664.33524
805.013	7460.25358
805.201	7876.44238
805.388	7695.23848
805.576	7917.60264
805.763	7794.09703
805.951	7820.86292
806.138	7711.71827
806.326	8001.95548
806.513	7637.54857
806.701	7905.25543
806.888	7522.11869
807.075	7919.66043
807.263	7612.81923
807.45	8084.21794
807.638	7752.91184
807.825	7979.3276
808.012	7719.95765
808.2	7662.27485
808.387	7691.11832
808.574	7884.6751
808.761	7449.94084
808.949	7757.03074
809.136	7431.37654
809.323	7711.71827
809.51	7728.19671
809.698	7736.43542
809.885	7820.86292
810.072	7524.18053
810.259	7489.12638
810.446	7726.13697
810.633	7649.91209
810.82	7890.84941
811.008	7711.71827
811.195	7944.35239
811.382	7530.36591
811.569	7771.44621
811.756	7843.50823
811.943	7767.32761
812.13	7658.15402
812.317	7785.86066
812.504	7662.27485
812.691	7773.50548
812.878	7623.12349
813.064	7713.77815
813.251	7524.18053
813.438	7697.29853
813.625	7542.73609
813.812	7726.13697
813.999	7546.85931
814.186	7645.791
814.372	7515.93305
814.559	7662.27485
814.746	7497.37498
814.933	7493.25072
815.12	7600.45341
815.306	7577.78075
815.493	7546.85931
815.68	7635.48791
815.866	7623.12349
816.053	7820.86292
816.24	7563.35135
816.426	7643.73043
816.613	7557.167
816.799	7740.55465
816.986	7950.52491
817.173	7985.49908
817.359	7645.791
817.546	7736.43542
817.732	7715.838
817.919	8010.18318
818.105	7427.2509
818.292	7674.63685
818.478	7497.37498
818.665	7693.17841
818.851	7359.16531
819.037	7728.19671
819.224	7590.14798
819.41	7689.05821
819.597	7202.27144
819.783	7344.71986
819.969	7319.95374
820.156	7454.066
820.342	7487.06418
820.528	7647.85156
820.714	7456.12855
820.901	7439.62756
821.087	7563.35135
821.273	7567.47414
821.459	7324.08165
821.646	7402.49525
821.832	7383.92645
822.018	7546.85931
822.204	7152.69952
822.39	7555.1055
822.576	7381.86314
822.762	7431.37654
822.948	7253.8953
823.134	7291.05594
823.32	7414.87347
823.507	7559.22847
823.693	7365.35589
823.879	7295.18446
824.065	7113.446
824.25	7472.62816
824.436	7111.3798
824.622	7266.28297
824.808	7385.98974
824.994	7055.58402
825.18	6977.02893
825.366	7315.82575
825.552	6999.7719
825.738	7249.7659
825.923	6931.5348
826.109	6939.80727
826.295	6505.00884
826.481	6850.85919
826.667	6892.23561
826.852	7167.15932
827.038	6828.09829
827.224	6865.34197
827.409	6811.54318
827.595	6803.26507
827.781	6589.97766
827.966	6861.20415
828.152	6658.339
828.338	6954.28323
828.523	6695.61643
828.709	6749.44849
828.894	6720.46392
829.08	6952.2153
829.266	6983.23182
829.451	6857.06624
829.637	6529.88179
829.822	6803.26507
830.008	6712.18179
830.193	7136.1727
830.378	6902.57829
830.564	6871.54854
830.749	6683.19145
830.935	6666.62352
831.12	6434.51733
831.305	6757.72897
831.491	6322.50492
831.676	6755.65888
831.861	6753.58877
832.047	6848.79013
832.232	6552.67906
832.417	6794.9866
832.602	6513.30019
832.788	6722.5344
832.973	6409.63155
833.158	6563.04054
833.343	6413.77942
833.528	6637.62609
833.714	6368.14781
833.899	6420.00103
834.084	6384.74243
834.269	6403.40959
834.454	6085.81025
834.639	6679.0496
834.824	6214.57673
835.009	6567.18496
835.194	6330.80447
835.379	6637.62609
835.564	6293.45356
835.749	6347.40244
835.934	6175.12563
836.119	5990.21541
836.304	6092.04297
836.489	5973.58514
836.674	5932.00284
836.859	5965.26943
837.044	5690.63945
837.228	5888.33129
837.413	5426.02418
837.598	5855.05073
837.783	5582.33899
837.968	5977.74285
838.152	5861.2913
838.337	6112.81716
838.522	5959.03241
838.707	6164.74235
838.891	5734.35809
839.076	5873.77179
839.261	5734.35809
839.445	6050.48753
839.63	6092.04297
839.815	5948.63689
839.999	5902.88963
840.184	6125.28054
840.368	5977.74285
840.553	6114.89445
840.737	5919.52632
840.922	6056.72144
841.106	5869.61172
841.291	5832.16685
841.475	5707.2954
841.66	5936.1615
841.844	5678.1465
842.029	5813.44155
842.213	5574.00555
842.397	5715.6228
842.582	5684.39308
842.766	5657.32303
842.951	5644.82781
843.135	5748.92866
843.319	5673.98199
843.504	5599.00475
843.688	5546.91924
843.872	5751.01007
844.056	5428.10925
844.241	5863.37144
844.425	5494.81901
844.609	5459.38245
844.793	5544.83552
844.977	5486.48161
845.161	5263.31658
845.346	5073.3114
845.53	5327.9995
845.714	5346.77419
845.898	5077.48941
846.082	5382.23233
846.266	5173.55794
846.45	5229.92306
846.634	4970.92134
846.818	5265.40348
847.002	5104.64419
847.186	5473.9748
847.37	5039.88401
847.554	5384.31789
847.738	4931.20418
847.922	5219.48636
848.106	5002.27112
848.29	5071.22236
848.473	5123.44136
848.657	5110.91012
848.841	5309.2229
849.025	5375.9755
849.209	5041.97339
849.392	5215.31151
849.576	4998.09145
849.76	4899.84267
849.944	4801.54327
850.127	5039.88401
850.311	4897.75171
850.495	5031.52624
850.678	4621.54658
850.862	4904.0245
851.046	4751.32844
851.229	4977.19171
851.413	4701.10057
851.596	4784.80645
851.78	4711.56578
851.964	5023.16809
852.147	4405.75179
852.331	4757.60601
852.514	4512.63095
852.698	4732.49451
852.881	4525.2012
853.065	4855.92789
853.248	4768.06817
853.431	4881.02328
853.615	4724.12329
853.798	4763.88337
853.982	4537.77065
854.165	4642.48498
854.348	4357.53278
854.532	4613.17059
854.715	4464.43762
854.898	4642.48498
855.081	4393.17403
855.265	4604.79425
855.448	4386.88485
855.631	4481.20184
855.814	4305.1078
855.997	4372.20935
856.181	4082.6777
856.364	4420.42486
856.547	4445.57619
856.73	4460.24634
856.913	4277.84149
857.096	4271.54875
857.279	4254.76716
857.462	4149.85141
857.645	4151.95025
857.828	4275.74393
858.011	4042.78322
858.194	4177.1346
858.377	4330.27347
858.56	4403.65555
858.743	4046.98299
858.926	4403.65555
859.109	4235.88625
859.292	4319.78815
859.475	4300.91322
859.658	4233.78826
859.841	4114.16804
860.023	4183.43021
860.206	4067.98061
860.389	4118.3664
860.572	3946.16585
860.755	3870.5223
860.937	3958.77056
861.12	4057.48206
861.303	3746.49519
861.486	4019.68301
861.668	3853.70909
861.851	4011.28232
862.034	3658.16343
862.216	3824.28293
862.399	3622.40052
862.581	3769.62407
862.764	3552.96292
862.947	3773.82907
863.129	3597.15284
863.312	3822.18091
863.494	3641.3345
863.677	3674.99113
863.859	3515.07937
864.042	3681.30121
864.224	3622.40052
864.406	3778.03399
864.589	3428.76703
864.771	3521.39371
864.954	3312.93529
865.136	3597.15284
865.318	3496.13536
865.501	3647.64549
865.683	3479.29501
865.865	3723.36396
866.048	3472.97958
866.23	3742.28969
866.412	3388.75842
866.594	3605.56903
866.777	3548.75393
866.959	3731.77559
867.141	3496.13536
867.323	3397.18182
867.505	3386.65253
867.687	3397.18182
867.869	3226.5541
868.052	3670.78432
868.234	3340.31846
868.416	3538.23114
868.598	3363.48655
868.78	3437.18907
868.962	3159.11516
869.144	3485.61028
869.326	3152.7919
869.508	3249.73232
869.69	3032.62271
869.872	3329.78681
870.054	3083.22651
870.236	3239.19702
870.417	3049.49164
870.599	3293.976
870.781	3049.49164
870.963	3319.25474
871.145	3188.62177
871.327	3432.97809
871.508	3133.82125
871.69	3264.48105
871.872	3283.44247
872.054	3310.82877
872.235	3243.41119
872.417	3190.72926
872.599	3243.41119
872.78	3340.31846
872.962	3135.92916
873.144	3327.68043
873.325	3317.14827
873.507	3226.5541
873.689	3011.53516
873.87	3403.49918
874.052	3110.63313
874.233	3304.50911
874.415	3142.25281
874.596	3319.25474
874.778	3095.87605
874.959	3237.08991
875.141	2996.77297
875.322	3403.49918
875.503	3034.73138
875.685	3247.6253
875.866	2916.62255
876.048	3034.73138
876.229	2931.38871
876.41	3116.95735
876.592	2931.38871
876.773	3234.98278
876.954	3015.7528
877.136	3262.37414
877.317	3083.22651
877.498	3262.37414
877.679	3057.92573
877.86	3167.54594
878.042	2908.18443
878.223	3336.10585
878.404	2939.82619
878.585	3173.86886
878.766	2927.16988
878.947	3163.33058
879.128	3019.97037
879.309	3165.43827
879.49	2986.2281
879.672	3321.36119
879.853	3049.49164
880.034	3319.25474
880.215	2977.79193
880.396	3247.6253
880.576	3034.73138
880.757	3125.38943
880.938	2906.07486
881.119	3180.19163
881.3	3154.89967
881.481	3355.06203
881.662	3108.52502
881.843	3350.84967
882.023	3095.87605
882.204	3194.94419
882.385	2813.23973
882.566	3239.19702
882.747	3053.70871
882.927	3066.35957
883.108	2901.85568
883.289	3224.44689
883.469	2967.24637
883.65	3066.35957
883.831	3038.94867
884.011	3135.92916
884.192	2916.62255
884.373	3085.3348
884.553	2977.79193
884.734	3178.08406
884.914	2857.55082
885.095	3186.51426
885.275	2762.59101
885.456	3034.73138
885.636	2992.55507
885.817	3211.80327
885.997	2925.06044
886.178	3000.99082
886.358	2853.33099
886.538	2963.02805
886.719	2859.66072
886.899	3260.26721
887.08	2925.06044
887.26	3045.2745
887.44	2794.24738
887.621	3041.0573
887.801	2798.468
887.981	3169.6536
888.161	2838.56111
888.342	2948.26344
888.522	2998.8819
888.702	3226.5541
888.882	3000.99082
889.062	3289.76264
889.242	3110.63313
889.423	3173.86886
889.603	2975.68285
889.783	3287.65594
889.963	2844.89114
890.143	3034.73138
890.323	2969.35551
890.503	3167.54594
890.683	2823.79055
890.863	3066.35957
891.043	2787.91635
891.223	2998.8819
891.403	3093.76783
891.583	3112.74122
891.763	2832.23095
891.943	3116.95735
892.122	2927.16988
892.302	3036.84003
892.482	2897.63644
892.662	3062.14268
892.842	2798.468
893.022	2973.57375
893.201	2671.8262
893.381	2922.95099
893.561	2766.81204
893.741	2897.63644
893.92	2745.70638
894.1	3119.06539
894.28	2994.66403
894.459	3190.72926
894.639	2716.15622
894.819	3199.15906
894.998	2811.12952
895.178	2967.24637
895.357	2716.15622
895.537	2849.11109
895.716	2524.01982
895.896	2813.23973
896.075	2720.37783
896.255	2870.21
896.434	2703.49108
896.614	2849.11109
896.793	2433.19615
896.973	2790.02671
897.152	2524.01982
897.331	2619.04505
897.511	2488.11524
897.69	2684.4925
897.87	2589.48424
898.049	2534.57935
898.228	2359.25524
898.407	2553.58579
898.587	2464.88115
898.766	2602.15345
898.945	2414.18399
899.124	2621.15645
899.304	2380.3825
899.483	2443.75809
899.662	2289.52825
899.841	2437.42096
900.02	2289.52825
900.199	2481.77881
900.378	2458.54434
900.557	2526.13175
900.737	2145.81701
900.916	2462.76889
901.095	2215.56424
901.274	2314.88474
901.453	2044.35119
901.632	2424.74641
901.811	2111.997
901.989	2270.51
902.168	2078.17503
902.347	2407.84642
902.526	1987.26949
902.705	2213.45083
902.884	2065.4913
903.063	2131.021
903.242	1913.26789
903.42	2063.37732
903.599	2002.06891
903.778	2257.83075
903.957	2137.36219
904.135	2262.0572
904.314	1858.29083
904.493	1942.8694
904.672	1877.32175
904.85	2027.4386
905.029	1896.35225
905.207	2095.08625
905.386	1904.81012
905.565	1987.26949
905.743	1824.45712
905.922	1947.09809
906.1	1593.93924
906.279	1706.03063
906.457	1545.294
906.636	1655.27313
906.814	1515.68353
906.993	1801.19576
907.171	1479.72775
907.35	1703.91577
907.528	1469.1525
907.707	1672.19248
907.885	1579.13425
908.063	1689.11165
908.242	1519.91361
908.42	1555.86912
908.598	1448.00198
908.777	1579.13425
908.955	1371.86035
909.133	1420.50631
909.311	1308.40999
909.49	1431.08156
909.668	1471.26755
909.846	1418.39126
910.024	1380.32048
910.202	1612.97409
910.38	1486.0729
910.559	1617.20403
910.737	1378.20545
910.915	1511.45345
911.093	1401.47089
911.271	1545.294
911.449	1401.47089
911.627	1623.54893
911.805	1297.83507
911.983	1393.01072
912.161	1266.11066
912.339	1428.96651
912.517	1405.70098
912.695	1471.26755
912.872	1386.6656
913.05	1598.16922
913.228	1325.32995
913.406	1579.13425
913.584	1397.2408
913.762	1608.74413
913.939	1295.7201
914.117	1509.33841
914.295	1232.27191
914.473	1369.74532
914.65	1253.42105
914.828	1471.26755
915.006	1361.2852
915.184	1426.85146
915.361	1242.84644
915.539	1344.36503
915.716	1217.46769
915.894	1545.294
916.072	1206.89334
916.249	1395.12576
916.427	1405.70098
916.604	1509.33841
916.782	1409.93107
916.959	1437.42672
917.137	1219.58257
917.314	1344.36503
917.492	1230.15701
917.669	1295.7201
917.847	1170.9412
918.024	1367.63028
918.201	1257.65091
918.379	1359.17017
918.556	1151.90816
918.733	1422.62136
918.911	1139.21965
919.088	1325.32995
919.265	1126.53129
919.442	1382.43552
919.62	1158.25247
919.797	1175.17081
919.974	1020.80191
920.151	1198.43392
920.328	1037.71769
920.506	1183.63007
920.683	1056.7484
920.86	1164.59682
921.037	1035.6032
921.214	1063.09206
921.391	1069.43578
921.568	1225.92723
921.745	1039.83219
921.922	1223.81234
922.099	997.54333
922.276	1139.21965
922.453	1054.63385
922.63	1177.28562
922.807	919.3159
922.984	1033.48871
923.161	936.22911
923.338	1096.92576
923.514	851.66808
923.691	978.51417
923.868	809.39263
924.045	944.6859
924.222	904.51724
924.399	1054.63385
924.575	904.51724
924.752	963.71408
924.929	910.85947
925.105	845.32654
925.282	800.93799
925.459	953.1428
925.635	760.78051
925.812	893.947
925.989	923.54416
926.165	788.2563
926.342	790.36989
926.518	800.93799
926.695	779.80203
926.871	845.32654
927.048	684.7029
927.224	750.21336
927.401	598.07705
927.577	784.02915
927.754	619.20341
927.93	724.85324
928.107	619.20341
928.283	733.30644
928.459	606.52744
928.636	800.93799
928.812	543.15464
928.988	682.58984
929.165	589.62687
929.341	745.98656
929.517	568.50232
929.693	555.82823
929.87	617.09072
930.046	640.33102
930.222	530.48154
930.398	557.94055
930.574	560.05288
930.751	623.42883
930.927	382.66819
931.103	600.18963
931.279	492.4653
931.455	519.921
931.631	462.9004
931.807	644.55668
931.983	530.48154
932.159	566.38994
932.335	473.45896
932.511	562.16522
932.687	399.55725
932.863	454.45383
933.039	452.34223
933.215	437.56144
933.391	441.78444
933.566	365.78019
933.742	370.00209
933.918	353.11491
934.094	424.8928
934.27	450.23064
934.445	277.13656
934.621	380.55713
934.797	327.78622
934.973	389.00146
935.148	234.9367
935.324	382.66819
935.5	296.12896
935.675	277.13656
935.851	226.49765
936.027	279.24676
936.202	239.15634
936.378	319.34389
936.553	199.07293
936.729	180.08857
936.904	188.52586
937.08	209.6205
937.255	125.25432
937.431	169.54242
937.606	213.83967
937.782	137.90711
937.957	76.75925
938.133	129.47183
938.308	116.81956
938.483	169.54242
938.659	110.49372
938.834	180.08857
939.009	270.8061
939.185	156.88773
939.36	165.32411
939.535	85.19233
939.71	118.92822
939.886	78.86748
940.061	55.67812
940.236	68.32652
940.411	62.00222
940.586	121.0369
940.761	99.95108
940.937	66.2184
941.112	59.89417
941.287	167.43326
941.462	93.62577
941.637	146.34273
941.812	121.0369
941.987	57.78613
942.162	53.57014
942.337	93.62577
942.512	78.86748
942.687	47.24632
942.862	26.16843
943.037	51.46218
943.212	87.30066
943.386	83.08402
943.561	43.03055
943.736	57.78613
943.911	-34.94396
944.086	40.92271
944.26	80.97574
944.435	108.38515
944.61	137.90711
944.785	112.60231
944.959	62.00222
945.134	104.16807
945.309	49.35423
945.483	91.51738
945.658	36.70708
945.833	135.79826
946.007	76.75925
946.182	83.08402
946.357	91.51738
946.531	11.4153
946.706	45.13842
946.88	24.06077
947.055	97.84262
947.229	0.87808
947.404	17.73793
947.578	32.49155
947.752	57.78613
947.927	97.84262
948.101	97.84262
948.276	108.38515
948.45	-13.87303
948.624	116.81956
948.799	59.89417
948.973	118.92822
949.147	104.16807
949.321	112.60231
949.496	43.03055
949.67	146.34273
949.844	87.30066
950.018	95.73419
950.193	99.95108
950.367	51.46218
950.541	64.1103
950.715	80.97574
950.889	140.01598
951.063	95.73419
951.237	91.51738
951.411	40.92271
951.585	-18.08741
951.759	21.95313
951.933	91.51738
952.107	108.38515
952.281	91.51738
952.455	70.43467
952.629	114.71092
952.803	127.36306
952.977	99.95108
953.151	108.38515
953.325	59.89417
953.499	110.49372
953.672	45.13842
953.846	53.57014
954.02	57.78613
954.194	62.00222
954.368	91.51738
954.541	-9.65855
954.715	116.81956
954.889	30.38382
955.062	99.95108
955.236	150.56067
955.41	91.51738
955.583	125.25432
955.757	142.12488
955.93	99.95108
956.104	150.56067
956.278	26.16843
956.451	32.49155
956.625	125.25432
956.798	62.00222
956.972	68.32652
957.145	102.05957
957.319	116.81956
957.492	68.32652
957.665	110.49372
957.839	74.65103
958.012	62.00222
958.185	104.16807
958.359	95.73419
958.532	40.92271
958.705	108.38515
958.879	125.25432
959.052	17.73793
959.225	55.67812
959.398	87.30066
959.572	43.03055
959.745	28.27611
959.918	125.25432
960.091	74.65103
960.264	19.84552
960.438	57.78613
960.611	133.68943
960.784	83.08402
960.957	169.54242
961.13	76.75925
961.303	45.13842
961.476	57.78613
961.649	108.38515
961.822	87.30066
961.995	28.27611
962.168	150.56067
962.341	45.13842
962.514	87.30066
962.686	28.27611
962.859	70.43467
963.032	32.49155
963.205	108.38515
963.378	47.24632
963.551	32.49155
963.723	62.00222
963.896	68.32652
964.069	19.84552
964.242	28.27611
964.414	114.71092
964.587	64.1103
964.76	99.95108
964.932	89.40901
965.105	11.4153
965.278	28.27611
965.45	97.84262
965.623	125.25432
965.795	17.73793
965.968	40.92271
966.14	133.68943
966.313	83.08402
966.485	47.24632
966.658	87.30066
966.83	45.13842
967.003	34.5993
967.175	49.35423
967.348	70.43467
967.52	95.73419
967.692	40.92271
967.865	112.60231
968.037	74.65103
968.209	59.89417
968.382	32.49155
968.554	5.09289
968.726	24.06077
968.898	85.19233
969.071	7.20034
969.243	142.12488
969.415	49.35423
969.587	102.05957
969.759	89.40901
969.932	118.92822
970.104	34.5993
970.276	17.73793
970.448	68.32652
970.62	91.51738
970.792	99.95108
970.964	70.43467
971.136	95.73419
971.308	32.49155
971.48	93.62577
971.652	74.65103
971.824	-37.05092
971.996	19.84552
972.168	49.35423
972.339	28.27611
972.511	59.89417
972.683	36.70708
972.855	133.68943
973.027	99.95108
973.199	30.38382
973.37	-1.2293
973.542	40.92271
973.714	7.20034
973.886	68.32652
974.057	76.75925
974.229	55.67812
974.401	66.2184
974.572	59.89417
974.744	28.27611
974.915	26.16843
975.087	53.57014
975.259	11.4153
975.43	89.40901
975.602	59.89417
975.773	68.32652
975.945	-7.55127
976.116	45.13842
976.288	19.84552
976.459	49.35423
976.63	7.20034
976.802	0.87808
976.973	78.86748
977.145	76.75925
977.316	87.30066
977.487	74.65103
977.659	19.84552
977.83	43.03055
978.001	26.16843
978.172	21.95313
978.344	36.70708
978.515	74.65103
978.686	74.65103
978.857	17.73793
979.028	51.46218
979.2	43.03055
979.371	57.78613
979.542	7.20034
979.713	34.5993
979.884	-20.19457
980.055	40.92271
980.226	28.27611
980.397	28.27611
980.568	64.1103
980.739	36.70708
980.91	13.52282
981.081	91.51738
981.252	-1.2293
981.423	64.1103
981.594	15.63036
981.765	62.00222
981.936	91.51738
982.106	30.38382
982.277	0.87808
982.448	74.65103
982.619	28.27611
982.79	85.19233
982.96	68.32652
983.131	11.4153
983.302	74.65103
983.472	2.98547
983.643	-1.2293
983.814	70.43467
983.984	32.49155
984.155	11.4153
984.326	57.78613
984.496	34.5993
984.667	87.30066
984.837	-47.58533
985.008	26.16843
985.178	9.30781
985.349	21.95313
985.519	15.63036
985.69	17.73793
985.86	97.84262
986.031	76.75925
986.201	108.38515
986.371	62.00222
986.542	51.46218
986.712	74.65103
986.882	43.03055
987.053	85.19233
987.223	15.63036
987.393	49.35423
987.563	49.35423
987.734	-26.51589
987.904	40.92271
988.074	57.78613
988.244	28.27611
988.414	26.16843
988.585	64.1103
988.755	85.19233
988.925	83.08402
989.095	24.06077
989.265	-5.44397
989.435	17.73793
989.605	9.30781
989.775	108.38515
989.945	-22.3017
990.115	38.81488
990.285	-5.44397
990.455	-9.65855
990.625	26.16843
990.795	64.1103
990.965	57.78613
991.134	-22.3017
991.304	24.06077
991.474	-9.65855
991.644	15.63036
991.814	66.2184
991.984	9.30781
992.153	15.63036
992.323	49.35423
992.493	59.89417
992.662	26.16843
992.832	93.62577
993.002	5.09289
993.171	-5.44397
993.341	32.49155
993.511	-18.08741
993.68	32.49155
993.85	5.09289
994.019	36.70708
994.189	7.20034
994.358	40.92271
994.528	32.49155
994.697	5.09289
994.867	53.57014
995.036	-24.40881
995.206	2.98547
995.375	26.16843
995.544	91.51738
995.714	11.4153
995.883	-28.62294
996.052	-15.98024
996.222	21.95313
996.391	68.32652
996.56	99.95108
996.73	32.49155
996.899	24.06077
997.068	32.49155
997.237	-15.98024
997.406	24.06077
997.576	9.30781
997.745	-26.51589
997.914	-15.98024
998.083	80.97574
998.252	-45.4785
998.421	102.05957
998.59	47.24632
998.759	28.27611
998.928	83.08402
999.097	62.00222
999.266	83.08402
999.435	49.35423
999.604	-1.2293
999.773	40.92271
999.942	51.46218
1000.111	51.46218
1000.28	-22.3017
1000.448	-30.72997
1000.617	-11.7658
1000.786	-3.33665
1000.955	121.0369
1001.124	-32.83698
1001.292	0.87808
1001.461	49.35423
1001.63	59.89417
1001.798	127.36306
1001.967	45.13842
1002.136	70.43467
1002.304	11.4153
1002.473	9.30781
1002.642	-39.15785
1002.81	45.13842
1002.979	28.27611
1003.147	47.24632
1003.316	19.84552
1003.484	36.70708
1003.653	-5.44397
1003.821	-9.65855
1003.99	28.27611
1004.158	40.92271
1004.327	114.71092
1004.495	-49.69214
1004.663	19.84552
1004.832	36.70708
1005	74.65103
1005.168	49.35423
1005.337	45.13842
1005.505	66.2184
1005.673	45.13842
1005.842	0.87808
1006.01	66.2184
1006.178	-3.33665
1006.346	24.06077
1006.514	-98.14168
1006.683	-24.40881
1006.851	7.20034
1007.019	2.98547
1007.187	-26.51589
1007.355	-1.2293
1007.523	-18.08741
1007.691	40.92271
1007.859	7.20034
1008.027	-18.08741
1008.195	34.5993
1008.363	45.13842
1008.531	57.78613
1008.699	55.67812
1008.867	40.92271
1009.035	-15.98024
1009.203	-9.65855
1009.37	11.4153
1009.538	-18.08741
1009.706	45.13842
1009.874	55.67812
1010.042	83.08402
1010.209	24.06077
1010.377	7.20034
1010.545	51.46218
1010.713	32.49155
1010.88	-32.83698
1011.048	15.63036
1011.216	51.46218
1011.383	32.49155
1011.551	74.65103
1011.718	-51.79892
1011.886	5.09289
1012.054	7.20034
1012.221	-34.94396
1012.389	-1.2293
1012.556	-5.44397
1012.724	0.87808
1012.891	40.92271
1013.058	13.52282
1013.226	-26.51589
1013.393	7.20034
1013.561	62.00222
1013.728	19.84552
1013.895	74.65103
1014.063	66.2184
1014.23	-43.37164
1014.397	21.95313
1014.565	17.73793
1014.732	76.75925
1014.899	62.00222
1015.066	-77.07833
1015.233	0.87808
1015.401	45.13842
1015.568	62.00222
1015.735	15.63036
1015.902	9.30781
1016.069	49.35423
1016.236	-13.87303
1016.403	45.13842
1016.57	36.70708
1016.737	45.13842
1016.904	49.35423
1017.071	11.4153
1017.238	7.20034
1017.405	9.30781
1017.572	26.16843
1017.739	-26.51589
1017.906	-1.2293
1018.073	26.16843
1018.24	-34.94396
1018.407	53.57014
1018.573	0.87808
1018.74	7.20034
1018.907	-32.83698
1019.074	64.1103
1019.241	78.86748
1019.407	11.4153
1019.574	53.57014
1019.741	59.89417
1019.907	95.73419
1020.074	-34.94396
1020.241	95.73419
1020.407	-26.51589
1020.574	17.73793
1020.74	99.95108
1020.907	0.87808
1021.073	24.06077
1021.24	-11.7658
1021.406	32.49155
1021.573	45.13842
1021.739	9.30781
1021.906	-34.94396
1022.072	28.27611
1022.239	-43.37164
1022.405	0.87808
1022.571	13.52282
1022.738	34.5993
1022.904	9.30781
1023.07	38.81488
1023.237	-39.15785
1023.403	24.06077
1023.569	19.84552
1023.735	-56.01241
1023.902	34.5993
1024.068	68.32652
1024.234	104.16807
1024.4	17.73793
1024.566	-74.97185
1024.732	68.32652
1024.898	36.70708
1025.065	-15.98024
1025.231	47.24632
1025.397	-3.33665
1025.563	11.4153
1025.729	9.30781
1025.895	15.63036
1026.061	40.92271
1026.227	32.49155
1026.392	7.20034
1026.558	47.24632
1026.724	9.30781
1026.89	17.73793
1027.056	19.84552
1027.222	13.52282
1027.388	-26.51589
1027.553	-30.72997
1027.719	32.49155
1027.885	49.35423
1028.051	-68.65227
1028.216	-15.98024
1028.382	-5.44397
1028.548	19.84552
1028.713	-7.55127
1028.879	-1.2293
1029.045	53.57014
1029.21	-47.58533
1029.376	36.70708
1029.541	15.63036
1029.707	45.13842
1029.873	-22.3017
1030.038	59.89417
1030.204	7.20034
1030.369	-3.33665
1030.534	26.16843
1030.7	36.70708
1030.865	43.03055
1031.031	-9.65855
1031.196	-34.94396
1031.361	-15.98024
1031.527	7.20034
1031.692	-47.58533
1031.857	28.27611
1032.023	17.73793
1032.188	51.46218
1032.353	125.25432
1032.518	11.4153
1032.684	30.38382
1032.849	-11.7658
1033.014	-26.51589
1033.179	11.4153
1033.344	-58.11912
1033.509	11.4153
1033.674	43.03055
1033.839	-1.2293
1034.004	74.65103
1034.17	9.30781
1034.335	30.38382
1034.5	43.03055
1034.664	-18.08741
1034.829	7.20034
1034.994	26.16843
1035.159	-9.65855
1035.324	9.30781
1035.489	-53.90568
1035.654	24.06077
1035.819	15.63036
1035.984	-5.44397
1036.148	26.16843
1036.313	59.89417
1036.478	17.73793
1036.643	7.20034
1036.807	49.35423
1036.972	43.03055
1037.137	62.00222
1037.301	26.16843
1037.466	-34.94396
1037.631	15.63036
1037.795	7.20034
1037.96	38.81488
1038.124	19.84552
1038.289	-13.87303
1038.454	-37.05092
1038.618	11.4153
1038.783	11.4153
1038.947	-32.83698
1039.111	-5.44397
1039.276	-41.26476
1039.44	36.70708
1039.605	55.67812
1039.769	66.2184
1039.933	15.63036
1040.098	85.19233
1040.262	36.70708
1040.426	-34.94396
1040.591	99.95108
1040.755	-18.08741
1040.919	-1.2293
1041.083	15.63036
1041.248	30.38382
1041.412	43.03055
1041.576	-15.98024
1041.74	-26.51589
1041.904	66.2184
1042.068	55.67812
1042.232	7.20034
1042.397	-5.44397
1042.561	15.63036
1042.725	-43.37164
1042.889	11.4153
1043.053	24.06077
1043.217	36.70708
1043.381	32.49155
1043.544	11.4153
1043.708	57.78613
1043.872	34.5993
1044.036	32.49155
1044.2	19.84552
1044.364	62.00222
1044.528	-5.44397
1044.691	51.46218
1044.855	76.75925
1045.019	30.38382
1045.183	-13.87303
1045.346	-9.65855
1045.51	34.5993
1045.674	13.52282
1045.837	0.87808
1046.001	24.06077
1046.165	66.2184
1046.328	53.57014
1046.492	17.73793
1046.655	49.35423
1046.819	0.87808
1046.983	19.84552
1047.146	30.38382
1047.31	43.03055
1047.473	32.49155
1047.636	43.03055
1047.8	68.32652
1047.963	28.27611
1048.127	66.2184
1048.29	13.52282
