Data from absorb_only_2.23.25_USB4F045381__66__0171.txt Node

Date: Sun Feb 23 19:25:31 EST 2025
User: ssocol
Spectrometer: USB4F04538
Trigger mode: 4
Integration Time (sec): 2.600000E-3
Scans to average: 1
Electric dark correction enabled: true
Nonlinearity correction enabled: true
Boxcar width: 0
XAxis mode: Wavelengths
Number of Pixels in Spectrum: 3648
>>>>>Begin Spectral Data<<<<<
345.52	-8.78052
345.736	-8.78052
345.952	-8.78052
346.168	-10.88778
346.384	1.75615
346.6	43.90883
346.816	31.26204
347.032	-23.53085
347.248	-40.38689
347.464	48.12461
347.68	37.58533
347.896	-78.3071
348.112	-19.31659
348.328	-6.67324
348.544	22.83131
348.76	-15.10224
348.975	-0.35123
349.191	10.18593
349.407	-53.02787
349.623	35.47754
349.839	37.58533
350.055	-19.31659
350.27	1.75615
350.486	-44.60065
350.702	-34.06606
350.918	20.72369
351.133	39.69314
351.349	20.72369
351.565	14.40096
351.781	-63.56133
351.996	35.47754
352.212	-0.35123
352.428	8.07845
352.644	8.07845
352.859	-31.95906
353.075	-15.10224
353.291	18.61609
353.506	-6.67324
353.722	-2.45859
353.938	-88.83902
354.153	39.69314
354.369	69.20492
354.584	1.75615
354.8	8.07845
355.016	-17.20943
355.231	16.50851
355.447	5.97099
355.662	-10.88778
355.878	-2.45859
356.093	18.61609
356.309	37.58533
356.524	-25.63794
356.74	-48.81431
356.955	-0.35123
357.171	-15.10224
357.386	-10.88778
357.602	-21.42373
357.817	-40.38689
358.033	-38.27997
358.248	22.83131
358.464	107.15516
358.679	14.40096
358.895	-27.74501
359.11	5.97099
359.325	-31.95906
359.541	-34.06606
359.756	-15.10224
359.972	16.50851
360.187	37.58533
360.402	33.36978
360.618	37.58533
360.833	-25.63794
361.048	-6.67324
361.264	-8.78052
361.479	24.93896
361.694	-6.67324
361.909	48.12461
362.125	22.83131
362.34	-44.60065
362.555	-55.13461
362.77	24.93896
362.986	54.44846
363.201	-4.56592
363.416	56.55646
363.631	14.40096
363.847	92.39587
364.062	33.36978
364.277	-0.35123
364.492	-19.31659
364.707	16.50851
364.922	41.80097
365.138	-2.45859
365.353	64.98867
365.568	-19.31659
365.783	22.83131
365.998	39.69314
366.213	-12.99502
366.428	-34.06606
366.643	14.40096
366.858	-44.60065
367.073	69.20492
367.288	111.37229
367.503	20.72369
367.718	-34.06606
367.933	14.40096
368.148	-99.37029
368.363	81.85419
368.578	-19.31659
368.793	18.61609
369.008	31.26204
369.223	-12.99502
369.438	-17.20943
369.653	-40.38689
369.868	-4.56592
370.083	-10.88778
370.298	-67.77453
370.513	27.04663
370.728	14.40096
370.943	1.75615
371.157	-36.17303
371.372	31.26204
371.587	-6.67324
371.802	3.86356
372.017	-61.45468
372.232	-2.45859
372.446	-0.35123
372.661	33.36978
372.876	39.69314
373.091	50.23254
373.306	-4.56592
373.52	29.15432
373.735	90.28749
373.95	-31.95906
374.165	20.72369
374.379	-23.53085
374.594	-19.31659
374.809	-19.31659
375.023	50.23254
375.238	10.18593
375.453	22.83131
375.667	52.34049
375.882	10.18593
376.097	5.97099
376.311	52.34049
376.526	54.44846
376.741	-8.78052
376.955	5.97099
377.17	-8.78052
377.384	24.93896
377.599	5.97099
377.813	-8.78052
378.028	35.47754
378.242	27.04663
378.457	22.83131
378.672	35.47754
378.886	48.12461
379.101	10.18593
379.315	-10.88778
379.53	1.75615
379.744	14.40096
379.958	73.42125
380.173	-0.35123
380.387	-36.17303
380.602	-2.45859
380.816	-50.9211
381.031	-27.74501
381.245	60.77252
381.459	22.83131
381.674	39.69314
381.888	12.29343
382.103	-6.67324
382.317	-10.88778
382.531	69.20492
382.746	22.83131
382.96	18.61609
383.174	31.26204
383.388	-10.88778
383.603	-2.45859
383.817	27.04663
384.031	-84.62633
384.246	-46.70749
384.46	14.40096
384.674	-17.20943
384.888	-34.06606
385.103	50.23254
385.317	-44.60065
385.531	62.88058
385.745	-2.45859
385.959	5.97099
386.174	56.55646
386.388	-71.98763
386.602	24.93896
386.816	92.39587
387.03	27.04663
387.244	22.83131
387.458	-50.9211
387.672	56.55646
387.887	-4.56592
388.101	14.40096
388.315	-2.45859
388.529	29.15432
388.743	14.40096
388.957	-36.17303
389.171	8.07845
389.385	-19.31659
389.599	-0.35123
389.813	16.50851
390.027	-0.35123
390.241	-4.56592
390.455	37.58533
390.669	-25.63794
390.883	24.93896
391.097	14.40096
391.311	-40.38689
391.525	-15.10224
391.738	-4.56592
391.952	24.93896
392.166	-8.78052
392.38	-2.45859
392.594	-69.8811
392.808	83.96248
393.022	22.83131
393.236	31.26204
393.449	5.97099
393.663	29.15432
393.877	-69.8811
394.091	33.36978
394.305	22.83131
394.518	-84.62633
394.732	-21.42373
394.946	41.80097
395.16	-36.17303
395.373	31.26204
395.587	-69.8811
395.801	41.80097
396.015	-57.24133
396.228	14.40096
396.442	10.18593
396.656	-34.06606
396.869	-15.10224
397.083	1.75615
397.297	-10.88778
397.51	-44.60065
397.724	1.75615
397.938	29.15432
398.151	10.18593
398.365	41.80097
398.578	8.07845
398.792	-4.56592
399.005	39.69314
399.219	24.93896
399.433	16.50851
399.646	-36.17303
399.86	39.69314
400.073	69.20492
400.287	8.07845
400.5	54.44846
400.714	-2.45859
400.927	16.50851
401.141	-6.67324
401.354	75.52945
401.567	-27.74501
401.781	41.80097
401.994	18.61609
402.208	73.42125
402.421	5.97099
402.635	52.34049
402.848	10.18593
403.061	8.07845
403.275	27.04663
403.488	50.23254
403.701	22.83131
403.915	56.55646
404.128	1.75615
404.341	20.72369
404.555	27.04663
404.768	-29.85205
404.981	-17.20943
405.195	16.50851
405.408	5.97099
405.621	22.83131
405.834	-67.77453
406.048	60.77252
406.261	12.29343
406.474	58.66448
406.687	22.83131
406.9	-36.17303
407.114	56.55646
407.327	27.04663
407.54	12.29343
407.753	43.90883
407.966	24.93896
408.179	22.83131
408.392	-29.85205
408.605	71.31307
408.819	107.15516
409.032	22.83131
409.245	98.72115
409.458	54.44846
409.671	18.61609
409.884	14.40096
410.097	-17.20943
410.31	14.40096
410.523	-4.56592
410.736	41.80097
410.949	41.80097
411.162	27.04663
411.375	33.36978
411.588	24.93896
411.801	-10.88778
412.014	41.80097
412.227	-6.67324
412.44	43.90883
412.653	73.42125
412.865	-40.38689
413.078	-61.45468
413.291	46.01671
413.504	-12.99502
413.717	18.61609
413.93	-10.88778
414.143	96.6127
414.356	-27.74501
414.568	3.86356
414.781	94.50427
414.994	-2.45859
415.207	10.18593
415.42	12.29343
415.632	-8.78052
415.845	24.93896
416.058	43.90883
416.271	3.86356
416.483	3.86356
416.696	39.69314
416.909	5.97099
417.121	81.85419
417.334	24.93896
417.547	62.88058
417.759	-0.35123
417.972	-44.60065
418.185	-31.95906
418.397	46.01671
418.61	-31.95906
418.823	33.36978
419.035	64.98867
419.248	56.55646
419.46	10.18593
419.673	52.34049
419.885	8.07845
420.098	35.47754
420.311	81.85419
420.523	107.15516
420.736	5.97099
420.948	24.93896
421.161	-10.88778
421.373	10.18593
421.586	35.47754
421.798	1.75615
422.01	-27.74501
422.223	22.83131
422.435	-0.35123
422.648	60.77252
422.86	14.40096
423.073	92.39587
423.285	-10.88778
423.497	5.97099
423.71	-36.17303
423.922	105.04662
424.134	18.61609
424.347	18.61609
424.559	3.86356
424.771	58.66448
424.984	24.93896
425.196	48.12461
425.408	43.90883
425.621	73.42125
425.833	-19.31659
426.045	18.61609
426.257	18.61609
426.47	102.93811
426.682	-23.53085
426.894	81.85419
427.106	14.40096
427.318	35.47754
427.531	67.09678
427.743	-27.74501
427.955	73.42125
428.167	31.26204
428.379	39.69314
428.591	-61.45468
428.804	31.26204
429.016	12.29343
429.228	48.12461
429.44	22.83131
429.652	73.42125
429.864	105.04662
430.076	69.20492
430.288	33.36978
430.5	73.42125
430.712	58.66448
430.924	86.0708
431.136	5.97099
431.348	-0.35123
431.56	117.69816
431.772	-4.56592
431.984	67.09678
432.196	81.85419
432.408	39.69314
432.62	98.72115
432.832	56.55646
433.044	35.47754
433.256	22.83131
433.468	67.09678
433.679	20.72369
433.891	18.61609
434.103	128.24171
434.315	39.69314
434.527	107.15516
434.739	48.12461
434.95	-6.67324
435.162	92.39587
435.374	39.69314
435.586	113.4809
435.798	64.98867
436.009	64.98867
436.221	27.04663
436.433	10.18593
436.645	100.82962
436.856	73.42125
437.068	-44.60065
437.28	60.77252
437.491	67.09678
437.703	107.15516
437.915	14.40096
438.126	50.23254
438.338	90.28749
438.55	48.12461
438.761	35.47754
438.973	-10.88778
439.184	-6.67324
439.396	75.52945
439.608	67.09678
439.819	52.34049
440.031	124.02423
440.242	86.0708
440.454	43.90883
440.665	10.18593
440.877	29.15432
441.088	46.01671
441.3	67.09678
441.511	83.96248
441.723	56.55646
441.934	-19.31659
442.146	39.69314
442.357	113.4809
442.569	33.36978
442.78	79.74592
442.991	143.00359
443.203	77.63768
443.414	29.15432
443.626	33.36978
443.837	119.80683
444.048	83.96248
444.26	67.09678
444.471	48.12461
444.682	50.23254
444.894	37.58533
445.105	24.93896
445.316	-10.88778
445.528	90.28749
445.739	43.90883
445.95	58.66448
446.161	143.00359
446.373	41.80097
446.584	132.45929
446.795	111.37229
447.006	64.98867
447.217	39.69314
447.429	37.58533
447.64	111.37229
447.851	75.52945
448.062	119.80683
448.273	140.89469
448.484	164.09378
448.695	41.80097
448.907	18.61609
449.118	90.28749
449.329	48.12461
449.54	124.02423
449.751	35.47754
449.962	98.72115
450.173	69.20492
450.384	48.12461
450.595	107.15516
450.806	130.35049
451.017	29.15432
451.228	98.72115
451.439	43.90883
451.65	69.20492
451.861	111.37229
452.072	119.80683
452.283	90.28749
452.494	126.13296
452.705	117.69816
452.915	90.28749
453.126	58.66448
453.337	102.93811
453.548	81.85419
453.759	52.34049
453.97	86.0708
454.181	161.98467
454.391	86.0708
454.602	138.7858
454.813	126.13296
455.024	98.72115
455.235	75.52945
455.445	117.69816
455.656	117.69816
455.867	128.24171
456.078	140.89469
456.288	159.87558
456.499	109.26371
456.71	69.20492
456.921	119.80683
457.131	109.26371
457.342	166.20292
457.553	145.11251
457.763	105.04662
457.974	115.58952
458.184	119.80683
458.395	128.24171
458.606	136.67694
458.816	178.85816
459.027	145.11251
459.237	126.13296
459.448	128.24171
459.659	132.45929
459.869	183.07674
460.08	166.20292
460.29	178.85816
460.501	259.02486
460.711	166.20292
460.922	147.22146
461.132	126.13296
461.343	244.25518
461.553	210.49949
461.764	199.95188
461.974	225.26699
462.184	199.95188
462.395	185.18606
462.605	216.8283
462.816	174.63967
463.026	180.96744
463.236	250.58493
463.447	210.49949
463.657	195.73297
463.867	248.47499
464.078	212.60907
464.288	195.73297
464.498	307.56028
464.709	248.47499
464.919	183.07674
465.129	235.81579
465.339	199.95188
465.55	337.1083
465.76	250.58493
465.97	229.48645
466.18	225.26699
466.391	324.44443
466.601	286.45672
466.811	322.33385
467.021	339.219
467.231	303.33942
467.441	284.34646
467.651	334.99761
467.862	330.77629
468.072	398.32572
468.282	309.67074
468.492	362.43791
468.702	457.4453
468.912	465.89196
469.122	400.43691
469.332	512.35284
469.542	391.99222
469.752	516.57691
469.962	514.46487
470.172	472.22711
470.382	556.70836
470.592	546.14697
470.802	582.05709
471.012	579.94462
471.222	565.15772
471.432	626.42187
471.642	658.11436
471.852	717.28072
472.062	681.35723
472.272	721.50723
472.482	675.01812
472.691	848.32114
472.901	685.58335
473.111	846.2073
473.321	765.88806
473.531	820.84188
473.741	951.90949
473.95	987.85249
474.16	848.32114
474.37	1070.31686
474.58	964.59503
474.79	1019.56848
474.999	943.45261
475.209	1095.69222
475.419	1125.29771
475.628	1186.62608
475.838	1116.8389
476.048	1184.51125
476.258	1239.49783
476.467	1425.61768
476.677	1273.33673
476.886	1440.42304
477.096	1478.49398
477.306	1412.92739
477.515	1497.52941
477.725	1531.37006
477.935	1505.98959
478.144	1472.14882
478.354	1472.14882
478.563	1783.04449
478.773	1783.04449
478.982	1764.01177
479.192	1848.59901
479.401	1924.72099
479.611	1924.72099
479.82	1759.78224
480.03	1840.14061
480.239	1945.86473
480.449	1922.60658
480.658	2051.57414
480.868	2250.25826
481.077	2252.37152
481.287	2157.26603
481.496	2300.97406
481.705	2195.3103
481.915	2524.89979
482.124	2461.53674
482.333	2554.4657
482.543	2372.81202
482.752	2617.8134
482.961	2571.35947
483.171	2674.81689
483.38	2577.69444
483.589	2919.611
483.799	2826.77988
484.008	2959.6885
484.217	2835.22021
484.426	3058.80427
484.636	3016.63146
484.845	3010.30501
485.054	3065.12965
485.263	3098.86266
485.472	3046.15307
485.682	3157.88565
485.891	3202.14455
486.1	3280.10677
486.309	3216.89591
486.518	3551.73531
486.727	3435.96088
486.936	3583.30053
487.146	3490.69746
487.355	3576.98782
487.564	3650.62562
487.773	3640.10735
487.982	3612.75763
488.191	3827.26075
488.4	3757.88471
488.609	3886.1084
488.818	3820.95472
489.027	4003.75642
489.236	3875.60103
489.445	4087.75146
489.654	3993.25472
489.863	4066.7558
490.072	4180.10755
490.281	4423.39428
490.49	4301.7871
490.698	4268.2275
490.907	4062.55642
491.116	4427.58632
491.325	4421.29822
491.534	4385.66193
491.743	4511.4088
491.952	4444.35363
492.16	4448.54524
492.369	4745.92259
492.578	4662.19993
492.787	4848.43349
492.996	4712.43786
493.204	4950.8896
493.413	4892.34999
493.622	4934.16583
493.831	5019.85956
494.039	4829.60906
494.248	4913.25905
494.457	5282.96727
494.665	5047.02265
494.874	5272.53353
495.083	5105.51447
495.291	5278.79384
495.5	5076.27083
495.709	5153.54772
495.917	5118.04607
496.126	5451.91211
496.335	5433.14807
496.543	5391.44338
496.752	5349.7293
496.96	5376.84452
497.169	5643.61295
497.377	5710.24473
497.586	5439.40296
497.794	5939.10715
498.003	5566.53985
498.211	5789.33858
498.42	5731.06221
498.628	6113.6827
498.837	5876.71845
499.045	5891.27771
499.254	5889.19789
499.462	5978.60903
499.671	5964.05669
499.879	5991.08153
500.087	5968.21462
500.296	6242.42965
500.504	6038.88495
500.713	6333.7438
500.921	6067.97659
501.129	6267.338
501.338	5943.26565
501.546	6447.82293
501.754	6259.03559
501.962	6271.48907
502.171	6263.18684
502.379	6526.60013
502.587	6373.16093
502.795	6387.6809
503.004	6342.04284
503.212	6545.25299
503.42	6302.61906
503.628	6644.70326
503.837	6636.41777
504.045	6810.33598
504.253	6764.80159
504.461	7033.70899
504.669	6582.55307
504.877	6773.08139
505.085	6671.62857
505.294	6955.14486
505.502	6735.8194
505.71	6911.71386
505.918	6727.53795
506.126	6779.291
506.334	6857.92831
506.542	7229.97796
506.75	7037.84305
506.958	7095.71041
507.166	6946.87305
507.374	7118.43921
507.582	6915.85057
507.79	7050.24467
507.998	6901.37168
508.206	7339.38853
508.414	7180.41317
508.622	7293.98032
508.83	7252.6909
509.037	7289.85177
509.245	7192.80557
509.453	7314.62173
509.661	7293.98032
509.869	7312.55769
510.077	7487.92343
510.285	7613.67794
510.492	7533.28672
510.7	7706.39682
510.908	7516.79218
511.116	7591.00678
511.324	7555.96446
511.531	7656.95209
511.739	7762.00762
511.947	7714.63642
512.155	7586.88448
512.362	7776.42274
512.57	7735.23396
512.778	7844.36596
512.985	7572.45574
513.193	7646.64957
513.401	7652.83115
513.608	7751.71048
513.816	7704.33686
514.024	7860.83363
514.231	7901.99701
514.439	7996.64157
514.646	8097.4112
514.854	8167.30455
515.061	7856.71683
515.269	8159.083
515.477	7916.40225
515.684	8138.52774
515.892	8189.91216
516.099	8109.747
516.307	8233.06548
516.514	8467.17562
516.722	8011.04022
516.929	8222.79167
517.136	8278.26437
517.344	8422.01608
517.551	8442.54429
517.759	8762.53976
517.966	8329.61521
518.173	8417.9102
518.381	8549.26023
518.588	8664.128
518.796	8729.74055
519.003	8696.93664
519.21	8783.03689
519.418	8725.64032
519.625	8596.44517
519.832	8795.33429
520.039	8694.88624
520.247	8807.63104
520.454	8727.69044
520.661	9018.6246
520.868	8834.27176
521.076	8750.2406
521.283	8682.58344
521.49	8840.41919
521.697	8930.56287
521.904	9110.74761
522.112	8774.83825
522.319	9305.11576
522.526	8983.81339
522.733	9237.61567
522.94	9313.29635
523.147	9221.24926
523.354	8797.3838
523.561	9348.06093
523.768	9080.04384
523.975	9274.43615
524.183	9343.97123
524.39	9532.03015
524.597	9360.32965
524.804	9497.29041
525.011	9280.57238
525.218	9388.95434
525.425	9311.25123
525.632	9321.47669
525.838	9460.50212
526.045	9566.76529
526.252	9572.89455
526.459	9552.46314
526.666	9542.24684
526.873	9677.07038
527.08	9480.9407
527.287	9875.09874
527.494	9611.7099
527.701	9879.18031
527.907	9607.62434
528.114	10052.59331
528.321	9813.86799
528.528	9948.55809
528.735	10201.44241
528.941	10050.55376
529.148	9805.70288
529.355	10095.42056
529.562	9991.40065
529.768	10095.42056
529.975	9905.70911
530.182	10309.46497
530.388	10026.07807
530.595	10464.3
530.802	10136.20264
531.008	10354.29345
531.215	10160.66921
531.422	10331.88001
531.628	10443.93127
531.835	10445.9682
532.042	10380.77999
532.248	10635.34717
532.455	10431.70942
532.661	10425.59832
532.868	10427.63536
533.074	10629.23986
533.281	10698.44959
533.487	10773.75019
533.694	10619.06076
533.9	10790.02926
534.107	10838.86195
534.313	10889.72221
534.52	10309.46497
534.726	10842.93104
534.933	10928.37121
535.139	11001.58971
535.345	10910.0643
535.552	10649.59713
535.758	11001.58971
535.965	11131.72059
536.171	10956.8468
536.377	11377.63114
536.584	10942.60928
536.79	11119.52271
536.996	10999.55606
537.203	11202.86731
537.409	10985.32019
537.615	11007.6906
537.821	11017.85852
538.028	11454.82883
538.234	11095.12578
538.44	11369.50425
538.646	11117.48969
538.853	11302.45126
539.059	11119.52271
539.265	11605.12151
539.471	11320.73952
539.677	11489.3601
539.883	11733.03371
540.09	11781.75292
540.296	11619.33574
540.502	11745.21398
540.708	11800.02135
540.914	11635.58003
541.12	11724.91335
541.326	11913.67613
541.532	11659.94538
541.738	11921.79333
541.944	11820.31878
542.15	11854.82247
542.356	11895.41195
542.562	11749.274
542.768	11877.14709
542.974	12051.65101
543.18	12071.93835
543.386	12327.49469
543.592	12049.62223
543.798	11980.63915
544.004	11986.72626
544.21	12146.99484
544.415	12173.36359
544.621	12250.43433
544.827	12201.7593
545.033	12530.23799
545.239	12280.85412
545.445	12501.85789
545.651	12445.09389
545.856	12511.99379
546.062	12445.09389
546.268	12485.64013
546.474	12315.32794
546.679	12540.37344
546.885	12114.53926
547.091	12479.55836
547.297	12327.49469
547.502	12469.42195
547.708	12601.18282
547.914	12858.54971
548.119	12317.35575
548.325	12503.88508
548.531	12195.67463
548.736	12848.41888
548.942	12303.16094
549.147	12542.40051
549.353	12347.77206
549.559	12568.75185
549.764	12505.91227
549.97	12771.42012
550.175	12929.46172
550.381	13085.44597
550.586	12700.49296
550.792	13117.85463
550.997	12769.39372
551.203	13115.82912
551.408	13142.16033
551.614	12965.92825
551.819	12919.33183
552.025	13136.08397
552.23	12949.72111
552.435	13081.3948
552.641	13336.58267
552.846	13377.08238
553.052	13239.37655
553.257	13040.88205
553.462	13065.18993
553.668	13069.24118
553.873	12990.23835
554.078	13470.22569
554.283	13287.98083
554.489	13634.21981
554.694	13354.80774
554.899	13356.83273
555.105	13496.54733
555.31	13520.84368
555.515	13654.46441
555.72	13504.64617
555.925	13344.68274
556.131	13901.42345
556.336	13555.2626
556.541	13850.82066
556.746	13500.59676
556.951	13577.53311
557.156	13652.43997
557.361	13581.58225
557.567	13694.95263
557.772	13757.70685
557.977	13735.43957
558.182	13717.2206
558.387	13421.63021
558.592	13937.85642
558.797	13567.4102
559.002	13630.17085
559.207	13862.96549
559.412	13719.24494
559.617	13721.26928
559.822	14057.26978
560.027	13883.20665
560.232	13846.77236
560.437	14008.69589
560.642	13836.65156
560.847	14041.07864
561.051	14186.79378
561.256	13968.21657
561.461	14194.88874
561.666	14156.43738
561.871	14178.69879
562.076	14411.41793
562.281	14207.03112
562.485	13919.64004
562.69	14146.31848
562.895	14113.93763
563.1	13925.71219
563.305	14168.58
563.509	14379.04098
563.714	14247.50521
563.919	14409.39438
564.123	14176.67503
564.328	14544.96891
564.533	14609.71889
564.737	14397.25306
564.942	14255.59994
565.147	14593.5315
565.351	13952.02456
565.556	14356.78159
565.761	14346.66362
565.965	14449.86505
566.17	14524.73429
566.374	14530.80469
566.579	14478.19417
566.784	14662.3274
566.988	14283.93125
567.193	14884.89535
567.397	14492.35863
567.602	14799.91592
567.806	14304.16768
568.011	14678.5145
568.215	14899.05849
568.42	15135.78257
568.624	14791.82258
568.828	14963.80396
569.033	14684.58464
569.237	14846.45241
569.442	14718.98198
569.646	14542.94546
569.85	14905.1284
570.055	14915.2449
570.259	14826.2192
570.463	14971.89712
570.668	14899.05849
570.872	14919.2915
571.076	15168.1549
571.281	15113.52658
571.485	15012.3628
571.689	15303.71423
571.893	14988.08341
572.098	15366.43603
572.302	15149.94546
572.506	15180.29452
572.71	14739.21559
572.914	15202.5505
573.119	15263.24868
573.323	15236.94612
573.527	15281.45817
573.731	15052.82837
573.935	15307.76079
574.139	15518.184
574.343	15129.71276
574.547	15081.15422
574.751	15508.06737
574.955	15554.60398
575.159	15568.76737
575.364	15518.184
575.568	15234.92285
575.772	15584.95414
575.976	15408.92519
576.18	15170.17817
576.383	15544.4873
576.587	15627.44465
576.791	15429.15818
576.995	15526.27731
577.199	15435.22809
577.403	15522.23065
577.607	15198.50396
577.811	15576.86075
578.015	15200.52723
578.219	15734.68427
578.422	15394.76211
578.626	15736.70768
578.83	15475.69427
579.034	15900.60784
579.238	15667.91213
579.442	16123.20177
579.645	15943.10175
579.849	15718.49699
580.053	15813.5982
580.257	15862.16145
580.46	15514.13734
580.664	16032.13852
580.868	15603.16432
581.071	15870.25539
581.275	15862.16145
581.479	16139.39113
581.682	16076.65795
581.886	15924.89
582.09	15886.44333
582.293	16119.15445
582.497	16056.42176
582.7	16028.09134
582.904	16307.36199
583.107	16202.12585
583.311	16169.74644
583.515	15898.58433
583.718	16017.9734
583.922	16222.3632
584.125	15947.14882
584.329	16121.17811
584.532	16412.60312
584.735	16121.17811
584.939	16137.36745
585.142	16503.6815
585.346	16319.50494
585.549	16714.19043
585.753	16386.29235
585.956	16335.69564
586.159	16471.2976
586.363	16400.45965
586.566	16444.98607
586.769	16436.89029
586.973	16471.2976
587.176	16671.68185
587.379	16631.19843
587.582	16736.45725
587.786	16580.59544
587.989	16981.41198
588.192	16455.10585
588.395	16716.21468
588.599	16602.86058
588.802	16566.42684
589.005	16372.12515
589.208	17072.5206
589.411	16704.06925
589.615	16760.74865
589.818	16742.53007
590.021	17135.28755
590.224	16902.45556
590.427	16621.07772
590.63	16744.55434
590.833	17027.97792
591.036	17169.70929
591.239	17238.55526
591.442	16916.62693
591.645	17015.83015
591.848	17157.56035
592.051	17295.25448
592.254	16898.40662
592.457	17145.41151
592.66	16971.28914
592.863	17329.68014
593.066	17034.05185
593.269	17038.10114
593.472	17293.22946
593.675	17694.24239
593.878	17254.7548
594.081	17305.37958
594.284	16959.14182
594.486	17736.78149
594.689	17572.71013
594.892	17299.30451
595.095	17327.65508
595.298	17554.48131
595.5	17580.81192
595.703	17777.2963
595.906	17718.55026
596.109	17603.09209
596.311	17572.71013
596.514	17311.45468
596.717	17321.5799
596.92	17724.62731
597.122	17641.57696
597.325	17619.2961
597.528	17643.60251
597.73	17817.81247
597.933	17621.32162
598.136	17921.13492
598.338	17684.11424
598.541	17900.8749
598.743	17795.5284
598.946	17574.73557
599.148	17536.25274
599.351	17858.33
599.554	17977.86483
599.756	17892.77099
599.959	17892.77099
600.161	17906.95287
600.363	17904.92688
600.566	17807.6833
600.768	17923.16094
600.971	17996.10003
601.173	17757.03872
601.376	18046.75488
601.578	17744.88434
601.78	17969.76039
601.983	18052.83361
602.185	18370.99979
602.388	18137.93926
602.59	18200.75946
602.792	18154.15059
602.995	18300.06312
603.197	18314.25008
603.399	18324.38374
603.601	18137.93926
603.804	18109.57
604.006	17838.07106
604.208	17925.18696
604.41	18000.15234
604.613	18137.93926
604.815	17927.21299
605.017	18251.42348
605.219	18251.42348
605.421	17983.9432
605.623	18332.49074
605.826	18237.23732
606.028	18279.79634
606.23	18152.12416
606.432	18144.01848
606.634	18417.61783
606.836	18543.2939
607.038	18725.75339
607.24	18435.86022
607.442	18620.3285
607.644	18221.02479
607.846	18178.46802
608.048	18077.14886
608.25	18634.5197
608.452	18052.83361
608.654	18373.02662
608.856	18085.25406
609.058	18368.97296
609.26	18383.16082
609.462	18399.37575
609.664	18144.01848
609.866	18166.30924
610.067	18474.37294
610.269	18293.98304
610.471	18198.73294
610.673	18523.02257
610.875	18381.13397
611.077	18565.59282
611.278	18218.99824
611.48	18107.54366
611.682	18097.41197
611.884	18634.5197
612.085	18221.02479
612.287	18802.8014
612.489	18527.07681
612.69	18482.48106
612.892	18287.90301
613.094	18567.62001
613.295	18348.70491
613.497	18498.69748
613.699	18535.18533
613.9	18707.50602
614.102	18182.52097
614.304	18271.68973
614.505	18198.73294
614.707	18593.97393
614.908	18056.88612
615.11	18504.7787
615.311	18429.77939
615.513	18492.61629
615.714	18531.13106
615.916	18535.18533
616.117	18194.67993
616.319	18462.21088
616.52	18604.11022
616.722	18541.26675
616.923	18835.24437
617.124	18644.65638
617.326	18302.08981
617.527	18543.2939
617.729	18470.31891
617.93	18634.5197
618.131	18523.02257
618.333	18135.91286
618.534	18413.56401
618.735	18506.80578
618.937	18285.87633
619.138	18210.89208
619.339	18409.5102
619.54	18450.04896
619.742	19009.64294
619.943	18567.62001
620.144	18279.79634
620.345	18583.83773
620.546	18395.32199
620.748	18816.99507
620.949	18498.69748
621.15	18733.86344
621.351	18377.08029
621.552	18598.02844
621.753	18583.83773
621.954	18821.05045
622.155	18640.6017
622.356	18413.56401
622.558	18557.48407
622.759	18930.55153
622.96	18439.91412
623.161	18638.57436
623.362	18626.41042
623.563	18758.19396
623.764	18431.80633
623.965	18593.97393
624.166	18731.83592
624.366	18423.69859
624.567	18249.39687
624.768	18407.4833
624.969	18300.06312
625.17	18581.8105
625.371	18377.08029
625.572	18812.93972
625.773	18429.77939
625.973	18825.10583
626.174	18425.72552
626.375	18737.91849
626.576	18948.80285
626.777	18948.80285
626.977	18729.80841
627.178	18616.27391
627.379	18208.86554
627.58	18557.48407
627.78	18411.5371
627.981	18618.3012
628.182	18462.21088
628.382	18768.33185
628.583	18912.30054
628.784	18881.88294
628.984	18569.64721
629.185	18456.1299
629.386	18768.33185
629.586	18965.02652
629.787	18713.58844
629.987	18971.11046
630.188	18786.58029
630.388	18780.49744
630.589	18529.10393
630.79	19070.48666
630.99	18796.71845
631.191	18770.35943
631.391	19145.5323
631.591	19092.79695
631.792	18833.21666
631.992	18962.99855
632.193	18802.8014
632.393	18981.25045
632.594	19200.29886
632.794	18808.88438
632.994	19240.8686
633.195	19159.73075
633.395	19106.99465
633.595	18950.8308
633.796	18900.13339
633.996	19216.52656
634.196	19259.12553
634.397	19177.98619
634.597	19029.92377
634.797	19429.53958
634.997	19131.33405
635.198	19009.64294
635.398	18908.24481
635.598	18967.0545
635.798	18942.71904
635.998	18896.07771
636.199	18924.46783
636.399	18863.63282
636.599	18916.35629
636.799	18656.82053
636.999	18981.25045
637.199	19269.2684
637.399	19180.0146
637.599	18916.35629
637.799	18802.8014
637.999	18932.57944
638.199	19086.71227
638.399	19005.58682
638.599	18948.80285
638.799	18920.41205
638.999	18786.58029
639.199	19301.72631
639.399	18995.44659
639.599	19261.15409
639.799	19265.21124
639.999	19123.22085
640.199	19161.75912
640.399	19088.74049
640.599	18612.21933
640.799	19589.83665
640.998	19048.17687
641.198	19346.35765
641.398	19313.89829
641.598	19084.68406
641.798	19468.08967
641.997	19305.78362
642.197	19330.12784
642.397	19186.09983
642.597	19048.17687
642.796	19583.74895
642.996	19356.50141
643.196	19496.49596
643.395	19297.66901
643.595	19244.92567
643.795	19011.671
643.994	19192.1851
644.194	18954.8867
644.394	19238.84008
644.593	19208.41267
644.793	18898.10555
644.992	19015.72715
645.192	19297.66901
645.392	19490.40883
645.591	19721.74618
645.791	19681.15675
645.99	19589.83665
646.19	19549.25266
646.389	19230.72601
646.589	19423.45286
646.788	19115.10772
646.987	19313.89829
647.187	19695.36286
647.386	19376.78926
647.586	19610.12927
647.785	19606.07072
647.984	19496.49596
648.184	19188.12825
648.383	19472.14766
648.582	19360.55895
648.782	20119.61145
648.981	19543.1652
649.18	19518.81576
649.38	19687.24505
649.579	19833.37575
649.778	19873.97147
649.977	20125.70248
650.177	20018.09986
650.376	19514.75757
650.575	19616.21714
650.774	19685.21561
650.973	19731.89379
651.173	19701.45125
651.372	19186.09983
651.571	19677.0979
651.77	19502.58313
651.969	19478.23468
652.168	19520.84485
652.367	19802.93006
652.566	19689.2745
652.765	19616.21714
652.964	19510.69941
653.163	19555.34015
653.362	19873.97147
653.561	19624.33436
653.76	19595.92439
653.959	19411.27954
654.158	19545.19435
654.357	19360.55895
654.556	19208.41267
654.755	19228.69751
654.954	19675.06848
655.153	19802.93006
655.352	19640.56899
655.551	19841.49476
655.749	19518.81576
655.948	19565.48605
656.147	19837.43525
656.346	19559.3985
656.545	19427.51067
656.743	19459.97374
656.942	19555.34015
657.141	19819.16765
657.34	20022.16012
657.538	19975.46813
657.737	19912.53896
657.936	20127.73283
658.135	19981.55826
658.333	19975.46813
658.532	19685.21561
658.731	20022.16012
658.929	19701.45125
659.128	19632.45164
659.326	19871.94165
659.525	19924.71849
659.724	19796.84104
659.922	19760.30769
660.121	19616.21714
660.319	19821.19736
660.518	19679.12732
660.716	19837.43525
660.915	19778.57419
661.113	20345.00475
661.312	19861.79258
661.51	20079.00555
661.709	19752.18935
661.907	19595.92439
662.105	19839.465
662.304	20085.09633
662.502	19636.51031
662.701	19991.70857
662.899	19884.12067
663.097	20003.88908
663.296	19947.04801
663.494	19894.26996
663.692	19786.69275
663.891	19772.48532
664.089	19581.71972
664.287	19792.78171
664.485	19701.45125
664.684	20239.40865
664.882	19733.92333
665.08	19662.89205
665.278	19792.78171
665.476	19496.49596
665.675	19863.82238
665.873	19713.62816
666.071	19545.19435
666.269	19516.78666
666.467	19618.24644
666.665	19658.83327
666.863	19811.04882
667.061	19882.09082
667.259	19610.12927
667.457	19813.07852
667.655	19496.49596
667.853	19882.09082
668.051	19604.04144
668.249	19557.36932
668.447	19813.07852
668.645	19995.76872
668.843	20095.24771
669.041	20273.9292
669.239	19766.39648
669.437	20012.0095
669.635	19354.47265
669.833	19685.21561
670.031	19735.95287
670.229	19626.36367
670.426	19662.89205
670.624	19871.94165
670.822	19271.29699
671.02	19880.06098
671.218	19817.13793
671.415	19565.48605
671.613	19289.55447
671.811	19109.02291
672.009	19177.98619
672.206	19719.71666
672.404	19413.30841
672.602	19443.74207
672.799	19449.82891
672.997	19748.1302
673.195	19602.01218
673.392	19871.94165
673.59	19466.06068
673.788	19370.70286
673.985	19326.07043
674.183	19526.93217
674.38	19196.24197
674.578	19581.71972
674.775	19425.48176
674.973	19559.3985
675.17	19453.88683
675.368	19559.3985
675.565	19575.63206
675.763	19630.42232
675.96	18997.47463
676.158	19533.01953
676.355	19346.35765
676.553	19322.01303
676.75	18965.02652
676.947	19165.81586
677.145	18713.58844
677.342	19429.53958
677.539	19289.55447
677.737	19287.52585
677.934	19344.32891
678.131	19664.92144
678.329	19072.51485
678.526	19577.66128
678.723	19437.65526
678.92	19606.07072
679.118	19100.9099
679.315	18944.74698
679.512	18760.22153
679.709	19062.37396
679.906	19007.61488
680.104	19145.5323
680.301	19003.55877
680.498	19005.58682
680.695	18853.494
680.892	19180.0146
681.089	18934.60735
681.286	19283.46861
681.483	18652.7658
681.68	19062.37396
681.877	18819.02276
682.075	18825.10583
682.272	18525.04969
682.469	18952.85875
682.665	18632.49237
682.862	18910.27267
683.059	18687.23153
683.256	18853.494
683.453	18612.21933
683.65	18423.69859
683.847	18514.91415
684.044	18677.09443
684.241	18908.24481
684.438	19050.20502
684.635	18496.67041
684.831	18825.10583
685.028	18640.6017
685.225	18650.73844
685.422	18847.41075
685.619	19161.75912
685.815	18648.71108
686.012	18956.91465
686.209	18267.63645
686.405	19001.53072
686.602	18486.53514
686.799	18628.43773
686.996	18555.45689
687.192	18531.13106
687.389	18413.56401
687.586	18962.99855
687.782	18727.7809
687.979	18942.71904
688.175	18636.54702
688.372	18896.07771
688.568	18664.93005
688.765	18529.10393
688.962	18462.21088
689.158	18512.88705
689.355	18666.95743
689.551	18685.2041
689.748	18431.80633
689.944	18379.10713
690.14	18543.2939
690.337	18291.95636
690.533	18496.67041
690.73	18022.44027
690.926	18004.20466
691.123	18251.42348
691.319	18218.99824
691.515	18214.94515
691.712	18212.91861
691.908	18214.94515
692.104	18010.28316
692.301	18121.72817
692.497	17688.16549
692.693	17973.8126
692.889	18332.49074
693.086	18056.88612
693.282	17981.91707
693.478	18664.93005
693.674	18176.44155
693.87	18403.42952
694.067	18508.83287
694.263	18152.12416
694.459	18190.62693
694.655	18204.81249
694.851	18020.41408
695.047	18125.78092
695.243	18036.62373
695.439	18012.30934
695.635	18087.28037
695.831	17501.82171
696.027	18113.62271
696.224	18212.91861
696.42	17955.57775
696.615	17874.5374
696.811	17755.01299
697.007	17580.81192
697.203	17552.4559
697.399	17797.55421
697.595	17740.83291
697.791	17886.6931
697.987	17724.62731
698.183	18097.41197
698.379	17728.67869
698.575	18194.67993
698.77	17728.67869
698.966	17588.91375
699.162	17165.65963
699.358	17631.44925
699.554	17206.15674
699.749	17260.82967
699.945	17094.79244
700.141	17386.38314
700.337	17347.90584
700.532	17607.14307
700.728	17428.91196
700.924	17763.11596
701.119	17615.24508
701.315	17619.2961
701.511	17434.98762
701.706	17785.39942
701.902	17335.75535
702.097	17499.79639
702.293	17560.55755
702.489	17513.97373
702.684	17236.53033
702.88	17505.87237
703.075	17048.22443
703.271	17216.2812
703.466	17356.00623
703.662	17457.26527
703.857	17406.63479
704.053	17605.11758
704.248	17404.60961
704.443	17384.35799
704.639	17279.05446
704.834	17412.71034
705.03	17317.52981
705.225	17465.36633
705.42	17082.64412
705.616	17653.73032
705.811	17392.4586
706.006	17295.25448
706.202	17337.78042
706.397	17238.55526
706.592	17141.36192
706.787	17123.1389
706.983	17311.45468
707.178	17307.40461
707.373	17266.90458
707.568	17524.10051
707.763	17141.36192
707.959	17218.3061
708.154	16946.99459
708.349	16851.84454
708.544	16825.52743
708.739	16849.82013
708.934	16734.43298
709.129	17135.28755
709.324	16837.67373
709.519	17394.48376
709.714	16801.23509
709.909	17378.28256
710.104	16621.07772
710.299	16944.97006
710.494	16546.18618
710.689	17110.99035
710.884	16833.62496
711.079	16872.08875
711.274	16602.86058
711.469	16936.87197
711.664	16449.03398
711.859	16983.43656
712.054	16710.14195
712.249	16529.99381
712.443	16327.60027
712.638	16513.80158
712.833	16489.51348
713.028	16449.03398
713.223	16287.1239
713.417	16617.02945
713.612	16791.11339
713.807	16951.04365
714.002	16451.05793
714.196	16942.94553
714.391	16874.11319
714.586	17173.75896
714.78	17080.61941
714.975	16797.1864
715.17	16396.41184
715.364	16728.36019
715.559	16550.2343
715.754	16204.14957
715.948	16364.02965
716.143	16370.10127
716.337	16295.21911
716.532	16695.97234
716.726	16651.44003
716.921	16667.63347
717.115	16566.42684
717.31	16797.1864
717.504	16673.70604
717.699	16926.74942
717.893	16364.02965
718.088	16940.92101
718.282	16608.93294
718.476	16538.08998
718.671	16317.48111
718.865	16337.71948
719.059	16353.91031
719.254	16291.1715
719.448	16011.90266
719.642	15918.81945
719.837	15597.09425
720.031	15930.96057
720.225	15726.59062
720.419	16034.16212
720.614	15453.43785
720.808	15989.64336
721.002	15876.32586
721.196	15718.49699
721.39	15862.16145
721.585	15993.6905
721.779	15926.91353
721.973	16309.38581
722.167	15773.12932
722.361	15657.79523
722.555	15532.3473
722.749	15676.00567
722.943	15690.1694
723.137	15791.34026
723.331	15809.55129
723.525	15866.20842
723.719	16062.4926
723.913	15904.65485
724.107	15457.48446
724.301	15607.21103
724.495	15534.37063
724.689	15795.38715
724.883	15149.94546
725.077	15627.44465
725.271	15348.22644
725.465	15479.7409
725.659	15702.30977
725.853	15773.12932
726.046	16088.79974
726.24	15663.86537
726.434	15465.57771
726.628	15603.16432
726.822	15526.27731
727.015	15605.18767
727.209	15364.41274
727.403	15748.84819
727.596	15332.04016
727.79	15303.71423
727.984	15586.97749
728.177	15471.64764
728.371	15499.97408
728.565	15453.43785
728.758	15534.37063
728.952	15574.8374
729.146	15813.5982
729.339	15876.32586
729.533	15576.86075
729.726	15953.21943
729.92	15311.80735
730.113	15686.12262
730.307	15793.3637
730.5	15700.28638
730.694	15356.31959
730.887	15663.86537
731.081	15445.34462
731.274	15712.42678
731.468	15297.64439
731.661	15591.02419
731.854	15692.19279
732.048	15791.34026
732.241	15414.99508
732.435	15758.96531
732.628	15667.91213
732.821	15400.832
733.014	15584.95414
733.208	15582.93079
733.401	15876.32586
733.594	15603.16432
733.788	15613.28111
733.981	15512.11402
734.174	15410.94848
734.367	15218.73667
734.56	15048.78182
734.754	15471.64764
734.947	15170.17817
735.14	15101.38695
735.333	15338.11002
735.526	15340.1333
735.719	15360.36616
735.912	15044.73527
736.105	15162.08509
736.298	14801.93926
736.491	15143.87565
736.684	15283.48144
736.877	15220.75994
737.07	15414.99508
737.263	15216.7134
737.456	15467.60102
737.649	15297.64439
737.842	15586.97749
738.035	15214.69013
738.228	15170.17817
738.421	15168.1549
738.614	15354.2963
738.807	15402.85529
739	15123.64294
739.192	14921.3148
739.385	15079.13095
739.578	15010.33952
739.771	15184.34106
739.964	15127.68948
740.156	14941.54776
740.349	14967.85054
740.542	15060.92148
740.735	14903.10509
740.927	14915.2449
741.12	14838.35913
741.313	14818.1259
741.505	14969.87383
741.698	14745.28565
741.891	14943.57105
742.083	14957.73409
742.276	14941.54776
742.468	14907.1517
742.661	14818.1259
742.854	14777.65921
743.046	14587.46122
743.239	14387.13525
743.431	14706.84177
743.624	14468.07666
743.816	14508.5465
744.009	14421.53564
744.201	14150.36605
744.393	14478.19417
744.586	14415.46502
744.778	14583.41435
744.971	14631.97642
745.163	14629.95301
745.355	14455.9356
745.548	14642.09344
745.74	14615.78914
745.932	14597.57836
746.125	14674.46773
746.317	14636.02323
746.509	14504.49954
746.702	14674.46773
746.894	14413.44147
747.086	14389.15882
747.278	14470.10017
747.471	14372.97025
747.663	14093.69932
747.855	14356.78159
748.047	14441.77096
748.239	14723.02871
748.431	14457.95911
748.623	14328.45117
748.815	14425.58272
749.008	14567.22685
749.2	14437.72391
749.392	14518.66388
749.584	14528.78123
749.776	14597.57836
749.968	14526.75776
750.16	14474.14717
750.352	14117.98527
750.544	14344.64002
750.736	14480.21767
750.928	14478.19417
751.12	13968.21657
751.311	13824.50651
751.503	14279.88394
751.695	14217.14972
751.887	14002.62405
752.079	14308.21495
752.271	14057.26978
752.463	14344.64002
752.654	14563.17996
752.846	14320.3567
753.038	14109.88999
753.23	14372.97025
753.421	14267.74198
753.613	14124.05671
753.805	14172.62752
753.997	14122.0329
754.188	14245.48153
754.38	13968.21657
754.572	13931.78431
754.763	14263.69464
754.955	14016.79163
755.146	14178.69879
755.338	13947.97653
755.53	13802.24032
755.721	13784.02226
755.913	14004.648
756.104	13652.43997
756.296	13753.65828
756.487	13389.23198
756.679	13840.69989
756.87	13419.60535
757.062	13557.28721
757.253	13393.28182
757.445	13320.38232
757.636	13468.20093
757.827	13383.1572
758.019	13443.90342
758.21	13731.39093
758.401	13259.62863
758.593	13508.69557
758.784	13597.77867
758.975	13559.31181
759.167	13585.63138
759.358	13510.72026
759.549	13121.90562
759.74	13324.43244
759.932	13279.88029
760.123	13409.48099
760.314	13314.30713
760.505	12945.66928
760.696	12947.6952
760.888	13087.47154
761.079	12892.9935
761.27	13200.89637
761.461	13174.56689
761.652	13091.52268
761.843	13204.94699
762.034	13452.00265
762.225	12961.8765
762.416	13061.13867
762.607	12692.38655
762.798	12643.74608
762.989	12771.42012
763.18	13316.3322
763.371	12899.07166
763.562	13036.83067
763.753	13044.93341
763.944	13057.08738
764.135	13115.82912
764.326	13279.88029
764.517	12763.31451
764.708	13093.54825
764.899	12846.3927
765.089	12625.50501
765.28	12384.26957
765.471	12386.29715
765.662	12317.35575
765.853	12424.81979
766.043	12522.12952
766.234	12874.75875
766.425	12617.39771
766.615	12574.83277
766.806	12617.39771
766.997	12627.53182
767.187	12451.176
767.378	12761.2881
767.569	12518.07525
767.759	12601.18282
767.95	12477.53109
768.141	12552.53576
768.331	12635.639
768.522	12457.25804
768.712	12319.38356
768.903	12457.25804
769.093	12094.25353
769.284	12347.77206
769.474	12142.938
769.665	12339.66119
769.855	12118.59631
770.046	11919.76404
770.236	11789.87231
770.426	11877.14709
770.617	12057.73729
770.807	11919.76404
770.998	11832.49683
771.188	11875.11762
771.378	11688.36999
771.569	11862.94063
771.759	11980.63915
771.949	12406.57252
772.139	12136.85268
772.33	11747.244
772.52	11666.03652
772.71	11968.46471
772.9	11982.66819
773.09	12205.81571
773.281	12096.28214
773.471	12029.33403
773.661	12002.9582
773.851	11712.73255
774.041	11661.97577
774.231	11623.39687
774.421	11446.70342
774.611	11434.51501
774.802	11393.88446
774.992	11722.88324
775.182	11306.51539
775.372	11684.30944
775.562	11432.48358
775.752	11700.55143
775.942	11499.51583
776.131	11458.89147
776.321	11282.13
776.511	11521.85761
776.701	11434.51501
776.891	11438.57785
777.081	11682.27915
777.271	11288.22649
777.461	11462.95408
777.651	11119.52271
777.84	11326.83543
778.03	11097.15892
778.22	11127.65468
778.41	11097.15892
778.599	11074.79382
778.789	11312.61151
778.979	11334.96316
779.169	11584.81468
779.358	11202.86731
779.548	11481.23534
779.738	11341.05886
779.927	11288.22649
780.117	11320.73952
780.307	11235.38724
780.496	11377.63114
780.686	11320.73952
780.875	10958.88069
781.065	11125.6217
781.254	10838.86195
781.444	11107.32444
781.633	11320.73952
781.823	11040.22698
782.012	11125.6217
782.202	11147.98384
782.391	10905.99598
782.581	10954.8129
782.77	10783.9247
782.96	10704.55566
783.149	10700.48496
783.338	10733.0492
783.528	10509.10667
783.717	10818.51582
783.906	10537.6168
784.096	10828.68903
784.285	10828.68903
784.474	10735.08436
784.663	10617.0249
784.853	10372.63052
785.042	10498.92388
785.231	10755.43533
785.42	10543.7258
785.61	10478.55734
785.799	10405.22713
785.988	10551.87094
786.177	10238.13359
786.366	10376.70528
786.555	10307.42716
786.744	10258.51567
786.933	10421.52418
787.122	10409.30147
787.312	10030.1575
787.501	10105.6166
787.69	10007.71996
787.879	10299.27578
788.068	10087.26347
788.257	10056.67237
788.445	9811.82674
788.634	10657.73969
788.823	10354.29345
789.012	10376.70528
789.201	10036.27653
789.39	10217.75014
789.579	10366.51828
789.768	10225.90368
789.957	10109.69492
790.145	10227.94204
790.334	10121.92955
790.523	9795.49615
790.712	9811.82674
790.9	10121.92955
791.089	9813.86799
791.278	9973.04034
791.467	9699.53439
791.655	9926.11419
791.844	9628.05151
792.033	9728.12226
792.221	9664.8165
792.41	9728.12226
792.599	9766.9153
792.787	9621.92352
792.976	9511.59556
793.164	9413.48725
793.353	9507.50846
793.541	9587.1956
793.73	9431.88539
793.918	9668.90119
794.107	9360.32965
794.295	9458.45817
794.484	9376.68701
794.672	9417.57584
794.861	9280.57238
795.049	9550.41991
795.238	9380.77619
795.426	9470.72161
795.614	9331.70173
795.803	9523.85651
795.991	9309.20609
796.179	9321.47669
796.368	9429.84122
796.556	9448.23819
796.744	9321.47669
796.932	9294.88964
797.121	9186.46706
797.309	9433.92955
797.497	9059.5725
797.685	9137.35441
797.874	9106.654
798.062	9172.14355
798.25	8899.83596
798.438	9012.48182
798.626	8951.04525
798.814	9039.09942
799.002	8903.93311
799.19	8938.75604
799.378	8860.90944
799.566	8985.86125
799.755	8981.76552
799.943	9288.75377
800.131	9290.79908
800.318	9307.16093
800.506	9147.58702
800.694	8635.41655
800.882	8815.82851
801.07	9172.14355
801.258	9114.84115
801.446	9157.8192
801.634	8848.6155
801.822	8994.05251
802.01	8881.39788
802.197	9296.9349
802.385	8969.47789
802.573	8770.73883
802.761	8871.15388
802.949	8957.18962
803.136	8713.33918
803.324	9114.84115
803.512	8948.9971
803.699	8959.23771
803.887	8865.00727
804.075	8865.00727
804.262	8856.81153
804.45	9012.48182
804.638	8987.90909
804.825	8889.59276
805.013	8731.79064
805.201	8821.97643
805.388	8629.26363
805.576	8903.93311
805.763	8934.65949
805.951	8762.53976
806.138	8928.51453
806.326	9108.70081
806.513	8680.53291
806.701	9141.4475
806.888	8895.73873
807.075	8889.59276
807.263	8731.79064
807.45	9080.04384
807.638	8938.75604
807.825	8869.10503
808.012	8967.42989
808.2	8912.1272
808.387	8780.98726
808.574	8803.5322
808.761	8639.51841
808.949	8778.93761
809.136	8604.65023
809.323	8750.2406
809.51	8701.03738
809.698	8791.23523
809.885	8641.56931
810.072	9008.38654
810.259	8625.16158
810.446	8731.79064
810.633	8678.48236
810.82	9241.7071
811.008	9080.04384
811.195	9012.48182
811.382	8817.87784
811.569	9090.27886
811.756	8887.54407
811.943	9106.654
812.13	8713.33918
812.317	8737.94079
812.504	8887.54407
812.691	9006.33887
812.878	8715.38942
813.064	8705.13806
813.251	8813.77917
813.438	8725.64032
813.625	8541.05313
813.812	8717.43963
813.999	8707.18837
814.186	8865.00727
814.372	8821.97643
814.559	8936.70777
814.746	8754.34039
814.933	8811.72981
815.12	8824.02569
815.306	8668.22934
815.493	8746.14074
815.68	8942.85251
815.866	8592.34253
816.053	8780.98726
816.24	8590.29118
816.426	8862.95836
816.613	8809.68044
816.799	8821.97643
816.986	8836.32092
817.173	9080.04384
817.359	8719.48983
817.546	8791.23523
817.732	8887.54407
817.919	8969.47789
818.105	8647.72191
818.292	8690.78538
818.478	8756.39026
818.665	8922.36942
818.851	8692.83582
819.037	9020.67217
819.224	8536.94947
819.41	8924.41781
819.597	8385.06044
819.783	8335.77649
819.969	8304.96833
820.156	8696.93664
820.342	8750.2406
820.528	8957.18962
820.714	8766.63933
820.901	8694.88624
821.087	8582.08559
821.273	8776.88794
821.459	8602.599
821.646	8768.68909
821.832	8504.11746
822.018	8692.83582
822.204	8397.37968
822.39	8629.26363
822.576	8477.43786
822.762	8678.48236
822.948	8633.3656
823.134	8586.18842
823.32	8413.80425
823.507	8676.4318
823.693	8337.83021
823.879	8323.45375
824.065	8323.45375
824.25	8495.90869
824.436	8352.20572
824.622	8471.28058
824.808	8265.93834
824.994	8422.01608
825.18	7916.40225
825.366	8319.34602
825.552	7969.89859
825.738	8142.63895
825.923	7957.55451
826.109	8124.13786
826.295	7924.63336
826.481	8222.79167
826.667	7875.24175
826.852	8043.94766
827.038	7753.76995
827.224	8043.94766
827.409	7875.24175
827.595	8006.92642
827.781	7988.41333
827.966	8101.52321
828.152	7747.59148
828.338	8294.69797
828.523	7978.12757
828.709	8206.35255
828.894	7821.72074
829.08	7992.52749
829.266	7838.19024
829.451	7990.47042
829.637	7908.17081
829.822	8004.86949
830.008	7825.83824
830.193	8023.38111
830.378	7858.77524
830.564	8117.97047
830.749	7621.92136
830.935	7813.48549
831.12	7479.67444
831.305	7613.67794
831.491	7762.00762
831.676	7790.83684
831.861	7836.13162
832.047	8025.43786
832.232	7564.21027
832.417	7710.51666
832.602	7632.22515
832.788	7481.73672
832.973	7186.60947
833.158	7520.91595
833.343	7413.67006
833.528	7562.14885
833.714	7500.29627
833.899	7496.17208
834.084	7178.3477
834.269	7551.84143
834.454	7306.36543
834.639	7671.37473
834.824	7572.45574
835.009	7444.61238
835.194	7355.89798
835.379	7543.5951
835.564	7304.3013
835.749	7324.94162
835.934	7289.85177
836.119	7461.11295
836.304	6859.99727
836.489	7070.91226
836.674	6903.44016
836.859	6959.28062
837.044	6886.89166
837.228	7070.91226
837.413	6636.41777
837.598	6702.6914
837.783	6725.46753
837.968	6880.68561
838.152	6884.823
838.337	7186.60947
838.522	7215.52288
838.707	7110.17451
838.891	6928.26018
839.076	6851.7213
839.261	6934.46467
839.445	6868.27287
839.63	6804.12739
839.815	6768.94153
839.999	6915.85057
840.184	6975.82278
840.368	6843.44496
840.553	7114.3069
840.737	6866.20401
840.922	6934.46467
841.106	6586.69707
841.291	6870.34172
841.475	6619.84568
841.66	7083.31173
841.844	6694.40848
842.029	6967.55188
842.213	6752.3812
842.397	6721.32662
842.582	6439.52864
842.766	6613.63076
842.951	6371.08655
843.135	6814.47492
843.319	6491.36184
843.504	6406.34776
843.688	6557.68718
843.872	6431.23398
844.056	6491.36184
844.241	6592.91288
844.425	6128.22316
844.609	6462.33704
844.793	6217.51792
844.977	6412.56963
845.161	6190.52641
845.346	6227.89822
845.53	6246.58127
845.714	6259.03559
845.898	5789.33858
846.082	6034.72863
846.266	6072.13216
846.45	6269.41354
846.634	5930.78989
846.818	6140.6855
847.002	5970.29355
847.186	6227.89822
847.37	5901.67648
847.554	6308.84443
847.738	5943.26565
847.922	6138.60851
848.106	5885.03817
848.29	6051.35336
848.473	5914.15422
848.657	6234.12612
848.841	6040.96308
849.025	6315.06959
849.209	6047.19732
849.392	6117.83723
849.576	5830.95323
849.76	5976.53019
849.944	5683.17848
850.127	6040.96308
850.311	5930.78989
850.495	5797.66227
850.678	5410.21165
850.862	5972.37245
851.046	5679.01409
851.229	5751.87732
851.413	5641.53032
851.596	5654.02576
851.78	5401.87043
851.964	5722.7355
852.147	5485.26571
852.331	5472.75881
852.514	5435.23305
852.698	5451.91211
852.881	5410.21165
853.065	5666.52035
853.248	5414.38212
853.431	5554.03847
853.615	5458.16637
853.798	5724.81721
853.982	5435.23305
854.165	5624.86841
854.348	5314.26495
854.532	5347.64335
854.715	5368.50179
854.898	5522.7813
855.081	5163.9881
855.265	5372.6732
855.448	5426.89296
855.631	5226.61817
855.814	5057.46895
855.997	5118.04607
856.181	4992.69257
856.364	5257.92532
856.547	5126.4
856.73	5308.00584
856.913	5059.55814
857.096	5303.83298
857.279	4969.70207
857.462	5124.31155
857.645	4973.88237
857.828	4961.3412
858.011	4904.8957
858.194	5149.3714
858.377	4952.97996
858.56	5147.28321
858.743	4957.16063
858.926	5168.16409
859.109	4994.78248
859.292	5155.63584
859.475	4745.92259
859.658	5176.51579
859.841	4831.70075
860.023	4952.97996
860.206	4714.53082
860.389	4873.52987
860.572	4804.50693
860.755	5055.37973
860.937	4846.34198
861.12	4720.80958
861.303	4672.66723
861.486	4817.0584
861.668	4641.26364
861.851	4766.84761
862.034	4381.46902
862.216	4796.13883
862.399	4429.68231
862.581	4655.91928
862.764	4211.58327
862.947	4603.57267
863.129	4530.26399
863.312	4415.00992
863.494	4511.4088
863.677	4379.37252
863.859	4431.77828
864.042	4435.97015
864.224	4419.20214
864.406	4289.20289
864.589	3978.55149
864.771	4207.38678
864.954	4058.35696
865.136	4473.69304
865.318	4140.23149
865.501	4352.11616
865.683	4117.14189
865.865	4528.16906
866.048	4085.65199
866.23	4391.95115
866.412	4251.44564
866.594	4383.56549
866.777	4354.21293
866.959	4360.50312
867.141	4043.65818
867.323	4203.19021
867.505	4091.95034
867.687	4194.79681
867.869	4066.7558
868.052	4198.99355
868.234	4094.04975
868.416	4184.30459
868.598	4054.15741
868.78	4096.14914
868.962	4024.75827
869.144	4175.91043
869.326	3951.24283
869.508	4014.2576
869.69	3818.85267
869.872	4007.95695
870.054	3850.38133
870.236	3944.94035
870.417	3841.97412
870.599	4213.68148
870.781	3806.23997
870.963	4026.85834
871.145	3846.17776
871.327	3913.4252
871.508	3680.07426
871.69	4129.73653
871.872	3757.88471
872.054	4096.14914
872.235	3923.93075
872.417	3915.52635
872.599	3749.47404
872.78	3932.33483
872.962	3820.95472
873.144	4018.45793
873.325	3886.1084
873.507	3965.94792
873.689	3913.4252
873.87	4016.35778
874.052	3852.48308
874.233	3907.12162
874.415	3757.88471
874.596	3947.0412
874.778	3856.68652
874.959	4024.75827
875.141	3705.31297
875.322	3898.71657
875.503	3579.09208
875.685	3923.93075
875.866	3701.10671
876.048	3921.82968
876.229	3642.21104
876.41	3926.0318
876.592	3623.27713
876.773	3961.74657
876.954	3799.93335
877.136	4133.93458
877.317	3799.93335
877.498	3722.13724
877.679	3623.27713
877.86	3909.22283
878.042	3808.34213
878.223	3865.09317
878.404	3642.21104
878.585	3894.51393
878.766	3732.65178
878.947	3823.05675
879.128	3673.76415
879.309	3930.23384
879.49	3684.2809
879.672	3959.64586
879.853	3917.62748
880.034	3844.07595
880.215	3894.51393
880.396	3799.93335
880.576	3783.11483
880.757	4024.75827
880.938	3663.24692
881.119	3995.3551
881.3	3791.52425
881.481	4066.7558
881.662	3616.96548
881.843	3890.3112
882.023	3789.42192
882.204	3734.75463
882.385	3814.64852
882.566	3957.54514
882.747	3705.31297
882.927	3886.1084
883.108	3699.00355
883.289	3896.61526
883.469	3665.35041
883.65	3961.74657
883.831	3642.21104
884.011	3728.44603
884.192	3705.31297
884.373	3776.80756
884.553	3612.75763
884.734	3802.03557
884.914	3869.29638
885.095	4167.51593
885.275	3610.65367
885.456	3934.4358
885.636	3717.93129
885.817	3799.93335
885.997	3818.85267
886.178	3980.65201
886.358	3381.21222
886.538	3751.57674
886.719	3602.23766
886.899	3926.0318
887.08	3562.25752
887.26	3810.44428
887.44	3497.01243
887.621	3797.8311
887.801	3629.5886
887.981	3682.17759
888.161	3602.23766
888.342	3764.1925
888.522	3606.4457
888.702	3968.04857
888.882	3629.5886
889.062	4012.15741
889.242	3949.14203
889.423	3795.72883
889.603	3741.06307
889.783	4026.85834
889.963	3515.95637
890.143	3757.88471
890.323	3688.48747
890.503	3982.75251
890.683	3875.60103
890.863	3810.44428
891.043	3532.79418
891.223	3810.44428
891.403	3730.54891
891.583	3999.5558
891.763	3709.51915
891.943	3902.91914
892.122	3680.07426
892.302	3732.65178
892.482	3473.85673
892.662	3604.34169
892.842	3642.21104
893.022	3793.62655
893.201	3541.21264
893.381	3682.17759
893.561	3398.05924
893.741	3497.01243
893.92	3488.59243
894.1	3562.25752
894.28	3402.27081
894.459	3726.34312
894.639	3699.00355
894.819	3844.07595
894.998	3724.24019
895.178	3677.97091
895.357	3343.30235
895.537	3537.00345
895.716	3438.06635
895.896	3501.22232
896.075	3307.49341
896.255	3438.06635
896.434	3277.99998
896.614	3402.27081
896.793	3178.96222
896.973	3448.59347
897.152	3216.89591
897.331	3486.48738
897.511	2970.23432
897.69	3176.85463
897.87	3128.37573
898.049	3193.71484
898.228	3162.10109
898.407	2987.10685
898.587	2963.90687
898.766	3353.83343
898.945	3164.20879
899.124	3334.87716
899.304	2896.40582
899.483	3107.29529
899.662	2742.36453
899.841	3041.93588
900.02	2814.11897
900.199	3159.99338
900.378	2957.57929
900.557	3096.75447
900.737	2816.22916
900.916	3018.74025
901.095	2959.6885
901.274	3035.60999
901.453	2790.90602
901.632	3027.17524
901.811	2679.03901
901.989	2972.34344
902.168	2565.0244
902.347	2947.03302
902.526	2527.01171
902.705	2670.59473
902.884	2406.6141
903.063	2647.37191
903.242	2531.23553
903.42	2664.26138
903.599	2425.6266
903.778	2805.67809
903.957	2518.56394
904.135	2750.80704
904.314	2330.55577
904.493	2736.03251
904.672	2550.24214
904.85	2626.25894
905.029	2319.99109
905.207	2522.78785
905.386	2372.81202
905.565	2575.5828
905.743	2313.65216
905.922	2412.95169
906.1	2197.4238
906.279	2284.06939
906.457	2043.118
906.636	2474.21015
906.814	2153.03873
906.993	2326.32992
907.171	1986.03619
907.35	2102.30861
907.528	1947.97907
907.707	2341.1202
907.885	1960.665
908.063	2197.4238
908.242	1890.88984
908.42	1967.00788
908.598	1844.36982
908.777	1994.49306
908.955	1713.25638
909.133	2136.12919
909.311	1814.76495
909.49	1818.99427
909.668	1766.12654
909.846	2009.29232
910.024	1673.07369
910.202	2098.0809
910.38	1907.80559
910.559	2047.34608
910.737	1857.05733
910.915	2051.57414
911.093	2045.23204
911.271	1863.40103
911.449	1859.1719
911.627	1814.76495
911.805	1802.07688
911.983	1958.55069
912.161	1651.92449
912.339	2038.88988
912.517	1859.1719
912.695	2002.94982
912.872	1950.09341
913.05	1988.15042
913.228	1888.77534
913.406	2053.68816
913.584	1840.14061
913.762	1945.86473
913.939	1831.68213
914.117	1945.86473
914.295	1717.48608
914.473	1835.91138
914.65	1742.86394
914.828	1840.14061
915.006	1706.91182
915.184	1945.86473
915.361	1569.44047
915.539	1831.68213
915.716	1751.32312
915.894	1736.51952
916.072	1683.64819
916.249	1876.08828
916.427	1713.25638
916.604	1840.14061
916.782	1823.22358
916.959	2017.7489
917.137	1797.84749
917.314	1793.61808
917.492	1635.00495
917.669	1723.83059
917.847	1704.79696
918.024	1814.76495
918.201	1613.85532
918.379	1747.09354
918.556	1467.91872
918.733	1670.95878
918.911	1596.93547
919.088	1850.7136
919.265	1677.3035
919.442	1721.71575
919.62	1374.85664
919.797	1797.84749
919.974	1374.85664
920.151	1417.15749
920.328	1391.77694
920.506	1713.25638
920.683	1419.27253
920.86	1637.11991
921.037	1417.15749
921.214	1476.37892
921.391	1385.43182
921.568	1643.46474
921.745	1366.39652
921.922	1533.48509
922.099	1317.7512
922.276	1554.63536
922.453	1463.68862
922.63	1410.81234
922.807	1393.89199
922.984	1408.6973
923.161	1163.36319
923.338	1577.9005
923.514	1298.71631
923.691	1434.07789
923.868	1205.65967
924.045	1302.94628
924.222	1233.15312
924.399	1385.43182
924.575	1201.42996
924.752	1362.16646
924.929	1188.74091
925.105	1326.2112
925.282	1171.82237
925.459	1309.29123
925.635	981.50947
925.812	1137.98605
925.989	979.39514
926.165	1123.183
926.342	1004.76751
926.518	1154.90408
926.695	1072.43144
926.871	1184.51125
927.048	875.80189
927.224	1173.93717
927.401	905.3981
927.577	1034.36975
927.754	880.02982
927.93	877.91585
928.107	890.59979
928.283	1148.55979
928.459	899.05592
928.636	1011.11074
928.812	822.95561
928.988	867.34612
929.165	808.15966
929.341	934.99584
929.517	858.89049
929.693	1030.14078
929.87	791.25055
930.046	812.38703
930.222	740.52702
930.398	903.28403
930.574	685.58335
930.751	780.68268
930.927	694.03574
931.103	820.84188
931.279	664.45318
931.455	875.80189
931.631	601.06987
931.807	742.64038
931.983	681.35723
932.159	738.41367
932.335	611.63298
932.511	791.25055
932.687	584.16957
932.863	668.67912
933.039	579.94462
933.215	706.71465
933.391	544.03473
933.566	647.5499
933.742	609.52034
933.918	571.49488
934.094	487.00965
934.27	584.16957
934.445	465.89196
934.621	537.6981
934.797	394.10337
934.973	442.66424
935.148	406.7706
935.324	525.02522
935.5	343.44047
935.675	360.32701
935.851	301.22902
936.027	356.10527
936.202	284.34646
936.378	444.77578
936.553	269.5752
936.729	313.8917
936.904	168.31207
937.08	292.78759
937.255	271.68532
937.431	250.58493
937.606	199.95188
937.782	204.17086
937.957	149.33043
938.133	229.48645
938.308	130.35049
938.483	174.63967
938.659	140.89469
938.834	166.20292
939.009	151.43941
939.185	86.0708
939.36	107.15516
939.535	153.54842
939.71	119.80683
939.886	174.63967
940.061	176.7489
940.236	121.91552
940.411	149.33043
940.586	136.67694
940.761	161.98467
940.937	86.0708
941.112	102.93811
941.287	107.15516
941.462	92.39587
941.637	132.45929
941.812	90.28749
941.987	124.02423
942.162	111.37229
942.337	117.69816
942.512	37.58533
942.687	117.69816
942.862	31.26204
943.037	41.80097
943.212	153.54842
943.386	117.69816
943.561	149.33043
943.736	24.93896
943.911	176.7489
944.086	75.52945
944.26	140.89469
944.435	94.50427
944.61	67.09678
944.785	39.69314
944.959	52.34049
945.134	130.35049
945.309	98.72115
945.483	111.37229
945.658	73.42125
945.833	132.45929
946.007	52.34049
946.182	48.12461
946.357	134.5681
946.531	115.58952
946.706	90.28749
946.88	83.96248
947.055	81.85419
947.229	159.87558
947.404	77.63768
947.578	149.33043
947.752	86.0708
947.927	161.98467
948.101	94.50427
948.276	128.24171
948.45	151.43941
948.624	130.35049
948.799	107.15516
948.973	60.77252
949.147	124.02423
949.321	115.58952
949.496	153.54842
949.67	83.96248
949.844	81.85419
950.018	77.63768
950.193	145.11251
950.367	107.15516
950.541	73.42125
950.715	132.45929
950.889	128.24171
951.063	132.45929
951.237	77.63768
951.411	98.72115
951.585	67.09678
951.759	96.6127
951.933	94.50427
952.107	83.96248
952.281	64.98867
952.455	100.82962
952.629	56.55646
952.803	130.35049
952.977	149.33043
953.151	48.12461
953.325	149.33043
953.499	60.77252
953.672	75.52945
953.846	54.44846
954.02	64.98867
954.194	64.98867
954.368	151.43941
954.541	121.91552
954.715	107.15516
954.889	64.98867
955.062	155.65745
955.236	100.82962
955.41	157.7665
955.583	183.07674
955.757	119.80683
955.93	90.28749
956.104	117.69816
956.278	46.01671
956.451	58.66448
956.625	16.50851
956.798	166.20292
956.972	143.00359
957.145	83.96248
957.319	56.55646
957.492	134.5681
957.665	124.02423
957.839	124.02423
958.012	52.34049
958.185	100.82962
958.359	147.22146
958.532	33.36978
958.705	176.7489
958.879	166.20292
959.052	83.96248
959.225	143.00359
959.398	48.12461
959.572	111.37229
959.745	67.09678
959.918	183.07674
960.091	151.43941
960.264	56.55646
960.438	27.04663
960.611	140.89469
960.784	100.82962
960.957	33.36978
961.13	73.42125
961.303	132.45929
961.476	56.55646
961.649	52.34049
961.822	151.43941
961.995	124.02423
962.168	81.85419
962.341	136.67694
962.514	105.04662
962.686	67.09678
962.859	67.09678
963.032	111.37229
963.205	140.89469
963.378	43.90883
963.551	115.58952
963.723	149.33043
963.896	81.85419
964.069	151.43941
964.242	208.38993
964.414	24.93896
964.587	79.74592
964.76	126.13296
964.932	56.55646
965.105	102.93811
965.278	90.28749
965.45	111.37229
965.623	147.22146
965.795	24.93896
965.968	81.85419
966.14	69.20492
966.313	5.97099
966.485	50.23254
966.658	132.45929
966.83	83.96248
967.003	130.35049
967.175	10.18593
967.348	111.37229
967.52	24.93896
967.692	48.12461
967.865	77.63768
968.037	58.66448
968.209	88.17913
968.382	77.63768
968.554	83.96248
968.726	71.31307
968.898	145.11251
969.071	109.26371
969.243	69.20492
969.415	41.80097
969.587	86.0708
969.759	33.36978
969.932	35.47754
970.104	50.23254
970.276	83.96248
970.448	39.69314
970.62	73.42125
970.792	24.93896
970.964	140.89469
971.136	92.39587
971.308	115.58952
971.48	119.80683
971.652	77.63768
971.824	31.26204
971.996	43.90883
972.168	43.90883
972.339	98.72115
972.511	22.83131
972.683	81.85419
972.855	90.28749
973.027	69.20492
973.199	115.58952
973.37	58.66448
973.542	117.69816
973.714	77.63768
973.886	73.42125
974.057	1.75615
974.229	39.69314
974.401	31.26204
974.572	81.85419
974.744	52.34049
974.915	69.20492
975.087	119.80683
975.259	-6.67324
975.43	62.88058
975.602	48.12461
975.773	92.39587
975.945	77.63768
976.116	60.77252
976.288	12.29343
976.459	60.77252
976.63	98.72115
976.802	5.97099
976.973	27.04663
977.145	94.50427
977.316	100.82962
977.487	22.83131
977.659	43.90883
977.83	90.28749
978.001	39.69314
978.172	48.12461
978.344	-2.45859
978.515	109.26371
978.686	43.90883
978.857	117.69816
979.028	33.36978
979.2	10.18593
979.371	52.34049
979.542	46.01671
979.713	3.86356
979.884	88.17913
980.055	52.34049
980.226	96.6127
980.397	81.85419
980.568	22.83131
980.739	-27.74501
980.91	35.47754
981.081	98.72115
981.252	107.15516
981.423	73.42125
981.594	98.72115
981.765	107.15516
981.936	48.12461
982.106	71.31307
982.277	60.77252
982.448	52.34049
982.619	67.09678
982.79	-15.10224
982.96	-12.99502
983.131	-17.20943
983.302	81.85419
983.472	73.42125
983.643	75.52945
983.814	52.34049
983.984	98.72115
984.155	10.18593
984.326	58.66448
984.496	73.42125
984.667	77.63768
984.837	14.40096
985.008	73.42125
985.178	-17.20943
985.349	111.37229
985.519	24.93896
985.69	-59.34802
985.86	124.02423
986.031	1.75615
986.201	14.40096
986.371	-25.63794
986.542	90.28749
986.712	33.36978
986.882	60.77252
987.053	8.07845
987.223	43.90883
987.393	-23.53085
987.563	75.52945
987.734	64.98867
987.904	50.23254
988.074	73.42125
988.244	60.77252
988.414	90.28749
988.585	-42.49378
988.755	1.75615
988.925	64.98867
989.095	90.28749
989.265	48.12461
989.435	62.88058
989.605	83.96248
989.775	64.98867
989.945	-2.45859
990.115	81.85419
990.285	20.72369
990.455	41.80097
990.625	48.12461
990.795	3.86356
990.965	-15.10224
991.134	81.85419
991.304	43.90883
991.474	48.12461
991.644	-15.10224
991.814	-15.10224
991.984	1.75615
992.153	-29.85205
992.323	48.12461
992.493	67.09678
992.662	50.23254
992.832	73.42125
993.002	18.61609
993.171	75.52945
993.341	27.04663
993.511	94.50427
993.68	-2.45859
993.85	12.29343
994.019	24.93896
994.189	71.31307
994.358	50.23254
994.528	73.42125
994.697	-27.74501
994.867	-17.20943
995.036	5.97099
995.206	-19.31659
995.375	-25.63794
995.544	5.97099
995.714	33.36978
995.883	14.40096
996.052	81.85419
996.222	92.39587
996.391	33.36978
996.56	27.04663
996.73	-31.95906
996.899	48.12461
997.068	46.01671
997.237	73.42125
997.406	96.6127
997.576	31.26204
997.745	67.09678
997.914	-48.81431
998.083	77.63768
998.252	-36.17303
998.421	56.55646
998.59	81.85419
998.759	-19.31659
998.928	73.42125
999.097	22.83131
999.266	-15.10224
999.435	10.18593
999.604	-17.20943
999.773	-74.09415
999.942	86.0708
1000.111	1.75615
1000.28	31.26204
1000.448	69.20492
1000.617	46.01671
1000.786	-6.67324
1000.955	8.07845
1001.124	-44.60065
1001.292	8.07845
1001.461	-53.02787
1001.63	24.93896
1001.798	48.12461
1001.967	14.40096
1002.136	-101.47647
1002.304	73.42125
1002.473	8.07845
1002.642	56.55646
1002.81	-31.95906
1002.979	73.42125
1003.147	-0.35123
1003.316	64.98867
1003.484	22.83131
1003.653	24.93896
1003.821	69.20492
1003.99	31.26204
1004.158	48.12461
1004.327	48.12461
1004.495	27.04663
1004.663	71.31307
1004.832	1.75615
1005	43.90883
1005.168	1.75615
1005.337	-31.95906
1005.505	10.18593
1005.673	35.47754
1005.842	35.47754
1006.01	48.12461
1006.178	67.09678
1006.346	73.42125
1006.514	31.26204
1006.683	12.29343
1006.851	24.93896
1007.019	43.90883
1007.187	-8.78052
1007.355	24.93896
1007.523	14.40096
1007.691	12.29343
1007.859	-15.10224
1008.027	-25.63794
1008.195	8.07845
1008.363	64.98867
1008.531	5.97099
1008.699	14.40096
1008.867	39.69314
1009.035	22.83131
1009.203	-0.35123
1009.37	12.29343
1009.538	-17.20943
1009.706	22.83131
1009.874	20.72369
1010.042	50.23254
1010.209	52.34049
1010.377	24.93896
1010.545	-27.74501
1010.713	64.98867
1010.88	50.23254
1011.048	-2.45859
1011.216	22.83131
1011.383	18.61609
1011.551	-6.67324
1011.718	102.93811
1011.886	58.66448
1012.054	29.15432
1012.221	35.47754
1012.389	52.34049
1012.556	56.55646
1012.724	12.29343
1012.891	22.83131
1013.058	37.58533
1013.226	75.52945
1013.393	43.90883
1013.561	77.63768
1013.728	-0.35123
1013.895	50.23254
1014.063	14.40096
1014.23	115.58952
1014.397	1.75615
1014.565	90.28749
1014.732	-80.41353
1014.899	52.34049
1015.066	64.98867
1015.233	-86.73269
1015.401	14.40096
1015.568	-10.88778
1015.735	-44.60065
1015.902	29.15432
1016.069	-2.45859
1016.236	50.23254
1016.403	-46.70749
1016.57	-17.20943
1016.737	24.93896
1016.904	-10.88778
1017.071	3.86356
1017.238	10.18593
1017.405	56.55646
1017.572	-29.85205
1017.739	33.36978
1017.906	60.77252
1018.073	-15.10224
1018.24	83.96248
1018.407	14.40096
1018.573	-36.17303
1018.74	39.69314
1018.907	-4.56592
1019.074	-40.38689
1019.241	77.63768
1019.407	-10.88778
1019.574	-40.38689
1019.741	22.83131
1019.907	-0.35123
1020.074	-15.10224
1020.241	-27.74501
1020.407	-10.88778
1020.574	37.58533
1020.74	24.93896
1020.907	14.40096
1021.073	-2.45859
1021.24	-67.77453
1021.406	67.09678
1021.573	18.61609
1021.739	22.83131
1021.906	48.12461
1022.072	27.04663
1022.239	1.75615
1022.405	83.96248
1022.571	18.61609
1022.738	33.36978
1022.904	-10.88778
1023.07	24.93896
1023.237	-50.9211
1023.403	5.97099
1023.569	-67.77453
1023.735	14.40096
1023.902	37.58533
1024.068	-23.53085
1024.234	90.28749
1024.4	-8.78052
1024.566	20.72369
1024.732	48.12461
1024.898	54.44846
1025.065	5.97099
1025.231	5.97099
1025.397	105.04662
1025.563	-0.35123
1025.729	-95.15786
1025.895	24.93896
1026.061	1.75615
1026.227	10.18593
1026.392	5.97099
1026.558	5.97099
1026.724	-17.20943
1026.89	27.04663
1027.056	1.75615
1027.222	-6.67324
1027.388	-19.31659
1027.553	39.69314
1027.719	33.36978
1027.885	24.93896
1028.051	-12.99502
1028.216	50.23254
1028.382	27.04663
1028.548	-10.88778
1028.713	14.40096
1028.879	-10.88778
1029.045	48.12461
1029.21	3.86356
1029.376	8.07845
1029.541	35.47754
1029.707	56.55646
1029.873	12.29343
1030.038	-17.20943
1030.204	83.96248
1030.369	79.74592
1030.534	50.23254
1030.7	-19.31659
1030.865	-78.3071
1031.031	-8.78052
1031.196	75.52945
1031.361	-15.10224
1031.527	-78.3071
1031.692	35.47754
1031.857	-61.45468
1032.023	22.83131
1032.188	56.55646
1032.353	5.97099
1032.518	10.18593
1032.684	14.40096
1032.849	56.55646
1033.014	48.12461
1033.179	-36.17303
1033.344	-23.53085
1033.509	64.98867
1033.674	48.12461
1033.839	24.93896
1034.004	79.74592
1034.17	31.26204
1034.335	10.18593
1034.5	22.83131
1034.664	14.40096
1034.829	-19.31659
1034.994	-44.60065
1035.159	-10.88778
1035.324	-10.88778
1035.489	-36.17303
1035.654	27.04663
1035.819	50.23254
1035.984	100.82962
1036.148	-19.31659
1036.313	115.58952
1036.478	33.36978
1036.643	41.80097
1036.807	52.34049
1036.972	48.12461
1037.137	-17.20943
1037.301	39.69314
1037.466	-53.02787
1037.631	-6.67324
1037.795	-50.9211
1037.96	41.80097
1038.124	-23.53085
1038.289	-19.31659
1038.454	24.93896
1038.618	-31.95906
1038.783	56.55646
1038.947	39.69314
1039.111	39.69314
1039.276	8.07845
1039.44	39.69314
1039.605	62.88058
1039.769	-36.17303
1039.933	58.66448
1040.098	27.04663
1040.262	16.50851
1040.426	-53.02787
1040.591	60.77252
1040.755	-19.31659
1040.919	-8.78052
1041.083	-31.95906
1041.248	29.15432
1041.412	-6.67324
1041.576	-10.88778
1041.74	-69.8811
1041.904	58.66448
1042.068	5.97099
1042.232	5.97099
1042.397	-2.45859
1042.561	58.66448
1042.725	31.26204
1042.889	-29.85205
1043.053	43.90883
1043.217	-15.10224
1043.381	-10.88778
1043.544	8.07845
1043.708	-8.78052
1043.872	14.40096
1044.036	41.80097
1044.2	-101.47647
1044.364	-17.20943
1044.528	24.93896
1044.691	-25.63794
1044.855	73.42125
1045.019	-27.74501
1045.183	157.7665
1045.346	35.47754
1045.51	-36.17303
1045.674	39.69314
1045.837	-36.17303
1046.001	43.90883
1046.165	-69.8811
1046.328	-69.8811
1046.492	22.83131
1046.655	-2.45859
1046.819	24.93896
1046.983	50.23254
1047.146	-67.77453
1047.31	33.36978
1047.473	35.47754
1047.636	-34.06606
1047.8	14.40096
1047.963	24.93896
1048.127	-25.63794
1048.29	-12.99502
