Data from absorb_only_2.23.25_USB4F045381__69__0174.txt Node

Date: Sun Feb 23 19:26:18 EST 2025
User: ssocol
Spectrometer: USB4F04538
Trigger mode: 4
Integration Time (sec): 2.600000E-3
Scans to average: 1
Electric dark correction enabled: true
Nonlinearity correction enabled: true
Boxcar width: 0
XAxis mode: Wavelengths
Number of Pixels in Spectrum: 3648
>>>>>Begin Spectral Data<<<<<
345.52	-11.94141
345.736	-11.94141
345.952	-11.94141
346.168	44.96277
346.384	0.70246
346.6	-91.99847
346.816	-43.54722
347.032	7.02472
347.248	63.93463
347.464	-28.79853
347.68	17.5623
347.896	21.7775
348.112	19.66988
348.328	0.70246
348.544	9.13219
348.76	32.3159
348.975	-7.72688
349.191	49.17857
349.407	91.34168
349.623	-49.86771
349.839	-7.72688
350.055	25.99279
350.27	63.93463
350.486	13.34719
350.702	42.8549
350.918	-7.72688
351.133	15.45473
351.349	-45.65407
351.565	2.80986
351.781	-39.33343
351.996	51.28651
352.212	-1.40491
352.428	11.23968
352.644	9.13219
352.859	59.7185
353.075	47.07066
353.291	2.80986
353.506	34.42366
353.722	19.66988
353.938	-9.83416
354.153	-41.44034
354.369	59.7185
354.584	19.66988
354.8	-41.44034
355.016	-33.01256
355.231	28.10047
355.447	42.8549
355.662	28.10047
355.878	95.55848
356.093	4.91728
356.309	-24.5844
356.524	36.53143
356.74	-11.94141
356.955	17.5623
357.171	38.63923
357.386	-39.33343
357.602	-22.47729
357.817	11.23968
358.033	47.07066
358.248	38.63923
358.464	34.42366
358.679	9.13219
358.895	0.70246
359.11	68.15085
359.325	68.15085
359.541	-24.5844
359.756	34.42366
359.972	-16.15583
360.187	112.42659
360.402	36.53143
360.618	51.28651
360.833	78.6918
361.048	42.8549
361.264	87.12496
361.479	87.12496
361.694	25.99279
361.909	57.61047
362.125	61.82655
362.34	9.13219
362.555	9.13219
362.77	4.91728
362.986	9.13219
363.201	53.39447
363.416	63.93463
363.631	19.66988
363.847	36.53143
364.062	7.02472
364.277	34.42366
364.492	-5.61958
364.707	-33.01256
364.922	11.23968
365.138	97.66692
365.353	17.5623
365.568	25.99279
365.783	55.50246
365.998	59.7185
366.213	21.7775
366.428	49.17857
366.643	32.3159
366.858	23.88513
367.073	36.53143
367.288	-64.61464
367.503	42.8549
367.718	-39.33343
367.933	66.04272
368.148	11.23968
368.363	-54.08124
368.578	-91.99847
368.793	-5.61958
369.008	19.66988
369.223	-33.01256
369.438	9.13219
369.653	85.01664
369.868	19.66988
370.083	59.7185
370.298	47.07066
370.513	30.20817
370.728	11.23968
370.943	-22.47729
371.157	-66.72124
371.372	9.13219
371.587	25.99279
371.802	99.77538
372.017	-33.01256
372.232	15.45473
372.446	28.10047
372.661	38.63923
372.876	133.51369
373.091	23.88513
373.306	0.70246
373.52	9.13219
373.735	87.12496
373.95	0.70246
374.165	-20.37016
374.379	21.7775
374.594	-16.15583
374.809	7.02472
375.023	2.80986
375.238	61.82655
375.453	17.5623
375.667	106.10089
375.882	42.8549
376.097	28.10047
376.311	19.66988
376.526	61.82655
376.741	25.99279
376.955	34.42366
377.17	17.5623
377.384	7.02472
377.599	9.13219
377.813	-3.51226
378.028	-30.90556
378.242	13.34719
378.457	28.10047
378.672	15.45473
378.886	0.70246
379.101	-62.50801
379.315	44.96277
379.53	17.5623
379.744	-3.51226
379.958	28.10047
380.173	-30.90556
380.387	-3.51226
380.602	-24.5844
380.816	13.34719
381.031	28.10047
381.245	-3.51226
381.459	4.91728
381.674	17.5623
381.888	17.5623
382.103	4.91728
382.317	-7.72688
382.531	47.07066
382.746	9.13219
382.96	38.63923
383.174	25.99279
383.388	42.8549
383.603	76.58356
383.817	53.39447
384.031	9.13219
384.246	-1.40491
384.46	36.53143
384.674	34.42366
384.888	13.34719
385.103	89.23331
385.317	47.07066
385.531	108.20943
385.745	-16.15583
385.959	17.5623
386.174	72.36716
386.388	34.42366
386.602	61.82655
386.816	13.34719
387.03	21.7775
387.244	72.36716
387.458	34.42366
387.672	42.8549
387.887	28.10047
388.101	-7.72688
388.315	4.91728
388.529	-16.15583
388.743	-11.94141
388.957	89.23331
389.171	17.5623
389.385	76.58356
389.599	21.7775
389.813	36.53143
390.027	19.66988
390.241	-28.79853
390.455	97.66692
390.669	11.23968
390.883	25.99279
391.097	55.50246
391.311	66.04272
391.525	101.88386
391.738	40.74705
391.952	59.7185
392.166	-14.04863
392.38	21.7775
392.594	-24.5844
392.808	51.28651
393.022	21.7775
393.236	32.3159
393.449	59.7185
393.663	-14.04863
393.877	55.50246
394.091	55.50246
394.305	19.66988
394.518	70.25899
394.732	63.93463
394.946	38.63923
395.16	-3.51226
395.373	112.42659
395.587	87.12496
395.801	47.07066
396.015	78.6918
396.228	-11.94141
396.442	49.17857
396.656	-45.65407
396.869	9.13219
397.083	61.82655
397.297	-16.15583
397.51	59.7185
397.724	13.34719
397.938	112.42659
398.151	30.20817
398.365	17.5623
398.578	-11.94141
398.792	21.7775
399.005	-7.72688
399.219	82.90833
399.433	9.13219
399.646	51.28651
399.86	59.7185
400.073	-51.97449
400.287	61.82655
400.5	11.23968
400.714	114.5352
400.927	61.82655
401.141	51.28651
401.354	40.74705
401.567	61.82655
401.781	97.66692
401.994	101.88386
402.208	57.61047
402.421	15.45473
402.635	49.17857
402.848	17.5623
403.061	30.20817
403.275	-58.29468
403.488	87.12496
403.701	87.12496
403.915	42.8549
404.128	13.34719
404.341	0.70246
404.555	68.15085
404.768	103.99236
404.981	9.13219
405.195	80.80005
405.408	53.39447
405.621	59.7185
405.834	53.39447
406.048	-33.01256
406.261	34.42366
406.474	51.28651
406.687	25.99279
406.9	89.23331
407.114	11.23968
407.327	28.10047
407.54	19.66988
407.753	38.63923
407.966	34.42366
408.179	-16.15583
408.392	59.7185
408.605	19.66988
408.819	4.91728
409.032	17.5623
409.245	42.8549
409.458	-45.65407
409.671	76.58356
409.884	57.61047
410.097	7.02472
410.31	34.42366
410.523	13.34719
410.736	139.84024
410.949	19.66988
411.162	70.25899
411.375	95.55848
411.588	68.15085
411.801	49.17857
412.014	42.8549
412.227	68.15085
412.44	76.58356
412.653	9.13219
412.865	40.74705
413.078	25.99279
413.291	95.55848
413.504	51.28651
413.717	91.34168
413.93	103.99236
414.143	36.53143
414.356	34.42366
414.568	42.8549
414.781	82.90833
414.994	51.28651
415.207	55.50246
415.42	112.42659
415.632	42.8549
415.845	70.25899
416.058	-3.51226
416.271	51.28651
416.483	36.53143
416.696	2.80986
416.909	17.5623
417.121	63.93463
417.334	51.28651
417.547	93.45007
417.759	51.28651
417.972	4.91728
418.185	34.42366
418.397	34.42366
418.61	68.15085
418.823	59.7185
419.035	47.07066
419.248	53.39447
419.46	42.8549
419.673	80.80005
419.885	51.28651
420.098	-16.15583
420.311	122.96987
420.523	9.13219
420.736	32.3159
420.948	28.10047
421.161	55.50246
421.373	42.8549
421.586	127.18734
421.798	13.34719
422.01	34.42366
422.223	66.04272
422.435	42.8549
422.648	51.28651
422.86	-37.2265
423.073	-16.15583
423.285	19.66988
423.497	51.28651
423.71	61.82655
423.922	34.42366
424.134	47.07066
424.347	-24.5844
424.559	-7.72688
424.771	44.96277
424.984	47.07066
425.196	11.23968
425.408	42.8549
425.621	11.23968
425.833	30.20817
426.045	11.23968
426.257	93.45007
426.47	38.63923
426.682	36.53143
426.894	44.96277
427.106	49.17857
427.318	49.17857
427.531	72.36716
427.743	44.96277
427.955	68.15085
428.167	97.66692
428.379	47.07066
428.591	4.91728
428.804	53.39447
429.016	11.23968
429.228	38.63923
429.44	9.13219
429.652	19.66988
429.864	51.28651
430.076	21.7775
430.288	76.58356
430.5	51.28651
430.712	19.66988
430.924	40.74705
431.136	97.66692
431.348	32.3159
431.56	76.58356
431.772	44.96277
431.984	34.42366
432.196	23.88513
432.408	9.13219
432.62	68.15085
432.832	51.28651
433.044	76.58356
433.256	76.58356
433.468	44.96277
433.679	53.39447
433.891	17.5623
434.103	63.93463
434.315	42.8549
434.527	76.58356
434.739	74.47535
434.95	-7.72688
435.162	82.90833
435.374	63.93463
435.586	17.5623
435.798	59.7185
436.009	44.96277
436.221	15.45473
436.433	30.20817
436.645	87.12496
436.856	36.53143
437.068	-14.04863
437.28	34.42366
437.491	34.42366
437.703	49.17857
437.915	-7.72688
438.126	15.45473
438.338	114.5352
438.55	66.04272
438.761	59.7185
438.973	101.88386
439.184	61.82655
439.396	34.42366
439.608	25.99279
439.819	118.75249
440.031	103.99236
440.242	118.75249
440.454	114.5352
440.665	137.73137
440.877	120.86117
441.088	99.77538
441.3	38.63923
441.511	131.40488
441.723	59.7185
441.934	76.58356
442.146	103.99236
442.357	61.82655
442.569	72.36716
442.78	91.34168
442.991	87.12496
443.203	0.70246
443.414	93.45007
443.626	30.20817
443.837	152.49392
444.048	76.58356
444.26	42.8549
444.471	110.318
444.682	135.62252
444.894	44.96277
445.105	-11.94141
445.316	34.42366
445.528	89.23331
445.739	78.6918
445.95	59.7185
446.161	70.25899
446.373	93.45007
446.584	114.5352
446.795	42.8549
447.006	99.77538
447.217	19.66988
447.429	129.2961
447.64	11.23968
447.851	141.94913
448.062	63.93463
448.273	30.20817
448.484	76.58356
448.695	110.318
448.907	59.7185
449.118	80.80005
449.329	127.18734
449.54	4.91728
449.751	112.42659
449.962	70.25899
450.173	148.27594
450.384	49.17857
450.595	158.82104
450.806	135.62252
451.017	127.18734
451.228	59.7185
451.439	97.66692
451.65	2.80986
451.861	165.14835
452.072	103.99236
452.283	55.50246
452.494	78.6918
452.705	76.58356
452.915	59.7185
453.126	89.23331
453.337	51.28651
453.548	116.64384
453.759	106.10089
453.97	137.73137
454.181	28.10047
454.391	101.88386
454.602	61.82655
454.813	19.66988
455.024	112.42659
455.235	108.20943
455.445	118.75249
455.656	110.318
455.867	59.7185
456.078	160.93012
456.288	108.20943
456.499	57.61047
456.71	93.45007
456.921	110.318
457.131	99.77538
457.342	63.93463
457.553	139.84024
457.763	101.88386
457.974	87.12496
458.184	152.49392
458.395	103.99236
458.606	53.39447
458.816	201.00661
459.027	160.93012
459.237	129.2961
459.448	133.51369
459.659	110.318
459.869	68.15085
460.08	190.45945
460.29	87.12496
460.501	198.89714
460.711	226.32184
460.922	112.42659
461.132	93.45007
461.343	139.84024
461.553	144.05805
461.764	118.75249
461.974	125.07859
462.184	211.55428
462.395	186.24073
462.605	150.38492
462.816	129.2961
463.026	190.45945
463.236	114.5352
463.447	154.60294
463.657	205.22562
463.867	182.02209
464.078	241.09037
464.288	139.84024
464.498	215.77348
464.709	186.24073
464.919	167.25749
465.129	201.00661
465.339	222.10244
465.55	125.07859
465.76	203.11611
465.97	279.07091
466.18	287.51185
466.391	232.6511
466.601	165.14835
466.811	298.06345
467.021	224.21213
467.231	232.6511
467.441	285.40159
467.651	228.43158
467.862	333.94227
468.072	230.54133
468.282	270.63026
468.492	321.27857
468.702	283.29134
468.912	281.18111
469.122	325.49973
469.332	317.05747
469.542	287.51185
469.752	359.27157
469.962	327.61034
470.172	416.27141
470.382	407.82623
470.592	407.82623
470.802	361.38246
471.012	439.49697
471.222	384.60334
471.432	409.9375
471.642	397.27012
471.852	553.53991
472.062	456.38949
472.272	545.09085
472.482	515.52089
472.691	502.8489
472.901	566.21391
473.111	538.7542
473.321	481.73009
473.531	671.84861
473.741	600.01358
473.95	587.33831
474.16	614.80198
474.37	771.1718
474.58	646.49347
474.79	762.71785
474.999	766.94481
475.209	773.28531
475.419	690.86607
475.628	779.6259
475.838	722.56386
476.048	834.58132
476.258	817.67129
476.467	1050.22857
476.677	906.45513
476.886	1039.65598
477.096	988.90967
477.306	1043.885
477.515	997.36714
477.725	1115.78156
477.935	1075.60333
478.144	1111.55219
478.354	1075.60333
478.563	1270.16431
478.773	1251.12988
478.982	1314.57871
479.192	1301.88878
479.401	1420.33006
479.611	1333.61372
479.82	1426.67521
480.03	1439.36552
480.239	1614.91281
480.449	1439.36552
480.658	1549.3478
480.868	1633.94748
481.077	1631.83252
481.287	1600.10795
481.496	1697.39492
481.705	1735.46212
481.915	1739.69174
482.124	1820.0516
482.333	1902.51945
482.543	1792.56073
482.752	1944.80755
482.961	1944.80755
483.171	2209.04784
483.38	1908.86281
483.589	2069.54308
483.799	2183.68595
484.008	2346.40233
484.217	2242.86177
484.426	2344.28948
484.636	1970.1793
484.845	2280.89969
485.054	2228.06845
485.263	2416.12046
485.472	2321.04757
485.682	2658.98351
485.891	2487.93923
486.1	2637.87122
486.309	2627.31461
486.518	2815.17407
486.727	2578.75026
486.936	2819.39441
487.146	2612.53484
487.355	2876.36358
487.564	2781.40933
487.773	2882.69285
487.982	2713.8695
488.191	2960.7431
488.4	2941.75975
488.609	2998.70616
488.818	2983.94333
489.027	3177.90843
489.236	3257.98469
489.445	3359.09881
489.654	3211.62766
489.863	3559.1009
490.072	3308.54669
490.281	3388.58293
490.49	3354.88652
490.698	3314.86625
490.907	3228.4857
491.116	3786.2684
491.325	3514.90397
491.534	3647.47019
491.743	3472.80415
491.952	3584.35264
492.16	3805.18887
492.369	3882.95624
492.578	3784.16602
492.787	3857.73737
492.996	3882.95624
493.204	3943.88992
493.413	3754.73075
493.622	4019.508
493.831	3857.73737
494.039	4265.08101
494.248	4004.80656
494.457	4053.10751
494.665	4072.00491
494.874	4244.10315
495.083	4369.93804
495.291	4265.08101
495.5	4074.10452
495.709	4363.64814
495.917	4233.61343
496.126	4239.90733
496.335	4491.50415
496.543	4229.41739
496.752	4388.80657
496.96	4508.26609
497.169	4529.21653
497.377	4495.69476
497.586	4460.0717
497.794	4537.59608
498.003	4650.68524
498.211	4816.01248
498.42	4562.73262
498.628	4864.11911
498.837	4759.52412
499.045	4991.64761
499.254	4698.83303
499.462	4899.66842
499.671	4874.57548
499.879	5010.45604
500.087	4928.93935
500.296	5016.72511
500.504	5039.70989
500.713	5050.1566
500.921	5012.54575
501.129	5029.26261
501.338	5010.45604
501.546	5242.2724
501.754	4895.48649
501.962	5357.02994
502.171	5208.87511
502.379	5361.2016
502.587	5150.41549
502.795	5444.61521
503.004	5175.47185
503.212	5430.02054
503.42	5288.18391
503.628	5486.30791
503.837	5450.86971
504.045	5496.72961
504.253	5463.37809
504.461	5719.61289
504.669	5388.31515
504.877	5750.83662
505.085	5588.41522
505.294	5675.89074
505.502	5732.10302
505.71	5750.83662
505.918	5621.74414
506.126	5975.49077
506.334	5669.64387
506.542	5834.07395
506.75	5958.85915
506.958	6052.39236
507.166	5950.54278
507.374	6083.5595
507.582	5977.56961
507.79	6069.01549
507.998	6014.9848
508.206	6087.71471
508.414	5852.79714
508.622	6077.32649
508.83	6150.0317
509.037	6318.18209
509.245	6187.41175
509.453	6189.4882
509.661	6399.08865
509.869	6318.18209
510.077	6116.79861
510.285	6233.08815
510.492	6187.41175
510.7	6484.10607
510.908	6183.25879
511.116	6324.40693
511.324	6048.23634
511.531	6581.51706
511.739	6295.35587
511.947	6508.98182
512.155	6523.49114
512.362	6772.04643
512.57	6691.3023
512.778	6498.61733
512.985	6332.70639
513.193	6691.3023
513.401	6656.09521
513.608	6647.81022
513.816	6357.60254
514.024	6494.47137
514.231	6533.85424
514.439	6740.99512
514.646	6687.16063
514.854	6933.4306
515.061	6697.51462
515.269	6745.13559
515.477	6591.87693
515.684	6881.71996
515.892	6832.0644
516.099	7051.27811
516.307	6757.55646
516.514	6852.75581
516.722	6889.99462
516.929	6941.70299
517.136	7012.00373
517.344	7129.80261
517.551	6896.20037
517.759	7111.20761
517.966	7014.07101
518.173	7036.80954
518.381	7204.16456
518.588	7255.78791
518.796	7255.78791
519.003	7396.13391
519.21	7096.74359
519.418	7532.25585
519.625	7113.27381
519.832	7352.80257
520.039	7255.78791
520.247	7416.76451
520.454	7606.46467
520.661	7746.56171
520.868	7387.88107
521.076	7676.52542
521.283	7484.8301
521.49	7517.82313
521.697	7680.64587
521.904	7719.786
522.112	7625.01255
522.319	7730.08477
522.526	7575.5477
522.733	7944.18093
522.94	7810.39719
523.147	7707.42679
523.354	7746.56171
523.561	8059.37123
523.768	7841.27812
523.975	8007.95488
524.183	7717.72619
524.39	7824.80887
524.597	8067.59667
524.804	7894.79402
525.011	8042.91938
525.218	8158.05529
525.425	8250.52982
525.632	8116.94255
525.838	7841.27812
526.045	8256.69336
526.252	8227.92864
526.459	8291.61676
526.666	8112.83084
526.873	8400.45938
527.08	8316.26517
527.287	8314.21124
527.494	8127.22149
527.701	8308.04935
527.907	8250.52982
528.114	8201.21507
528.321	8482.5688
528.528	8462.04432
528.735	8576.95694
528.941	8544.13083
529.148	8318.31907
529.355	8503.09138
529.562	8371.7138
529.768	8650.79814
529.975	8355.28606
530.182	8572.85394
530.388	8509.24778
530.595	8827.09956
530.802	8423.04253
531.008	9183.3978
531.215	8784.0617
531.422	8763.56466
531.628	8945.92482
531.835	9089.25538
532.042	8954.11746
532.248	8968.45389
532.455	8843.49284
532.661	8941.8284
532.868	8851.68905
533.074	9013.50563
533.281	8947.97301
533.487	8915.19991
533.694	9089.25538
533.9	9396.11002
534.107	9015.55323
534.313	9355.21775
534.52	9169.07411
534.726	9291.82172
534.933	9158.8424
535.139	9300.00275
535.345	9281.59506
535.552	9418.59798
535.758	9406.33206
535.965	9649.49836
536.171	9404.28769
536.377	9635.20065
536.584	9463.56801
536.79	9306.13835
536.996	9365.44143
537.203	9582.08817
537.409	9371.57545
537.615	9520.79132
537.821	9463.56801
538.028	9547.35504
538.234	9441.08397
538.44	9710.76569
538.646	9441.08397
538.853	9653.58329
539.059	9778.14384
539.265	9853.6695
539.471	9718.93362
539.677	9818.97107
539.883	9667.88002
540.09	9898.56699
540.296	9908.76997
540.502	10202.46166
540.708	9859.79231
540.914	10200.42314
541.12	10135.18316
541.326	10076.0471
541.532	10025.05821
541.738	10002.62027
541.944	10253.42028
542.15	10106.63619
542.356	10131.10519
542.562	10206.53867
542.768	10251.38209
542.974	10275.83938
543.18	10292.14315
543.386	10589.53963
543.592	10216.73094
543.798	10597.68365
544.004	10281.95339
544.21	10638.40078
544.415	10467.35519
544.621	10742.20734
544.827	10563.07019
545.033	10874.46489
545.239	10504.01532
545.445	10756.45285
545.651	10318.63496
545.856	11008.7074
546.062	10640.43651
546.268	10687.25485
546.474	10587.5036
546.679	10616.00697
546.885	10546.78025
547.091	10770.69778
547.297	10784.94213
547.502	10713.71455
547.708	10809.35967
547.914	10711.67926
548.119	10961.9315
548.325	10848.01733
548.531	10644.50793
548.736	10727.96124
548.942	10528.4531
549.147	10896.84207
549.353	10776.80258
549.559	11002.60653
549.764	10827.67172
549.97	11075.81044
550.175	11004.64016
550.381	11083.94333
550.586	10762.55789
550.792	11053.44409
550.997	11140.86876
551.203	11120.53921
551.408	11201.85102
551.614	11214.04633
551.819	11092.07605
552.025	11340.04292
552.23	11153.06597
552.435	11390.83701
552.641	11403.02668
552.846	11510.68686
553.052	11425.37348
553.257	11638.62577
553.462	11451.78182
553.668	11518.81107
553.873	11323.78749
554.078	11593.95286
554.283	11392.86865
554.489	11685.32458
554.694	11697.5061
554.899	11496.46914
555.105	11417.24751
555.31	11884.25017
555.515	11500.53139
555.72	11898.45602
555.925	11646.74765
556.131	12001.94372
556.336	11669.08206
556.541	11766.52871
556.746	11459.90713
556.951	11794.94685
557.156	11748.259
557.361	11884.25017
557.567	11689.38512
557.772	11805.09578
557.977	11547.2446
558.182	11693.44563
558.387	11916.72009
558.592	12006.00164
558.797	11908.60281
559.002	11776.67824
559.207	11742.16894
559.412	11831.48201
559.617	11831.48201
559.822	12097.29644
560.027	12168.29277
560.232	12196.68874
560.437	11928.89577
560.642	12342.70278
560.847	12350.8136
561.051	12517.06167
561.256	12018.17519
561.461	12068.8953
561.666	12196.68874
561.871	12271.72835
562.076	12358.92431
562.281	12523.14308
562.485	12472.46289
562.69	12389.3385
562.895	12336.61959
563.1	12464.35368
563.305	12127.72457
563.509	12206.82981
563.714	12101.35362
563.919	12306.20272
564.123	12257.53242
564.328	12332.5641
564.533	12046.57905
564.737	12383.25578
564.942	12385.28336
565.147	12644.75946
565.351	12352.84129
565.556	12233.19573
565.761	12184.51922
565.965	12652.86643
566.17	12429.88838
566.374	12596.11558
566.579	12279.84015
566.784	12776.48607
566.988	12855.51048
567.193	12825.11747
567.397	12792.6969
567.602	12695.42647
567.806	12488.68099
568.011	12889.95441
568.215	12962.88944
568.42	12873.74569
568.624	12839.30103
568.828	12602.19626
569.033	12699.47967
569.237	12776.48607
569.442	12829.16994
569.646	12701.50626
569.85	12750.14271
570.055	12991.25125
570.259	12821.06498
570.463	12827.14371
570.668	12942.63039
570.872	13181.65567
571.076	12616.38429
571.281	12940.60445
571.485	13214.06082
571.689	13155.32564
571.893	13005.43179
572.098	13131.0203
572.302	13019.61208
572.506	12918.31884
572.71	12865.64121
572.914	13124.94386
573.119	13139.12215
573.323	13043.92058
573.527	13082.40759
573.731	13187.73172
573.935	13104.68875
574.139	13726.33012
574.343	13258.61604
574.547	13499.58441
574.751	13438.84137
574.955	13325.44496
575.159	13384.16967
575.364	13254.56565
575.568	13248.49004
575.772	13199.88371
575.976	13043.92058
576.18	13135.07123
576.383	13412.51831
576.587	13562.34872
576.791	13341.64522
576.995	13521.85601
577.199	13430.74203
577.403	13663.57437
577.607	13284.94314
577.811	13582.59454
578.015	13238.36393
578.219	13623.08513
578.422	13556.2749
578.626	13625.10963
578.83	13681.7941
579.034	13663.57437
579.238	13619.03613
579.442	13584.6191
579.645	13617.01163
579.849	13659.52551
580.053	13728.35445
580.257	13635.23205
580.46	13627.13412
580.664	13965.18058
580.868	13560.32412
581.071	13789.08285
581.275	13843.73613
581.479	13750.62185
581.682	13756.69471
581.886	13647.37884
582.09	14054.23395
582.293	14228.28012
582.497	14212.09043
582.7	14270.77747
582.904	13825.51861
583.107	13900.41141
583.311	14114.94954
583.515	14080.54429
583.718	13946.96452
583.922	14210.06671
584.125	13918.62802
584.329	14392.19416
584.532	14084.592
584.735	14088.6397
584.939	14110.9019
585.142	14038.04278
585.346	14323.39213
585.549	14465.0414
585.753	14432.66509
585.956	14218.16157
586.159	14116.97336
586.363	14564.19169
586.566	14507.53477
586.769	14278.87211
586.973	13904.45957
587.176	14469.08841
587.379	14197.92434
587.582	14386.12347
587.786	14359.81697
587.989	14606.68376
588.192	14278.87211
588.395	14683.57295
588.599	14398.26484
588.802	14410.40615
589.005	14246.49337
589.208	14483.25292
589.411	14570.26201
589.615	14477.18242
589.818	14465.0414
590.021	14469.08841
590.224	14610.73059
590.427	14572.28545
590.63	14675.47942
590.833	14580.3792
591.036	14806.99759
591.239	15033.60724
591.442	14697.7366
591.645	14740.22726
591.848	14920.30315
592.051	14817.11423
592.254	14889.95362
592.457	15146.91056
592.66	14693.68985
592.863	14928.39634
593.066	14902.09344
593.269	14932.44293
593.472	14746.29733
593.675	15470.63599
593.878	15146.91056
594.081	15229.86467
594.284	14942.5594
594.486	15264.26032
594.689	14960.76903
594.892	15122.63131
595.095	15080.14259
595.298	15229.86467
595.5	15231.88794
595.703	15227.8414
595.906	15292.58619
596.109	15037.6538
596.311	15045.74691
596.514	15298.65603
596.717	15244.02758
596.92	15543.47563
597.122	15792.35198
597.325	15337.09837
597.528	15333.05181
597.73	15624.4096
597.933	15157.02691
598.136	15679.04075
598.338	15446.35627
598.541	15416.00673
598.743	15547.5223
598.946	15248.07413
599.148	15061.93312
599.351	15608.22271
599.554	15329.00524
599.756	15460.51943
599.959	15701.29807
600.161	15747.83648
600.363	15559.66233
600.566	15606.19935
600.768	15766.04731
600.971	15565.73235
601.173	15480.75256
601.376	15454.4495
601.578	15383.634
601.78	15814.60993
601.983	15503.00906
602.185	15948.16058
602.388	15735.69598
602.59	15950.18412
602.792	15851.03231
602.995	15889.47858
603.197	15857.10274
603.399	15992.67871
603.601	15954.2312
603.804	15899.59609
604.006	15719.50869
604.208	15668.92383
604.41	15478.72924
604.613	15764.02388
604.815	15677.01737
605.017	16168.73459
605.219	15753.90675
605.421	15468.61267
605.623	15719.50869
605.826	16227.42256
606.028	15632.50307
606.23	15772.1176
606.432	15733.67256
606.634	16156.59242
606.836	16014.93803
607.038	16199.09026
607.24	15960.30183
607.442	16188.97166
607.644	16043.26831
607.846	16170.75829
608.048	16016.96161
608.25	16128.26094
608.452	15820.6803
608.654	15994.70228
608.856	16008.86729
609.058	15921.85472
609.26	15915.78417
609.462	15838.89147
609.664	16154.56874
609.866	15968.39602
610.067	16148.49768
610.269	16150.52136
610.471	15707.36827
610.673	15749.8599
610.875	15606.19935
611.077	16186.94794
611.278	15834.84454
611.48	15816.63338
611.682	15600.12928
611.884	16193.01909
612.085	16035.17392
612.287	16391.35209
612.489	16055.40995
612.69	15915.78417
612.892	15899.59609
613.094	16059.45718
613.295	15776.16447
613.497	16010.89087
613.699	16271.94544
613.9	16108.02435
614.102	15927.92529
614.304	15766.04731
614.505	15984.58446
614.707	16278.01681
614.908	15996.72585
615.11	16027.07954
615.311	16012.91445
615.513	16118.14262
615.714	16178.8531
615.916	15996.72585
616.117	15672.97059
616.319	16128.26094
616.52	15978.51378
616.722	16158.61611
616.923	15970.41957
617.124	16035.17392
617.326	16101.95341
617.527	16344.80296
617.729	16146.474
617.93	16170.75829
618.131	16164.68719
618.333	15844.96189
618.534	15871.26713
618.735	16197.06654
618.937	15879.36109
619.138	15917.80769
619.339	16035.17392
619.54	16118.14262
619.742	16391.35209
619.943	16330.63603
620.144	15956.25474
620.345	16008.86729
620.546	16053.38634
620.748	16427.78257
620.949	16365.04158
621.15	16389.32819
621.351	16306.35008
621.552	16063.50441
621.753	16273.96923
621.954	16656.50046
622.155	16136.35561
622.356	16429.8065
622.558	16225.39882
622.759	16326.58835
622.96	16031.12673
623.161	16261.82653
623.362	15968.39602
623.563	16354.92225
623.764	16263.85031
623.965	16383.25651
624.166	16296.23102
624.366	16324.56452
624.567	16012.91445
624.768	16035.17392
624.969	15747.83648
625.17	16043.26831
625.371	16377.18485
625.572	16087.78792
625.773	15956.25474
625.973	16217.30384
626.174	16118.14262
626.375	16237.54132
626.576	16484.45349
626.777	16737.46938
626.977	16182.90052
627.178	16304.32626
627.379	15923.87824
627.58	16010.89087
627.78	16203.13771
627.981	15867.22016
628.182	16239.56508
628.382	16431.83044
628.583	16231.47006
628.784	16259.80275
628.984	16014.93803
629.185	16603.87264
629.386	16237.54132
629.586	16747.59076
629.787	16197.06654
629.987	16437.90226
630.188	16375.16097
630.388	16265.87409
630.589	16142.42664
630.79	16624.11393
630.99	16358.96998
631.191	16747.59076
631.391	16350.87452
631.591	16435.87832
631.792	16322.54068
631.992	16816.41776
632.193	16733.42085
632.393	16385.2804
632.594	16439.9262
632.794	16587.67977
632.994	16727.34806
633.195	16450.04595
633.395	16397.42379
633.595	16539.102
633.796	16642.33128
633.996	16798.19858
634.196	16652.45211
634.397	16958.12954
634.597	16715.20255
634.797	16814.3934
634.997	16439.9262
635.198	16476.35755
635.398	16563.39073
635.598	16852.85674
635.798	16579.58339
635.998	16106.0007
636.199	16498.62148
636.399	16415.639
636.599	16757.7122
636.799	16468.26164
636.999	16379.20874
637.199	16658.52464
637.399	16788.07689
637.599	16668.64556
637.799	16282.0644
637.999	16873.10097
638.199	16593.75208
638.399	16601.84853
638.599	16539.102
638.799	16707.1056
638.999	16765.8094
639.199	16966.22774
639.399	16769.85801
639.599	16856.90557
639.799	16524.93372
639.999	16533.02987
640.199	16413.61508
640.399	16747.59076
640.599	16120.16628
640.799	16984.44885
640.998	16777.95527
641.198	16806.29597
641.398	16711.15407
641.598	17087.70591
641.798	16903.46779
641.997	16903.46779
642.197	16549.22227
642.397	16765.8094
642.597	16846.78352
642.796	16806.29597
642.996	16705.08136
643.196	17192.99505
643.395	16674.71814
643.595	16775.93095
643.795	16715.20255
643.994	16632.21051
644.194	16567.43888
644.394	16958.12954
644.593	16581.60748
644.793	16761.7608
644.992	16909.54123
645.192	17180.84591
645.392	17008.74399
645.591	17407.64738
645.791	17229.4431
645.99	17022.91634
646.19	17233.49294
646.389	16686.86337
646.589	16925.73717
646.788	16935.85971
646.987	16480.40552
647.187	16943.9578
647.386	16860.9544
647.586	17112.00272
647.785	16952.05592
647.984	16820.4665
648.184	16982.42427
648.383	16913.5902
648.582	16988.49801
648.782	17079.60706
648.981	17192.99505
649.18	17300.31702
649.38	17035.06417
649.579	17610.18132
649.778	17405.6222
649.977	17201.09454
650.177	17073.53295
650.376	17112.00272
650.575	16622.08979
650.774	17097.82953
650.973	16885.24763
651.173	16958.12954
651.372	17095.8048
651.571	17041.13812
651.77	17286.14194
651.969	17097.82953
652.168	17105.92848
652.367	17043.16278
652.566	16755.68791
652.765	17116.05223
652.964	16725.3238
653.163	17031.01488
653.362	17249.69242
653.561	17178.82107
653.76	17300.31702
653.959	17057.33545
654.158	17452.20213
654.357	16964.20319
654.556	16767.83371
654.755	16978.37512
654.954	17105.92848
655.153	17105.92848
655.352	16871.07654
655.551	17389.42086
655.749	17251.71737
655.948	17103.90374
656.147	17306.3921
656.346	17221.34345
656.545	17014.81784
656.743	17215.26875
656.942	17375.24486
657.141	17359.04389
657.34	17672.97339
657.538	17276.01698
657.737	17093.78007
657.936	17804.64456
658.135	17421.82373
658.333	17456.25264
658.532	17079.60706
658.731	17292.21696
658.929	16976.35055
659.128	17047.2121
659.326	16966.22774
659.525	17486.63184
659.724	17020.89171
659.922	17083.65648
660.121	17448.15164
660.319	17782.36074
660.518	17306.3921
660.716	17251.71737
660.915	17569.67198
661.113	17559.54484
661.312	17047.2121
661.51	17583.8501
661.709	17142.37432
661.907	17162.6224
662.105	17095.8048
662.304	17616.25783
662.502	17446.1264
662.701	17399.54667
662.899	17357.01879
663.097	17361.069
663.296	17344.86821
663.494	17488.65715
663.692	17158.57276
663.891	17284.11695
664.089	17014.81784
664.287	17527.13856
664.485	17565.62111
664.684	17936.33016
664.882	17336.76788
665.08	17261.84216
665.278	17026.9656
665.476	17282.09195
665.675	17209.19407
665.873	17298.292
666.071	17188.94533
666.269	17464.35369
666.467	17118.07699
666.665	17614.23233
666.863	17174.77138
667.061	17061.3848
667.259	17403.59702
667.457	17440.05069
667.655	17245.64253
667.853	17440.05069
668.051	17273.992
668.249	17192.99505
668.447	17148.44871
668.645	17211.21896
668.843	17316.51728
669.041	17747.92293
669.239	17259.81719
669.437	17205.1443
669.635	17284.11695
669.833	17282.09195
670.031	17223.36836
670.229	17387.39571
670.426	17097.82953
670.624	17249.69242
670.822	17112.00272
671.02	17164.64722
671.218	17221.34345
671.415	17267.91706
671.613	16802.24727
671.811	16856.90557
672.009	16763.7851
672.206	17172.74654
672.404	17259.81719
672.602	17207.16918
672.799	16856.90557
672.997	17079.60706
673.195	16954.08046
673.392	17555.49401
673.59	17172.74654
673.788	17089.73063
673.985	16862.97882
674.183	17124.15128
674.38	16731.39658
674.578	17067.45886
674.775	16941.93327
674.973	17055.31077
675.17	16860.9544
675.368	17134.27516
675.565	16804.27162
675.763	17041.13812
675.96	16909.54123
676.158	17012.79322
676.355	16719.25105
676.553	17308.41713
676.75	16844.75912
676.947	16749.61505
677.145	16757.7122
677.342	16887.27208
677.539	16899.41885
677.737	17118.07699
677.934	16895.36992
678.131	17172.74654
678.329	17047.2121
678.526	17282.09195
678.723	17146.42391
678.92	17031.01488
679.118	16618.04152
679.315	16690.9118
679.512	16522.90969
679.709	16745.56648
679.906	16464.21369
680.104	16674.71814
680.301	16599.82441
680.498	16852.85674
680.695	16282.0644
680.892	16751.63933
681.089	16526.95776
681.286	16715.20255
681.483	16488.50148
681.68	16786.05256
681.877	16312.42154
682.075	16320.51685
682.272	16322.54068
682.469	16658.52464
682.665	16466.23766
682.862	16551.24633
683.059	16456.11783
683.256	16229.44631
683.453	16300.27864
683.65	16395.39989
683.847	16320.51685
684.044	16537.07796
684.241	16292.1834
684.438	16358.96998
684.635	15990.65515
684.831	16334.68371
685.028	16217.30384
685.225	16458.14179
685.422	16261.82653
685.619	16624.11393
685.815	16537.07796
686.012	16591.72798
686.209	16336.70756
686.405	16792.12556
686.602	16101.95341
686.799	16124.21361
686.996	16306.35008
687.192	16547.19821
687.389	16261.82653
687.586	16314.44537
687.782	16618.04152
687.979	16247.66013
688.175	16136.35561
688.372	16587.67977
688.568	16423.7347
688.765	16450.04595
688.962	15972.44312
689.158	16292.1834
689.355	15927.92529
689.551	16180.87681
689.748	16110.048
689.944	16148.49768
690.14	16025.05595
690.337	16110.048
690.533	16101.95341
690.73	15484.79919
690.926	16158.61611
691.123	16083.74065
691.319	15796.39887
691.515	15887.45508
691.712	15567.7557
691.908	15816.63338
692.104	15620.36287
692.301	15594.05922
692.497	15557.63899
692.693	15808.53956
692.889	15970.41957
693.086	16014.93803
693.282	15808.53956
693.478	16091.83519
693.674	15814.60993
693.87	16439.9262
694.067	15796.39887
694.263	15832.82107
694.459	15648.69004
694.655	15913.76066
694.851	15778.1879
695.047	15739.74281
695.243	15359.35452
695.439	15897.57258
695.635	15634.52644
695.831	15559.66233
696.027	15652.73679
696.224	15654.76016
696.42	15681.06414
696.615	16069.57527
696.811	15583.94247
697.007	15670.94721
697.203	15482.77587
697.399	15606.19935
697.595	15324.95867
697.791	15426.12323
697.987	15468.61267
698.183	15875.31411
698.379	15353.28466
698.575	15851.03231
698.77	15298.65603
698.966	15318.88883
699.162	14987.07176
699.358	15138.81747
699.554	15146.91056
699.749	15187.37597
699.945	15272.35342
700.141	14972.90876
700.337	15023.49085
700.532	15371.49425
700.728	15355.30794
700.924	15606.19935
701.119	15278.42325
701.315	15622.38624
701.511	15239.98103
701.706	15594.05922
701.902	15169.16653
702.097	15250.0974
702.293	15215.70176
702.489	15310.79571
702.684	14950.65257
702.88	15237.95776
703.075	15031.58396
703.271	15246.05085
703.466	15128.70112
703.662	15343.16823
703.857	15041.70035
704.053	15353.28466
704.248	15047.77018
704.443	15126.67785
704.639	15100.37532
704.834	15359.35452
705.03	15068.00294
705.225	15082.16586
705.42	15096.32877
705.616	15365.42438
705.811	15213.67849
706.006	15045.74691
706.202	15076.09604
706.397	14972.90876
706.592	14983.02519
706.787	15088.23568
706.983	15211.65522
707.178	15335.07509
707.373	15090.25895
707.568	15274.3767
707.763	14715.94693
707.959	15114.53822
708.154	14732.13383
708.349	14726.06375
708.544	14639.05834
708.739	14548.00409
708.934	14562.16824
709.129	14894.00023
709.324	14849.48739
709.519	15074.07276
709.714	14938.51281
709.909	14724.04039
710.104	14693.68985
710.299	14689.64309
710.494	14384.0999
710.689	14687.61971
710.884	14475.15892
711.079	14649.17534
711.274	14695.71322
711.469	14772.60086
711.664	14505.51128
711.859	14956.72245
712.054	14800.92759
712.249	14632.98812
712.443	14428.61802
712.638	14458.97087
712.833	14201.9718
713.028	14543.95718
713.223	14580.3792
713.417	14665.36249
713.612	14521.69909
713.807	14635.01153
714.002	14537.88681
714.196	14788.78758
714.391	14436.71215
714.586	14831.27751
714.78	14944.5827
714.975	14817.11423
715.17	14390.1706
715.364	14562.16824
715.559	14432.66509
715.754	14206.01926
715.948	14076.49657
716.143	14234.35122
716.337	14088.6397
716.532	14501.46432
716.726	14645.12854
716.921	14592.51979
717.115	14371.95847
717.31	14400.2884
717.504	14630.96472
717.699	14580.3792
717.893	14531.81642
718.088	14752.36738
718.282	14679.52619
718.476	14201.9718
718.671	14214.11414
718.865	14183.75816
719.059	14282.91942
719.254	14203.99553
719.448	13789.08285
719.642	14068.40111
719.837	13612.96261
720.031	14141.25901
720.225	13985.4204
720.419	13819.44605
720.614	13627.13412
720.808	14208.04298
721.002	13918.62802
721.196	14082.56815
721.39	13813.37346
721.585	13951.01255
721.779	14044.11449
721.973	14143.2828
722.167	13655.47663
722.361	13562.34872
722.555	13851.83273
722.749	13706.08667
722.943	13499.58441
723.137	13562.34872
723.331	13961.13259
723.525	13572.47167
723.719	13631.18309
723.913	13841.71197
724.107	13406.44367
724.301	13710.13538
724.495	13693.94044
724.689	13811.34926
724.883	13471.23808
725.077	13529.95467
725.271	13349.74525
725.465	13461.11421
725.659	13473.26284
725.853	13930.7723
726.046	13548.17643
726.24	13857.90516
726.434	13582.59454
726.628	13617.01163
726.822	13232.28821
727.015	13730.37877
727.209	13438.84137
727.403	13661.54994
727.596	13384.16967
727.79	13414.54319
727.984	13406.44367
728.177	13426.69235
728.371	13309.24443
728.565	13697.9892
728.758	13623.08513
728.952	13651.42774
729.146	13226.21245
729.339	13805.27664
729.533	13821.47024
729.726	13819.44605
729.92	13623.08513
730.113	13870.04993
730.307	13534.00397
730.5	13697.9892
730.694	13471.23808
730.887	13841.71197
731.081	13606.88906
731.274	13574.49625
731.468	13582.59454
731.661	13785.03438
731.854	13643.32992
732.048	13641.30546
732.241	13586.64366
732.435	13732.40309
732.628	13863.97755
732.821	13807.30085
733.014	13556.2749
733.208	13833.61531
733.401	13817.42185
733.594	13475.2876
733.788	13878.14638
733.981	13908.50771
734.174	13570.44709
734.367	13404.41878
734.56	13416.56806
734.754	13558.29951
734.947	13207.98494
735.14	13157.35105
735.333	13394.29427
735.526	13639.28099
735.719	13157.35105
735.912	12928.44874
736.105	13135.07123
736.298	12853.48431
736.491	13023.66354
736.684	13120.89288
736.877	13226.21245
737.07	13374.04496
737.263	13282.918
737.456	13189.75707
737.649	13319.36979
737.842	13335.57016
738.035	13303.16917
738.228	13406.44367
738.421	13550.20106
738.614	13325.44496
738.807	13430.74203
739	12995.30286
739.192	12869.69346
739.385	13228.23771
739.578	13280.89286
739.771	13301.14407
739.964	12985.17381
740.156	13303.16917
740.349	13100.63768
740.542	13347.72025
740.735	13145.19849
740.927	12968.96706
741.12	12924.3968
741.313	12833.22239
741.505	13072.2796
741.698	12871.71958
741.891	12780.53881
742.083	13082.40759
742.276	13082.40759
742.468	12966.94119
742.661	12626.51841
742.854	12567.73835
743.046	12975.04462
743.239	12561.65736
743.431	12695.42647
743.624	12667.0534
743.816	12699.47967
744.009	13056.07456
744.201	12417.72369
744.393	12460.29904
744.586	12679.21343
744.778	12760.27489
744.971	12577.87322
745.163	12701.50626
745.355	12835.24861
745.548	12588.00793
745.74	12902.11072
745.932	13056.07456
746.125	12624.4916
746.317	12689.34662
746.509	12764.32772
746.702	12683.26672
746.894	12476.51745
747.086	12482.59925
747.278	12675.16011
747.471	12472.46289
747.663	12498.81709
747.855	12673.13344
748.047	12849.43197
748.239	12752.16916
748.431	12553.54928
748.623	12731.90443
748.815	12350.8136
749.008	12894.00653
749.2	12452.18967
749.392	12656.91988
749.584	12328.50858
749.776	12675.16011
749.968	12581.92712
750.16	12642.7327
750.352	12239.28
750.544	12555.57631
750.736	12600.16937
750.928	12610.30374
751.12	12257.53242
751.311	12135.83845
751.503	12277.81221
751.695	12537.33282
751.887	12257.53242
752.079	12338.64733
752.271	12399.47622
752.463	12515.03452
752.654	12535.30573
752.846	12466.38099
753.038	12332.5641
753.23	12154.09424
753.421	12180.46265
753.613	12367.03491
753.805	12277.81221
753.997	12176.40606
754.188	12482.59925
754.38	12050.63662
754.572	12486.65375
754.763	12269.70038
754.955	12062.80914
755.146	11965.42105
755.338	11863.95539
755.53	12083.09606
755.721	12119.61057
755.913	12239.28
756.104	11904.54412
756.296	12014.11737
756.487	11660.96058
756.679	11660.96058
756.87	11774.64835
757.062	11346.13854
757.253	11782.76785
757.445	11628.47323
757.636	11693.44563
757.827	11709.6873
758.019	11772.61845
758.21	11831.48201
758.401	11675.17307
758.593	11652.83896
758.784	11656.89979
758.975	12105.41077
759.167	11969.47925
759.358	11857.8668
759.549	11474.12606
759.74	11636.59528
759.932	11571.61474
760.123	11671.1124
760.314	11360.3613
760.505	11352.23407
760.696	11230.30617
760.888	11378.647
761.079	11128.67116
761.27	11677.20339
761.461	11598.01422
761.652	11557.39899
761.843	11575.6763
762.034	11662.99096
762.225	11268.92064
762.416	11541.15186
762.607	10988.37078
762.798	11193.7206
762.989	11356.2977
763.18	11396.93189
763.371	11181.52465
763.562	11368.48838
763.753	11242.50062
763.944	11411.15292
764.135	11394.90027
764.326	11581.76857
764.517	11350.20223
764.708	11285.17826
764.899	11088.00972
765.089	11022.94238
765.28	11053.44409
765.471	10768.66283
765.662	10607.8634
765.853	11049.37733
766.043	11132.73707
766.234	11000.57288
766.425	10939.55831
766.615	11045.31054
766.806	11096.14235
766.997	10786.97699
767.187	10970.06686
767.378	11234.37103
767.569	10984.30332
767.759	11173.39381
767.95	10868.36178
768.141	11104.27481
768.331	10616.00697
768.522	10725.92603
768.712	10603.79154
768.903	10746.27754
769.093	10436.80192
769.284	10493.83236
769.474	10687.25485
769.665	10607.8634
769.855	10326.78583
770.046	10440.87585
770.236	10171.88239
770.426	10180.03717
770.617	10457.17109
770.807	10442.9128
770.998	10322.71042
771.188	10269.72524
771.378	10332.89884
771.569	10508.08841
771.759	10440.87585
771.949	10587.5036
772.139	10581.39541
772.33	10180.03717
772.52	10326.78583
772.71	10563.07019
772.9	10173.92111
773.09	10499.94217
773.281	10481.6124
773.471	10512.16145
773.661	10432.72793
773.851	10275.83938
774.041	9978.14054
774.231	10000.58037
774.421	9992.42064
774.611	10092.36167
774.802	9861.83321
774.992	10094.40093
775.182	10098.47941
775.372	9965.8999
775.562	9884.2822
775.752	10037.29635
775.942	9882.24146
776.131	10069.9289
776.321	9731.18506
776.511	10127.02716
776.701	9774.06079
776.891	10045.45483
777.081	9784.26831
777.271	9953.65873
777.461	9978.14054
777.651	9821.01227
777.84	9649.49836
778.03	9543.26849
778.22	9594.34584
778.41	9665.83768
778.599	9559.61431
778.789	9914.89158
778.979	10098.47941
779.169	9843.46453
779.358	9727.10131
779.548	9908.76997
779.738	9863.8741
779.927	9961.81957
780.117	9861.83321
780.307	9896.52635
780.496	9733.22692
780.686	9706.68163
780.875	9592.30293
781.065	9774.06079
781.254	9389.9766
781.444	9622.94486
781.633	9739.35238
781.823	9684.21822
782.012	9412.46509
782.202	9555.52795
782.391	9453.34823
782.581	9402.24329
782.77	9232.50128
782.96	9418.59798
783.149	9314.31891
783.338	9363.39673
783.528	9060.59611
783.717	9269.32252
783.906	9056.50165
784.096	9218.18044
784.285	9142.47077
784.474	9183.3978
784.663	9169.07411
784.853	9050.35983
785.042	9218.18044
785.231	9183.3978
785.42	9273.41344
785.61	9130.19132
785.799	9044.21786
785.988	9126.09804
786.177	9007.36271
786.366	9191.58239
786.555	8831.19799
786.744	8939.78016
786.933	8763.56466
787.122	8794.30953
787.312	8872.1783
787.501	8859.88497
787.69	8695.91144
787.879	8917.24837
788.068	8773.8134
788.257	8700.0122
788.445	8576.95694
788.634	9011.458
788.823	8995.0764
789.012	8909.05445
789.201	8603.62462
789.39	8685.6592
789.579	8708.21351
789.768	8734.86573
789.957	8548.23436
790.145	8843.49284
790.334	8638.49296
790.523	8583.1113
790.712	8540.02722
790.9	8722.56509
791.089	8486.67347
791.278	8685.6592
791.467	8449.72872
791.655	8388.14031
791.844	8546.1826
792.033	8441.51793
792.221	8248.47526
792.41	8511.29988
792.599	8219.70943
792.787	8262.85673
792.976	8001.78406
793.164	8314.21124
793.353	8098.43921
793.541	8217.65458
793.73	7987.38478
793.918	8223.81907
794.107	8042.91938
794.295	7958.58321
794.484	8016.18235
794.672	8081.99042
794.861	8108.71905
795.049	8225.87387
795.238	8297.77913
795.426	8414.83075
795.614	8215.59971
795.803	8012.06865
795.991	8145.72231
796.179	8020.29596
796.368	7911.25764
796.556	7903.02599
796.744	7874.21263
796.932	8133.38861
797.121	7896.85204
797.309	8028.52294
797.497	7785.68906
797.685	7746.56171
797.874	7795.98448
798.062	7855.68762
798.25	7705.36684
798.438	7649.74038
798.626	7748.62124
798.814	7719.786
799.002	7589.97622
799.19	7800.1025
799.378	7548.7491
799.566	7639.43749
799.755	7715.66635
799.943	7824.80887
800.131	7824.80887
800.318	8059.37123
800.506	7742.4426
800.694	7587.91506
800.882	7519.88501
801.07	7616.76926
801.258	7730.08477
801.446	7892.73597
801.634	7495.14102
801.822	7513.6993
802.01	7261.98179
802.197	7874.21263
802.385	7616.76926
802.573	7923.60449
802.761	7458.0192
802.949	7645.61929
803.136	7536.37929
803.324	7721.8458
803.512	7540.50264
803.699	8053.20194
803.887	7653.86139
804.075	7719.786
804.262	7412.63857
804.45	7833.04366
804.638	7760.97793
804.825	7721.8458
805.013	7521.94687
805.201	7396.13391
805.388	7478.64329
805.576	7585.85389
805.763	7552.87219
805.951	7804.22044
806.138	7767.156
806.326	7556.99521
806.513	7480.70558
806.701	7660.04274
806.888	7524.00871
807.075	7835.10231
807.263	7569.36373
807.45	7690.94665
807.638	7507.5134
807.825	7927.71994
808.012	7575.5477
808.2	7835.10231
808.387	7666.2239
808.574	7651.8009
808.761	7431.20464
808.949	7418.82745
809.136	7476.58098
809.323	7637.37685
809.51	7305.33337
809.698	7583.79269
809.885	7635.31619
810.072	7581.73148
810.259	7392.00753
810.446	7569.36373
810.633	7575.5477
810.82	7808.33829
811.008	7857.74604
811.195	7938.00821
811.382	7511.63736
811.569	7824.80887
811.756	7583.79269
811.943	7614.70839
812.13	7464.20665
812.317	7589.97622
812.504	7585.85389
812.691	7573.48639
812.878	7505.45139
813.064	7517.82313
813.251	7284.69097
813.438	7670.34457
813.625	7521.94687
813.812	7517.82313
813.999	7507.5134
814.186	7622.95176
814.372	7721.8458
814.559	7680.64587
814.746	7445.6437
814.933	7707.42679
815.12	7400.26021
815.306	7305.33337
815.493	7235.14023
815.68	7561.11813
815.866	7295.01244
816.053	7682.70607
816.24	7639.43749
816.426	7622.95176
816.613	7550.81066
816.799	7583.79269
816.986	7511.63736
817.173	7948.29597
817.359	7394.07073
817.546	7476.58098
817.732	7266.11093
817.919	7606.46467
818.105	7577.60898
818.292	7596.15955
818.478	7550.81066
818.665	7614.70839
818.851	7519.88501
819.037	7509.57539
819.224	7402.32332
819.41	7573.48639
819.597	7076.0788
819.783	7177.31495
819.969	7241.33477
820.156	7381.6912
820.342	7404.38641
820.528	7686.8264
820.714	7379.62787
820.901	7526.07053
821.087	7307.39749
821.273	7734.20413
821.459	7387.88107
821.646	7445.6437
821.832	7387.88107
822.018	7379.62787
822.204	7131.86861
822.39	7416.76451
822.576	7276.43339
822.762	7321.84571
822.948	7237.2051
823.134	7509.57539
823.32	7164.92156
823.507	7639.43749
823.693	7193.83823
823.879	7239.26994
824.065	7138.06647
824.25	7323.90965
824.436	7148.39579
824.622	7105.00888
824.808	7071.94558
824.994	6904.47439
825.18	6734.78424
825.366	6873.44495
825.552	6939.63493
825.738	6972.72124
825.923	6817.57906
826.109	6863.10066
826.295	6732.7139
826.481	6933.4306
826.667	6829.99514
826.852	6966.518
827.038	6633.31061
827.224	7131.86861
827.409	6745.13559
827.595	6796.88378
827.781	6759.62653
827.966	7133.93458
828.152	6709.93865
828.338	7003.73441
828.523	6672.66408
828.709	6958.24669
828.894	6757.55646
829.08	6908.61126
829.266	6643.66759
829.451	6923.08961
829.637	6419.82821
829.822	6767.90656
830.008	6974.78894
830.193	6796.88378
830.378	6585.66108
830.564	6892.06322
830.749	6672.66408
830.935	6593.94883
831.12	6490.32532
831.305	6361.75157
831.491	6446.78616
831.676	6370.04935
831.861	6326.48183
832.047	6689.23147
832.232	6542.14431
832.417	6877.5825
832.602	6392.86633
832.788	6589.805
832.973	6320.25706
833.158	6365.90051
833.343	6417.75436
833.528	6552.50637
833.714	6206.09892
833.899	6407.38476
834.084	6164.56929
834.269	6386.6438
834.454	6170.79934
834.639	6316.1071
834.824	6336.85599
835.009	6515.20024
835.194	6282.90401
835.379	6506.90897
835.564	6112.64405
835.749	6446.78616
835.934	6349.3042
836.119	6359.67707
836.304	5921.43251
836.489	5804.94518
836.674	5908.95526
836.859	5998.35677
837.044	5836.1544
837.228	5921.43251
837.413	5736.26621
837.598	5942.22603
837.783	5563.41458
837.968	5963.0172
838.152	5700.8761
838.337	6100.1798
838.522	5792.46001
838.707	6145.8779
838.891	5754.99938
839.076	6046.15829
839.261	5584.24869
839.445	6008.74947
839.63	5800.78355
839.815	6104.33465
839.999	5759.16205
840.184	6008.74947
840.368	5886.07811
840.553	6100.1798
840.737	5625.90982
840.922	5958.85915
841.106	5757.08073
841.291	5873.59845
841.475	5659.23194
841.66	6021.21992
841.844	5817.42951
842.029	5863.19809
842.213	5600.91427
842.397	5475.88562
842.582	5394.57155
842.766	5584.24869
842.951	5413.33951
843.135	5825.75192
843.319	5600.91427
843.504	5450.86971
843.688	5363.2874
843.872	5675.89074
844.056	5250.62079
844.241	5617.57835
844.425	5300.70327
844.609	5492.561
844.793	5263.14267
844.977	5425.85042
845.161	5083.58217
845.346	5281.92392
845.53	5083.58217
845.714	5254.79485
845.898	5133.70939
846.082	5144.15088
846.266	5054.33512
846.45	5217.22499
846.634	5192.17423
846.818	5344.51438
847.002	5016.72511
847.186	5177.55973
847.37	4891.30447
847.554	5210.96262
847.738	4993.73753
847.922	5127.44422
848.106	5033.44159
848.29	5102.38144
848.473	5041.79928
848.657	5102.38144
848.841	5060.60272
849.025	5267.31645
849.209	5091.93763
849.392	5233.92364
849.576	4809.73681
849.76	5016.72511
849.944	4767.89381
850.127	5033.44159
850.311	4826.47147
850.495	4914.30445
850.678	4719.76314
850.862	4843.20467
851.046	4765.80142
851.229	5050.1566
851.413	4656.96606
851.596	4700.92614
851.78	4677.90067
851.964	4761.61657
852.147	4407.67333
852.331	4552.25945
852.514	4374.1312
852.698	4759.52412
852.881	4602.52559
853.065	4895.48649
853.248	4726.04173
853.431	4744.87628
853.615	4552.25945
853.798	4665.34018
853.982	4453.78462
854.165	4757.43164
854.348	4594.14879
854.532	4644.40422
854.715	4388.80657
854.898	4569.01626
855.081	4193.74761
855.265	4583.67729
855.448	4342.6804
855.631	4332.19572
855.814	4221.02505
855.997	4518.74158
856.181	4107.69541
856.364	4223.12317
856.547	4170.66391
856.73	4380.42077
856.913	4116.0923
857.096	4369.93804
857.279	4229.41739
857.462	4214.73058
857.645	4013.20751
857.828	4067.80563
858.011	3931.28434
858.194	4363.64814
858.377	4153.87416
858.56	4187.45231
858.743	4250.39673
858.926	4363.64814
859.109	4200.04272
859.292	4212.63237
859.475	4080.40322
859.658	4313.32194
859.841	3855.63567
860.023	4006.90683
860.206	4105.59614
860.389	4095.09945
860.572	3939.68814
860.755	4128.68701
860.937	3897.66592
861.12	4101.39753
861.303	3735.80605
861.486	4076.20411
861.668	3740.01168
861.851	3836.71946
862.034	3670.60903
862.216	3870.34717
862.399	3449.64616
862.581	3977.50122
862.764	3474.90931
862.947	3674.81585
863.129	3556.99647
863.312	3733.70321
863.494	3742.11446
863.677	3752.62808
863.859	3613.8096
864.042	3624.32905
864.224	3578.03995
864.406	3556.99647
864.589	3253.77075
864.771	3529.63718
864.954	3485.43485
865.136	3569.62278
865.318	3584.35264
865.501	3523.32305
865.683	3329.61128
865.865	3828.31174
866.048	3500.16986
866.23	3506.48458
866.412	3643.26288
866.594	3561.20532
866.777	3506.48458
866.959	3556.99647
867.141	3407.53519
867.323	3481.22469
867.505	3201.09086
867.687	3506.48458
867.869	3302.22697
868.052	3594.8734
868.234	3485.43485
868.416	3542.26493
868.598	3255.87773
868.78	3392.79467
868.962	3180.016
869.144	3346.46172
869.326	2983.94333
869.508	3279.05338
869.69	3068.29229
869.872	3314.86625
870.054	2996.59723
870.236	3243.2356
870.417	3222.16406
870.599	3310.65322
870.781	3152.61625
870.963	3375.9473
871.145	3127.32174
871.327	3203.19825
871.508	2954.41545
871.69	3291.69377
871.872	3076.72583
872.054	3247.44971
872.235	2971.28888
872.417	3363.31104
872.599	3076.72583
872.78	3287.48038
872.962	3061.96698
873.144	3285.37365
873.325	2964.96145
873.507	3441.22454
873.689	3120.99775
873.87	3405.42945
874.052	3255.87773
874.233	3373.8413
874.415	3220.05681
874.596	3268.51924
874.778	3038.77295
874.959	3203.19825
875.141	2933.32232
875.322	3076.72583
875.503	2903.78948
875.685	3194.76857
875.866	3028.2296
876.048	3287.48038
876.229	2941.75975
876.41	2933.32232
876.592	2910.11818
876.773	3152.61625
876.954	3053.533
877.136	3249.55674
877.317	2954.41545
877.498	3104.13308
877.679	3011.35943
877.86	3215.84227
878.042	2988.16135
878.223	3270.6261
878.404	2950.19694
878.585	3055.64152
878.766	2950.19694
878.947	3154.72402
879.128	2960.7431
879.309	3152.61625
879.49	3038.77295
879.672	3152.61625
879.853	3061.96698
880.034	3257.98469
880.215	3055.64152
880.396	3089.37566
880.576	3064.07543
880.757	3264.30547
880.938	2867.92435
881.119	3224.27129
881.3	2967.07061
881.481	3224.27129
881.662	3045.09878
881.843	3045.09878
882.023	2960.7431
882.204	3251.66375
882.385	2832.05511
882.566	3169.47796
882.747	2914.33725
882.927	2994.48828
883.108	2983.94333
883.289	3234.80719
883.469	3013.46825
883.65	2994.48828
883.831	3190.55363
884.011	3169.47796
884.192	3034.55566
884.373	3215.84227
884.553	2908.00863
884.734	3059.85851
884.914	2967.07061
885.095	3382.26519
885.275	3051.42447
885.456	3120.99775
885.636	2918.55626
885.817	3148.40066
885.997	2994.48828
886.178	3055.64152
886.358	2878.47335
886.538	3196.87602
886.719	2889.02199
886.899	3066.18387
887.08	3169.47796
887.26	3087.2674
887.44	2800.40243
887.621	3059.85851
887.801	3047.20736
887.981	2891.13167
888.161	2920.66574
888.342	3102.02493
888.522	3080.9425
888.702	3177.90843
888.882	3150.50846
889.062	3194.76857
889.242	2971.28888
889.423	3085.15911
889.603	2692.76053
889.783	3158.93951
889.963	3009.25059
890.143	3026.12088
890.323	2819.39441
890.503	3036.66431
890.683	2865.81451
890.863	3161.04723
891.043	2882.69285
891.223	3291.69377
891.403	2901.67988
891.583	3245.34267
891.763	2760.3046
891.943	3110.45745
892.122	3036.66431
892.302	2950.19694
892.482	2983.94333
892.662	2988.16135
892.842	2798.29214
893.022	3112.56554
893.201	2933.32232
893.381	2853.15516
893.561	2772.9676
893.741	2910.11818
893.92	2705.42607
894.1	3053.533
894.28	2891.13167
894.459	3095.70037
894.639	2958.63389
894.819	3120.99775
894.998	2954.41545
895.178	3055.64152
895.357	2718.09113
895.537	2775.07806
895.716	2523.84382
895.896	2912.22772
896.075	2749.75173
896.255	2684.31658
896.434	2540.73895
896.614	2734.97716
896.793	2570.30363
896.973	2796.18184
897.152	2540.73895
897.331	2606.20047
897.511	2367.5302
897.69	2515.39598
897.87	2340.06377
898.049	2661.09467
898.228	2397.10753
898.407	2452.03142
898.587	2481.60279
898.766	2701.20427
898.945	2352.74079
899.124	2549.18624
899.304	2346.40233
899.483	2490.05136
899.662	2225.95509
899.841	2365.41746
900.02	2325.27346
900.199	2680.09453
900.378	2422.45791
900.557	2502.72387
900.737	2234.4085
900.916	2511.17199
901.095	2314.70866
901.274	2502.72387
901.453	2259.76788
901.632	2359.07917
901.811	2082.22672
901.989	2498.49975
902.168	2164.66374
902.347	2236.52183
902.526	2016.69184
902.705	2158.32286
902.884	2029.37653
903.063	2192.14005
903.242	1891.94708
903.42	2118.16225
903.599	1913.09169
903.778	2097.02396
903.957	1957.49353
904.135	2103.36553
904.314	1927.89259
904.493	2020.92009
904.672	1965.95074
904.85	1997.66436
905.029	1826.39554
905.207	1982.86484
905.386	1839.0833
905.565	1930.00698
905.743	1750.26573
905.922	1820.0516
906.1	1674.13114
906.279	1875.03101
906.457	1420.33006
906.636	1712.19896
906.814	1612.79784
906.993	1665.6715
907.171	1593.76299
907.35	1581.073
907.528	1602.22294
907.707	1661.44167
907.885	1619.14275
908.063	1559.9229
908.242	1445.71067
908.42	1674.13114
908.598	1416.09996
908.777	1498.58693
908.955	1335.72873
909.133	1538.77267
909.311	1270.16431
909.49	1640.29233
909.668	1449.94078
909.846	1500.70198
910.024	1268.04936
910.202	1727.00283
910.38	1437.25046
910.559	1625.48765
910.737	1249.01495
910.915	1511.2772
911.093	1325.1537
911.271	1536.65764
911.449	1229.98077
911.627	1422.44511
911.805	1388.60438
911.983	1452.05583
912.161	1314.57871
912.339	1591.64799
912.517	1437.25046
912.695	1568.38296
912.872	1526.08247
913.05	1600.10795
913.228	1331.49871
913.406	1490.12675
913.584	1316.6937
913.762	1492.24179
913.939	1454.17088
914.117	1462.63109
914.295	1295.54385
914.473	1433.02036
914.65	1191.91316
914.828	1399.17959
915.006	1206.7171
915.184	1502.81702
915.361	1249.01495
915.539	1363.22397
915.716	1420.33006
915.894	1378.0292
916.072	1185.56866
916.249	1411.86987
916.427	1388.60438
916.604	1494.35684
916.782	1335.72873
916.959	1437.25046
917.137	1196.14284
917.314	1498.58693
917.492	1194.028
917.669	1452.05583
917.847	1223.6361
918.024	1386.48934
918.201	1204.60224
918.379	1386.48934
918.556	1014.28238
918.733	1422.44511
918.911	1187.68349
919.088	1517.62232
919.265	1280.73908
919.442	1394.94951
919.62	1155.96146
919.797	1308.23374
919.974	1073.48874
920.151	1126.35506
920.328	933.93875
920.506	1232.09567
920.683	1128.46978
920.86	1166.53538
921.037	1016.39682
921.214	1198.25768
921.391	955.08085
921.568	1174.99458
921.745	971.99504
921.922	1079.83253
922.099	1029.08355
922.276	1227.86588
922.453	1132.69922
922.63	1217.29145
922.807	887.42878
922.984	1048.11404
923.161	929.71042
923.338	1079.83253
923.514	969.88074
923.691	1092.52026
923.868	948.73815
924.045	978.33798
924.222	897.9989
924.399	927.59627
924.575	760.60439
924.752	923.36798
924.929	760.60439
925.105	959.30936
925.282	904.34106
925.459	963.53789
925.635	811.33018
925.812	752.15065
925.989	726.79042
926.165	811.33018
926.342	815.55758
926.518	866.28916
926.695	747.92384
926.871	741.5837
927.048	667.62264
927.224	794.42096
927.401	716.2241
927.577	760.60439
927.754	627.47824
927.93	802.8755
928.107	796.53458
928.283	682.41375
928.459	701.43172
928.636	684.52681
928.812	657.0579
928.988	623.25277
929.165	616.91466
929.341	669.73562
929.517	627.47824
929.693	678.18766
929.87	570.43868
930.046	701.43172
930.222	536.64201
930.398	604.23877
930.574	619.02735
930.751	625.3655
930.927	509.18483
931.103	498.62502
931.279	490.17744
931.455	551.42762
931.631	460.61277
931.807	515.52089
931.983	585.22581
932.159	532.41767
932.335	346.60661
932.511	561.98919
932.687	485.95373
932.863	485.95373
933.039	401.49252
933.215	507.07284
933.391	452.16626
933.566	475.39473
933.742	431.05109
933.918	540.8664
934.094	325.49973
934.27	369.82618
934.445	274.85054
934.621	388.82553
934.797	327.61034
934.973	298.06345
935.148	302.28422
935.324	323.38914
935.5	279.07091
935.675	361.38246
935.851	228.43158
936.027	359.27157
936.202	287.51185
936.378	207.33515
936.553	262.18991
936.729	253.74986
936.904	236.87069
937.08	209.44471
937.255	122.96987
937.431	203.11611
937.606	152.49392
937.782	186.24073
937.957	127.18734
938.133	135.62252
938.308	101.88386
938.483	241.09037
938.659	72.36716
938.834	173.58505
939.009	224.21213
939.185	139.84024
939.36	169.36666
939.535	154.60294
939.71	171.47585
939.886	118.75249
940.061	156.71198
940.236	49.17857
940.411	135.62252
940.586	150.38492
940.761	122.96987
940.937	93.45007
941.112	118.75249
941.287	101.88386
941.462	133.51369
941.637	148.27594
941.812	80.80005
941.987	32.3159
942.162	93.45007
942.337	99.77538
942.512	34.42366
942.687	110.318
942.862	137.73137
943.037	152.49392
943.212	63.93463
943.386	101.88386
943.561	101.88386
943.736	165.14835
943.911	66.04272
944.086	89.23331
944.26	87.12496
944.435	99.77538
944.61	61.82655
944.785	97.66692
944.959	156.71198
945.134	97.66692
945.309	144.05805
945.483	118.75249
945.658	118.75249
945.833	76.58356
946.007	82.90833
946.182	57.61047
946.357	68.15085
946.531	76.58356
946.706	85.01664
946.88	131.40488
947.055	59.7185
947.229	76.58356
947.404	106.10089
947.578	106.10089
947.752	38.63923
947.927	137.73137
948.101	97.66692
948.276	68.15085
948.45	78.6918
948.624	152.49392
948.799	133.51369
948.973	51.28651
949.147	114.5352
949.321	118.75249
949.496	129.2961
949.67	118.75249
949.844	110.318
950.018	72.36716
950.193	139.84024
950.367	95.55848
950.541	122.96987
950.715	38.63923
950.889	49.17857
951.063	68.15085
951.237	120.86117
951.411	99.77538
951.585	55.50246
951.759	108.20943
951.933	152.49392
952.107	156.71198
952.281	184.1314
952.455	63.93463
952.629	93.45007
952.803	101.88386
952.977	163.03922
953.151	89.23331
953.325	89.23331
953.499	74.47535
953.672	89.23331
953.846	85.01664
954.02	127.18734
954.194	93.45007
954.368	137.73137
954.541	0.70246
954.715	135.62252
954.889	148.27594
955.062	101.88386
955.236	99.77538
955.41	175.69428
955.583	70.25899
955.757	158.82104
955.93	85.01664
956.104	99.77538
956.278	68.15085
956.451	120.86117
956.625	21.7775
956.798	51.28651
956.972	89.23331
957.145	61.82655
957.319	49.17857
957.492	139.84024
957.665	74.47535
957.839	139.84024
958.012	95.55848
958.185	53.39447
958.359	87.12496
958.532	137.73137
958.705	141.94913
958.879	118.75249
959.052	36.53143
959.225	47.07066
959.398	85.01664
959.572	110.318
959.745	106.10089
959.918	63.93463
960.091	93.45007
960.264	144.05805
960.438	2.80986
960.611	120.86117
960.784	97.66692
960.957	82.90833
961.13	89.23331
961.303	133.51369
961.476	116.64384
961.649	112.42659
961.822	131.40488
961.995	144.05805
962.168	57.61047
962.341	80.80005
962.514	89.23331
962.686	127.18734
962.859	95.55848
963.032	61.82655
963.205	118.75249
963.378	93.45007
963.551	68.15085
963.723	78.6918
963.896	93.45007
964.069	163.03922
964.242	154.60294
964.414	76.58356
964.587	127.18734
964.76	120.86117
964.932	47.07066
965.105	93.45007
965.278	93.45007
965.45	122.96987
965.623	97.66692
965.795	55.50246
965.968	114.5352
966.14	87.12496
966.313	120.86117
966.485	9.13219
966.658	118.75249
966.83	91.34168
967.003	17.5623
967.175	53.39447
967.348	97.66692
967.52	59.7185
967.692	103.99236
967.865	78.6918
968.037	-22.47729
968.209	13.34719
968.382	110.318
968.554	78.6918
968.726	95.55848
968.898	21.7775
969.071	78.6918
969.243	36.53143
969.415	51.28651
969.587	135.62252
969.759	122.96987
969.932	116.64384
970.104	93.45007
970.276	85.01664
970.448	72.36716
970.62	103.99236
970.792	59.7185
970.964	61.82655
971.136	97.66692
971.308	163.03922
971.48	95.55848
971.652	106.10089
971.824	42.8549
971.996	87.12496
972.168	59.7185
972.339	36.53143
972.511	160.93012
972.683	74.47535
972.855	87.12496
973.027	144.05805
973.199	118.75249
973.37	108.20943
973.542	106.10089
973.714	144.05805
973.886	91.34168
974.057	78.6918
974.229	131.40488
974.401	76.58356
974.572	106.10089
974.744	13.34719
974.915	30.20817
975.087	-9.83416
975.259	76.58356
975.43	97.66692
975.602	154.60294
975.773	110.318
975.945	89.23331
976.116	51.28651
976.288	120.86117
976.459	114.5352
976.63	112.42659
976.802	38.63923
976.973	108.20943
977.145	78.6918
977.316	47.07066
977.487	82.90833
977.659	87.12496
977.83	55.50246
978.001	55.50246
978.172	63.93463
978.344	78.6918
978.515	68.15085
978.686	32.3159
978.857	125.07859
979.028	11.23968
979.2	-5.61958
979.371	72.36716
979.542	76.58356
979.713	93.45007
979.884	59.7185
980.055	32.3159
980.226	47.07066
980.397	70.25899
980.568	80.80005
980.739	53.39447
980.91	89.23331
981.081	44.96277
981.252	103.99236
981.423	49.17857
981.594	93.45007
981.765	51.28651
981.936	76.58356
982.106	17.5623
982.277	19.66988
982.448	63.93463
982.619	76.58356
982.79	122.96987
982.96	68.15085
983.131	15.45473
983.302	57.61047
983.472	51.28651
983.643	85.01664
983.814	34.42366
983.984	61.82655
984.155	59.7185
984.326	87.12496
984.496	17.5623
984.667	93.45007
984.837	40.74705
985.008	127.18734
985.178	101.88386
985.349	70.25899
985.519	82.90833
985.69	103.99236
985.86	-18.26301
986.031	68.15085
986.201	72.36716
986.371	72.36716
986.542	0.70246
986.712	99.77538
986.882	55.50246
987.053	57.61047
987.223	44.96277
987.393	49.17857
987.563	97.66692
987.734	30.20817
987.904	13.34719
988.074	-5.61958
988.244	78.6918
988.414	36.53143
988.585	30.20817
988.755	95.55848
988.925	25.99279
989.095	23.88513
989.265	93.45007
989.435	-22.47729
989.605	76.58356
989.775	93.45007
989.945	93.45007
990.115	144.05805
990.285	63.93463
990.455	44.96277
990.625	76.58356
990.795	87.12496
990.965	103.99236
991.134	17.5623
991.304	25.99279
991.474	32.3159
991.644	87.12496
991.814	23.88513
991.984	70.25899
992.153	78.6918
992.323	68.15085
992.493	118.75249
992.662	19.66988
992.832	-1.40491
993.002	70.25899
993.171	93.45007
993.341	70.25899
993.511	110.318
993.68	21.7775
993.85	-43.54722
994.019	76.58356
994.189	55.50246
994.358	38.63923
994.528	25.99279
994.697	38.63923
994.867	72.36716
995.036	51.28651
995.206	34.42366
995.375	57.61047
995.544	68.15085
995.714	-60.40135
995.883	76.58356
996.052	61.82655
996.222	59.7185
996.391	23.88513
996.56	42.8549
996.73	17.5623
996.899	30.20817
997.068	-24.5844
997.237	70.25899
997.406	34.42366
997.576	57.61047
997.745	21.7775
997.914	17.5623
998.083	11.23968
998.252	11.23968
998.421	47.07066
998.59	68.15085
998.759	30.20817
998.928	-30.90556
999.097	28.10047
999.266	63.93463
999.435	34.42366
999.604	-35.11954
999.773	-37.2265
999.942	101.88386
1000.111	13.34719
1000.28	-51.97449
1000.448	-58.29468
1000.617	47.07066
1000.786	11.23968
1000.955	9.13219
1001.124	97.66692
1001.292	51.28651
1001.461	91.34168
1001.63	40.74705
1001.798	-24.5844
1001.967	25.99279
1002.136	53.39447
1002.304	28.10047
1002.473	38.63923
1002.642	28.10047
1002.81	59.7185
1002.979	36.53143
1003.147	47.07066
1003.316	28.10047
1003.484	51.28651
1003.653	89.23331
1003.821	68.15085
1003.99	80.80005
1004.158	28.10047
1004.327	120.86117
1004.495	76.58356
1004.663	-3.51226
1004.832	21.7775
1005	-16.15583
1005.168	15.45473
1005.337	47.07066
1005.505	38.63923
1005.673	11.23968
1005.842	59.7185
1006.01	38.63923
1006.178	28.10047
1006.346	0.70246
1006.514	-24.5844
1006.683	106.10089
1006.851	-30.90556
1007.019	72.36716
1007.187	38.63923
1007.355	59.7185
1007.523	44.96277
1007.691	55.50246
1007.859	4.91728
1008.027	0.70246
1008.195	114.5352
1008.363	-35.11954
1008.531	-11.94141
1008.699	76.58356
1008.867	59.7185
1009.035	11.23968
1009.203	93.45007
1009.37	38.63923
1009.538	68.15085
1009.706	25.99279
1009.874	87.12496
1010.042	42.8549
1010.209	34.42366
1010.377	78.6918
1010.545	63.93463
1010.713	53.39447
1010.88	38.63923
1011.048	68.15085
1011.216	34.42366
1011.383	-18.26301
1011.551	-11.94141
1011.718	11.23968
1011.886	55.50246
1012.054	72.36716
1012.221	78.6918
1012.389	42.8549
1012.556	17.5623
1012.724	7.02472
1012.891	112.42659
1013.058	68.15085
1013.226	25.99279
1013.393	72.36716
1013.561	78.6918
1013.728	76.58356
1013.895	95.55848
1014.063	25.99279
1014.23	76.58356
1014.397	61.82655
1014.565	-20.37016
1014.732	55.50246
1014.899	9.13219
1015.066	74.47535
1015.233	127.18734
1015.401	-16.15583
1015.568	116.64384
1015.735	17.5623
1015.902	11.23968
1016.069	85.01664
1016.236	68.15085
1016.403	2.80986
1016.57	9.13219
1016.737	66.04272
1016.904	0.70246
1017.071	47.07066
1017.238	28.10047
1017.405	70.25899
1017.572	17.5623
1017.739	114.5352
1017.906	51.28651
1018.073	32.3159
1018.24	9.13219
1018.407	63.93463
1018.573	-5.61958
1018.74	-18.26301
1018.907	-54.08124
1019.074	-9.83416
1019.241	21.7775
1019.407	30.20817
1019.574	99.77538
1019.741	-47.7609
1019.907	68.15085
1020.074	51.28651
1020.241	30.20817
1020.407	42.8549
1020.574	68.15085
1020.74	38.63923
1020.907	-24.5844
1021.073	-7.72688
1021.24	36.53143
1021.406	59.7185
1021.573	53.39447
1021.739	9.13219
1021.906	25.99279
1022.072	25.99279
1022.239	-7.72688
1022.405	0.70246
1022.571	30.20817
1022.738	42.8549
1022.904	80.80005
1023.07	11.23968
1023.237	131.40488
1023.403	25.99279
1023.569	-7.72688
1023.735	0.70246
1023.902	163.03922
1024.068	89.23331
1024.234	28.10047
1024.4	38.63923
1024.566	74.47535
1024.732	25.99279
1024.898	36.53143
1025.065	9.13219
1025.231	47.07066
1025.397	66.04272
1025.563	9.13219
1025.729	59.7185
1025.895	47.07066
1026.061	-5.61958
1026.227	42.8549
1026.392	4.91728
1026.558	25.99279
1026.724	59.7185
1026.89	-9.83416
1027.056	78.6918
1027.222	-47.7609
1027.388	-24.5844
1027.553	11.23968
1027.719	4.91728
1027.885	68.15085
1028.051	47.07066
1028.216	19.66988
1028.382	112.42659
1028.548	57.61047
1028.713	61.82655
1028.879	42.8549
1029.045	59.7185
1029.21	51.28651
1029.376	44.96277
1029.541	-37.2265
1029.707	63.93463
1029.873	-16.15583
1030.038	19.66988
1030.204	61.82655
1030.369	34.42366
1030.534	9.13219
1030.7	61.82655
1030.865	-16.15583
1031.031	21.7775
1031.196	9.13219
1031.361	55.50246
1031.527	9.13219
1031.692	80.80005
1031.857	59.7185
1032.023	68.15085
1032.188	21.7775
1032.353	38.63923
1032.518	-66.72124
1032.684	55.50246
1032.849	61.82655
1033.014	-24.5844
1033.179	80.80005
1033.344	0.70246
1033.509	49.17857
1033.674	66.04272
1033.839	38.63923
1034.004	78.6918
1034.17	21.7775
1034.335	44.96277
1034.5	-30.90556
1034.664	72.36716
1034.829	38.63923
1034.994	11.23968
1035.159	-3.51226
1035.324	47.07066
1035.489	-24.5844
1035.654	108.20943
1035.819	-1.40491
1035.984	-3.51226
1036.148	-11.94141
1036.313	51.28651
1036.478	76.58356
1036.643	74.47535
1036.807	42.8549
1036.972	-14.04863
1037.137	63.93463
1037.301	34.42366
1037.466	-18.26301
1037.631	-33.01256
1037.795	34.42366
1037.96	38.63923
1038.124	42.8549
1038.289	38.63923
1038.454	30.20817
1038.618	51.28651
1038.783	118.75249
1038.947	-7.72688
1039.111	101.88386
1039.276	78.6918
1039.44	63.93463
1039.605	-9.83416
1039.769	21.7775
1039.933	44.96277
1040.098	66.04272
1040.262	34.42366
1040.426	57.61047
1040.591	80.80005
1040.755	59.7185
1040.919	59.7185
1041.083	28.10047
1041.248	-9.83416
1041.412	44.96277
1041.576	21.7775
1041.74	42.8549
1041.904	-3.51226
1042.068	80.80005
1042.232	25.99279
1042.397	19.66988
1042.561	-5.61958
1042.725	2.80986
1042.889	9.13219
1043.053	93.45007
1043.217	-3.51226
1043.381	9.13219
1043.544	0.70246
1043.708	53.39447
1043.872	61.82655
1044.036	106.10089
1044.2	30.20817
1044.364	68.15085
1044.528	106.10089
1044.691	36.53143
1044.855	49.17857
1045.019	68.15085
1045.183	59.7185
1045.346	30.20817
1045.51	125.07859
1045.674	23.88513
1045.837	19.66988
1046.001	9.13219
1046.165	47.07066
1046.328	13.34719
1046.492	70.25899
1046.655	42.8549
1046.819	-24.5844
1046.983	9.13219
1047.146	4.91728
1047.31	59.7185
1047.473	70.25899
1047.636	42.8549
1047.8	11.23968
1047.963	68.15085
1048.127	72.36716
1048.29	15.45473
