Data from absorb_only_2.23.25_USB4F045381__42__0147.txt Node

Date: Sun Feb 23 19:20:27 EST 2025
User: ssocol
Spectrometer: USB4F04538
Trigger mode: 4
Integration Time (sec): 2.600000E-3
Scans to average: 1
Electric dark correction enabled: true
Nonlinearity correction enabled: true
Boxcar width: 0
XAxis mode: Wavelengths
Number of Pixels in Spectrum: 3648
>>>>>Begin Spectral Data<<<<<
345.52	76.93493
345.736	76.93493
345.952	76.93493
346.168	38.99053
346.384	-38.98228
346.6	-28.44736
346.816	51.63784
347.032	47.42198
347.248	-15.80464
347.464	-45.30293
347.68	7.37596
347.896	-1.05368
348.112	-5.26836
348.328	-5.26836
348.544	-36.87534
348.76	-32.6614
348.975	64.28597
349.191	41.09836
349.407	43.20621
349.623	64.28597
349.839	30.55946
350.055	24.2364
350.27	57.9618
350.486	26.34407
350.702	-15.80464
350.918	116.99528
351.133	22.12877
351.349	28.45175
351.565	-11.5902
351.781	-49.51657
351.996	-20.01897
352.212	47.42198
352.428	55.85379
352.644	13.69845
352.859	43.20621
353.075	43.20621
353.291	-3.16104
353.506	74.82672
353.722	-3.16104
353.938	114.88664
354.153	5.26851
354.369	22.12877
354.584	-51.62336
354.8	-9.48295
355.016	-17.91182
355.231	13.69845
355.447	7.37596
355.662	-36.87534
355.878	-24.23321
356.093	41.09836
356.309	30.55946
356.524	-1.05368
356.74	30.55946
356.955	-11.5902
357.171	89.5847
357.386	81.15143
357.602	85.36802
357.817	66.39408
358.033	76.93493
358.248	24.2364
358.464	47.42198
358.679	38.99053
358.895	-20.01897
359.11	-20.01897
359.325	-38.98228
359.541	26.34407
359.756	55.85379
359.972	13.69845
360.187	26.34407
360.402	-32.6614
360.618	60.06984
360.833	32.66719
361.048	57.9618
361.264	49.5299
361.479	47.42198
361.694	28.45175
361.909	34.77495
362.125	38.99053
362.34	38.99053
362.555	-24.23321
362.77	-15.80464
362.986	38.99053
363.201	1.05369
363.416	20.02115
363.631	98.01833
363.847	76.93493
364.062	-3.16104
364.277	74.82672
364.492	98.01833
364.707	38.99053
364.922	22.12877
365.138	32.66719
365.353	49.5299
365.568	13.69845
365.783	60.06984
365.998	-3.16104
366.213	-7.37567
366.428	57.9618
366.643	41.09836
366.858	13.69845
367.073	76.93493
367.288	-26.3403
367.503	38.99053
367.718	93.80147
367.933	41.09836
368.148	76.93493
368.363	93.80147
368.578	-1.05368
368.793	51.63784
369.008	-1.05368
369.223	81.15143
369.438	22.12877
369.653	-3.16104
369.868	-3.16104
370.083	41.09836
370.298	30.55946
370.513	9.48343
370.728	13.69845
370.943	38.99053
371.157	-5.26836
371.372	34.77495
371.587	22.12877
371.802	-9.48295
372.017	-1.05368
372.232	3.16109
372.446	34.77495
372.661	24.2364
372.876	114.88664
373.091	93.80147
373.306	24.2364
373.52	24.2364
373.735	66.39408
373.95	81.15143
374.165	-74.79631
374.379	7.37596
374.594	47.42198
374.809	108.56086
375.023	36.88273
375.238	81.15143
375.453	79.04317
375.667	70.61035
375.882	38.99053
376.097	57.9618
376.311	57.9618
376.526	26.34407
376.741	72.71852
376.955	5.26851
377.17	68.5022
377.384	45.31408
377.599	9.48343
377.813	83.25972
378.028	-66.37014
378.242	26.34407
378.457	30.55946
378.672	38.99053
378.886	34.77495
379.101	47.42198
379.315	-28.44736
379.53	64.28597
379.744	72.71852
379.958	41.09836
380.173	1.05369
380.387	-17.91182
380.602	93.80147
380.816	3.16109
381.031	85.36802
381.245	64.28597
381.459	1.05369
381.674	49.5299
381.888	-49.51657
382.103	-3.16104
382.317	47.42198
382.531	55.85379
382.746	47.42198
382.96	142.30062
383.174	17.91356
383.388	43.20621
383.603	-15.80464
383.817	7.37596
384.031	81.15143
384.246	55.85379
384.46	98.01833
384.674	38.99053
384.888	-1.05368
385.103	81.15143
385.317	32.66719
385.531	83.25972
385.745	-7.37567
385.959	-15.80464
386.174	-53.73012
386.388	-43.19607
386.602	47.42198
386.816	43.20621
387.03	-1.05368
387.244	45.31408
387.458	49.5299
387.672	22.12877
387.887	68.5022
388.101	-11.5902
388.315	127.53879
388.529	51.63784
388.743	70.61035
388.957	41.09836
389.171	-87.4348
389.385	13.69845
389.599	-49.51657
389.813	53.7458
390.027	11.59093
390.241	11.59093
390.455	26.34407
390.669	-66.37014
390.883	62.17789
391.097	60.06984
391.311	106.45231
391.525	13.69845
391.738	22.12877
391.952	70.61035
392.166	89.5847
392.38	-13.69743
392.594	-5.26836
392.808	51.63784
393.022	-24.23321
393.236	60.06984
393.449	-24.23321
393.663	5.26851
393.877	-9.48295
394.091	17.91356
394.305	83.25972
394.518	47.42198
394.732	-3.16104
394.946	13.69845
395.16	17.91356
395.373	-1.05368
395.587	74.82672
395.801	9.48343
396.015	-13.69743
396.228	-43.19607
396.442	60.06984
396.656	36.88273
396.869	-3.16104
397.083	5.26851
397.297	-1.05368
397.51	41.09836
397.724	1.05369
397.938	55.85379
398.151	131.75635
398.365	7.37596
398.578	57.9618
398.792	-30.55439
399.005	72.71852
399.219	-1.05368
399.433	38.99053
399.646	104.34378
399.86	81.15143
400.073	-15.80464
400.287	64.28597
400.5	30.55946
400.714	72.71852
400.927	-26.3403
401.141	114.88664
401.354	32.66719
401.567	47.42198
401.781	89.5847
401.994	60.06984
402.208	49.5299
402.421	30.55946
402.635	34.77495
402.848	13.69845
403.061	22.12877
403.275	38.99053
403.488	32.66719
403.701	-28.44736
403.915	49.5299
404.128	34.77495
404.341	51.63784
404.555	104.34378
404.768	57.9618
404.981	-7.37567
405.195	24.2364
405.408	22.12877
405.621	64.28597
405.834	7.37596
406.048	24.2364
406.261	5.26851
406.474	87.47635
406.687	57.9618
406.9	64.28597
407.114	26.34407
407.327	47.42198
407.54	-7.37567
407.753	47.42198
407.966	55.85379
408.179	30.55946
408.392	22.12877
408.605	49.5299
408.819	34.77495
409.032	85.36802
409.245	32.66719
409.458	-36.87534
409.671	68.5022
409.884	47.42198
410.097	43.20621
410.31	-26.3403
410.523	34.77495
410.736	-7.37567
410.949	47.42198
411.162	24.2364
411.375	74.82672
411.588	24.2364
411.801	-41.08919
412.014	74.82672
412.227	102.23527
412.44	87.47635
412.653	127.53879
412.865	55.85379
413.078	64.28597
413.291	34.77495
413.504	68.5022
413.717	38.99053
413.93	-28.44736
414.143	26.34407
414.356	47.42198
414.568	47.42198
414.781	85.36802
414.994	57.9618
415.207	47.42198
415.42	38.99053
415.632	22.12877
415.845	-17.91182
416.058	53.7458
416.271	47.42198
416.483	43.20621
416.696	38.99053
416.909	98.01833
417.121	32.66719
417.334	85.36802
417.547	102.23527
417.759	1.05369
417.972	100.12679
418.185	57.9618
418.397	55.85379
418.61	3.16109
418.823	47.42198
419.035	28.45175
419.248	64.28597
419.46	95.90989
419.673	13.69845
419.885	173.93659
420.098	30.55946
420.311	-9.48295
420.523	47.42198
420.736	22.12877
420.948	20.02115
421.161	41.09836
421.373	24.2364
421.586	79.04317
421.798	102.23527
422.01	24.2364
422.223	-17.91182
422.435	-11.5902
422.648	9.48343
422.86	5.26851
423.073	114.88664
423.285	114.88664
423.497	41.09836
423.71	9.48343
423.922	72.71852
424.134	22.12877
424.347	41.09836
424.559	-5.26836
424.771	66.39408
424.984	-3.16104
425.196	76.93493
425.408	66.39408
425.621	45.31408
425.833	-3.16104
426.045	41.09836
426.257	-20.01897
426.47	138.08285
426.682	1.05369
426.894	43.20621
427.106	45.31408
427.318	89.5847
427.531	-11.5902
427.743	30.55946
427.955	51.63784
428.167	68.5022
428.379	17.91356
428.591	66.39408
428.804	-22.12611
429.016	34.77495
429.228	102.23527
429.44	64.28597
429.652	51.63784
429.864	142.30062
430.076	51.63784
430.288	13.69845
430.5	36.88273
430.712	57.9618
430.924	57.9618
431.136	13.69845
431.348	57.9618
431.56	15.80599
431.772	140.19172
431.984	49.5299
432.196	68.5022
432.408	64.28597
432.62	72.71852
432.832	119.10394
433.044	30.55946
433.256	89.5847
433.468	41.09836
433.679	85.36802
433.891	49.5299
434.103	5.26851
434.315	116.99528
434.527	131.75635
434.739	85.36802
434.95	13.69845
435.162	64.28597
435.374	104.34378
435.586	55.85379
435.798	100.12679
436.009	41.09836
436.221	53.7458
436.433	30.55946
436.645	38.99053
436.856	24.2364
437.068	64.28597
437.28	74.82672
437.491	95.90989
437.703	102.23527
437.915	119.10394
438.126	51.63784
438.338	32.66719
438.55	34.77495
438.761	49.5299
438.973	83.25972
439.184	85.36802
439.396	108.56086
439.608	74.82672
439.819	47.42198
440.031	32.66719
440.242	-79.00925
440.454	98.01833
440.665	32.66719
440.877	74.82672
441.088	47.42198
441.3	87.47635
441.511	83.25972
441.723	68.5022
441.934	60.06984
442.146	34.77495
442.357	72.71852
442.569	-28.44736
442.78	64.28597
442.991	49.5299
443.203	91.69308
443.414	32.66719
443.626	30.55946
443.837	49.5299
444.048	74.82672
444.26	17.91356
444.471	30.55946
444.682	3.16109
444.894	57.9618
445.105	131.75635
445.316	133.86516
445.528	76.93493
445.739	68.5022
445.95	22.12877
446.161	91.69308
446.373	108.56086
446.584	102.23527
446.795	55.85379
447.006	60.06984
447.217	98.01833
447.429	72.71852
447.64	66.39408
447.851	55.85379
448.062	38.99053
448.273	60.06984
448.484	45.31408
448.695	148.62743
448.907	26.34407
449.118	57.9618
449.329	98.01833
449.54	81.15143
449.751	72.71852
449.962	114.88664
450.173	32.66719
450.384	-13.69743
450.595	34.77495
450.806	38.99053
451.017	13.69845
451.228	83.25972
451.439	100.12679
451.65	57.9618
451.861	32.66719
452.072	-11.5902
452.283	102.23527
452.494	135.97399
452.705	123.32132
452.915	102.23527
453.126	47.42198
453.337	28.45175
453.548	83.25972
453.759	114.88664
453.97	64.28597
454.181	142.30062
454.391	83.25972
454.602	131.75635
454.813	125.43005
455.024	119.10394
455.235	7.37596
455.445	49.5299
455.656	81.15143
455.867	123.32132
456.078	81.15143
456.288	119.10394
456.499	64.28597
456.71	108.56086
456.921	81.15143
457.131	123.32132
457.342	89.5847
457.553	13.69845
457.763	125.43005
457.974	91.69308
458.184	102.23527
458.395	83.25972
458.606	133.86516
458.816	121.21262
459.027	89.5847
459.237	85.36802
459.448	106.45231
459.659	108.56086
459.869	66.39408
460.08	116.99528
460.29	110.66943
460.501	138.08285
460.711	127.53879
460.922	182.37364
461.132	148.62743
461.343	142.30062
461.553	150.73642
461.764	116.99528
461.974	127.53879
462.184	161.28164
462.395	131.75635
462.605	55.85379
462.816	135.97399
463.026	116.99528
463.236	182.37364
463.447	123.32132
463.657	152.84542
463.867	106.45231
464.078	150.73642
464.288	144.40954
464.498	150.73642
464.709	133.86516
464.919	157.06349
465.129	165.49987
465.339	268.87183
465.55	192.92041
465.76	152.84542
465.97	199.24872
466.18	190.81102
466.391	182.37364
466.601	157.06349
466.811	180.26435
467.021	209.7963
467.231	279.42261
467.441	216.12509
467.651	249.88161
467.862	216.12509
468.072	258.32152
468.282	197.13926
468.492	203.46769
468.702	249.88161
468.912	239.33216
469.122	300.52556
469.332	325.8515
469.542	233.00273
469.752	239.33216
469.962	226.67346
470.172	359.62338
470.382	300.52556
470.592	357.51251
470.802	311.07772
471.012	308.96725
471.222	361.73427
471.432	283.64305
471.642	332.18339
471.852	397.62199
472.062	439.84889
472.272	469.41147
472.482	397.62199
472.691	420.84599
472.901	380.73305
473.111	361.73427
473.321	477.85847
473.531	575.01558
473.741	507.42484
473.95	583.4654
474.16	547.55513
474.37	551.77967
474.58	549.6674
474.79	710.23665
474.999	678.53983
475.209	663.74887
475.419	701.78392
475.628	598.2531
475.838	672.20078
476.048	712.34986
476.258	731.36923
476.467	843.38886
476.677	716.57631
476.886	832.81983
477.096	794.77323
477.306	902.57934
477.515	733.48255
477.725	902.57934
477.935	841.27503
478.144	777.86462
478.354	875.09723
478.563	1207.06958
478.773	1097.10198
478.982	1173.23224
479.192	1082.29957
479.401	1018.86366
479.611	1063.26828
479.82	1130.93695
480.03	1149.96963
480.239	1281.09157
480.449	1192.26563
480.658	1333.96622
480.868	1219.75881
481.077	1441.83308
481.287	1190.15079
481.496	1505.28458
481.705	1467.2137
481.915	1484.13411
482.124	1452.40834
482.333	1611.03536
482.543	1450.29329
482.752	1661.79415
482.961	1632.18502
483.171	1746.38861
483.38	1596.23048
483.589	1737.9294
483.799	1847.89414
484.008	1991.67411
484.217	1866.92528
484.426	1917.67295
484.636	1987.44568
484.845	2042.41331
485.054	1915.55852
485.263	2031.84296
485.472	2072.00936
485.682	2321.39972
485.891	2118.51455
486.1	2076.23725
486.309	2186.15174
486.518	2359.4313
486.727	2154.44784
486.936	2346.75447
487.146	2234.76072
487.355	2494.62759
487.564	2492.51549
487.773	2372.10778
487.982	2376.33319
488.191	2572.76725
488.4	2507.29996
488.609	2648.77939
488.818	2602.32941
489.027	2870.38581
489.236	2750.1035
489.445	3034.9071
489.654	2621.3324
489.863	2984.29483
490.072	2906.25066
490.281	2931.56449
490.49	2760.65636
490.698	3041.23301
490.907	2933.67388
491.116	3235.15838
491.325	3045.45021
491.534	3233.05123
491.743	3148.75196
491.952	3028.58105
492.16	3214.08619
492.369	3298.36485
492.578	3140.3206
492.787	3233.05123
492.996	3409.99185
493.204	3393.14564
493.413	3487.89075
493.622	3481.57554
493.831	3502.6256
494.039	3645.71715
494.248	3540.51112
494.457	3704.61193
494.665	3677.26979
494.874	3637.3024
495.083	3668.85617
495.291	3750.87584
495.5	3734.05369
495.709	3908.52243
495.917	3940.03829
496.126	3950.54257
496.335	3965.2477
496.543	4074.45445
496.752	3830.76402
496.96	4116.44217
497.169	3801.33483
497.377	3971.5496
497.586	4057.65704
497.794	4162.61899
498.003	4030.35842
498.211	4137.43289
498.42	4242.3549
498.628	4317.86579
498.837	4124.83871
499.045	4263.33293
499.254	4164.71769
499.462	4408.02269
499.671	4242.3549
499.879	4353.51401
500.087	4269.62593
500.296	4435.27151
500.504	4343.02988
500.713	4646.84687
500.921	4447.84664
501.129	4663.5956
501.338	4498.13925
501.546	4628.00282
501.754	4529.56568
501.962	4571.45984
502.171	4506.52012
502.379	4749.41026
502.587	4745.22506
502.795	4604.96876
503.004	4607.06287
503.212	4933.46897
503.42	4697.08876
503.628	4782.88859
503.837	4745.22506
504.045	5042.14751
504.253	5017.07338
504.461	5088.10809
504.669	4920.92514
504.877	5150.76352
505.085	4931.37839
505.294	5207.1355
505.502	5012.89404
505.71	5340.69001
505.918	4973.18566
506.126	5207.1355
506.334	4895.83499
506.542	5240.53311
506.75	5058.86174
506.958	5480.40201
507.166	5234.27151
507.374	5447.04754
507.582	5207.1355
507.79	5324.00094
507.998	5280.18499
508.206	5346.94802
508.414	5515.83454
508.622	5507.49809
508.83	5463.72553
509.037	5459.55617
509.245	5405.34598
509.453	5438.70798
509.661	5438.70798
509.869	5549.17659
510.077	5415.77225
510.285	5726.20501
510.492	5524.17062
510.7	5794.88775
510.908	5636.67075
511.116	5615.84258
511.324	5334.43178
511.531	5767.83398
511.739	5751.18352
511.947	5780.32083
512.155	5692.89503
512.362	6034.0359
512.57	5676.23778
512.778	5878.10509
512.985	5799.04951
513.193	5898.90353
513.401	5932.17612
513.608	5957.12661
513.816	5819.85691
514.024	6142.07016
514.231	5759.50894
514.439	5959.20566
514.646	5950.8893
514.854	6239.66185
515.061	5971.67949
515.269	5905.1426
515.477	6148.30096
515.684	6229.28221
515.892	5903.06293
516.099	6206.44496
516.307	6304.0025
516.514	6262.49497
516.722	6237.58597
516.929	6245.88934
517.136	6333.0522
517.344	6198.1398
517.551	6472.01248
517.759	6442.98464
517.966	6422.24768
518.173	6449.20527
518.381	6293.62649
518.588	6469.93921
518.796	6442.98464
519.003	6490.67083
519.21	6422.24768
519.418	6586.00641
519.625	6538.34474
519.832	6447.13175
520.039	6544.56217
520.247	6480.30531
520.454	6654.3692
520.661	6991.67433
520.868	6552.85176
521.076	6900.68218
521.283	6884.13344
521.49	6759.97154
521.697	6780.67089
521.904	6921.36605
522.112	6586.00641
522.319	6915.16113
522.526	6670.93822
522.733	7002.01159
522.94	6964.79484
523.147	7130.14694
523.354	7086.75589
523.561	7239.61408
523.768	6739.2699
523.975	7148.7401
524.183	7035.08702
524.39	7423.29708
524.597	7280.90629
524.804	7249.93796
525.011	7115.68435
525.218	7233.41949
525.425	7256.13202
525.632	7282.97067
525.838	7398.54093
526.045	7351.08287
526.252	7305.67739
526.459	7417.10834
526.666	7198.31304
526.873	7412.9824
527.08	7198.31304
527.287	7388.22494
527.494	7441.86215
527.701	7534.6612
527.907	7268.51955
528.114	7443.92482
528.321	7499.60891
528.528	7734.54741
528.735	7713.9498
528.941	7596.50306
529.148	7487.23603
529.355	7794.26861
529.562	7511.98102
529.768	7783.97311
529.975	7703.65021
530.182	7771.61782
530.388	7645.96272
530.595	7851.9138
530.802	7783.97311
531.008	7921.88969
531.215	8008.29769
531.422	8193.33735
531.628	7991.84181
531.835	8002.12689
532.042	8072.05199
532.248	8326.87681
532.455	8051.48821
532.661	7998.01292
532.868	8022.69553
533.074	8265.25354
533.281	7985.67051
533.487	8386.42927
533.694	8215.94219
533.9	8454.1761
534.107	8117.28519
534.313	8429.54331
534.52	8335.09191
534.726	8482.91086
534.933	8217.99706
535.139	8355.62831
535.345	8367.94922
535.552	8423.38469
535.758	8236.48997
535.965	8577.29886
536.171	8491.12011
536.377	8427.49046
536.584	8333.03817
536.79	8651.13994
536.996	8626.52894
537.203	8743.40745
537.409	8665.49512
537.615	8768.00584
537.821	8716.75623
538.028	8827.4411
538.234	8704.45462
538.44	8745.45742
538.646	8536.26552
538.853	8831.53952
539.059	8618.32467
539.265	8757.75683
539.471	8956.50692
539.677	8884.81245
539.883	8856.12854
540.09	8938.07328
540.296	9065.03169
540.502	9124.39248
540.708	8944.21799
540.914	9097.78427
541.12	9189.87729
541.326	9167.36886
541.532	9114.1589
541.738	9144.85836
541.944	9134.62564
542.15	9306.47921
542.356	9400.53962
542.562	9506.82727
542.768	9148.95133
542.974	9416.89441
543.18	9302.38883
543.386	9392.36183
543.592	9408.71715
543.798	9686.60079
544.004	9465.95256
544.21	9702.93786
544.415	9331.02007
544.621	9521.1319
544.827	9488.43444
545.033	9653.92369
545.239	9478.21565
545.445	9731.52537
545.651	9418.93869
545.856	9647.7963
546.062	9527.26222
546.268	9668.22041
546.474	9504.78368
546.679	9590.6005
546.885	9523.17536
547.091	9813.18758
547.297	9680.47414
547.502	9739.69268
547.708	9668.22041
547.914	10025.39816
548.119	9758.06824
548.325	9835.64046
548.531	9621.24263
548.736	9866.25512
548.942	9623.28531
549.147	9666.17807
549.353	9915.23166
549.559	10072.30821
549.764	10100.85849
549.97	10031.51729
550.175	10009.07986
550.381	10070.2688
550.586	9992.76063
550.792	10276.17905
550.997	10007.04
551.203	10000.92036
551.408	10111.05435
551.614	9992.76063
551.819	9933.59569
552.025	10335.27609
552.23	10092.70155
552.435	10516.57385
552.641	10323.05004
552.846	10378.06352
553.052	10398.43645
553.257	10486.02522
553.462	10121.24986
553.668	10225.22423
553.873	10282.29306
554.078	10382.13821
554.283	10174.26089
554.489	10622.45383
554.694	10514.53737
554.899	10661.13237
555.105	10569.51807
555.31	10834.11462
555.515	10691.66494
555.72	10644.84721
555.925	10602.09491
556.131	10624.48965
556.336	10573.59035
556.541	10872.76959
556.746	10701.84186
556.951	10502.31818
557.156	10543.04703
557.361	10685.55865
557.567	10481.95185
557.772	10813.76822
557.977	10844.28739
558.182	10821.90692
558.387	10689.62952
558.592	10669.27466
558.797	10583.77083
559.002	10783.24641
559.207	10575.62647
559.412	10998.87817
559.617	10689.62952
559.822	11035.48227
560.027	10817.83759
560.232	11236.74218
560.437	10840.21832
560.642	10913.45454
560.847	11100.54745
561.051	11149.33908
561.256	11104.61366
561.461	11173.7326
561.666	11157.47042
561.871	11086.31539
562.076	11153.40478
562.281	11411.49151
562.485	11139.17467
562.69	11389.14398
562.895	10996.8445
563.1	11248.93643
563.305	11137.14175
563.509	11096.4812
563.714	11198.12459
563.919	11210.32003
564.123	11118.84504
564.328	11356.63634
564.533	11185.92879
564.737	11204.22236
564.942	11043.61603
565.147	11573.98399
565.351	11385.08066
565.556	11204.22236
565.761	11458.21437
565.965	11519.14957
566.17	11356.63634
566.374	11600.38333
566.579	11754.68731
566.784	11342.41345
566.988	11634.9032
567.193	11616.6283
567.397	11439.93212
567.602	11703.9351
567.806	11519.14957
568.011	11626.78111
568.215	11529.30461
568.42	11783.10616
568.624	11313.96619
568.828	11561.79915
569.033	11482.58948
569.237	11722.20653
569.442	11494.77652
569.646	11539.45941
569.85	11791.22553
570.055	11848.05723
570.259	11634.9032
570.463	11809.49359
570.668	11535.39752
570.872	11632.87269
571.076	11933.29247
571.281	11977.93374
571.485	11756.71728
571.689	11856.17551
571.893	11811.52333
572.098	12113.86308
572.302	11852.11639
572.506	12018.51334
572.71	11628.81165
572.914	12059.08979
573.119	12115.89161
573.323	12109.80599
573.527	11973.8756
573.731	12268.0104
573.935	11699.87469
574.139	12079.37685
574.343	11892.70608
574.547	12292.34562
574.751	11902.85299
574.955	11971.84652
575.159	12259.89844
575.364	11894.73548
575.568	12057.06104
575.772	12472.80077
575.976	12030.68661
576.18	12042.85959
576.383	12002.28188
576.587	12478.8826
576.791	12067.20471
576.995	12022.57113
577.199	12336.95755
577.403	12270.03838
577.607	12270.03838
577.811	12545.77894
578.015	12077.34818
578.219	12442.39072
578.422	12113.86308
578.626	12557.94117
578.83	12170.65916
579.034	12681.57785
579.238	12628.88302
579.442	12549.83304
579.645	12525.50806
579.849	12505.23654
580.053	12764.66545
580.257	12521.45381
580.46	12641.04373
580.664	12663.33779
580.868	12529.56229
581.071	12699.81743
581.275	12525.50806
581.479	12634.9634
581.682	12456.58226
581.886	12675.49789
582.09	12657.25766
582.293	12831.53387
582.497	12503.20936
582.7	12683.6045
582.904	12756.55977
583.107	13188.06928
583.311	12529.56229
583.515	12580.238
583.718	12711.97689
583.922	12586.31882
584.125	12726.16265
584.329	12584.29188
584.532	12620.77576
584.735	12961.2012
584.939	12764.66545
585.142	12861.92662
585.346	12817.35017
585.549	13003.74364
585.753	12602.53407
585.956	12924.73446
586.159	12861.92662
586.363	13327.80752
586.566	13173.89177
586.769	12831.53387
586.973	12861.92662
587.176	13263.00394
587.379	12868.00502
587.582	13238.70147
587.786	13060.46346
587.989	13305.53177
588.192	13129.3324
588.395	13275.15494
588.599	13232.62575
588.802	13418.9304
589.005	12922.70848
589.208	13337.93269
589.411	13333.88263
589.615	13291.35604
589.818	13179.96787
590.021	13179.96787
590.224	13192.11996
590.427	13530.29211
590.63	13554.58773
590.833	13495.87243
591.036	13281.23038
591.239	13520.16878
591.442	13092.87306
591.645	13422.98012
591.848	13767.15347
592.051	13684.1559
592.254	13200.22126
592.457	13692.25346
592.66	13348.05775
592.863	13702.37533
593.066	13750.95923
593.269	13811.68663
593.472	13724.64318
593.675	14125.40591
593.878	13738.81342
594.081	13791.44446
594.284	13688.20468
594.486	13890.62834
594.689	13920.98941
594.892	13728.69183
595.095	13775.25051
595.298	13744.88634
595.5	13742.86204
595.703	14111.2392
595.906	14070.76229
596.109	13931.10964
596.311	13904.79691
596.514	14040.404
596.717	13775.25051
596.92	13872.4114
597.122	13969.5659
597.325	14285.28035
597.528	13732.74048
597.73	14400.62566
597.933	14273.13841
598.136	14204.33282
598.338	14056.59515
598.541	14299.44586
598.743	14198.26163
598.946	14125.40591
599.148	14076.83388
599.351	14366.22499
599.554	14252.9017
599.756	14194.21416
599.959	13947.30186
600.161	14226.5937
600.363	14167.90541
600.566	14301.4695
600.768	14265.04375
600.971	14254.92538
601.173	14246.83065
601.376	14220.52257
601.578	14097.07239
601.78	14483.59017
601.983	14129.45352
602.185	14198.26163
602.388	14297.42222
602.59	14586.78674
602.792	14250.87802
602.995	14333.84746
603.197	13884.55605
603.399	14180.04795
603.601	14267.06742
603.804	14210.40399
604.006	14325.75301
604.208	14368.24857
604.41	14333.84746
604.613	14594.88045
604.815	14424.90821
605.017	14671.76988
605.219	14412.76696
605.421	14350.03628
605.623	14609.04441
605.826	14748.65791
606.028	14477.51967
606.23	14493.70762
606.432	14384.43716
606.634	14700.0972
606.836	14289.32765
607.038	14825.54476
607.24	14882.19761
607.442	14918.61706
607.644	14692.0037
607.846	14687.95694
608.048	14659.62955
608.25	14469.42566
608.452	14443.11998
608.654	14578.69301
608.856	13991.82963
609.058	14372.29573
609.26	14607.02099
609.462	14716.28416
609.664	14959.08295
609.866	14637.37217
610.067	14348.01268
610.269	14364.20141
610.471	14064.69067
610.673	14528.10674
610.875	14321.70578
611.077	14530.1302
611.278	14467.40216
611.48	14522.03633
611.682	14635.34876
611.884	14738.54113
612.085	14673.79327
612.287	14665.69972
612.489	14623.20832
612.69	14596.90388
612.892	14704.14394
613.094	14609.04441
613.295	14641.41897
613.497	14661.65294
613.699	14576.66957
613.9	14677.84004
614.102	14513.94244
614.304	14574.64613
614.505	14315.63491
614.707	14520.01286
614.908	14505.84853
615.11	14756.75131
615.311	14795.19481
615.513	14706.16732
615.714	15068.34015
615.916	14866.01113
616.117	14621.1849
616.319	14635.34876
616.52	14659.62955
616.722	14861.9645
616.923	14746.63455
617.124	14671.76988
617.326	14303.49314
617.527	14550.36479
617.729	14607.02099
617.93	14825.54476
618.131	14821.49811
618.333	14390.50786
618.534	14536.20059
618.735	14615.11466
618.937	14718.30752
619.138	14924.68696
619.339	14643.44237
619.54	14843.75465
619.742	14730.4477
619.943	14667.72311
620.144	14904.45396
620.345	14985.38569
620.546	14938.85003
620.748	15161.41066
620.949	14420.86113
621.15	15005.61853
621.351	14522.03633
621.552	15124.99179
621.753	14542.27097
621.954	14912.54717
622.155	15007.64181
622.356	15311.13292
622.558	14957.05966
622.759	15015.73494
622.96	14823.52143
623.161	14748.65791
623.362	14548.34134
623.563	14859.94119
623.764	14341.94188
623.965	14948.9665
624.166	14894.33744
624.366	14801.26481
624.567	14756.75131
624.768	14683.91018
624.969	14364.20141
625.17	14623.20832
625.371	14572.62269
625.572	14441.09646
625.773	14665.69972
625.973	14758.77466
626.174	14671.76988
626.375	14898.38405
626.576	14659.62955
626.777	15131.0616
626.977	14762.82136
627.178	15216.03898
627.379	14465.37865
627.58	14744.6112
627.78	14655.58276
627.981	14807.33481
628.182	15199.85281
628.382	14720.33089
628.583	14536.20059
628.784	14532.15367
628.984	14475.49617
629.185	15181.64337
629.386	14936.82674
629.586	15139.15469
629.787	14861.9645
629.987	14884.22091
630.188	14760.79801
630.388	14748.65791
630.589	14744.6112
630.79	15078.45652
630.99	14946.9432
631.191	15137.13142
631.391	14872.08106
631.591	14914.57047
631.792	14665.69972
631.992	14961.10624
632.193	14859.94119
632.393	14746.63455
632.594	14934.80344
632.794	15003.59525
632.994	15189.73645
633.195	15011.68838
633.395	14736.51778
633.595	15078.45652
633.796	14946.9432
633.996	14936.82674
634.196	14866.01113
634.397	15527.62619
634.597	15035.96773
634.797	15046.08412
634.997	14851.84792
635.198	15088.57289
635.398	14989.43226
635.598	15207.94589
635.798	14961.10624
635.998	15082.50307
636.199	14872.08106
636.399	15120.94525
636.599	14837.68469
636.799	15110.82889
636.999	14967.17611
637.199	15114.87543
637.399	15118.92198
637.599	15191.75972
637.799	14770.91474
637.999	15580.23299
638.199	15313.1562
638.399	15606.53658
638.599	15321.24932
638.799	15434.55366
638.999	15434.55366
639.199	15505.36961
639.399	15381.94792
639.599	15742.10346
639.799	14821.49811
639.999	15179.6201
640.199	15021.80478
640.399	15080.4798
640.599	14669.74649
640.799	15446.69349
640.998	15015.73494
641.198	15266.62081
641.398	15062.27033
641.598	15464.90327
641.798	15129.03833
641.997	15651.05064
642.197	15428.48375
642.397	16057.77083
642.597	15458.83334
642.796	15626.77019
642.996	15509.41625
643.196	15379.92463
643.395	15296.96996
643.595	15345.52873
643.795	15234.24843
643.994	15509.41625
644.194	15106.78235
644.394	15481.08978
644.593	15462.87996
644.793	15468.94989
644.992	15428.48375
645.192	15120.94525
645.392	15303.0398
645.591	15485.13641
645.791	15598.44315
645.99	15446.69349
646.19	15424.43715
646.389	15402.18086
646.589	15274.71391
646.788	15509.41625
646.987	15282.80702
647.187	15444.67018
647.386	15398.13427
647.586	15570.11627
647.785	15311.13292
647.984	15466.92658
648.184	15319.22604
648.383	15675.33121
648.582	15426.46045
648.782	15918.14494
648.981	16415.97632
649.18	16065.8653
649.38	15758.29083
649.579	16047.65279
649.778	15570.11627
649.977	15887.79233
650.177	15897.90983
650.376	15772.45484
650.575	15418.36725
650.774	16049.67639
650.973	15547.85952
651.173	15426.46045
651.372	15564.04624
651.571	15685.44815
651.77	15555.95287
651.969	15446.69349
652.168	15430.50705
652.367	15709.72891
652.566	15659.14415
652.765	15766.38454
652.964	15564.04624
653.163	15513.4629
653.362	15762.33769
653.561	15705.68211
653.76	15748.17372
653.959	15272.69064
654.158	15555.95287
654.357	15553.92954
654.556	15507.39293
654.755	15442.64688
654.954	15264.59753
655.153	15078.45652
655.352	15379.92463
655.551	15697.58851
655.749	15483.11309
655.948	15918.14494
656.147	15847.32261
656.346	15865.53392
656.545	15414.32065
656.743	15711.75231
656.942	15829.11139
657.141	15772.45484
657.34	15675.33121
657.538	15701.63531
657.737	15768.40798
657.936	16110.38528
658.135	15594.39645
658.333	15207.94589
658.532	15699.61191
658.731	15893.86283
658.929	15725.91615
659.128	15564.04624
659.326	15468.94989
659.525	16086.10156
659.724	15614.63002
659.922	15930.28606
660.121	15454.78672
660.319	15968.73327
660.518	15529.64952
660.716	15723.89274
660.915	15606.53658
661.113	15999.08668
661.312	15600.46651
661.51	15806.85335
661.709	15278.76047
661.907	15675.33121
662.105	15922.19198
662.304	16023.36963
662.502	15966.70972
662.701	16033.48759
662.899	15772.45484
663.097	15806.85335
663.296	15780.54858
663.494	16304.66357
663.692	15636.88703
663.891	15924.2155
664.089	15764.36112
664.287	15790.66578
664.485	15746.1503
664.684	15731.98639
664.882	15606.53658
665.08	15596.4198
665.278	15731.98639
665.476	15466.92658
665.675	15691.51833
665.873	15703.65871
666.071	15371.83147
666.269	15845.29913
666.467	15377.90134
666.665	15982.89816
666.863	15258.52771
667.061	15845.29913
667.259	15305.06308
667.457	15503.34628
667.655	15424.43715
667.853	15608.55994
668.051	15444.67018
668.249	15477.04315
668.447	15375.87805
668.645	15612.60665
668.843	15600.46651
669.041	15675.33121
669.239	15408.25075
669.437	15400.15757
669.635	15398.13427
669.833	15513.4629
670.031	15383.97121
670.229	15784.59546
670.426	15541.78952
670.624	15596.4198
670.822	15207.94589
671.02	15537.74285
671.218	15479.06646
671.415	15315.17948
671.613	15224.13206
671.811	15153.31758
672.009	15131.0616
672.206	15505.36961
672.404	15189.73645
672.602	15165.4572
672.799	15377.90134
672.997	15944.45077
673.195	15582.25634
673.392	15877.67485
673.59	15810.90026
673.788	15408.25075
673.985	15408.25075
674.183	15207.94589
674.38	15416.34395
674.578	15756.26741
674.775	15501.32296
674.973	15727.93956
675.17	15505.36961
675.368	15406.22746
675.565	15428.48375
675.763	15444.67018
675.96	15309.10964
676.158	15377.90134
676.355	14922.66366
676.553	15145.2245
676.75	14833.63805
676.947	15159.38739
677.145	14961.10624
677.342	15464.90327
677.539	15242.34152
677.737	15209.96916
677.934	14926.71026
678.131	15448.7168
678.329	15329.34245
678.526	15361.71502
678.723	15118.92198
678.92	14861.9645
679.118	14704.14394
679.315	14722.35425
679.512	14987.40898
679.709	15303.0398
679.906	14997.5254
680.104	15240.31825
680.301	14866.01113
680.498	15009.66509
680.695	14770.91474
680.892	15191.75972
681.089	15003.59525
681.286	15015.73494
681.483	14376.34288
681.68	14866.01113
681.877	14922.66366
682.075	14861.9645
682.272	14708.19069
682.469	15015.73494
682.665	14953.01308
682.862	15056.2005
683.059	14730.4477
683.256	15120.94525
683.453	15254.48116
683.65	15321.24932
683.847	15078.45652
684.044	14896.36075
684.241	14779.00811
684.438	15151.29431
684.635	14584.76331
684.831	15143.20123
685.028	14890.29083
685.225	15068.34015
685.422	14726.40098
685.619	15001.57197
685.815	14845.77797
686.012	15021.80478
686.209	14483.59017
686.405	14914.57047
686.602	14732.47106
686.799	14827.56808
686.996	14892.31414
687.192	15031.92117
687.389	14728.42434
687.586	14791.14814
687.782	14817.45145
687.979	14594.88045
688.175	14544.29443
688.372	14604.99757
688.568	14694.02708
688.765	14694.02708
688.962	14651.53597
689.158	14770.91474
689.355	14643.44237
689.551	14714.26079
689.748	14246.83065
689.944	14615.11466
690.14	14445.1435
690.337	14702.12057
690.533	14406.69631
690.73	14151.71524
690.926	14730.4477
691.123	14394.55498
691.319	14509.89549
691.515	14720.33089
691.712	14447.16702
691.908	14588.81017
692.104	14238.73589
692.301	14461.33163
692.497	14449.19054
692.693	14471.44917
692.889	14339.91828
693.086	14333.84746
693.282	14447.16702
693.478	14501.80157
693.674	14198.26163
693.87	14679.86342
694.067	14689.98032
694.263	14811.38147
694.459	14194.21416
694.655	14218.49886
694.851	14352.05987
695.047	14188.14294
695.243	14487.63715
695.439	14609.04441
695.635	13971.58988
695.831	14430.97881
696.027	14145.64389
696.224	14352.05987
696.42	13842.04933
696.615	14289.32765
696.811	14093.0247
697.007	13933.13367
697.203	13777.27477
697.399	14028.26054
697.595	14016.11699
697.791	13908.84505
697.987	13763.10493
698.183	14277.18573
698.379	14054.57127
698.575	14437.0494
698.77	14012.06912
698.966	13963.49392
699.162	13676.05829
699.358	14028.26054
699.554	13568.75993
699.749	13904.79691
699.945	13613.30003
700.141	13765.1292
700.337	13989.80566
700.532	14153.73902
700.728	13912.89318
700.924	14024.2127
701.119	13872.4114
701.315	13923.01346
701.511	13799.54136
701.706	14113.26303
701.902	13631.5205
702.097	13943.25382
702.293	14016.11699
702.489	13920.98941
702.684	13591.03019
702.88	13872.4114
703.075	13704.3997
703.271	13896.7006
703.466	13686.18029
703.662	13740.83773
703.857	13647.71625
704.053	13680.1071
704.248	13564.71075
704.443	13860.26665
704.639	13457.4021
704.834	13710.47277
705.03	13674.03388
705.225	13848.1218
705.42	13542.43998
705.616	13880.50784
705.811	13710.47277
706.006	13708.44842
706.202	13469.55077
706.397	13449.30291
706.592	13817.75922
706.787	13613.30003
706.983	13688.20468
707.178	13714.52148
707.373	13852.17009
707.568	13894.67651
707.763	13643.66733
707.959	13789.42023
708.154	13649.7407
708.349	13445.25329
708.544	13449.30291
708.739	13267.05429
708.934	13335.90766
709.129	13479.67456
709.324	13036.15544
709.519	13226.55
709.714	13121.23046
709.909	13218.44893
710.104	13084.77077
710.299	13572.8091
710.494	13277.18009
710.689	13518.14411
710.884	12900.42235
711.079	13360.2077
711.274	13244.77715
711.469	13378.43235
711.664	13234.651
711.859	13483.72405
712.054	13267.05429
712.249	13265.02912
712.443	13009.82095
712.638	13337.93269
712.833	13001.71786
713.028	13293.38116
713.223	13005.76942
713.417	13088.82193
713.612	13028.05261
713.807	13238.70147
714.002	13184.01859
714.196	13333.88263
714.391	12959.17532
714.586	13236.67623
714.78	13283.25552
714.975	13613.30003
715.17	13202.24658
715.364	13293.38116
715.559	12930.81237
715.754	12857.87433
715.948	12766.69186
716.143	12930.81237
716.337	12766.69186
716.532	12855.84817
716.726	12553.88712
716.921	13009.82095
717.115	13044.25819
717.31	13192.11996
717.504	13001.71786
717.699	13222.49947
717.893	12760.61262
718.088	13206.29719
718.282	13505.99597
718.476	13019.9497
718.671	12855.84817
718.865	12829.50765
719.059	12750.48045
719.254	12979.43395
719.448	12416.03414
719.642	12590.37267
719.837	12424.14397
720.031	12590.37267
720.225	12561.99519
720.419	12707.92376
720.614	12687.65777
720.808	12716.02999
721.002	12539.69775
721.196	12590.37267
721.39	12079.37685
721.585	12239.61802
721.779	12296.40139
721.973	12610.64155
722.167	12436.30853
722.361	12480.90987
722.555	12432.2537
722.749	12355.20691
722.943	12172.68748
723.137	12298.42926
723.331	12265.98242
723.525	12180.8007
723.719	12397.78661
723.913	12499.15496
724.107	12136.17653
724.301	12251.78635
724.495	12069.23341
724.689	12440.36333
724.883	12247.73027
725.077	12310.59636
725.271	12395.75907
725.465	12261.92644
725.659	12383.59371
725.853	12622.80259
726.046	12626.85622
726.24	12691.71101
726.434	12278.1502
726.628	12334.92981
726.822	12115.89161
727.015	12227.44942
727.209	12294.37351
727.403	12533.61649
727.596	12300.45713
727.79	12493.07332
727.984	12345.06845
728.177	12484.96438
728.371	11937.35093
728.565	12363.31756
728.758	12618.74893
728.952	12225.4213
729.146	12085.46281
729.339	12349.12385
729.533	12162.54579
729.726	12288.28982
729.92	11915.02901
730.113	12209.19603
730.307	12162.54579
730.5	12476.85533
730.694	12065.17599
730.887	12411.97918
731.081	12332.90206
731.274	12298.42926
731.468	12286.26191
731.661	12616.7221
731.854	12239.61802
732.048	12113.86308
732.241	12079.37685
732.435	12282.20607
732.628	12468.74618
732.821	12401.84166
733.014	12188.9138
733.208	11994.16596
733.401	12095.60594
733.594	12278.1502
733.788	12087.49145
733.981	12227.44942
734.174	12209.19603
734.367	12158.48907
734.56	11957.64274
734.754	11890.67668
734.947	11756.71728
735.14	12008.36874
735.333	12063.14726
735.526	12103.7203
735.719	11943.43856
735.912	11955.6136
736.105	11584.13777
736.298	11925.17546
736.491	12038.80196
736.684	12280.17814
736.877	11992.13696
737.07	11774.98666
737.263	11998.22394
737.456	12002.28188
737.649	12028.65775
737.842	11890.67668
738.035	11998.22394
738.228	11843.99805
738.421	11967.78834
738.614	11779.04643
738.807	12142.26186
739	12004.31084
739.192	11943.43856
739.385	11563.82998
739.578	11756.71728
739.771	11868.35267
739.964	11785.13602
740.156	11850.08681
740.349	11474.4646
740.542	11898.79425
740.735	11777.01655
740.927	11856.17551
741.12	11693.784
741.313	11746.56732
741.505	11494.77652
741.698	11383.04899
741.891	11385.08066
742.083	11315.9982
742.276	11624.75057
742.468	11547.58308
742.661	11781.0763
742.854	11957.64274
743.046	11685.66296
743.239	11797.31496
743.431	11545.55218
743.624	11198.12459
743.816	11376.95391
744.009	11027.34833
744.201	11273.32381
744.393	11283.48479
744.586	11092.41491
744.778	11307.87009
744.971	11246.90408
745.163	11437.90071
745.355	11326.15811
745.548	11496.80766
745.74	11336.31777
745.932	11328.19006
746.125	11391.17562
746.317	11513.05644
746.509	11407.42841
746.702	11710.02566
746.894	11415.55458
747.086	11565.8608
747.278	11399.3021
747.471	11517.11854
747.663	11413.52305
747.855	11413.52305
748.047	11448.05766
748.239	11240.80697
748.431	11311.93417
748.623	11358.66814
748.815	11084.2822
749.008	11415.55458
749.2	11366.79525
749.392	11285.51695
749.584	11334.28586
749.776	11527.27362
749.968	11051.74961
750.16	11482.58948
750.352	11212.35256
750.544	11311.93417
750.736	11267.2271
750.928	11441.96352
751.12	11181.86343
751.311	10884.97556
751.503	11460.24568
751.695	11342.41345
751.887	10797.49025
752.079	11267.2271
752.271	11116.81202
752.463	11358.66814
752.654	11250.96876
752.846	11259.09802
753.038	10927.6932
753.23	11297.70972
753.421	11153.40478
753.613	11228.61247
753.805	11222.51508
753.997	10968.37201
754.188	10986.67601
754.38	10925.65914
754.572	11114.77898
754.763	11185.92879
754.955	10895.14688
755.146	11082.249
755.338	10925.65914
755.53	10856.49433
755.721	11196.09199
755.913	11157.47042
756.104	10630.59705
756.296	10746.61673
756.487	10791.38582
756.679	10864.63205
756.87	10766.96702
757.062	10691.66494
757.253	10836.1492
757.445	10797.49025
757.636	10575.62647
757.827	10746.61673
758.019	10595.987
758.21	10363.80169
758.401	10276.17905
758.593	10424.9193
758.784	10437.14141
758.975	10261.91255
759.167	10231.33926
759.358	10555.26469
759.549	10416.77096
759.74	10516.57385
759.932	10449.36306
760.123	10506.39129
760.314	10693.70035
760.505	10196.68582
760.696	9968.28006
760.888	10286.369
761.079	10076.387
761.27	10400.47367
761.461	10253.75997
761.652	10367.87657
761.843	10049.87391
762.034	10327.12544
762.225	10037.63629
762.416	10337.31372
762.607	9976.44048
762.798	10170.18345
762.989	9823.39366
763.18	9931.5553
763.371	9923.3936
763.562	10007.04
763.753	10119.21079
763.944	10312.86129
764.135	10186.49287
764.326	10339.35134
764.517	9947.878
764.708	10135.52298
764.899	9772.3595
765.089	10257.83629
765.28	9990.72066
765.471	10025.39816
765.662	9949.91827
765.853	10172.22218
766.043	9792.77429
766.234	10064.15048
766.425	9641.66876
766.615	9792.77429
766.806	9900.94772
766.997	9978.48055
767.187	9860.13246
767.378	10058.03204
767.569	9745.81801
767.759	9935.63606
767.95	9709.06401
768.141	9643.71129
768.331	9506.82727
768.522	9457.77685
768.712	9707.02198
768.903	9713.14803
769.093	9658.00855
769.284	9680.47414
769.474	9637.58366
769.665	9420.98295
769.855	9232.84224
770.046	9443.46873
770.236	9302.38883
770.426	9247.16224
770.617	9331.02007
770.807	9310.56952
770.998	9498.65284
771.188	9355.55855
771.378	9220.5673
771.569	9275.79977
771.759	9394.4063
771.949	9359.64807
772.139	9547.69558
772.33	9204.19977
772.52	9288.072
772.71	9257.39031
772.9	9167.36886
773.09	9224.65902
773.281	9355.55855
773.471	9212.38367
773.661	9048.65374
773.851	9073.22025
774.041	8985.17863
774.231	9150.99779
774.421	9095.73736
774.611	9007.70399
774.802	8845.88343
774.992	8868.42208
775.182	8864.3243
775.372	9093.69044
775.562	8825.39186
775.752	9171.46145
775.942	9091.6435
776.131	8772.10531
776.321	8964.69919
776.511	9108.01854
776.701	8831.53952
776.891	8866.3732
777.081	8852.03055
777.271	8718.80643
777.461	8692.15234
777.651	8688.05143
777.84	9056.84286
778.03	8786.4529
778.22	8749.5573
778.41	8569.09279
778.599	8474.70131
778.789	8761.85649
778.979	8655.24152
779.169	8743.40745
779.358	9001.56092
779.548	8893.00721
779.738	8484.9632
779.927	8474.70131
780.117	8614.22243
780.307	8460.33386
780.496	8417.22588
780.686	8433.64897
780.875	8072.05199
781.065	8347.41399
781.254	8100.83788
781.444	8445.96548
781.633	8392.58894
781.823	8318.66139
782.012	8236.48997
782.202	8300.17556
782.391	8376.16277
782.581	8372.05604
782.77	8472.64888
782.96	8417.22588
783.149	8388.48252
783.338	8400.80157
783.528	8141.95375
783.717	8466.49146
783.906	8178.9512
784.096	8308.39168
784.285	8154.28695
784.474	8020.63876
784.663	7928.06289
784.853	7718.06949
785.042	7534.6612
785.231	8022.69553
785.42	7693.35008
785.61	7761.32116
785.799	7668.62764
785.988	7837.50403
786.177	7567.64592
786.366	7705.71017
786.555	7672.74826
786.744	7781.91395
786.933	7755.14292
787.122	7831.32811
787.312	7878.67211
787.501	7678.92903
787.69	7899.25304
787.879	8119.34102
788.068	7849.85533
788.257	8080.27693
788.445	7730.42806
788.634	8154.28695
788.823	7662.44655
789.012	7880.7303
789.201	7654.2048
789.39	7837.50403
789.579	7689.22989
789.768	7683.04943
789.957	7672.74826
790.145	7648.02327
790.334	7540.84625
790.523	7433.61122
790.712	7538.78459
790.9	7487.23603
791.089	7573.82995
791.278	7598.56412
791.467	7295.35648
791.655	7338.70061
791.844	7408.85637
792.033	7278.84189
792.221	7115.68435
792.41	7309.8056
792.599	7043.35498
792.787	7445.98748
792.976	7293.29224
793.164	7266.45502
793.353	7243.7437
793.541	7408.85637
793.73	7301.54909
793.918	7505.79506
794.107	7260.26129
794.295	7105.35326
794.484	6786.88025
794.672	7285.03503
794.861	7090.8888
795.049	7313.93372
795.238	7033.01998
795.426	7256.13202
795.614	7024.75157
795.803	7185.921
795.991	7309.8056
796.179	7305.67739
796.368	7084.6894
796.556	7045.42192
796.744	6970.99814
796.932	7183.85559
797.121	6743.41041
797.309	7082.6229
797.497	6834.47852
797.685	6968.93039
797.874	6844.82437
798.062	6863.44548
798.25	6834.47852
798.438	7307.74151
798.626	6900.68218
798.814	7051.62258
799.002	7039.22105
799.19	6879.99603
799.378	6695.789
799.566	6859.30762
799.755	6668.86718
799.943	6507.25445
800.131	6964.79484
800.318	7111.55198
800.506	6886.20211
800.694	6954.45555
800.882	6685.43491
801.07	6908.956
801.258	6710.28375
801.446	6946.18372
801.634	6668.86718
801.822	6648.15544
802.01	6702.00117
802.197	7064.02331
802.385	6610.86851
802.573	6670.93822
802.761	6445.05821
802.949	6836.54774
803.136	6673.00925
803.324	6699.93047
803.512	6691.64743
803.699	6840.6861
803.887	6759.97154
804.075	6621.22674
804.262	6494.81687
804.45	6770.3215
804.638	6697.85974
804.825	6964.79484
805.013	6625.36987
805.201	6888.27076
805.388	6759.97154
805.576	6793.0894
805.763	6720.63646
805.951	6958.59133
806.138	6482.37846
806.326	6685.43491
806.513	6478.23214
806.701	6637.79871
806.888	6869.65211
807.075	6933.77529
807.263	6884.13344
807.45	7134.27891
807.638	6863.44548
807.825	6991.67433
808.012	6639.8701
808.2	6784.81048
808.387	6702.00117
808.574	6923.43432
808.761	6735.12929
808.949	6875.85853
809.136	6527.98189
809.323	6925.50256
809.51	6774.46132
809.698	6770.3215
809.885	6511.40012
810.072	6677.15123
810.259	6353.79918
810.446	6598.43787
810.633	6548.70701
810.82	6865.51438
811.008	6861.37656
811.195	7140.47669
811.382	6768.25155
811.569	6906.88758
811.756	6737.19961
811.943	6904.81913
812.13	6658.5116
812.317	6898.61366
812.504	6784.81048
812.691	7126.01488
812.878	6648.15544
813.064	6968.93039
813.251	6619.15514
813.438	6751.69115
813.625	6689.57661
813.812	6846.89348
813.999	6733.05896
814.186	6834.47852
814.372	6670.93822
814.559	6687.50577
814.746	6683.36402
814.933	6702.00117
815.12	6892.40799
815.306	6834.47852
815.493	6846.89348
815.68	7020.61723
815.866	6623.29832
816.053	7012.34828
816.24	6546.63461
816.426	6826.20142
816.613	6718.56597
816.799	6846.89348
816.986	6805.50709
817.173	6575.64622
817.359	6561.14098
817.546	6726.84781
817.732	6536.27222
817.919	6778.60105
818.105	6743.41041
818.292	6801.36795
818.478	6730.9886
818.665	6958.59133
818.851	6432.61645
819.037	6801.36795
819.224	6403.58242
819.41	6445.05821
819.597	6272.87273
819.783	6590.15032
819.969	6459.57253
820.156	6505.18158
820.342	6399.43433
820.528	6569.42982
820.714	6206.44496
820.901	6274.94821
821.087	6220.97809
821.273	6660.58276
821.459	6308.15273
821.646	6567.35765
821.832	6596.36602
822.018	6561.14098
822.204	6216.82588
822.39	6635.72729
822.576	6521.7639
822.762	6486.52469
822.948	6486.52469
823.134	6718.56597
823.32	6347.57533
823.507	6349.64997
823.693	6341.35127
823.879	6440.91105
824.065	6121.29928
824.25	6112.99027
824.436	6096.37112
824.622	6179.45182
824.808	6229.28221
824.994	6254.19235
825.18	5963.3637
825.366	6225.1302
825.552	5923.85854
825.738	5828.17922
825.923	5717.87808
826.109	6102.60347
826.295	5863.54478
826.481	5917.62011
826.667	5813.61494
826.852	6071.43957
827.038	5890.58444
827.224	6243.81353
827.409	5971.67949
827.595	5998.7032
827.781	5853.14385
827.966	6119.22206
828.152	5732.44995
828.338	5780.32083
828.523	5551.26027
828.709	5732.44995
828.894	5605.42761
829.08	5817.77628
829.266	5792.80683
829.451	5805.29198
829.637	5542.92541
829.822	5551.26027
830.008	5657.49656
830.193	5957.12661
830.378	5799.04951
830.564	5959.20566
830.749	5630.42255
830.935	5840.66196
831.12	5551.26027
831.305	5765.75275
831.491	5530.42243
831.676	5657.49656
831.861	5480.40201
832.047	5713.71447
832.232	5507.49809
832.417	5472.06396
832.602	5555.42755
832.788	5609.59367
832.973	5440.79291
833.158	5826.09868
833.343	5574.17916
833.528	5655.41409
833.714	5326.08715
833.899	5659.57902
834.084	5234.27151
834.269	5572.09575
834.454	5313.56951
834.639	5513.75046
834.824	5278.09826
835.009	5292.70489
835.194	5442.87781
835.379	5447.04754
835.564	5167.4681
835.749	5513.75046
835.934	5451.21718
836.119	5517.9186
836.304	5123.6154
836.489	5426.19794
836.674	5165.38011
836.859	5313.56951
837.044	5025.43179
837.228	5494.9927
837.413	5246.79449
837.598	5388.66273
837.783	5033.78984
837.968	5447.04754
838.152	4925.10651
838.337	5271.83793
838.522	5265.57739
838.707	5284.35839
838.891	5154.9398
839.076	5117.34989
839.261	4851.9193
839.445	5150.76352
839.63	4975.27578
839.815	5182.08338
839.999	4845.6448
840.184	5050.50481
840.368	4690.80923
840.553	4927.19716
840.737	4644.75317
840.922	4958.55416
841.106	4571.45984
841.291	5017.07338
841.475	4707.55418
841.66	4891.65298
841.844	4770.3349
842.029	4847.73632
842.213	4862.37633
842.397	4874.92401
842.582	4964.82494
842.766	4929.28779
842.951	4766.15015
843.135	4912.56212
843.319	4805.90158
843.504	4851.9193
843.688	4615.43912
843.872	4791.25727
844.056	4805.90158
844.241	4975.27578
844.425	4548.41915
844.609	4686.62276
844.793	4493.94868
844.977	4661.50209
845.161	4458.32531
845.346	4630.0967
845.53	4569.36534
845.714	4479.28101
845.898	4493.94868
846.082	4487.66267
846.266	4292.69858
846.45	4496.04398
846.634	4437.36742
846.818	4619.62711
847.002	4544.22965
847.186	4458.32531
847.37	4353.51401
847.554	4554.70324
847.738	4498.13925
847.922	4502.32973
848.106	4812.17737
848.29	4420.59953
848.473	4452.03817
848.657	4355.61077
848.841	4378.67369
849.025	4286.4063
849.209	4233.96309
849.392	4284.30883
849.576	4099.64808
849.76	4250.74637
849.944	4101.74741
850.127	4330.44822
850.311	4129.03685
850.495	4229.76706
850.678	4164.71769
850.862	4296.89333
851.046	4135.33391
851.229	4200.39245
851.413	4074.45445
851.596	4343.02988
851.78	4036.65841
851.964	4191.99894
852.147	3877.00205
852.331	4013.55754
852.514	3916.9271
852.698	3858.08765
852.881	3799.2326
853.065	3809.74357
853.248	3628.88734
853.431	3824.45809
853.615	3881.20502
853.798	3919.02822
853.982	3618.36809
854.165	3847.57896
854.348	3855.98596
854.532	3858.08765
854.715	3763.49165
854.898	3734.05369
855.081	3660.44225
855.265	3612.05631
855.448	3792.92578
855.631	3877.00205
855.814	3664.64925
855.997	3847.57896
856.181	3698.3025
856.364	3872.79899
856.547	3696.19931
856.73	3847.57896
856.913	3422.62577
857.096	3696.19931
857.279	3662.54576
857.462	3872.79899
857.645	3492.1008
857.828	3841.27351
858.011	3519.46434
858.194	3647.82079
858.377	3515.25477
858.56	3746.67042
858.743	3624.67969
858.926	3643.61349
859.109	3519.46434
859.292	3759.28646
859.475	3452.10241
859.658	3656.23517
859.841	3384.72211
860.023	3401.56889
860.206	3388.93391
860.389	3496.31078
860.572	3285.72477
860.755	3348.91898
860.937	3174.0445
861.12	3353.13137
861.303	3180.36726
861.486	3403.67466
861.668	3409.99185
861.851	3325.74957
862.034	3353.13137
862.216	3289.9382
862.399	3022.25486
862.581	3142.42846
862.764	2914.68883
862.947	3167.72158
863.129	3199.33468
863.312	3064.42684
863.494	2811.30537
863.677	3064.42684
863.859	2866.16615
864.042	3119.24106
864.224	3053.88442
864.406	3070.7521
864.589	2775.4298
864.771	2988.51285
864.954	2669.89103
865.136	3015.92853
865.318	2832.40679
865.501	2986.40385
865.683	2676.22427
865.865	3049.66735
866.048	2760.65636
866.23	3003.27546
866.412	2659.33537
866.594	2908.36022
866.777	2629.77785
866.959	2752.2141
867.141	2545.31459
867.323	2760.65636
867.505	2904.14107
867.687	3125.56509
867.869	2914.68883
868.052	3096.05173
868.234	2811.30537
868.416	3039.12439
868.598	2813.41558
868.78	3007.49321
868.962	2878.82497
869.144	2887.2639
869.326	2838.73694
869.508	2676.22427
869.69	2467.16941
869.872	2625.55515
870.054	2471.39387
870.236	2775.4298
870.417	2686.77942
870.599	2756.43526
870.781	2693.11236
870.963	2847.17695
871.145	2549.53821
871.327	2718.44293
871.508	2348.8673
871.69	2612.88675
871.872	2498.85176
872.054	2634.0005
872.235	2566.4322
872.417	2773.31935
872.599	2722.66451
872.78	3011.7109
872.962	2720.55373
873.144	2712.11047
873.325	2631.88918
873.507	2623.44378
873.689	2674.1132
873.87	2840.84697
874.052	2519.97192
874.233	2642.44566
874.415	2530.53157
874.596	2644.55692
874.778	2374.22049
874.959	2431.25977
875.141	2439.70938
875.322	2634.0005
875.503	2534.75534
875.685	2593.88332
875.866	2342.52877
876.048	2621.3324
876.229	2315.06082
876.41	2574.87891
876.592	2492.51549
876.773	2448.15881
876.954	2321.39972
877.136	2676.22427
877.317	2408.02246
877.498	2600.21791
877.679	2458.72037
877.86	2756.43526
878.042	2549.53821
878.223	2773.31935
878.404	2591.77177
878.585	2756.43526
878.766	2403.79736
878.947	2693.11236
879.128	2515.74797
879.309	2604.4409
879.49	2465.05717
879.672	2528.41966
879.853	2562.20877
880.034	2602.32941
880.215	2492.51549
880.396	2566.4322
880.576	2492.51549
880.757	2572.76725
880.938	2372.10778
881.119	2619.221
881.3	2452.38347
881.481	2665.6688
881.662	2391.12181
881.843	2576.99056
882.023	2614.99818
882.204	2686.77942
882.385	2568.5439
882.566	2553.76178
882.747	2439.70938
882.927	2574.87891
883.108	2224.19394
883.289	2477.73047
883.469	2334.07727
883.65	2519.97192
883.831	2380.55856
884.011	2638.22311
884.192	2410.135
884.373	2672.00212
884.553	2471.39387
884.734	2769.0984
884.914	2291.81743
885.095	2528.41966
885.275	2334.07727
885.456	2545.31459
885.636	2355.20573
885.817	2541.09093
885.997	2408.02246
886.178	2422.80999
886.358	2215.74036
886.538	2477.73047
886.719	2422.80999
886.899	2707.88875
887.08	2722.66451
887.26	2783.87146
887.44	2467.16941
887.621	2644.55692
887.801	2418.58503
887.981	2623.44378
888.161	2663.55767
888.342	2650.89061
888.522	2532.64346
888.702	2648.77939
888.882	2481.95482
889.062	2541.09093
889.242	2560.09704
889.423	2507.29996
889.603	2524.19581
889.783	2802.86442
889.963	2431.25977
890.143	2672.00212
890.323	2441.82175
890.503	2604.4409
890.683	2346.75447
890.863	2422.80999
891.043	2397.45963
891.223	2638.22311
891.403	2391.12181
891.583	2771.20888
891.763	2372.10778
891.943	2699.44518
892.122	2348.8673
892.302	2614.99818
892.482	2230.53403
892.662	2456.60808
892.842	2300.26971
893.022	2443.93412
893.201	2312.94783
893.381	2619.221
893.561	2359.4313
893.741	2574.87891
893.92	2574.87891
894.1	2667.77992
894.28	2397.45963
894.459	2475.61828
894.639	2219.96717
894.819	2384.78389
894.998	2312.94783
895.178	2103.71784
895.357	2262.2333
895.537	2310.83484
895.716	2110.05933
895.896	2279.13874
896.075	2063.55349
896.255	2156.56149
896.434	2217.85377
896.614	2329.85146
896.793	2110.05933
896.973	2340.41591
897.152	2017.04419
897.331	2230.53403
897.511	2135.42461
897.69	2177.69755
897.87	1974.76022
898.049	2141.76576
898.228	2021.27245
898.407	2213.62694
898.587	1934.58814
898.766	2258.00685
898.945	1932.47376
899.124	2072.00936
899.304	1858.46705
899.483	2126.96964
899.662	1830.97725
899.841	2006.47344
900.02	1756.96254
900.199	1909.21522
900.378	1924.01619
900.557	1864.81073
900.737	1721.01081
900.916	1843.66495
901.095	1750.61819
901.274	1816.17473
901.453	1841.55035
901.632	1816.17473
901.811	1617.38028
901.989	1807.71604
902.168	1663.90907
902.347	1822.51869
902.526	1712.55143
902.705	1680.82833
902.884	1420.68257
903.063	1627.9551
903.242	1587.7705
903.42	1630.07006
903.599	1412.22237
903.778	1742.15901
903.957	1579.3105
904.135	1721.01081
904.314	1716.78113
904.493	1627.9551
904.672	1543.35523
904.85	1577.1955
905.029	1399.5321
905.207	1509.51466
905.386	1517.97483
905.565	1564.50544
905.743	1342.42626
905.922	1492.5943
906.1	1259.94209
906.279	1369.92157
906.457	1249.36744
906.636	1365.69151
906.814	1156.31393
906.993	1230.33325
907.171	1111.90463
907.35	1221.87369
907.528	987.14771
907.707	1268.40185
907.885	985.03336
908.063	1295.89635
908.242	1145.74011
908.42	1137.28114
908.598	1149.96963
908.777	1202.83986
908.955	1065.38284
909.133	1137.28114
909.311	961.776
909.49	1052.69552
909.668	1037.8939
909.846	1099.21663
910.024	959.66174
910.202	1073.84117
910.38	946.9763
910.559	1135.1664
910.737	1035.77941
910.915	1018.86366
911.093	1114.01932
911.271	989.26206
911.449	1027.32149
911.627	1215.52905
911.805	1090.75806
911.983	1215.52905
912.161	1175.34704
912.339	1306.47125
912.517	1145.74011
912.695	1175.34704
912.872	1124.5928
913.05	1122.4781
913.228	1094.98734
913.406	1097.10198
913.584	1228.21836
913.762	1223.98858
913.939	1204.95472
914.117	1234.56305
914.295	1027.32149
914.473	1200.72501
914.65	987.14771
914.828	1107.67528
915.006	883.55312
915.184	1044.23742
915.361	936.4053
915.539	1257.82715
915.716	900.46529
915.894	1063.26828
916.072	921.6062
916.249	1086.52881
916.427	957.54748
916.604	1035.77941
916.782	902.57934
916.959	949.09052
917.137	889.89512
917.314	963.89027
917.492	815.90986
917.669	982.91902
917.847	858.18586
918.024	875.09723
918.201	849.73038
918.379	987.14771
918.556	968.11884
918.733	1037.8939
918.911	887.78111
919.088	1031.55043
919.265	837.04742
919.442	1008.29152
919.62	737.70922
919.797	875.09723
919.974	786.31885
920.151	849.73038
920.328	706.01026
920.506	858.18586
920.683	790.54602
920.86	815.90986
921.037	815.90986
921.214	875.09723
921.391	718.68955
921.568	853.9581
921.745	782.09171
921.922	803.22777
922.099	684.87899
922.276	841.27503
922.453	596.14053
922.63	906.80748
922.807	608.81612
922.984	646.84561
923.161	689.10516
923.338	706.01026
923.514	570.79075
923.691	676.4268
923.868	646.84561
924.045	672.20078
924.222	665.86183
924.399	693.33136
924.575	691.21826
924.752	706.01026
924.929	613.04142
925.105	693.33136
925.282	520.09701
925.459	674.31378
925.635	581.35293
925.812	693.33136
925.989	517.98495
926.165	638.39427
926.342	579.24047
926.518	477.85847
926.695	577.12802
926.871	604.59088
927.048	513.76086
927.224	686.99207
927.401	511.64884
927.577	591.91544
927.754	553.89196
927.93	695.44449
928.107	446.18347
928.283	570.79075
928.459	452.5182
928.636	477.85847
928.812	469.41147
928.988	503.20089
929.165	427.18015
929.341	429.29157
929.517	368.06705
929.693	490.52941
929.87	384.95518
930.046	389.17739
930.222	401.84439
930.398	439.84889
930.574	344.84764
930.751	420.84599
930.927	376.51098
931.103	477.85847
931.279	399.73318
931.455	490.52941
931.631	387.06628
931.807	401.84439
931.983	465.18806
932.159	384.95518
932.335	401.84439
932.511	325.8515
932.687	376.51098
932.863	292.08415
933.039	308.96725
933.215	292.08415
933.391	334.29405
933.566	355.40166
933.742	321.63033
933.918	330.07274
934.094	311.07772
934.27	325.8515
934.445	251.99156
934.621	374.39997
934.797	330.07274
934.973	243.55189
935.148	249.88161
935.324	228.7832
935.5	184.48295
935.675	226.67346
935.851	268.87183
936.027	192.92041
936.202	201.3582
936.378	262.54158
936.553	233.00273
936.729	163.39074
936.904	199.24872
937.08	235.11252
937.255	167.60902
937.431	190.81102
937.606	148.62743
937.782	148.62743
937.957	142.30062
938.133	133.86516
938.308	98.01833
938.483	138.08285
938.659	167.60902
938.834	32.66719
939.009	144.40954
939.185	176.04582
939.36	116.99528
939.535	125.43005
939.71	157.06349
939.886	127.53879
940.061	106.45231
940.236	55.85379
940.411	116.99528
940.586	140.19172
940.761	138.08285
940.937	57.9618
941.112	114.88664
941.287	114.88664
941.462	57.9618
941.637	104.34378
941.812	15.80599
941.987	55.85379
942.162	125.43005
942.337	87.47635
942.512	91.69308
942.687	116.99528
942.862	76.93493
943.037	114.88664
943.212	144.40954
943.386	127.53879
943.561	106.45231
943.736	125.43005
943.911	57.9618
944.086	83.25972
944.26	85.36802
944.435	72.71852
944.61	131.75635
944.785	150.73642
944.959	49.5299
945.134	127.53879
945.309	98.01833
945.483	146.51847
945.658	32.66719
945.833	138.08285
946.007	125.43005
946.182	72.71852
946.357	51.63784
946.531	38.99053
946.706	114.88664
946.88	152.84542
947.055	43.20621
947.229	74.82672
947.404	60.06984
947.578	108.56086
947.752	106.45231
947.927	47.42198
948.101	127.53879
948.276	91.69308
948.45	89.5847
948.624	64.28597
948.799	102.23527
948.973	81.15143
949.147	100.12679
949.321	81.15143
949.496	81.15143
949.67	83.25972
949.844	98.01833
950.018	72.71852
950.193	87.47635
950.367	49.5299
950.541	140.19172
950.715	85.36802
950.889	7.37596
951.063	121.21262
951.237	81.15143
951.411	11.59093
951.585	66.39408
951.759	72.71852
951.933	135.97399
952.107	110.66943
952.281	32.66719
952.455	106.45231
952.629	106.45231
952.803	186.59229
952.977	140.19172
953.151	81.15143
953.325	22.12877
953.499	89.5847
953.672	49.5299
953.846	129.64756
954.02	135.97399
954.194	81.15143
954.368	72.71852
954.541	123.32132
954.715	60.06984
954.889	81.15143
955.062	83.25972
955.236	159.17255
955.41	123.32132
955.583	85.36802
955.757	32.66719
955.93	165.49987
956.104	127.53879
956.278	60.06984
956.451	53.7458
956.625	106.45231
956.798	26.34407
956.972	93.80147
957.145	93.80147
957.319	125.43005
957.492	55.85379
957.665	72.71852
957.839	89.5847
958.012	72.71852
958.185	28.45175
958.359	68.5022
958.532	93.80147
958.705	91.69308
958.879	76.93493
959.052	55.85379
959.225	110.66943
959.398	114.88664
959.572	51.63784
959.745	91.69308
959.918	104.34378
960.091	93.80147
960.264	83.25972
960.438	125.43005
960.611	81.15143
960.784	176.04582
960.957	43.20621
961.13	30.55946
961.303	104.34378
961.476	89.5847
961.649	161.28164
961.822	102.23527
961.995	100.12679
962.168	159.17255
962.341	72.71852
962.514	127.53879
962.686	125.43005
962.859	150.73642
963.032	51.63784
963.205	114.88664
963.378	114.88664
963.551	83.25972
963.723	119.10394
963.896	-3.16104
964.069	135.97399
964.242	55.85379
964.414	64.28597
964.587	64.28597
964.76	144.40954
964.932	57.9618
965.105	142.30062
965.278	106.45231
965.45	91.69308
965.623	91.69308
965.795	125.43005
965.968	83.25972
966.14	76.93493
966.313	72.71852
966.485	140.19172
966.658	104.34378
966.83	100.12679
967.003	28.45175
967.175	7.37596
967.348	93.80147
967.52	34.77495
967.692	72.71852
967.865	26.34407
968.037	30.55946
968.209	64.28597
968.382	38.99053
968.554	55.85379
968.726	114.88664
968.898	83.25972
969.071	123.32132
969.243	26.34407
969.415	102.23527
969.587	70.61035
969.759	49.5299
969.932	20.02115
970.104	70.61035
970.276	100.12679
970.448	47.42198
970.62	70.61035
970.792	38.99053
970.964	81.15143
971.136	60.06984
971.308	129.64756
971.48	60.06984
971.652	83.25972
971.824	85.36802
971.996	140.19172
972.168	13.69845
972.339	133.86516
972.511	24.2364
972.683	13.69845
972.855	41.09836
973.027	98.01833
973.199	72.71852
973.37	45.31408
973.542	87.47635
973.714	70.61035
973.886	91.69308
974.057	32.66719
974.229	60.06984
974.401	64.28597
974.572	98.01833
974.744	95.90989
974.915	41.09836
975.087	5.26851
975.259	83.25972
975.43	7.37596
975.602	51.63784
975.773	89.5847
975.945	57.9618
976.116	110.66943
976.288	76.93493
976.459	60.06984
976.63	83.25972
976.802	125.43005
976.973	64.28597
977.145	70.61035
977.316	72.71852
977.487	30.55946
977.659	64.28597
977.83	102.23527
978.001	89.5847
978.172	89.5847
978.344	76.93493
978.515	81.15143
978.686	32.66719
978.857	51.63784
979.028	51.63784
979.2	70.61035
979.371	68.5022
979.542	47.42198
979.713	176.04582
979.884	-1.05368
980.055	72.71852
980.226	93.80147
980.397	47.42198
980.568	38.99053
980.739	47.42198
980.91	41.09836
981.081	38.99053
981.252	34.77495
981.423	95.90989
981.594	36.88273
981.765	22.12877
981.936	62.17789
982.106	47.42198
982.277	22.12877
982.448	72.71852
982.619	68.5022
982.79	-5.26836
982.96	89.5847
983.131	83.25972
983.302	-17.91182
983.472	-17.91182
983.643	38.99053
983.814	-11.5902
983.984	95.90989
984.155	76.93493
984.326	22.12877
984.496	55.85379
984.667	41.09836
984.837	38.99053
985.008	93.80147
985.178	87.47635
985.349	81.15143
985.519	85.36802
985.69	98.01833
985.86	114.88664
986.031	57.9618
986.201	30.55946
986.371	102.23527
986.542	83.25972
986.712	43.20621
986.882	-20.01897
987.053	89.5847
987.223	64.28597
987.393	26.34407
987.563	66.39408
987.734	102.23527
987.904	114.88664
988.074	74.82672
988.244	51.63784
988.414	13.69845
988.585	-36.87534
988.755	91.69308
988.925	47.42198
989.095	13.69845
989.265	38.99053
989.435	81.15143
989.605	32.66719
989.775	51.63784
989.945	89.5847
990.115	114.88664
990.285	41.09836
990.455	89.5847
990.625	13.69845
990.795	76.93493
990.965	11.59093
991.134	64.28597
991.304	106.45231
991.474	55.85379
991.644	47.42198
991.814	72.71852
991.984	100.12679
992.153	83.25972
992.323	22.12877
992.493	22.12877
992.662	49.5299
992.832	121.21262
993.002	55.85379
993.171	64.28597
993.341	55.85379
993.511	104.34378
993.68	41.09836
993.85	-20.01897
994.019	-11.5902
994.189	9.48343
994.358	22.12877
994.528	-7.37567
994.697	76.93493
994.867	85.36802
995.036	87.47635
995.206	79.04317
995.375	106.45231
995.544	34.77495
995.714	85.36802
995.883	55.85379
996.052	64.28597
996.222	38.99053
996.391	30.55946
996.56	100.12679
996.73	53.7458
996.899	15.80599
997.068	-3.16104
997.237	72.71852
997.406	-41.08919
997.576	68.5022
997.745	41.09836
997.914	1.05369
998.083	9.48343
998.252	-41.08919
998.421	53.7458
998.59	112.77803
998.759	51.63784
998.928	7.37596
999.097	81.15143
999.266	20.02115
999.435	5.26851
999.604	127.53879
999.773	57.9618
999.942	81.15143
1000.111	72.71852
1000.28	49.5299
1000.448	49.5299
1000.617	119.10394
1000.786	1.05369
1000.955	-28.44736
1001.124	32.66719
1001.292	127.53879
1001.461	85.36802
1001.63	57.9618
1001.798	13.69845
1001.967	81.15143
1002.136	89.5847
1002.304	5.26851
1002.473	-9.48295
1002.642	22.12877
1002.81	89.5847
1002.979	66.39408
1003.147	22.12877
1003.316	60.06984
1003.484	72.71852
1003.653	76.93493
1003.821	22.12877
1003.99	60.06984
1004.158	47.42198
1004.327	34.77495
1004.495	36.88273
1004.663	47.42198
1004.832	74.82672
1005	72.71852
1005.168	30.55946
1005.337	24.2364
1005.505	24.2364
1005.673	57.9618
1005.842	-13.69743
1006.01	64.28597
1006.178	43.20621
1006.346	-28.44736
1006.514	83.25972
1006.683	-36.87534
1006.851	55.85379
1007.019	51.63784
1007.187	-3.16104
1007.355	17.91356
1007.523	93.80147
1007.691	85.36802
1007.859	20.02115
1008.027	106.45231
1008.195	41.09836
1008.363	93.80147
1008.531	13.69845
1008.699	-1.05368
1008.867	5.26851
1009.035	38.99053
1009.203	22.12877
1009.37	85.36802
1009.538	62.17789
1009.706	38.99053
1009.874	57.9618
1010.042	13.69845
1010.209	30.55946
1010.377	34.77495
1010.545	64.28597
1010.713	72.71852
1010.88	41.09836
1011.048	47.42198
1011.216	-3.16104
1011.383	-22.12611
1011.551	95.90989
1011.718	100.12679
1011.886	-79.00925
1012.054	74.82672
1012.221	81.15143
1012.389	72.71852
1012.556	41.09836
1012.724	-1.05368
1012.891	55.85379
1013.058	43.20621
1013.226	24.2364
1013.393	-1.05368
1013.561	34.77495
1013.728	116.99528
1013.895	9.48343
1014.063	-5.26836
1014.23	85.36802
1014.397	49.5299
1014.565	-20.01897
1014.732	49.5299
1014.899	-3.16104
1015.066	-7.37567
1015.233	64.28597
1015.401	49.5299
1015.568	64.28597
1015.735	17.91356
1015.902	81.15143
1016.069	22.12877
1016.236	49.5299
1016.403	38.99053
1016.57	13.69845
1016.737	112.77803
1016.904	13.69845
1017.071	-17.91182
1017.238	-36.87534
1017.405	32.66719
1017.572	-15.80464
1017.739	89.5847
1017.906	-11.5902
1018.073	-15.80464
1018.24	-3.16104
1018.407	-1.05368
1018.573	11.59093
1018.74	26.34407
1018.907	51.63784
1019.074	-24.23321
1019.241	-11.5902
1019.407	64.28597
1019.574	64.28597
1019.741	-11.5902
1019.907	13.69845
1020.074	24.2364
1020.241	60.06984
1020.407	98.01833
1020.574	93.80147
1020.74	47.42198
1020.907	-26.3403
1021.073	85.36802
1021.24	51.63784
1021.406	41.09836
1021.573	64.28597
1021.739	-17.91182
1021.906	-51.62336
1022.072	20.02115
1022.239	22.12877
1022.405	22.12877
1022.571	15.80599
1022.738	57.9618
1022.904	26.34407
1023.07	66.39408
1023.237	26.34407
1023.403	24.2364
1023.569	-1.05368
1023.735	91.69308
1023.902	41.09836
1024.068	64.28597
1024.234	66.39408
1024.4	32.66719
1024.566	28.45175
1024.732	22.12877
1024.898	43.20621
1025.065	13.69845
1025.231	41.09836
1025.397	91.69308
1025.563	60.06984
1025.729	66.39408
1025.895	45.31408
1026.061	85.36802
1026.227	-7.37567
1026.392	55.85379
1026.558	106.45231
1026.724	5.26851
1026.89	13.69845
1027.056	68.5022
1027.222	24.2364
1027.388	30.55946
1027.553	30.55946
1027.719	70.61035
1027.885	62.17789
1028.051	72.71852
1028.216	24.2364
1028.382	157.06349
1028.548	1.05369
1028.713	57.9618
1028.879	47.42198
1029.045	15.80599
1029.21	-13.69743
1029.376	49.5299
1029.541	74.82672
1029.707	106.45231
1029.873	36.88273
1030.038	1.05369
1030.204	49.5299
1030.369	5.26851
1030.534	41.09836
1030.7	26.34407
1030.865	30.55946
1031.031	89.5847
1031.196	3.16109
1031.361	15.80599
1031.527	57.9618
1031.692	127.53879
1031.857	-13.69743
1032.023	51.63784
1032.188	62.17789
1032.353	-20.01897
1032.518	30.55946
1032.684	-47.40976
1032.849	98.01833
1033.014	45.31408
1033.179	34.77495
1033.344	13.69845
1033.509	57.9618
1033.674	5.26851
1033.839	3.16109
1034.004	-62.1569
1034.17	9.48343
1034.335	24.2364
1034.5	-11.5902
1034.664	38.99053
1034.829	-11.5902
1034.994	38.99053
1035.159	32.66719
1035.324	45.31408
1035.489	-1.05368
1035.654	32.66719
1035.819	13.69845
1035.984	15.80599
1036.148	9.48343
1036.313	70.61035
1036.478	68.5022
1036.643	-53.73012
1036.807	-20.01897
1036.972	-49.51657
1037.137	38.99053
1037.301	32.66719
1037.466	24.2364
1037.631	24.2364
1037.795	26.34407
1037.96	30.55946
1038.124	79.04317
1038.289	26.34407
1038.454	36.88273
1038.618	5.26851
1038.783	70.61035
1038.947	64.28597
1039.111	32.66719
1039.276	24.2364
1039.44	-49.51657
1039.605	-30.55439
1039.769	45.31408
1039.933	32.66719
1040.098	22.12877
1040.262	72.71852
1040.426	-15.80464
1040.591	41.09836
1040.755	34.77495
1040.919	57.9618
1041.083	22.12877
1041.248	-26.3403
1041.412	51.63784
1041.576	-11.5902
1041.74	-7.37567
1041.904	17.91356
1042.068	-11.5902
1042.232	-3.16104
1042.397	32.66719
1042.561	-26.3403
1042.725	22.12877
1042.889	64.28597
1043.053	26.34407
1043.217	26.34407
1043.381	81.15143
1043.544	38.99053
1043.708	-1.05368
1043.872	32.66719
1044.036	-9.48295
1044.2	64.28597
1044.364	47.42198
1044.528	72.71852
1044.691	22.12877
1044.855	34.77495
1045.019	64.28597
1045.183	60.06984
1045.346	57.9618
1045.51	45.31408
1045.674	26.34407
1045.837	-13.69743
1046.001	38.99053
1046.165	7.37596
1046.328	20.02115
1046.492	-7.37567
1046.655	38.99053
1046.819	-22.12611
1046.983	-49.51657
1047.146	55.85379
1047.31	26.34407
1047.473	53.7458
1047.636	13.69845
1047.8	22.12877
1047.963	34.77495
1048.127	-22.12611
1048.29	24.2364
