Data from absorb_only_2.23.25_USB4F045381__88__0193.txt Node

Date: Sun Feb 23 19:30:48 EST 2025
User: ssocol
Spectrometer: USB4F04538
Trigger mode: 4
Integration Time (sec): 2.600000E-3
Scans to average: 1
Electric dark correction enabled: true
Nonlinearity correction enabled: true
Boxcar width: 0
XAxis mode: Wavelengths
Number of Pixels in Spectrum: 3648
>>>>>Begin Spectral Data<<<<<
345.52	-35.99745
345.736	-35.99745
345.952	-35.99745
346.168	-27.56942
346.384	-12.81942
346.6	-4.39031
346.816	-29.67646
347.032	41.97663
347.248	12.46906
347.464	48.30027
347.68	23.00695
347.896	-42.31821
348.112	-17.03383
348.328	-4.39031
348.544	-21.24814
348.76	25.11459
348.975	-31.78348
349.191	35.65319
349.407	35.65319
349.623	8.25407
349.839	-12.81942
350.055	-71.81209
350.27	-19.141
350.486	-82.34441
350.702	-10.71218
350.918	18.79172
351.133	39.86879
351.349	-67.59898
351.565	-8.60492
351.781	29.32996
351.996	-10.71218
352.212	12.46906
352.428	41.97663
352.644	-80.238
352.859	-78.13156
353.075	8.25407
353.291	-21.24814
353.506	-10.71218
353.722	-4.39031
353.938	-31.78348
354.153	60.94819
354.369	-38.10439
354.584	46.19237
354.8	29.32996
355.016	-17.03383
355.231	-46.53192
355.447	16.68414
355.662	12.46906
355.878	-12.81942
356.093	6.14661
356.309	50.4082
356.524	-4.39031
356.74	37.76098
356.955	48.30027
357.171	-6.49763
357.386	-14.92664
357.602	-46.53192
357.817	-69.70555
358.033	29.32996
358.248	14.57659
358.464	-76.0251
358.679	27.22227
358.895	20.89932
359.11	29.32996
359.325	-44.42508
359.541	-65.49239
359.756	-29.67646
359.972	29.32996
360.187	-10.71218
360.402	33.54542
360.618	44.08449
360.833	-8.60492
361.048	37.76098
361.264	23.00695
361.479	-10.71218
361.694	-63.38577
361.909	37.76098
362.125	-38.10439
362.34	-2.28298
362.555	54.62413
362.77	23.00695
362.986	8.25407
363.201	-54.95905
363.416	-78.13156
363.631	8.25407
363.847	-12.81942
364.062	18.79172
364.277	8.25407
364.492	58.84015
364.707	-52.8523
364.922	-46.53192
365.138	46.19237
365.353	-29.67646
365.568	-35.99745
365.783	-27.56942
365.998	-29.67646
366.213	73.59693
366.428	-12.81942
366.643	-0.17561
366.858	33.54542
367.073	-25.46235
367.288	4.03918
367.503	63.05626
367.718	-8.60492
367.933	-12.81942
368.148	63.05626
368.363	82.02988
368.578	-42.31821
368.793	8.25407
369.008	12.46906
369.223	-42.31821
369.438	12.46906
369.653	-71.81209
369.868	29.32996
370.083	8.25407
370.298	46.19237
370.513	-21.24814
370.728	-2.28298
370.943	-59.17246
371.157	-29.67646
371.372	1.93177
371.587	-21.24814
371.802	54.62413
372.017	50.4082
372.232	-46.53192
372.446	54.62413
372.661	44.08449
372.876	-33.89048
373.091	-8.60492
373.306	56.73213
373.52	12.46906
373.735	-71.81209
373.95	-50.74553
374.165	-31.78348
374.379	37.76098
374.594	4.03918
374.809	37.76098
375.023	-2.28298
375.238	-35.99745
375.453	-17.03383
375.667	-0.17561
375.882	20.89932
376.097	31.43768
376.311	-61.27913
376.526	-17.03383
376.741	-21.24814
376.955	-42.31821
377.17	-63.38577
377.384	33.54542
377.599	1.93177
377.813	-21.24814
378.028	23.00695
378.242	18.79172
378.457	-10.71218
378.672	29.32996
378.886	4.03918
379.101	-21.24814
379.315	-42.31821
379.53	-73.91861
379.744	-17.03383
379.958	6.14661
380.173	-67.59898
380.387	29.32996
380.602	-80.238
380.816	4.03918
381.031	31.43768
381.245	39.86879
381.459	-71.81209
381.674	33.54542
381.888	-21.24814
382.103	-29.67646
382.317	6.14661
382.531	-0.17561
382.746	4.03918
382.96	-38.10439
383.174	-8.60492
383.388	29.32996
383.603	1.93177
383.817	-38.10439
384.031	-23.35526
384.246	12.46906
384.46	-12.81942
384.674	20.89932
384.888	-12.81942
385.103	-17.03383
385.317	-69.70555
385.531	88.35483
385.745	-4.39031
385.959	-0.17561
386.174	-12.81942
386.388	39.86879
386.602	6.14661
386.816	50.4082
387.03	-10.71218
387.244	-25.46235
387.458	-82.34441
387.672	-35.99745
387.887	10.36155
388.101	-4.39031
388.315	25.11459
388.529	-61.27913
388.743	-40.21131
388.957	41.97663
389.171	8.25407
389.385	63.05626
389.599	41.97663
389.813	14.57659
390.027	-25.46235
390.241	-8.60492
390.455	-6.49763
390.669	33.54542
390.883	-42.31821
391.097	33.54542
391.311	-25.46235
391.525	37.76098
391.738	25.11459
391.952	-10.71218
392.166	14.57659
392.38	31.43768
392.594	-8.60492
392.808	-33.89048
393.022	-21.24814
393.236	23.00695
393.449	67.27246
393.663	4.03918
393.877	-12.81942
394.091	1.93177
394.305	-27.56942
394.518	52.51615
394.732	14.57659
394.946	-71.81209
395.16	4.03918
395.373	-21.24814
395.587	-17.03383
395.801	37.76098
396.015	-31.78348
396.228	14.57659
396.442	-50.74553
396.656	67.27246
396.869	-42.31821
397.083	-17.03383
397.297	29.32996
397.51	-25.46235
397.724	-8.60492
397.938	-67.59898
398.151	-27.56942
398.365	-19.141
398.578	41.97663
398.792	-4.39031
399.005	-19.141
399.219	14.57659
399.433	31.43768
399.646	-17.03383
399.86	-4.39031
400.073	63.05626
400.287	6.14661
400.5	-17.03383
400.714	-29.67646
400.927	-46.53192
401.141	-92.87609
401.354	-94.98234
401.567	25.11459
401.781	12.46906
401.994	4.03918
402.208	-61.27913
402.421	-21.24814
402.635	-29.67646
402.848	-2.28298
403.061	6.14661
403.275	48.30027
403.488	-46.53192
403.701	29.32996
403.915	-40.21131
404.128	-2.28298
404.341	-59.17246
404.555	-4.39031
404.768	-33.89048
404.981	20.89932
405.195	-10.71218
405.408	31.43768
405.621	12.46906
405.834	-25.46235
406.048	-38.10439
406.261	-35.99745
406.474	50.4082
406.687	-0.17561
406.9	-21.24814
407.114	71.48875
407.327	-33.89048
407.54	-12.81942
407.753	16.68414
407.966	-21.24814
408.179	58.84015
408.392	63.05626
408.605	-33.89048
408.819	1.93177
409.032	23.00695
409.245	79.92161
409.458	37.76098
409.671	29.32996
409.884	14.57659
410.097	-8.60492
410.31	-80.238
410.523	29.32996
410.736	-17.03383
410.949	33.54542
411.162	67.27246
411.375	-12.81942
411.588	20.89932
411.801	4.03918
412.014	-69.70555
412.227	-40.21131
412.44	8.25407
412.653	-4.39031
412.865	-14.92664
413.078	-10.71218
413.291	-0.17561
413.504	50.4082
413.717	-21.24814
413.93	-25.46235
414.143	37.76098
414.356	-12.81942
414.568	44.08449
414.781	12.46906
414.994	-35.99745
415.207	-17.03383
415.42	35.65319
415.632	-27.56942
415.845	-14.92664
416.058	-52.8523
416.271	-4.39031
416.483	8.25407
416.696	65.16435
416.909	-25.46235
417.121	-19.141
417.334	12.46906
417.547	46.19237
417.759	56.73213
417.972	-27.56942
418.185	-23.35526
418.397	8.25407
418.61	-17.03383
418.823	-27.56942
419.035	-38.10439
419.248	25.11459
419.46	-54.95905
419.673	67.27246
419.885	16.68414
420.098	-71.81209
420.311	-48.63874
420.523	-33.89048
420.736	-4.39031
420.948	-27.56942
421.161	20.89932
421.373	-4.39031
421.586	-33.89048
421.798	46.19237
422.01	50.4082
422.223	20.89932
422.435	31.43768
422.648	-10.71218
422.86	-10.71218
423.073	-69.70555
423.285	12.46906
423.497	113.65661
423.71	58.84015
423.922	54.62413
424.134	1.93177
424.347	-29.67646
424.559	-33.89048
424.771	-57.06577
424.984	-23.35526
425.196	48.30027
425.408	23.00695
425.621	12.46906
425.833	20.89932
426.045	56.73213
426.257	-12.81942
426.47	-0.17561
426.682	8.25407
426.894	23.00695
427.106	-40.21131
427.318	1.93177
427.531	25.11459
427.743	54.62413
427.955	-4.39031
428.167	71.48875
428.379	48.30027
428.591	-38.10439
428.804	69.38059
429.016	-4.39031
429.228	8.25407
429.44	44.08449
429.652	1.93177
429.864	-4.39031
430.076	33.54542
430.288	33.54542
430.5	-33.89048
430.712	20.89932
430.924	-27.56942
431.136	86.24649
431.348	-42.31821
431.56	46.19237
431.772	25.11459
431.984	25.11459
432.196	12.46906
432.408	-4.39031
432.62	-10.71218
432.832	-0.17561
433.044	63.05626
433.256	37.76098
433.468	84.13817
433.679	88.35483
433.891	-48.63874
434.103	1.93177
434.315	46.19237
434.527	-29.67646
434.739	-0.17561
434.95	33.54542
435.162	46.19237
435.374	20.89932
435.586	8.25407
435.798	8.25407
436.009	-21.24814
436.221	1.93177
436.433	-78.13156
436.645	-0.17561
436.856	25.11459
437.068	12.46906
437.28	37.76098
437.491	-25.46235
437.703	-19.141
437.915	25.11459
438.126	-109.72541
438.338	-63.38577
438.55	-12.81942
438.761	-4.39031
438.973	-29.67646
439.184	-2.28298
439.396	-29.67646
439.608	31.43768
439.819	50.4082
440.031	-4.39031
440.242	71.48875
440.454	46.19237
440.665	52.51615
440.877	37.76098
441.088	12.46906
441.3	-8.60492
441.511	4.03918
441.723	4.03918
441.934	-12.81942
442.146	20.89932
442.357	46.19237
442.569	-35.99745
442.78	46.19237
442.991	-2.28298
443.203	-38.10439
443.414	54.62413
443.626	77.81336
443.837	-19.141
444.048	-54.95905
444.26	-0.17561
444.471	84.13817
444.682	37.76098
444.894	77.81336
445.105	-4.39031
445.316	-29.67646
445.528	12.46906
445.739	16.68414
445.95	4.03918
446.161	-0.17561
446.373	96.7884
446.584	39.86879
446.795	8.25407
447.006	12.46906
447.217	-0.17561
447.429	16.68414
447.64	46.19237
447.851	-44.42508
448.062	14.57659
448.273	27.22227
448.484	-4.39031
448.695	82.02988
448.907	35.65319
449.118	4.03918
449.329	-25.46235
449.54	41.97663
449.751	-6.49763
449.962	-50.74553
450.173	-38.10439
450.384	-2.28298
450.595	20.89932
450.806	56.73213
451.017	54.62413
451.228	46.19237
451.439	4.03918
451.65	37.76098
451.861	41.97663
452.072	18.79172
452.283	48.30027
452.494	58.84015
452.705	-4.39031
452.915	27.22227
453.126	20.89932
453.337	6.14661
453.548	31.43768
453.759	48.30027
453.97	12.46906
454.181	33.54542
454.391	33.54542
454.602	16.68414
454.813	18.79172
455.024	-29.67646
455.235	-21.24814
455.445	37.76098
455.656	111.54801
455.867	44.08449
456.078	69.38059
456.288	1.93177
456.499	67.27246
456.71	39.86879
456.921	50.4082
457.131	37.76098
457.342	-38.10439
457.553	16.68414
457.763	-2.28298
457.974	-4.39031
458.184	41.97663
458.395	16.68414
458.606	29.32996
458.816	20.89932
459.027	-21.24814
459.237	4.03918
459.448	58.84015
459.659	-19.141
459.869	-8.60492
460.08	-29.67646
460.29	23.00695
460.501	12.46906
460.711	-10.71218
460.922	48.30027
461.132	39.86879
461.343	67.27246
461.553	39.86879
461.764	20.89932
461.974	-4.39031
462.184	23.00695
462.395	-2.28298
462.605	-25.46235
462.816	58.84015
463.026	37.76098
463.236	84.13817
463.447	48.30027
463.657	6.14661
463.867	-17.03383
464.078	60.94819
464.288	48.30027
464.498	39.86879
464.709	48.30027
464.919	1.93177
465.129	27.22227
465.339	14.57659
465.55	60.94819
465.76	14.57659
465.97	67.27246
466.18	31.43768
466.391	16.68414
466.601	39.86879
466.811	63.05626
467.021	126.30869
467.231	101.00532
467.441	84.13817
467.651	-46.53192
467.862	82.02988
468.072	98.89685
468.282	29.32996
468.492	29.32996
468.702	6.14661
468.912	29.32996
469.122	54.62413
469.332	113.65661
469.542	50.4082
469.752	33.54542
469.962	94.67998
470.172	-0.17561
470.382	92.57157
470.592	18.79172
470.802	50.4082
471.012	39.86879
471.222	46.19237
471.432	50.4082
471.642	60.94819
471.852	12.46906
472.062	84.13817
472.272	41.97663
472.482	105.22233
472.691	115.76524
472.901	77.81336
473.111	48.30027
473.321	46.19237
473.531	63.05626
473.741	134.74384
473.95	90.46319
474.16	96.7884
474.37	124.19996
474.58	162.16043
474.79	138.96154
474.999	88.35483
475.209	84.13817
475.419	73.59693
475.628	155.83321
475.838	115.76524
476.048	82.02988
476.258	73.59693
476.467	138.96154
476.677	79.92161
476.886	132.63502
477.096	117.87389
477.306	174.81543
477.515	202.23715
477.725	138.96154
477.935	126.30869
478.144	187.47118
478.354	119.98255
478.563	181.14322
478.773	181.14322
478.982	101.00532
479.192	206.45618
479.401	172.70621
479.611	160.05133
479.82	111.54801
480.03	273.97131
480.239	202.23715
480.449	183.25252
480.658	212.78487
480.868	202.23715
481.077	138.96154
481.287	181.14322
481.496	259.20069
481.705	227.55252
481.915	191.68993
482.124	254.98069
482.333	259.20069
482.543	282.41208
482.752	206.45618
482.961	231.77202
483.171	290.85314
483.38	284.52232
483.589	366.83566
483.799	198.0182
484.008	273.97131
484.217	309.84661
484.426	261.31072
484.636	307.73615
484.845	238.10143
485.054	271.86117
485.263	366.83566
485.472	257.09068
485.682	337.28419
485.891	324.62032
486.1	421.72573
486.309	390.05702
486.518	358.39204
486.727	356.28118
486.936	383.72372
487.146	392.16815
487.355	459.73291
487.564	366.83566
487.773	512.52884
487.982	417.50302
488.191	434.39422
488.4	548.43524
488.609	529.42547
488.818	474.51483
489.027	485.0738
489.236	520.97704
489.445	497.74505
489.654	381.61266
489.863	582.23313
490.072	573.78333
490.281	578.0082
490.49	451.28643
490.698	605.47113
490.907	476.6266
491.116	578.0082
491.325	561.10904
491.534	599.13334
491.743	594.90821
491.952	599.13334
492.16	641.38743
492.369	658.29044
492.578	618.14706
492.787	856.95276
492.996	755.4969
493.204	806.22212
493.413	706.89075
493.622	740.70313
493.831	664.62926
494.039	818.90429
494.248	709.00395
494.457	810.44948
494.665	702.6644
494.874	806.22212
495.083	985.91434
495.291	761.83724
495.5	818.90429
495.709	810.44948
495.917	801.99481
496.126	954.19992
496.335	806.22212
496.543	886.54795
496.752	882.31996
496.96	1019.74468
497.169	926.71537
497.377	899.23209
497.586	992.2574
497.794	1007.05811
498.003	916.14472
498.211	958.42842
498.42	998.60053
498.628	985.91434
498.837	977.45701
499.045	1051.46204
499.254	1085.29528
499.462	1104.32706
499.671	1133.93281
499.879	1121.24452
500.087	1026.08805
500.296	1203.72105
500.504	1013.40137
500.713	1197.3765
500.921	1119.12982
501.129	1186.80231
501.338	1057.80567
501.546	1239.67408
501.754	1114.90044
501.962	1269.28308
502.171	1250.24866
502.379	1358.11266
502.587	1339.07749
502.795	1317.92745
503.004	1195.26165
503.212	1377.14793
503.42	1180.45784
503.628	1482.90033
503.837	1301.00754
504.045	1389.83816
504.253	1353.88261
504.461	1474.44013
504.669	1271.39803
504.877	1482.90033
505.085	1389.83816
505.294	1472.32508
505.502	1372.91786
505.71	1432.13909
505.918	1286.20273
506.126	1552.69659
506.334	1398.29832
506.542	1501.93576
506.75	1410.9886
506.958	1603.45668
507.166	1368.6878
507.374	1406.7585
507.582	1580.19175
507.79	1622.49145
507.998	1711.31777
508.206	1732.46613
508.414	1603.45668
508.622	1692.28397
508.83	1461.74982
509.037	1679.59464
509.245	1704.9732
509.453	1726.12166
509.661	1563.27168
509.869	1778.99126
510.077	1527.31624
510.285	1817.05584
510.492	1726.12166
510.7	1859.34812
510.908	1681.70954
511.116	1808.59716
511.324	1614.03157
511.531	1711.31777
511.739	1711.31777
511.947	1903.75289
512.155	1897.40949
512.362	1960.84119
512.57	1688.05421
512.778	1848.77522
512.985	1899.52396
513.193	1935.46913
513.401	1897.40949
513.608	1948.15526
513.816	1844.54603
514.024	1895.29501
514.231	1704.9732
514.439	1914.32511
514.646	1772.64703
514.854	1831.85835
515.061	1778.99126
515.269	2022.15333
515.477	2017.92508
515.684	1973.52689
515.892	1965.06978
516.099	2015.81095
516.307	2024.26744
516.514	2129.96413
516.722	1863.57724
516.929	2237.7546
517.136	2087.68765
517.344	2151.1012
517.551	2163.78307
517.759	2203.94034
517.966	2119.39529
518.173	2282.13235
518.381	1967.18407
518.588	2404.67759
518.796	2286.35859
519.003	2311.71525
519.21	2296.92403
519.418	2457.4882
519.625	2201.82687
519.832	2252.54763
520.039	2121.50908
520.247	2482.83489
520.454	2237.7546
520.661	2539.85902
520.868	2155.32852
521.076	2425.80264
521.283	2233.52794
521.49	2303.26319
521.697	2286.35859
521.904	2320.16717
522.112	2322.28012
522.319	2653.88149
522.526	2396.22728
522.733	2533.52341
522.94	2427.91508
523.147	2548.30632
523.354	2387.77681
523.561	2558.86519
523.768	2501.84385
523.975	2755.20409
524.183	2495.50763
524.39	2810.07441
524.597	2634.88022
524.804	2930.33401
525.011	2710.87914
525.218	2674.99282
525.425	2493.39553
525.632	2738.31908
525.838	2434.25236
526.045	2649.65907
526.252	2544.08269
526.459	2822.73548
526.666	2778.41958
526.873	2896.58162
527.08	2710.87914
527.287	2953.5366
527.494	2702.43563
527.701	2953.5366
527.907	2544.08269
528.114	2928.22459
528.321	2725.65477
528.528	3006.26304
528.735	2801.63342
528.941	2721.43323
529.148	2573.64711
529.355	2896.58162
529.562	2691.88096
529.768	3058.97997
529.975	2670.77065
530.182	2917.6773
530.388	2620.10075
530.595	3191.783
530.802	2852.27602
531.008	3107.47096
531.215	2926.11516
531.422	3090.60548
531.628	2997.82744
531.835	3122.22743
532.042	3054.76297
532.248	3269.74825
532.455	3143.30673
532.661	3147.5224
532.868	3021.02475
533.074	3233.92921
533.281	3094.82194
533.487	3286.60258
533.694	3136.98311
533.9	3474.03216
534.107	3187.56801
534.313	3354.00895
534.52	3217.07152
534.726	3391.91723
534.933	3162.27673
535.139	3284.49584
535.345	3248.67881
535.552	3214.96423
535.758	3200.21277
535.965	3358.22126
536.171	3269.74825
536.377	3427.71425
536.584	3322.41441
536.79	3554.01516
536.996	3452.97964
537.203	3463.50613
537.409	3324.52083
537.615	3585.58008
537.821	3309.7755
538.028	3522.44608
538.234	3400.34052
538.44	3619.24471
538.646	3486.66281
538.853	3606.62104
539.059	3459.29559
539.265	3509.81729
539.471	3577.16318
539.677	3825.33393
539.883	3501.39773
540.09	3938.81276
540.296	3688.66274
540.502	3816.92578
540.708	3619.24471
540.914	3909.39793
541.12	3808.51731
541.326	4224.34706
541.532	3737.0327
541.738	3928.30792
541.944	3930.40893
542.15	3785.39241
542.356	3795.90402
542.562	3940.91367
542.768	3804.31296
542.974	4056.43218
543.18	3997.63049
543.386	4182.38096
543.592	4012.33242
543.798	4022.83319
544.004	3974.52543
544.21	4006.03172
544.415	4079.52841
544.621	4165.59215
544.827	3848.4547
545.033	4048.03292
545.239	4085.82695
545.445	4184.47946
545.651	3846.35291
545.856	4171.88811
546.062	4069.03043
546.268	4087.92642
546.474	4081.62794
546.679	4100.5228
546.885	3980.82705
547.091	3955.61945
547.297	3854.75995
547.502	4199.16842
547.708	4140.40641
547.914	4268.4023
548.119	4003.93144
548.325	4186.57795
548.531	4090.02587
548.736	4215.95452
548.942	4018.63294
549.147	4350.19409
549.353	4245.32692
549.559	4375.35419
549.764	4218.05268
549.97	4165.59215
550.175	4322.93381
550.381	4410.99229
550.586	4308.25368
550.792	4452.9114
550.997	4125.71333
551.203	4358.58114
551.408	4492.72642
551.614	4509.48826
551.819	4417.28072
552.025	4555.57602
552.23	4383.74019
552.435	4417.28072
552.641	4597.46465
552.846	4626.78139
553.052	4429.85698
553.257	4597.46465
553.462	4419.37682
553.668	4727.26254
553.873	4672.84168
554.078	4735.63363
554.283	4561.85988
554.489	4693.77459
554.694	4656.09374
554.899	4624.68748
555.105	4601.65302
555.31	4677.02844
555.515	4586.99333
555.72	4798.40523
555.925	4475.96317
556.131	4829.78336
556.336	4415.1846
556.541	4836.05838
556.746	4656.09374
556.951	4957.33482
557.156	4687.49495
557.361	4978.23675
557.567	4672.84168
557.772	4777.48363
557.977	4635.15679
558.182	4859.065
558.387	4838.15
558.592	4961.51539
558.797	4821.41636
559.002	5086.88958
559.207	4888.34215
559.412	5076.44491
559.617	4710.51929
559.822	5047.19676
560.027	4679.12179
560.232	4869.52164
560.437	4831.87506
560.642	4997.04652
560.847	5126.57404
561.051	5020.0337
561.256	4948.97341
561.461	5030.48149
561.666	5078.53389
561.871	5312.35247
562.076	4969.87626
562.281	5084.80069
562.485	4948.97341
562.69	5180.86549
562.895	4957.33482
563.1	5174.60189
563.305	5074.35591
563.509	5189.21662
563.714	5055.55384
563.919	5111.95442
564.123	4971.96641
564.328	5354.07495
564.533	5105.68853
564.737	4971.96641
564.942	4988.68685
565.147	5222.61743
565.351	4980.32682
565.556	5266.44692
565.761	5032.57098
565.965	5174.60189
566.17	5170.42605
566.374	5197.56738
566.579	5262.27313
566.784	5256.01226
566.988	5314.43882
567.193	5283.14116
567.397	5141.19251
567.602	5278.96774
567.806	5078.53389
568.011	5395.78805
568.215	5187.12887
568.42	5264.36003
568.624	5278.96774
568.828	5525.03894
569.033	5295.66085
569.237	5600.04631
569.442	5364.50411
569.646	5385.36066
569.85	5439.5767
570.055	5491.69253
570.259	5170.42605
570.463	5439.5767
570.668	5201.74262
570.872	5600.04631
571.076	5445.83138
571.281	5739.562
571.485	5462.50948
571.689	5814.48189
571.893	5537.54229
572.098	5577.13063
572.302	5456.25537
572.506	5579.21399
572.71	5216.35523
572.914	5514.61883
573.119	5670.85855
573.323	5610.46159
573.527	5512.53474
573.731	5955.91381
573.935	5691.68049
574.139	5629.20759
574.343	5645.86911
574.547	5862.33137
574.751	5637.53854
574.955	5558.37932
575.159	5512.53474
575.364	5799.91653
575.568	5487.5238
575.772	5804.07818
575.976	5587.5472
576.18	5854.01062
576.383	5756.21351
576.587	5843.60915
576.791	5787.43101
576.995	5870.65174
577.199	5493.77686
577.403	5829.0461
577.607	5789.51199
577.811	6012.04036
578.015	5741.64352
578.219	5862.33137
578.422	6032.82361
578.626	6066.07192
578.83	5729.15403
579.034	5889.37121
579.238	5514.61883
579.442	5999.56928
579.645	5960.07193
579.849	5978.78226
580.053	5939.28043
580.257	6076.46078
580.46	5883.1316
580.664	6070.22753
580.868	6088.92664
581.071	5999.56928
581.275	5908.08876
581.479	6061.91621
581.682	6078.53848
581.886	5945.51812
582.09	5843.60915
582.293	6240.52679
582.497	6088.92664
582.7	6371.25942
582.904	5955.91381
583.107	6103.46906
583.311	5949.67647
583.515	5987.09735
583.718	6072.30531
583.922	6346.36511
584.125	6118.01034
584.329	6265.4354
584.532	6003.7264
584.735	6190.69944
584.939	6128.39626
585.142	6290.34064
585.346	6176.16392
585.549	6066.07192
585.753	6070.22753
585.956	6186.54656
586.159	6225.99521
586.363	6468.7298
586.566	6348.43977
586.769	6213.53865
586.973	6172.01071
587.176	6196.9286
587.379	6032.82361
587.582	6396.15036
587.786	6194.85224
587.989	6613.8034
588.192	6537.13577
588.395	6325.61729
588.599	6219.76704
588.802	6402.37257
589.005	6215.6148
589.208	6470.80307
589.411	6292.41592
589.615	6213.53865
589.818	6385.77954
590.021	6377.48247
590.224	6564.07665
590.427	6454.21619
590.63	6392.0021
590.833	6539.20829
591.036	6566.14887
591.239	6707.00528
591.442	6549.57051
591.645	6510.19098
591.848	6493.60762
592.051	6738.06223
592.254	6273.73752
592.457	6808.43893
592.66	6404.4466
592.863	6777.39364
593.066	6746.34321
593.269	6758.764
593.472	6609.66001
593.675	6767.04407
593.878	6684.2269
594.081	6953.24927
594.284	6833.27147
594.486	6796.02143
594.689	6907.74942
594.892	6671.80115
595.095	6495.68062
595.298	6831.20221
595.5	6760.83405
595.703	7035.94828
595.906	6735.99193
596.109	6932.56888
596.311	6539.20829
596.514	6936.70514
596.717	6543.35324
596.92	6984.26562
597.122	6787.74264
597.325	6975.99509
597.528	6678.01413
597.73	7197.1083
597.933	6773.25388
598.136	7007.00772
598.338	6901.54405
598.541	7044.21621
598.743	7031.81419
598.946	7023.54573
599.148	6895.33847
599.351	7108.28046
599.554	6969.79195
599.756	7033.88125
599.959	7052.48377
600.161	7025.61288
600.363	6870.51412
600.566	7019.41136
600.768	6613.8034
600.971	7221.89013
601.173	6841.54825
601.376	7232.21496
601.578	6965.65642
601.78	7118.61139
601.983	6889.13269
602.185	7188.84697
602.388	7133.07376
602.59	7310.66563
602.792	6870.51412
602.995	7401.46369
603.197	7060.75098
603.399	7135.13972
603.601	6816.71681
603.804	7035.94828
604.006	6926.36432
604.208	6982.19802
604.41	7002.873
604.613	7139.27159
604.815	7002.873
605.017	7329.24141
605.219	7116.54525
605.421	7106.21421
605.623	6791.88208
605.826	7314.79373
606.028	7095.8826
606.23	7360.19709
606.432	7316.85775
606.634	7275.57321
606.836	6998.73818
607.038	7292.08808
607.24	7267.31524
607.442	7364.32414
607.644	7087.61692
607.846	7277.63764
608.048	7300.34499
608.25	7170.2577
608.452	7157.86386
608.654	7277.63764
608.856	6746.34321
609.058	7199.17357
609.26	7199.17357
609.462	7370.51456
609.664	7230.15004
609.866	7349.87907
610.067	7023.54573
610.269	7279.70206
610.471	7166.12651
610.673	7213.62988
610.875	7265.2507
611.077	7362.26063
611.278	7159.92955
611.48	7378.76814
611.682	7155.79814
611.884	7545.82852
612.085	7246.66879
612.287	7217.76005
612.489	7358.13353
612.69	7263.18613
612.892	7226.02013
613.094	7197.1083
613.295	7116.54525
613.497	7432.40794
613.699	7345.75172
613.9	7368.45111
614.102	7310.66563
614.304	7508.71623
614.505	7341.62427
614.707	7492.21964
614.908	7228.0851
615.11	7448.90953
615.311	7279.70206
615.513	7531.39679
615.714	7417.9679
615.916	7432.40794
616.117	7221.89013
616.319	7506.65423
616.52	7554.07475
616.722	7506.65423
616.923	7545.82852
617.124	7287.95949
617.326	7488.09528
617.527	7692.14837
617.729	7584.99506
617.93	7564.38205
618.131	7366.38764
618.333	7341.62427
618.534	7364.32414
618.735	7403.5268
618.937	7430.34514
619.138	7356.06995
619.339	7033.88125
619.54	7399.40057
619.742	7304.47331
619.943	7339.56051
620.144	7308.60155
620.345	7422.09373
620.546	7354.00635
620.748	7576.75011
620.949	7471.59697
621.15	7745.70357
621.351	7308.60155
621.552	7477.784
621.753	7271.44427
621.954	7751.8821
622.155	7149.60085
622.356	7397.33743
622.558	7459.22233
622.759	7498.40603
622.96	7184.71618
623.161	7498.40603
623.362	7263.18613
623.563	7622.09309
623.764	7422.09373
623.965	7605.60593
624.166	7475.72168
624.366	7626.21467
624.567	7254.92764
624.768	7318.92175
624.969	7440.65891
625.17	7514.9021
625.371	7599.42289
625.572	7407.65293
625.773	7242.53924
625.973	7749.82261
626.174	7300.34499
626.375	7395.27426
626.576	7519.0259
626.777	7477.784
626.977	7473.65934
627.178	7718.92775
627.379	7453.03472
627.58	7382.8948
627.78	7576.75011
627.981	7370.51456
628.182	7541.70527
628.382	7529.33503
628.583	7481.90858
628.784	7671.54642
628.984	7323.04968
629.185	7865.12187
629.386	7533.45853
629.586	7679.78745
629.787	7230.15004
629.987	7465.40975
630.188	7395.27426
630.388	7453.03472
630.589	7436.53347
630.79	7675.66698
630.99	7535.52025
631.191	7622.09309
631.391	7395.27426
631.591	7692.14837
631.792	7593.23966
631.992	7856.88837
632.193	7440.65891
632.393	7636.51824
632.594	7246.66879
632.794	7793.0675
632.994	7488.09528
633.195	7758.06045
633.395	7428.28232
633.595	7552.01322
633.796	7568.50483
633.996	7774.53511
634.196	7720.98755
634.397	7914.51591
634.597	7636.51824
634.797	7850.71303
634.997	7733.34594
635.198	7889.82037
635.398	7688.02815
635.598	7856.88837
635.798	7632.39688
635.998	7609.72785
636.199	7671.54642
636.399	7854.82994
636.599	7527.27324
636.799	7811.5982
636.999	7636.51824
637.199	7679.78745
637.399	7766.29794
637.599	7576.75011
637.799	7640.63952
637.999	7881.58787
638.199	7677.72723
638.399	7692.14837
638.599	7706.56848
638.799	7766.29794
638.999	7811.5982
639.199	8052.34508
639.399	7514.9021
639.599	7733.34594
639.799	7659.18423
639.999	7811.5982
640.199	7562.32063
640.399	7916.57373
640.599	7347.81541
640.799	7729.22656
640.998	7529.33503
641.198	7778.65356
641.398	7411.77898
641.598	7840.42038
641.798	7863.06352
641.997	7895.99453
642.197	7832.18589
642.397	7939.20847
642.597	7677.72723
642.796	8169.53117
642.996	7673.60671
643.196	8046.17558
643.395	7801.30357
643.595	7889.82037
643.795	7653.00285
643.994	8005.0409
644.194	7815.7159
644.394	8081.13368
644.593	7681.84766
644.793	7875.41327
644.992	7492.21964
645.192	8025.60925
645.392	7908.3423
645.591	7959.78336
645.791	7980.35619
645.99	8163.3651
646.19	7815.7159
646.389	7836.30317
646.589	7519.0259
646.788	7718.92775
646.987	7844.5375
647.187	8000.92699
647.386	7762.17924
647.586	7893.9365
647.785	7885.70416
647.984	7739.52485
648.184	7930.97795
648.383	8040.00589
648.582	7947.43867
648.782	8009.15474
648.981	7970.07003
649.18	8243.51001
649.38	7972.1273
649.579	8214.74351
649.778	7858.94677
649.977	8229.12724
650.177	8144.86582
650.376	8206.5238
650.575	7770.41657
650.774	8383.17827
650.973	8105.80648
651.173	8083.18986
651.372	7716.86792
651.571	7986.52765
651.77	7823.95106
651.969	8202.41382
652.168	8060.5708
652.367	8284.5983
652.566	8116.08595
652.765	8101.69454
652.964	8151.03243
653.163	8144.86582
653.362	8064.68353
653.561	8161.3097
653.76	7982.41337
653.959	8179.80754
654.158	7879.52969
654.357	8000.92699
654.556	7978.299
654.755	8120.1976
654.954	8079.07748
655.153	8266.10954
655.352	8070.85249
655.551	8023.55251
655.749	8029.72268
655.948	8222.96291
656.147	8087.30215
656.346	8002.98396
656.545	7848.65454
656.743	7984.47052
656.942	7916.57373
657.141	8259.94627
657.34	8074.96503
657.538	8313.35543
657.737	8138.69904
657.936	8235.29141
658.135	7998.87
658.333	7990.64185
658.532	8083.18986
658.731	7988.58476
658.929	7856.88837
659.128	7965.95542
659.326	8046.17558
659.525	8413.97534
659.724	8091.41436
659.922	8202.41382
660.121	8011.21162
660.319	8313.35543
660.518	8046.17558
660.716	8235.29141
660.915	7963.89809
661.113	8311.30148
661.312	8181.86276
661.51	8181.86276
661.709	8056.45798
661.907	7898.05255
662.105	8013.26849
662.304	8272.27264
662.502	8079.07748
662.701	8395.49762
662.899	8056.45798
663.097	8305.1395
663.296	8208.57876
663.494	8301.03142
663.692	8023.55251
663.891	8218.85325
664.089	8093.47044
664.287	8163.3651
664.485	7963.89809
664.684	8346.21604
664.882	7939.20847
665.08	8264.05514
665.278	8181.86276
665.476	8087.30215
665.675	7858.94677
665.873	8146.92138
666.071	7881.58787
666.269	8056.45798
666.467	8019.43896
666.665	8325.67875
666.863	8286.65251
667.061	8259.94627
667.259	8066.73987
667.457	8264.05514
667.655	8013.26849
667.853	8085.24601
668.051	8019.43896
668.249	8239.40075
668.447	8021.49575
668.645	8072.90877
668.843	8019.43896
669.041	8290.76087
669.239	8070.85249
669.437	8046.17558
669.635	8007.09783
669.833	8233.2367
670.031	8029.72268
670.229	8146.92138
670.426	7939.20847
670.624	8116.08595
670.822	8025.60925
671.02	8185.97313
671.218	8042.06247
671.415	8216.79839
671.613	7885.70416
671.811	8202.41382
672.009	7906.28439
672.206	7930.97795
672.404	8056.45798
672.602	7922.74709
672.799	7957.72596
672.997	8037.94929
673.195	8031.77936
673.392	8309.24751
673.59	8011.21162
673.788	7988.58476
673.985	8081.13368
674.183	7935.09325
674.38	7856.88837
674.578	8185.97313
674.775	7819.83352
674.973	7807.48041
675.17	7963.89809
675.368	8227.07248
675.565	7638.57889
675.763	7801.30357
675.96	7644.76072
676.158	8091.41436
676.355	7642.70013
676.553	8009.15474
676.75	7939.20847
676.947	8286.65251
677.145	7823.95106
677.342	8070.85249
677.539	8000.92699
677.737	8126.36493
677.934	7902.16851
678.131	8237.34609
678.329	8046.17558
678.526	8087.30215
678.723	7924.80484
678.92	8048.2321
679.118	7774.53511
679.315	7696.26851
679.512	7735.4056
679.709	7883.64602
679.906	7718.92775
680.104	8017.38216
680.301	7832.18589
680.498	7778.65356
680.695	7448.90953
680.892	7949.49617
681.089	7580.87263
681.286	7813.65706
681.483	7751.8821
681.68	8058.5144
681.877	7889.82037
682.075	7842.47895
682.272	7595.30076
682.469	7980.35619
682.665	7646.82128
682.862	7758.06045
683.059	7595.30076
683.256	7850.71303
683.453	7620.03227
683.65	7576.75011
683.847	7580.87263
684.044	7780.71276
684.241	7486.03307
684.438	7863.06352
684.635	7453.03472
684.831	7741.58445
685.028	7560.2592
685.225	7694.20845
685.422	7663.30505
685.619	7850.71303
685.815	7545.82852
686.012	7883.64602
686.209	7411.77898
686.405	7747.7631
686.602	7587.05624
686.799	7465.40975
686.996	7461.28482
687.192	7873.35503
687.389	7696.26851
687.586	7749.82261
687.782	7638.57889
687.979	7690.08827
688.175	7341.62427
688.372	7704.50853
688.568	7426.21948
688.765	7380.83148
688.962	7473.65934
689.158	7543.76691
689.355	7453.03472
689.551	7636.51824
689.748	7188.84697
689.944	7562.32063
690.14	7486.03307
690.337	7720.98755
690.533	7366.38764
690.73	7543.76691
690.926	7444.78426
691.123	7457.15981
691.319	7341.62427
691.515	7457.15981
691.712	7362.26063
691.908	7273.50875
692.104	7205.36926
692.301	7576.75011
692.497	7465.40975
692.693	7512.84016
692.889	7366.38764
693.086	7329.24141
693.282	7442.7216
693.478	7615.91057
693.674	7174.38881
693.87	7455.09728
694.067	7244.60402
694.263	7508.71623
694.459	7399.40057
694.655	7382.8948
694.851	7320.98573
695.047	7582.93386
695.243	7506.65423
695.439	7240.47442
695.635	7374.64139
695.831	7523.14961
696.027	7093.81622
696.224	7242.53924
696.42	7413.84198
696.615	7626.21467
696.811	7341.62427
697.007	7442.7216
697.203	7304.47331
697.399	7211.56476
697.595	7223.95514
697.791	7259.05693
697.987	7135.13972
698.183	7403.5268
698.379	7002.873
698.575	7512.84016
698.77	7166.12651
698.966	7287.95949
699.162	6955.31718
699.358	6998.73818
699.554	6783.60311
699.749	7316.85775
699.945	6969.79195
700.141	7017.34414
700.337	6878.78927
700.532	7300.34499
700.728	7172.32327
700.924	7448.90953
701.119	7271.44427
701.315	7151.66663
701.511	7073.15111
701.706	7277.63764
701.902	7131.00778
702.097	7471.59697
702.293	7263.18613
702.489	7207.43445
702.684	6998.73818
702.88	7168.19212
703.075	7097.94897
703.271	7112.4129
703.466	7180.5853
703.662	7195.043
703.857	6769.11403
704.053	7304.47331
704.248	7031.81419
704.443	7199.17357
704.639	7040.08229
704.834	7269.37977
705.03	6957.38507
705.225	7124.80968
705.42	6822.92497
705.616	7062.81772
705.811	6725.64007
706.006	6876.72052
706.202	6771.18397
706.397	6903.61253
706.592	6818.78622
706.787	6978.06276
706.983	6539.20829
707.178	7166.12651
707.373	6876.72052
707.568	7029.74711
707.763	7056.61742
707.959	7097.94897
708.154	6783.60311
708.349	6922.22783
708.544	6932.56888
708.739	6920.15956
708.934	6615.87506
709.129	6874.65174
709.324	6733.9216
709.519	7019.41136
709.714	6733.9216
709.909	6951.18133
710.104	6588.94169
710.299	6678.01413
710.494	6584.79775
710.689	6849.82467
710.884	7042.14926
711.079	7013.20964
711.274	6868.44528
711.469	7122.74361
711.664	7087.61692
711.859	7017.34414
712.054	6725.64007
712.249	7058.68421
712.443	6721.49916
712.638	6884.99539
712.833	6657.30341
713.028	6827.06364
713.223	6559.93216
713.417	6947.04539
713.612	6686.29777
713.807	6982.19802
714.002	6572.36537
714.196	6928.43253
714.391	6626.23301
714.586	6843.61739
714.78	6655.23221
714.975	6700.79327
715.17	6640.73317
715.364	6816.71681
715.559	6593.08554
715.754	6849.82467
715.948	6472.87633
716.143	6611.73172
716.337	6551.64289
716.532	6620.01831
716.726	6501.89948
716.921	6949.11337
717.115	6443.84863
717.31	6642.80453
717.504	6464.58317
717.699	6777.39364
717.893	6725.64007
718.088	6752.55371
718.282	6646.94718
718.476	6526.77285
718.671	6562.00442
718.865	6760.83405
719.059	6302.79199
719.254	6653.16099
719.448	6456.28963
719.642	6506.04528
719.837	6242.60263
720.031	6601.37296
720.225	6167.8574
720.419	6603.44476
720.614	6493.60762
720.808	6725.64007
721.002	6404.4466
721.196	6721.49916
721.39	6468.7298
721.585	6568.22106
721.779	6503.97239
721.973	6510.19098
722.167	6244.67846
722.361	6379.55677
722.555	6288.26533
722.749	6263.35981
722.943	6302.79199
723.137	6333.9167
723.331	6045.29244
723.525	6454.21619
723.719	6367.1106
723.913	6611.73172
724.107	6238.45092
724.301	6518.4821
724.495	6130.47337
724.689	6375.40814
724.883	6203.15755
725.077	6167.8574
725.271	5976.70343
725.465	6107.62383
725.659	6051.52653
725.853	6373.33379
726.046	6174.08733
726.24	6232.22317
726.434	6169.93406
726.628	6335.9915
726.822	6030.7454
727.015	6282.03927
727.209	6097.23673
727.403	6107.62383
727.596	6024.5106
727.79	6196.9286
727.984	6020.35395
728.177	6199.00494
728.371	5970.46679
728.565	6128.39626
728.758	5955.91381
728.952	6194.85224
729.146	6086.84905
729.339	6255.05722
729.533	6178.2405
729.726	6269.58651
729.92	6236.37503
730.113	6479.09596
730.307	6221.84312
730.5	6344.29044
730.694	6126.31912
730.887	6163.70399
731.081	6084.77144
731.274	6259.20856
731.468	6063.99408
731.661	6294.49118
731.854	6091.0042
732.048	6219.76704
732.241	6093.08173
732.435	6348.43977
732.628	6282.03927
732.821	6402.37257
733.014	6273.73752
733.208	6192.77585
733.401	5766.61993
733.594	6003.7264
733.788	5872.73178
733.981	6030.7454
734.174	6078.53848
734.367	5966.30892
734.56	5872.73178
734.754	6111.7785
734.947	6041.13626
735.14	6036.97998
735.333	6057.76041
735.526	6215.6148
735.719	5918.48657
735.912	6012.04036
736.105	6036.97998
736.298	5862.33137
736.491	5926.80439
736.684	6082.69381
736.877	6012.04036
737.07	6111.7785
737.263	6213.53865
737.456	6030.7454
737.649	5970.46679
737.842	5982.93985
738.035	6288.26533
738.228	6201.08126
738.421	6277.88844
738.614	6213.53865
738.807	6051.52653
739	6078.53848
739.192	5714.5819
739.385	5937.20115
739.578	5858.17104
739.771	6003.7264
739.964	5737.48045
740.156	5722.90898
740.349	5687.51629
740.542	5826.96557
740.735	5683.352
740.927	5762.45743
741.12	5997.49069
741.313	5841.52878
741.505	5812.4012
741.698	5810.32048
741.891	5687.51629
742.083	5816.56257
742.276	5747.88794
742.468	5937.20115
742.661	5787.43101
742.854	5781.18794
743.046	5662.52912
743.239	5866.4916
743.431	5908.08876
743.624	5658.36426
743.816	5749.96937
744.009	5829.0461
744.201	5691.68049
744.393	5777.02577
744.586	5635.45584
744.778	5670.85855
744.971	5739.562
745.163	5787.43101
745.355	5697.92661
745.548	5512.53474
745.74	5681.26982
745.932	6012.04036
746.125	5870.65174
746.317	5627.1248
746.509	5577.13063
746.702	5643.7865
746.894	5566.71347
747.086	5814.48189
747.278	5587.5472
747.471	5600.04631
747.663	5447.91622
747.855	5681.26982
748.047	5481.27054
748.239	5587.5472
748.431	5627.1248
748.623	5675.02313
748.815	5514.61883
749.008	5606.29555
749.2	5829.0461
749.392	5978.78226
749.584	5645.86911
749.776	5789.51199
749.968	5462.50948
750.16	5516.7029
750.352	5570.88041
750.544	5541.70988
750.736	5616.71047
750.928	5714.5819
751.12	5570.88041
751.311	5537.54229
751.503	5518.78695
751.695	5645.86911
751.887	5345.73121
752.079	5631.29037
752.271	5395.78805
752.463	5537.54229
752.654	5441.66162
752.846	5545.87738
753.038	5604.21249
753.23	5650.03425
753.421	5495.86116
753.613	5529.20682
753.805	5522.95496
753.997	5441.66162
754.188	5408.30015
754.38	5437.49176
754.572	5595.88004
754.763	5399.95885
754.955	5395.78805
755.146	5654.1993
755.338	5462.50948
755.53	5312.35247
755.721	5483.35498
755.913	5500.0297
756.104	5368.67561
756.296	5245.57702
756.487	5395.78805
756.679	5422.89653
756.87	5107.77718
757.062	5256.01226
757.253	5034.66044
757.445	5114.04301
757.636	5118.22011
757.827	5185.0411
758.019	5070.17783
758.21	5091.06729
758.401	5078.53389
758.593	5293.57429
758.784	5228.87941
758.975	5111.95442
759.167	5055.55384
759.358	5187.12887
759.549	5053.4646
759.74	5118.22011
759.932	4900.88813
760.123	5166.25011
760.314	5032.57098
760.505	5134.92759
760.696	4940.61162
760.888	5218.44265
761.079	5099.42242
761.27	5095.2449
761.461	5063.91054
761.652	5285.22783
761.843	4938.52112
762.034	5082.71178
762.225	4727.26254
762.416	4869.52164
762.607	4710.51929
762.798	4760.74472
762.989	5057.64305
763.18	4810.9571
763.371	4848.60778
763.562	4806.77323
763.753	4902.97905
763.944	4819.32456
764.135	4612.12357
764.326	4779.57589
764.517	4662.37439
764.708	4714.70524
764.899	4687.49495
765.089	4735.63363
765.28	4471.77214
765.471	4739.81904
765.662	4444.52828
765.853	4898.79719
766.043	4509.48826
766.234	4756.55976
766.425	4505.29793
766.615	4708.42628
766.806	4626.78139
766.997	4589.08764
767.187	4480.15411
767.378	4710.51929
767.569	4517.86865
767.759	4402.60742
767.95	4509.48826
768.141	4543.00769
768.331	4543.00769
768.522	4589.08764
768.712	4469.67659
768.903	4517.86865
769.093	4578.61587
769.284	4595.37043
769.474	4371.16106
769.665	4603.74718
769.855	4475.96317
770.046	4601.65302
770.236	4434.04889
770.426	4419.37682
770.617	4438.24071
770.807	4593.27619
770.998	4429.85698
771.188	4603.74718
771.378	4306.15643
771.569	4450.81565
771.759	4232.73926
771.949	4406.7999
772.139	4475.96317
772.33	4188.67641
772.52	4461.29417
772.71	4593.27619
772.9	4285.18277
773.09	4452.9114
773.281	4190.77486
773.471	4543.00769
773.661	4402.60742
773.851	4337.61288
774.041	4236.93523
774.231	4364.87119
774.421	4176.08531
774.611	4132.01049
774.802	4346.00044
774.992	4236.93523
775.182	4132.01049
775.372	4194.97168
775.562	3932.50991
775.752	4006.03172
775.942	3900.99297
776.131	4209.65989
776.321	3896.79037
776.511	4041.73327
776.701	4081.62794
776.891	4096.32409
777.081	3980.82705
777.271	4129.91145
777.461	3968.22362
777.651	4125.71333
777.84	3789.59712
778.03	3894.68904
778.22	3972.42485
778.41	3938.81276
778.599	4069.03043
778.789	4041.73327
778.979	4033.33344
779.169	4125.71333
779.358	4081.62794
779.548	4297.76723
779.738	4048.03292
779.927	3974.52543
780.117	3879.97916
780.307	3949.31709
780.496	3840.04743
780.686	4039.63334
780.875	3789.59712
781.065	4024.93328
781.254	3783.29003
781.444	3678.14619
781.633	3753.85464
781.823	3982.92755
782.012	3619.24471
782.202	3688.66274
782.391	3593.99669
782.581	3831.63983
782.77	3558.22406
782.96	3789.59712
783.149	3408.76352
783.338	3694.97244
783.528	3554.01516
783.717	3678.14619
783.906	3652.90452
784.096	3657.11165
784.285	3566.64163
784.474	3589.78842
784.663	3644.49002
784.853	3568.74598
785.042	3404.55206
785.231	3707.59133
785.42	3476.13731
785.61	3621.34859
785.799	3467.71659
785.988	3526.65553
786.177	3311.88203
786.366	3585.58008
786.555	3233.92921
786.744	3410.86923
786.933	3191.783
787.122	3585.58008
787.312	3520.34133
787.501	3612.93296
787.69	3518.23656
787.879	3572.95462
788.068	3362.4335
788.257	3551.91068
788.445	3362.4335
788.634	3547.70168
788.823	3452.97964
789.012	3457.19029
789.201	3503.50265
789.39	3370.85777
789.579	3431.92533
789.768	3379.28176
789.957	3324.52083
790.145	3602.413
790.334	3214.96423
790.523	3391.91723
790.712	3286.60258
790.9	3417.18625
791.089	3276.06875
791.278	3410.86923
791.467	3444.55813
791.655	3450.87429
791.844	3257.10679
792.033	3145.41458
792.221	2961.97346
792.41	3446.66354
792.599	3147.5224
792.787	3206.53492
792.976	3050.54591
793.164	3046.32879
793.353	3084.28066
793.541	3442.45271
793.73	3021.02475
793.918	2989.3916
794.107	2598.98619
794.295	2968.30095
794.484	2913.45828
794.672	3248.67881
794.861	2964.08263
795.049	3141.19888
795.238	3181.24541
795.426	3082.17235
795.614	2852.27602
795.803	3307.66896
795.991	3122.22743
796.179	3172.81505
796.368	3172.81505
796.556	3198.10535
796.744	2869.15508
796.932	3006.26304
797.121	2793.19222
797.309	2983.06456
797.497	2869.15508
797.685	3031.56837
797.874	2951.42734
798.062	2940.88086
798.25	2864.9354
798.438	2890.25264
798.626	2886.03324
798.814	2919.78679
799.002	2826.95572
799.19	2966.1918
799.378	2658.10385
799.566	2961.97346
799.755	2617.98935
799.943	2854.38595
800.131	2755.20409
800.318	2953.5366
800.506	2653.88149
800.694	2829.06582
800.882	2611.65507
801.07	2972.5192
801.258	2698.2138
801.446	2873.37471
801.634	2826.95572
801.822	2670.77065
802.01	2567.31208
802.197	2793.19222
802.385	2489.17131
802.573	2818.51518
802.761	2472.27396
802.949	2769.97777
803.136	2594.76313
803.324	2919.78679
803.512	2909.2392
803.699	3012.58958
803.887	2725.65477
804.075	2814.29482
804.262	2590.54002
804.45	2900.80087
804.638	2765.75679
804.825	2911.34875
805.013	2630.65757
805.201	2801.63342
805.388	2700.32472
805.576	2980.95552
805.763	2869.15508
805.951	3044.2202
806.138	2862.82554
806.326	3088.49722
806.513	2759.42521
806.701	2883.92352
806.888	2774.1987
807.075	3027.35097
807.263	2780.53
807.45	3046.32879
807.638	2704.54653
807.825	2831.17591
808.012	2835.39605
808.2	2902.91048
808.387	2677.10388
808.574	2976.73739
808.761	2563.08866
808.949	2818.51518
809.136	2702.43563
809.323	2628.54623
809.51	2541.97086
809.698	2778.41958
809.885	2449.03895
810.072	2685.548
810.259	2510.29198
810.446	2807.96419
810.633	2689.76999
810.82	2810.07441
811.008	2617.98935
811.195	2793.19222
811.382	2736.2084
811.569	2867.04525
811.756	2717.21163
811.943	2913.45828
812.13	2995.7185
812.317	2839.61612
812.504	2539.85902
812.691	2801.63342
812.878	2843.83614
813.064	2953.5366
813.251	2928.22459
813.438	3118.01137
813.625	2700.32472
813.812	2926.11516
813.999	2738.31908
814.186	2744.65106
814.372	2841.72614
814.559	2902.91048
814.746	2693.99192
814.933	2909.2392
815.12	2683.43699
815.306	2822.73548
815.493	2700.32472
815.68	2780.53
815.866	2590.54002
816.053	2782.6404
816.24	2575.75877
816.426	2818.51518
816.613	2569.42377
816.799	2869.15508
816.986	2677.10388
817.173	2801.63342
817.359	2449.03895
817.546	2742.54041
817.732	2660.21502
817.919	2905.02007
818.105	2647.54784
818.292	2945.0995
818.478	2725.65477
818.665	2974.6283
818.851	2666.54844
819.037	2734.0977
819.224	2533.52341
819.41	2683.43699
819.597	2343.40913
819.783	2801.63342
819.969	2280.01922
820.156	2624.32352
820.342	2666.54844
820.528	2677.10388
820.714	2670.77065
820.901	2706.65741
821.087	2539.85902
821.273	2666.54844
821.459	2362.42439
821.646	2668.65955
821.832	2362.42439
822.018	2560.97693
822.204	2552.52991
822.39	2736.2084
822.576	2643.32535
822.762	2704.54653
822.948	2550.41812
823.134	2571.53545
823.32	2482.83489
823.507	2723.544
823.693	2658.10385
823.879	2649.65907
824.065	2446.92661
824.25	2575.75877
824.436	2453.2636
824.622	2662.32617
824.808	2497.61971
824.994	2535.63529
825.18	2383.5515
825.366	2653.88149
825.552	2303.26319
825.738	2508.17997
825.923	2307.48924
826.109	2514.51598
826.295	2180.69176
826.481	2375.10078
826.667	2372.98808
826.852	2368.76263
827.038	2277.90607
827.224	2345.52198
827.409	2337.07053
827.595	2501.84385
827.781	2161.66944
827.966	2501.84385
828.152	2220.84775
828.338	2472.27396
828.523	2400.45246
828.709	2605.32069
828.894	2463.82502
829.08	2472.27396
829.266	2313.82825
829.451	2385.66416
829.637	2347.63481
829.822	2353.97326
830.008	2201.82687
830.193	2320.16717
830.378	2246.20781
830.564	2315.94123
830.749	2028.49565
830.935	2313.82825
831.12	2096.14319
831.305	2258.88736
831.491	2168.01029
831.676	2254.66088
831.861	2102.48476
832.047	2231.4146
832.232	2091.91543
832.417	2252.54763
832.602	2058.09234
832.788	2159.55581
832.973	2058.09234
833.158	2091.91543
833.343	1998.89763
833.528	2261.00059
833.714	2081.34592
833.899	2364.53715
834.084	1907.98179
834.269	2134.19161
834.454	1956.61257
834.639	2132.07787
834.824	2129.96413
835.009	2235.64127
835.194	1920.66837
835.379	2332.84475
835.564	1924.89719
835.749	2235.64127
835.934	1996.78344
836.119	1998.89763
836.304	1872.03543
836.489	1981.98391
836.674	1819.17049
836.859	2036.95199
837.044	1795.90902
837.228	2045.40821
837.413	1798.02372
837.598	1994.66924
837.783	1702.85834
837.968	1844.54603
838.152	1776.87652
838.337	1907.98179
838.522	1806.48248
838.707	1939.69786
838.891	1817.05584
839.076	1838.20221
839.261	1743.04018
839.445	1884.72255
839.63	1696.51373
839.815	1905.86734
839.999	1724.00682
840.184	1910.09624
840.368	1489.24548
840.553	1753.61414
840.737	1753.61414
840.922	1730.35131
841.106	1531.54631
841.291	1897.40949
841.475	1630.95129
841.66	1948.15526
841.844	1614.03157
842.029	1787.45017
842.213	1743.04018
842.397	1825.51444
842.582	1508.28089
842.766	1846.66063
842.951	1601.3417
843.135	1829.74372
843.319	1787.45017
843.504	1635.1812
843.688	1510.39593
843.872	1795.90902
844.056	1614.03157
844.241	1673.24993
844.425	1704.9732
844.609	1753.61414
844.793	1605.57166
844.977	1643.64099
845.161	1421.56384
845.346	1698.6286
845.53	1451.17456
845.714	1594.99673
845.898	1457.51971
846.082	1436.36919
846.266	1389.83816
846.45	1559.04165
846.634	1400.41337
846.818	1531.54631
847.002	1476.55518
847.186	1569.61672
847.37	1305.23751
847.554	1476.55518
847.738	1457.51971
847.922	1482.90033
848.106	1417.33374
848.29	1487.13043
848.473	1330.61746
848.657	1377.14793
848.841	1377.14793
849.025	1575.96174
849.209	1501.93576
849.392	1533.66134
849.576	1408.87355
849.76	1351.76759
849.944	1288.3177
850.127	1402.52841
850.311	1262.93825
850.495	1265.05319
850.678	1237.55917
850.862	1301.00754
851.046	1203.72105
851.229	1309.46748
851.413	1364.45774
851.596	1470.21003
851.78	1178.34303
851.964	1330.61746
852.147	1347.53755
852.331	1254.47851
852.514	1281.9728
852.698	1284.08777
852.881	1129.70336
853.065	1317.92745
853.248	1212.1805
853.431	1220.64001
853.615	975.34269
853.798	1186.80231
853.982	1144.50651
854.165	1322.15744
854.348	1267.16813
854.532	1317.92745
854.715	1218.52513
854.898	1260.82331
855.081	1169.8838
855.265	1248.13374
855.448	1127.58865
855.631	1161.42464
855.814	1087.4099
855.997	1159.30986
856.181	1057.80567
856.364	1165.65421
856.547	1066.26392
856.73	1081.06605
856.913	1059.92022
857.096	1072.60766
857.279	1078.95145
857.462	1152.96554
857.645	1045.11847
857.828	1117.01513
858.011	1026.08805
858.194	1112.78575
858.377	928.82952
858.56	1159.30986
858.743	983.8
858.926	1110.67107
859.109	981.68566
859.292	1180.45784
859.475	1002.82931
859.658	1262.93825
859.841	1093.7538
860.023	1121.24452
860.206	1034.54595
860.389	1068.37849
860.572	823.13176
860.755	867.52228
860.937	865.40836
861.12	909.80243
861.303	867.52228
861.486	990.14304
861.668	749.15665
861.851	840.04198
862.034	814.67687
862.216	988.02869
862.399	808.3358
862.581	859.06665
862.764	704.77757
862.947	884.43395
863.129	683.64637
863.312	924.60123
863.494	668.85521
863.677	1070.49307
863.859	808.3358
864.042	1064.14935
864.224	806.22212
864.406	911.91652
864.589	730.13647
864.771	782.97236
864.954	715.34359
865.136	763.95071
865.318	852.72501
865.501	751.27006
865.683	751.27006
865.865	766.06419
866.048	658.29044
866.23	785.08593
866.412	734.3631
866.594	865.40836
866.777	776.63172
866.959	795.65391
867.141	738.58978
867.323	810.44948
867.505	706.89075
867.687	831.58679
867.869	742.8165
868.052	848.4973
868.234	670.9682
868.416	856.95276
868.598	628.71068
868.78	751.27006
868.962	772.40468
869.144	740.70313
869.326	673.0812
869.508	630.82344
869.69	738.58978
869.872	774.5182
870.054	706.89075
870.236	865.40836
870.417	791.42669
870.599	696.32496
870.781	683.64637
870.963	821.01802
871.145	683.64637
871.327	696.32496
871.508	603.35852
871.69	664.62926
871.872	628.71068
872.054	677.30723
872.235	713.23036
872.417	740.70313
872.599	641.38743
872.78	732.24978
872.962	611.80904
873.144	620.25976
873.325	611.80904
873.507	611.80904
873.689	516.75291
873.87	666.74223
874.052	605.47113
874.233	637.1618
874.415	620.25976
874.596	654.06461
874.778	643.50026
874.959	656.17752
875.141	647.72597
875.322	704.77757
875.503	681.53331
875.685	704.77757
875.866	582.23313
876.048	713.23036
876.229	563.22139
876.41	666.74223
876.592	510.41683
876.773	679.42027
876.954	620.25976
877.136	713.23036
877.317	527.31334
877.498	666.74223
877.679	586.4581
877.86	698.43809
878.042	567.44613
878.223	641.38743
878.404	637.1618
878.585	751.27006
878.766	565.33375
878.947	785.08593
879.128	554.77208
879.309	728.02317
879.49	639.27461
879.672	607.58375
879.853	599.13334
880.034	647.72597
880.215	535.76193
880.396	683.64637
880.576	480.85017
880.757	664.62926
880.938	647.72597
881.119	736.47644
881.3	605.47113
881.481	637.1618
881.662	711.11715
881.843	624.48519
882.023	611.80904
882.204	774.5182
882.385	620.25976
882.566	628.71068
882.747	573.78333
882.927	730.13647
883.108	622.37247
883.289	620.25976
883.469	588.57061
883.65	719.57007
883.831	613.9217
884.011	670.9682
884.192	611.80904
884.373	713.23036
884.553	637.1618
884.734	763.95071
884.914	578.0082
885.095	620.25976
885.275	590.68313
885.456	594.90821
885.636	588.57061
885.817	628.71068
885.997	514.64087
886.178	717.45683
886.358	584.34561
886.538	715.34359
886.719	501.96892
886.899	578.0082
887.08	635.049
887.26	749.15665
887.44	721.68333
887.621	685.75944
887.801	539.98631
887.981	645.61311
888.161	594.90821
888.342	725.90988
888.522	641.38743
888.702	613.9217
888.882	603.35852
889.062	622.37247
889.242	552.65979
889.423	715.34359
889.603	637.1618
889.783	622.37247
889.963	563.22139
890.143	709.00395
890.323	533.64976
890.503	776.63172
890.683	552.65979
890.863	613.9217
891.043	552.65979
891.223	620.25976
891.403	520.97704
891.583	605.47113
891.763	611.80904
891.943	643.50026
892.122	618.14706
892.302	793.54029
892.482	679.42027
892.662	706.89075
892.842	597.02077
893.022	666.74223
893.201	552.65979
893.381	649.83884
893.561	603.35852
893.741	670.9682
893.92	512.52884
894.1	664.62926
894.28	586.4581
894.459	649.83884
894.639	637.1618
894.819	613.9217
894.998	613.9217
895.178	641.38743
895.357	542.09852
895.537	567.44613
895.716	438.61718
895.896	518.86497
896.075	527.31334
896.255	539.98631
896.434	396.39047
896.614	628.71068
896.793	468.17963
896.973	531.53761
897.152	573.78333
897.331	512.52884
897.511	495.63314
897.69	520.97704
897.87	400.61285
898.049	409.05781
898.228	485.0738
898.407	442.8402
898.587	434.39422
898.766	504.08088
898.945	400.61285
899.124	400.61285
899.304	341.50562
899.483	571.67092
899.662	402.72406
899.841	510.41683
900.02	415.39169
900.199	603.35852
900.378	326.73092
900.557	409.05781
900.737	512.52884
900.916	451.28643
901.095	455.50964
901.274	455.50964
901.453	366.83566
901.632	493.52124
901.811	358.39204
901.989	362.61382
902.168	307.73615
902.347	381.61266
902.526	425.9485
902.705	333.06283
902.884	341.50562
903.063	366.83566
903.242	324.62032
903.42	451.28643
903.599	328.84154
903.778	360.50292
903.957	307.73615
904.135	383.72372
904.314	343.61636
904.493	385.8348
904.672	307.73615
904.85	390.05702
905.029	352.0595
905.207	299.2945
905.386	284.52232
905.565	333.06283
905.743	276.08147
905.922	257.09068
906.1	214.89448
906.279	286.63257
906.457	240.21127
906.636	261.31072
906.814	254.98069
906.993	265.53084
907.171	280.30186
907.35	269.75104
907.528	261.31072
907.707	223.33309
907.885	280.30186
908.063	198.0182
908.242	193.79933
908.42	225.4428
908.598	202.23715
908.777	269.75104
908.955	297.18413
909.133	217.0041
909.311	223.33309
909.49	259.20069
909.668	223.33309
909.846	214.89448
910.024	214.89448
910.202	265.53084
910.38	273.97131
910.559	185.36184
910.737	282.41208
910.915	252.87071
911.093	257.09068
911.271	269.75104
911.449	233.8818
911.627	309.84661
911.805	248.65082
911.983	254.98069
912.161	292.96345
912.339	231.77202
912.517	240.21127
912.695	248.65082
912.872	326.73092
913.05	261.31072
913.228	248.65082
913.406	254.98069
913.584	189.58055
913.762	261.31072
913.939	155.83321
914.117	257.09068
914.295	149.50617
914.473	143.17933
914.65	261.31072
914.828	214.89448
915.006	198.0182
915.184	185.36184
915.361	219.11374
915.539	210.67529
915.716	259.20069
915.894	219.11374
916.072	252.87071
916.249	231.77202
916.427	231.77202
916.604	172.70621
916.782	149.50617
916.959	176.92467
917.137	252.87071
917.314	286.63257
917.492	267.64093
917.669	164.26954
917.847	164.26954
918.024	231.77202
918.201	124.19996
918.379	206.45618
918.556	223.33309
918.733	179.03394
918.911	122.09124
919.088	191.68993
919.265	119.98255
919.442	225.4428
919.62	200.12766
919.797	198.0182
919.974	130.52622
920.151	273.97131
920.328	183.25252
920.506	202.23715
920.683	132.63502
920.86	198.0182
921.037	168.48784
921.214	193.79933
921.391	115.76524
921.568	172.70621
921.745	174.81543
921.922	128.41744
922.099	217.0041
922.276	141.07043
922.453	138.96154
922.63	189.58055
922.807	145.28826
922.984	107.33087
923.161	176.92467
923.338	189.58055
923.514	214.89448
923.691	155.83321
923.868	103.11382
924.045	198.0182
924.222	202.23715
924.399	176.92467
924.575	117.87389
924.752	60.94819
924.929	214.89448
925.105	221.22341
925.282	141.07043
925.459	54.62413
925.635	113.65661
925.812	98.89685
925.989	65.16435
926.165	96.7884
926.342	105.22233
926.518	50.4082
926.695	147.39721
926.871	88.35483
927.048	75.70514
927.224	174.81543
927.401	44.08449
927.577	126.30869
927.754	90.46319
927.93	90.46319
928.107	84.13817
928.283	54.62413
928.459	101.00532
928.636	122.09124
928.812	25.11459
928.988	134.74384
929.165	113.65661
929.341	84.13817
929.517	155.83321
929.693	69.38059
929.87	103.11382
930.046	124.19996
930.222	138.96154
930.398	84.13817
930.574	122.09124
930.751	183.25252
930.927	113.65661
931.103	130.52622
931.279	141.07043
931.455	115.76524
931.631	65.16435
931.807	79.92161
931.983	63.05626
932.159	119.98255
932.335	67.27246
932.511	90.46319
932.687	54.62413
932.863	35.65319
933.039	130.52622
933.215	105.22233
933.391	-21.24814
933.566	20.89932
933.742	71.48875
933.918	117.87389
934.094	4.03918
934.27	98.89685
934.445	-27.56942
934.621	37.76098
934.797	46.19237
934.973	73.59693
935.148	67.27246
935.324	54.62413
935.5	124.19996
935.675	54.62413
935.851	46.19237
936.027	35.65319
936.202	50.4082
936.378	58.84015
936.553	73.59693
936.729	-4.39031
936.904	79.92161
937.08	141.07043
937.255	63.05626
937.431	130.52622
937.606	90.46319
937.782	65.16435
937.957	29.32996
938.133	25.11459
938.308	-25.46235
938.483	6.14661
938.659	56.73213
938.834	67.27246
939.009	1.93177
939.185	-38.10439
939.36	-12.81942
939.535	-12.81942
939.71	50.4082
939.886	-21.24814
940.061	37.76098
940.236	84.13817
940.411	20.89932
940.586	33.54542
940.761	71.48875
940.937	-78.13156
941.112	8.25407
941.287	33.54542
941.462	-4.39031
941.637	4.03918
941.812	-29.67646
941.987	4.03918
942.162	-0.17561
942.337	-10.71218
942.512	92.57157
942.687	27.22227
942.862	25.11459
943.037	52.51615
943.212	-25.46235
943.386	-4.39031
943.561	-2.28298
943.736	25.11459
943.911	48.30027
944.086	10.36155
944.26	-35.99745
944.435	109.43943
944.61	-14.92664
944.785	27.22227
944.959	12.46906
945.134	39.86879
945.309	-29.67646
945.483	29.32996
945.658	12.46906
945.833	10.36155
946.007	-25.46235
946.182	12.46906
946.357	12.46906
946.531	37.76098
946.706	25.11459
946.88	-31.78348
947.055	18.79172
947.229	4.03918
947.404	-21.24814
947.578	71.48875
947.752	6.14661
947.927	105.22233
948.101	-4.39031
948.276	-12.81942
948.45	31.43768
948.624	48.30027
948.799	23.00695
948.973	-8.60492
949.147	50.4082
949.321	60.94819
949.496	-12.81942
949.67	-42.31821
949.844	-21.24814
950.018	1.93177
950.193	-46.53192
950.367	27.22227
950.541	-40.21131
950.715	-29.67646
950.889	29.32996
951.063	29.32996
951.237	23.00695
951.411	-29.67646
951.585	71.48875
951.759	-25.46235
951.933	4.03918
952.107	50.4082
952.281	46.19237
952.455	23.00695
952.629	-44.42508
952.803	-14.92664
952.977	-27.56942
953.151	33.54542
953.325	101.00532
953.499	25.11459
953.672	29.32996
953.846	-4.39031
954.02	-4.39031
954.194	18.79172
954.368	48.30027
954.541	31.43768
954.715	-19.141
954.889	16.68414
955.062	14.57659
955.236	-12.81942
955.41	-17.03383
955.583	56.73213
955.757	39.86879
955.93	23.00695
956.104	-42.31821
956.278	18.79172
956.451	71.48875
956.625	-4.39031
956.798	39.86879
956.972	14.57659
957.145	39.86879
957.319	63.05626
957.492	50.4082
957.665	27.22227
957.839	69.38059
958.012	12.46906
958.185	73.59693
958.359	12.46906
958.532	-25.46235
958.705	25.11459
958.879	29.32996
959.052	-4.39031
959.225	31.43768
959.398	20.89932
959.572	41.97663
959.745	-35.99745
959.918	60.94819
960.091	54.62413
960.264	33.54542
960.438	86.24649
960.611	52.51615
960.784	-46.53192
960.957	20.89932
961.13	-46.53192
961.303	37.76098
961.476	75.70514
961.649	58.84015
961.822	6.14661
961.995	63.05626
962.168	44.08449
962.341	-46.53192
962.514	58.84015
962.686	-17.03383
962.859	10.36155
963.032	20.89932
963.205	39.86879
963.378	-17.03383
963.551	-0.17561
963.723	82.02988
963.896	37.76098
964.069	-46.53192
964.242	63.05626
964.414	29.32996
964.587	-14.92664
964.76	-21.24814
964.932	90.46319
965.105	-6.49763
965.278	124.19996
965.45	39.86879
965.623	-12.81942
965.795	41.97663
965.968	-35.99745
966.14	10.36155
966.313	4.03918
966.485	39.86879
966.658	46.19237
966.83	29.32996
967.003	-10.71218
967.175	-71.81209
967.348	-17.03383
967.52	12.46906
967.692	1.93177
967.865	20.89932
968.037	37.76098
968.209	71.48875
968.382	-31.78348
968.554	-10.71218
968.726	33.54542
968.898	6.14661
969.071	54.62413
969.243	37.76098
969.415	54.62413
969.587	71.48875
969.759	-2.28298
969.932	75.70514
970.104	35.65319
970.276	-44.42508
970.448	41.97663
970.62	-19.141
970.792	-31.78348
970.964	-27.56942
971.136	20.89932
971.308	-29.67646
971.48	50.4082
971.652	12.46906
971.824	37.76098
971.996	75.70514
972.168	46.19237
972.339	63.05626
972.511	23.00695
972.683	-33.89048
972.855	-17.03383
973.027	92.57157
973.199	37.76098
973.37	-54.95905
973.542	-4.39031
973.714	35.65319
973.886	-2.28298
974.057	58.84015
974.229	-25.46235
974.401	48.30027
974.572	37.76098
974.744	10.36155
974.915	31.43768
975.087	54.62413
975.259	92.57157
975.43	-4.39031
975.602	54.62413
975.773	14.57659
975.945	-10.71218
976.116	6.14661
976.288	-0.17561
976.459	12.46906
976.63	29.32996
976.802	-0.17561
976.973	-46.53192
977.145	73.59693
977.316	23.00695
977.487	12.46906
977.659	98.89685
977.83	56.73213
978.001	12.46906
978.172	37.76098
978.344	75.70514
978.515	-21.24814
978.686	-0.17561
978.857	-4.39031
979.028	6.14661
979.2	46.19237
979.371	4.03918
979.542	20.89932
979.713	-8.60492
979.884	-52.8523
980.055	12.46906
980.226	23.00695
980.397	-12.81942
980.568	14.57659
980.739	12.46906
980.91	46.19237
981.081	20.89932
981.252	-4.39031
981.423	48.30027
981.594	20.89932
981.765	-29.67646
981.936	56.73213
982.106	48.30027
982.277	-29.67646
982.448	39.86879
982.619	50.4082
982.79	29.32996
982.96	-84.4508
983.131	10.36155
983.302	37.76098
983.472	39.86879
983.643	-4.39031
983.814	-29.67646
983.984	-2.28298
984.155	16.68414
984.326	39.86879
984.496	1.93177
984.667	41.97663
984.837	25.11459
985.008	58.84015
985.178	16.68414
985.349	39.86879
985.519	-0.17561
985.69	-10.71218
985.86	33.54542
986.031	-25.46235
986.201	-27.56942
986.371	37.76098
986.542	-12.81942
986.712	39.86879
986.882	-19.141
987.053	-29.67646
987.223	35.65319
987.393	25.11459
987.563	41.97663
987.734	-10.71218
987.904	-29.67646
988.074	-4.39031
988.244	-12.81942
988.414	-19.141
988.585	14.57659
988.755	96.7884
988.925	33.54542
989.095	-21.24814
989.265	52.51615
989.435	35.65319
989.605	44.08449
989.775	25.11459
989.945	35.65319
990.115	6.14661
990.285	16.68414
990.455	-33.89048
990.625	-14.92664
990.795	-63.38577
990.965	27.22227
991.134	-44.42508
991.304	18.79172
991.474	-0.17561
991.644	-14.92664
991.814	-33.89048
991.984	-52.8523
992.153	41.97663
992.323	10.36155
992.493	12.46906
992.662	39.86879
992.832	37.76098
993.002	37.76098
993.171	-27.56942
993.341	31.43768
993.511	-4.39031
993.68	-23.35526
993.85	63.05626
994.019	71.48875
994.189	-65.49239
994.358	46.19237
994.528	-4.39031
994.697	-10.71218
994.867	16.68414
995.036	14.57659
995.206	86.24649
995.375	23.00695
995.544	-12.81942
995.714	-25.46235
995.883	-2.28298
996.052	29.32996
996.222	23.00695
996.391	4.03918
996.56	-19.141
996.73	-21.24814
996.899	71.48875
997.068	41.97663
997.237	63.05626
997.406	-25.46235
997.576	71.48875
997.745	50.4082
997.914	-0.17561
998.083	4.03918
998.252	-10.71218
998.421	-8.60492
998.59	-8.60492
998.759	58.84015
998.928	-35.99745
999.097	6.14661
999.266	-12.81942
999.435	33.54542
999.604	29.32996
999.773	-21.24814
999.942	-21.24814
1000.111	-44.42508
1000.28	86.24649
1000.448	101.00532
1000.617	-10.71218
1000.786	23.00695
1000.955	37.76098
1001.124	6.14661
1001.292	-38.10439
1001.461	-33.89048
1001.63	-52.8523
1001.798	-25.46235
1001.967	75.70514
1002.136	23.00695
1002.304	-12.81942
1002.473	-19.141
1002.642	35.65319
1002.81	-25.46235
1002.979	-21.24814
1003.147	16.68414
1003.316	1.93177
1003.484	12.46906
1003.653	20.89932
1003.821	-17.03383
1003.99	12.46906
1004.158	-17.03383
1004.327	-21.24814
1004.495	-21.24814
1004.663	25.11459
1004.832	41.97663
1005	-14.92664
1005.168	-52.8523
1005.337	12.46906
1005.505	-0.17561
1005.673	18.79172
1005.842	29.32996
1006.01	-76.0251
1006.178	82.02988
1006.346	29.32996
1006.514	58.84015
1006.683	16.68414
1006.851	33.54542
1007.019	48.30027
1007.187	25.11459
1007.355	98.89685
1007.523	-29.67646
1007.691	-19.141
1007.859	-27.56942
1008.027	-19.141
1008.195	6.14661
1008.363	16.68414
1008.531	37.76098
1008.699	8.25407
1008.867	4.03918
1009.035	20.89932
1009.203	4.03918
1009.37	-69.70555
1009.538	14.57659
1009.706	-54.95905
1009.874	-2.28298
1010.042	-59.17246
1010.209	1.93177
1010.377	35.65319
1010.545	4.03918
1010.713	1.93177
1010.88	4.03918
1011.048	18.79172
1011.216	4.03918
1011.383	-38.10439
1011.551	-27.56942
1011.718	46.19237
1011.886	-4.39031
1012.054	79.92161
1012.221	10.36155
1012.389	-27.56942
1012.556	29.32996
1012.724	-12.81942
1012.891	23.00695
1013.058	37.76098
1013.226	31.43768
1013.393	-12.81942
1013.561	-19.141
1013.728	-42.31821
1013.895	-42.31821
1014.063	33.54542
1014.23	-69.70555
1014.397	10.36155
1014.565	23.00695
1014.732	18.79172
1014.899	-2.28298
1015.066	-29.67646
1015.233	-59.17246
1015.401	35.65319
1015.568	14.57659
1015.735	-0.17561
1015.902	-8.60492
1016.069	58.84015
1016.236	-29.67646
1016.403	58.84015
1016.57	8.25407
1016.737	-50.74553
1016.904	-17.03383
1017.071	37.76098
1017.238	-50.74553
1017.405	50.4082
1017.572	27.22227
1017.739	-21.24814
1017.906	-12.81942
1018.073	12.46906
1018.24	-10.71218
1018.407	71.48875
1018.573	-25.46235
1018.74	27.22227
1018.907	-10.71218
1019.074	12.46906
1019.241	37.76098
1019.407	-44.42508
1019.574	12.46906
1019.741	-25.46235
1019.907	-17.03383
1020.074	37.76098
1020.241	-21.24814
1020.407	29.32996
1020.574	-25.46235
1020.74	-46.53192
1020.907	-29.67646
1021.073	20.89932
1021.24	29.32996
1021.406	25.11459
1021.573	63.05626
1021.739	27.22227
1021.906	-97.08857
1022.072	-27.56942
1022.239	-10.71218
1022.405	-2.28298
1022.571	29.32996
1022.738	-29.67646
1022.904	56.73213
1023.07	-94.98234
1023.237	29.32996
1023.403	58.84015
1023.569	-35.99745
1023.735	71.48875
1023.902	-69.70555
1024.068	20.89932
1024.234	6.14661
1024.4	-29.67646
1024.566	-4.39031
1024.732	-27.56942
1024.898	-8.60492
1025.065	113.65661
1025.231	71.48875
1025.397	-38.10439
1025.563	-12.81942
1025.729	6.14661
1025.895	-21.24814
1026.061	-52.8523
1026.227	14.57659
1026.392	48.30027
1026.558	-31.78348
1026.724	-8.60492
1026.89	-63.38577
1027.056	-21.24814
1027.222	29.32996
1027.388	12.46906
1027.553	-63.38577
1027.719	16.68414
1027.885	-25.46235
1028.051	10.36155
1028.216	4.03918
1028.382	23.00695
1028.548	-44.42508
1028.713	-59.17246
1028.879	-10.71218
1029.045	1.93177
1029.21	-8.60492
1029.376	37.76098
1029.541	-38.10439
1029.707	-54.95905
1029.873	-27.56942
1030.038	-33.89048
1030.204	-10.71218
1030.369	29.32996
1030.534	-132.89047
1030.7	54.62413
1030.865	16.68414
1031.031	-19.141
1031.196	-12.81942
1031.361	-67.59898
1031.527	-21.24814
1031.692	6.14661
1031.857	8.25407
1032.023	58.84015
1032.188	37.76098
1032.353	-35.99745
1032.518	46.19237
1032.684	14.57659
1032.849	46.19237
1033.014	12.46906
1033.179	23.00695
1033.344	-8.60492
1033.509	-4.39031
1033.674	35.65319
1033.839	-17.03383
1034.004	-8.60492
1034.17	-65.49239
1034.335	-31.78348
1034.5	56.73213
1034.664	41.97663
1034.829	25.11459
1034.994	-0.17561
1035.159	37.76098
1035.324	-8.60492
1035.489	-143.41896
1035.654	-21.24814
1035.819	20.89932
1035.984	-33.89048
1036.148	-4.39031
1036.313	39.86879
1036.478	-17.03383
1036.643	39.86879
1036.807	4.03918
1036.972	4.03918
1037.137	-4.39031
1037.301	4.03918
1037.466	-50.74553
1037.631	44.08449
1037.795	4.03918
1037.96	29.32996
1038.124	31.43768
1038.289	6.14661
1038.454	25.11459
1038.618	12.46906
1038.783	25.11459
1038.947	8.25407
1039.111	4.03918
1039.276	65.16435
1039.44	16.68414
1039.605	-2.28298
1039.769	29.32996
1039.933	-4.39031
1040.098	-19.141
1040.262	-2.28298
1040.426	-8.60492
1040.591	-73.91861
1040.755	-21.24814
1040.919	-46.53192
1041.083	27.22227
1041.248	50.4082
1041.412	-46.53192
1041.576	58.84015
1041.74	29.32996
1041.904	48.30027
1042.068	-25.46235
1042.232	1.93177
1042.397	20.89932
1042.561	52.51615
1042.725	41.97663
1042.889	-29.67646
1043.053	-4.39031
1043.217	-29.67646
1043.381	8.25407
1043.544	29.32996
1043.708	-29.67646
1043.872	-10.71218
1044.036	-33.89048
1044.2	20.89932
1044.364	-10.71218
1044.528	-29.67646
1044.691	39.86879
1044.855	33.54542
1045.019	-38.10439
1045.183	60.94819
1045.346	50.4082
1045.51	10.36155
1045.674	-101.30096
1045.837	-10.71218
1046.001	-29.67646
1046.165	14.57659
1046.328	-8.60492
1046.492	16.68414
1046.655	-21.24814
1046.819	12.46906
1046.983	-38.10439
1047.146	1.93177
1047.31	-21.24814
1047.473	27.22227
1047.636	-17.03383
1047.8	-29.67646
1047.963	-17.03383
1048.127	54.62413
1048.29	27.22227
