Data from absorb_only_2.23.25_USB4F045381__58__0163.txt Node

Date: Sun Feb 23 19:23:23 EST 2025
User: ssocol
Spectrometer: USB4F04538
Trigger mode: 4
Integration Time (sec): 2.600000E-3
Scans to average: 1
Electric dark correction enabled: true
Nonlinearity correction enabled: true
Boxcar width: 0
XAxis mode: Wavelengths
Number of Pixels in Spectrum: 3648
>>>>>Begin Spectral Data<<<<<
345.52	-78.48264
345.736	-78.48264
345.952	-78.48264
346.168	24.76332
346.384	-42.66935
346.6	-36.3486
346.816	-11.06339
347.032	-57.41689
347.248	-40.56246
347.464	64.813
347.68	-23.70644
347.896	-53.20343
348.112	56.38079
348.328	66.92111
348.544	5.79537
348.76	39.51749
348.975	-11.06339
349.191	-59.52357
349.407	-91.12085
349.623	1.58054
349.839	31.08639
350.055	-44.77622
350.27	16.33288
350.486	5.79537
350.702	5.79537
350.918	7.90283
351.133	16.33288
351.349	-72.16318
351.565	-23.70644
351.781	-21.59933
351.996	47.94895
352.212	-55.31017
352.428	10.01031
352.644	-76.37618
352.859	24.76332
353.075	-19.49219
353.291	-34.24164
353.506	-8.95613
353.722	-0.52684
353.938	47.94895
354.153	-65.84349
354.369	-11.06339
354.584	33.19413
354.8	1.58054
355.016	22.65567
355.231	-40.56246
355.447	-2.6342
355.662	1.58054
355.878	37.40968
356.093	1.58054
356.309	-15.27784
356.524	-114.28848
356.74	-34.24164
356.955	-2.6342
357.171	56.38079
357.386	-46.88306
357.602	7.90283
357.817	-70.05664
358.033	-25.81353
358.248	-55.31017
358.464	-13.17063
358.679	-19.49219
358.895	20.54805
359.11	28.97868
359.325	-11.06339
359.541	39.51749
359.756	-2.6342
359.972	-21.59933
360.187	-19.49219
360.402	16.33288
360.618	-19.49219
360.833	-40.56246
361.048	22.65567
361.264	-40.56246
361.479	-0.52684
361.694	12.11781
361.909	5.79537
362.125	-0.52684
362.34	12.11781
362.555	81.6785
362.77	37.40968
362.986	-17.38502
363.201	66.92111
363.416	-34.24164
363.631	-27.92059
363.847	7.90283
364.062	31.08639
364.277	-91.12085
364.492	123.8485
364.707	18.44046
364.922	-6.84884
365.138	-67.95008
365.353	37.40968
365.568	-32.13465
365.783	-2.6342
365.998	5.79537
366.213	22.65567
366.428	31.08639
366.643	-2.6342
366.858	-27.92059
367.073	62.70491
367.288	7.90283
367.503	41.62532
367.718	10.01031
367.933	-32.13465
368.148	-6.84884
368.363	-67.95008
368.578	50.05688
368.793	33.19413
369.008	31.08639
369.223	-0.52684
369.438	-17.38502
369.653	16.33288
369.868	-32.13465
370.083	83.78679
370.298	39.51749
370.513	-17.38502
370.728	-36.3486
370.943	-23.70644
371.157	10.01031
371.372	58.48881
371.587	-57.41689
371.802	-11.06339
372.017	-36.3486
372.232	28.97868
372.446	-32.13465
372.661	31.08639
372.876	20.54805
373.091	-19.49219
373.306	-36.3486
373.52	56.38079
373.735	-27.92059
373.95	-11.06339
374.165	14.22533
374.379	18.44046
374.594	-42.66935
374.809	-15.27784
375.023	-70.05664
375.238	39.51749
375.453	1.58054
375.667	-53.20343
375.882	-27.92059
376.097	14.22533
376.311	-21.59933
376.526	43.73317
376.741	24.76332
376.955	-6.84884
377.17	-78.48264
377.384	-4.74153
377.599	-57.41689
377.813	-30.02763
378.028	-21.59933
378.242	-6.84884
378.457	-27.92059
378.672	28.97868
378.886	-17.38502
379.101	-23.70644
379.315	-51.09666
379.53	-32.13465
379.744	-34.24164
379.958	39.51749
380.173	-23.70644
380.387	-44.77622
380.602	-17.38502
380.816	33.19413
381.031	-17.38502
381.245	-2.6342
381.459	58.48881
381.674	52.16483
381.888	-61.63024
382.103	-17.38502
382.317	28.97868
382.531	56.38079
382.746	31.08639
382.96	77.46199
383.174	58.48881
383.388	-4.74153
383.603	-27.92059
383.817	-30.02763
384.031	-6.84884
384.246	-2.6342
384.46	-91.12085
384.674	-2.6342
384.888	-112.18246
385.103	1.58054
385.317	7.90283
385.531	-2.6342
385.745	-25.81353
385.959	-32.13465
386.174	-42.66935
386.388	22.65567
386.602	88.00344
386.816	10.01031
387.03	1.58054
387.244	-25.81353
387.458	35.30189
387.672	47.94895
387.887	14.22533
388.101	-11.06339
388.315	26.87099
388.529	31.08639
388.743	-6.84884
388.957	43.73317
389.171	7.90283
389.385	31.08639
389.599	5.79537
389.813	-2.6342
390.027	-19.49219
390.241	14.22533
390.455	-40.56246
390.669	47.94895
390.883	14.22533
391.097	-21.59933
391.311	-53.20343
391.525	-25.81353
391.738	-46.88306
391.952	39.51749
392.166	10.01031
392.38	-19.49219
392.594	31.08639
392.808	75.35377
393.022	22.65567
393.236	-32.13465
393.449	-23.70644
393.663	73.24557
393.877	50.05688
394.091	58.48881
394.305	-32.13465
394.518	-13.17063
394.732	12.11781
394.946	64.813
395.16	22.65567
395.373	37.40968
395.587	-27.92059
395.801	-36.3486
396.015	-40.56246
396.228	10.01031
396.442	1.58054
396.656	-48.98987
396.869	-19.49219
397.083	47.94895
397.297	20.54805
397.51	-15.27784
397.724	-11.06339
397.938	5.79537
398.151	-82.69548
398.365	-19.49219
398.578	-15.27784
398.792	26.87099
399.005	45.84105
399.219	31.08639
399.433	22.65567
399.646	16.33288
399.86	43.73317
400.073	24.76332
400.287	-82.69548
400.5	-15.27784
400.714	-27.92059
400.927	-15.27784
401.141	-27.92059
401.354	39.51749
401.567	-40.56246
401.781	47.94895
401.994	-53.20343
402.208	22.65567
402.421	-15.27784
402.635	-17.38502
402.848	-44.77622
403.061	85.8951
403.275	-67.95008
403.488	-67.95008
403.701	31.08639
403.915	-19.49219
404.128	14.22533
404.341	56.38079
404.555	26.87099
404.768	-8.95613
404.981	-6.84884
405.195	31.08639
405.408	26.87099
405.621	-17.38502
405.834	45.84105
406.048	-6.84884
406.261	-44.77622
406.474	24.76332
406.687	12.11781
406.9	-2.6342
407.114	-11.06339
407.327	58.48881
407.54	35.30189
407.753	24.76332
407.966	-11.06339
408.179	41.62532
408.392	24.76332
408.605	24.76332
408.819	-27.92059
409.032	-15.27784
409.245	37.40968
409.458	81.6785
409.671	102.7624
409.884	-2.6342
410.097	-25.81353
410.31	39.51749
410.523	-86.90822
410.736	-13.17063
410.949	-76.37618
411.162	58.48881
411.375	-19.49219
411.588	31.08639
411.801	7.90283
412.014	-17.38502
412.227	16.33288
412.44	-17.38502
412.653	-34.24164
412.865	-0.52684
413.078	-8.95613
413.291	28.97868
413.504	-32.13465
413.717	56.38079
413.93	-34.24164
414.143	-53.20343
414.356	14.22533
414.568	-78.48264
414.781	7.90283
414.994	10.01031
415.207	50.05688
415.42	26.87099
415.632	-30.02763
415.845	-2.6342
416.058	14.22533
416.271	-11.06339
416.483	5.79537
416.696	56.38079
416.909	-15.27784
417.121	5.79537
417.334	64.813
417.547	85.8951
417.759	79.57023
417.972	22.65567
418.185	73.24557
418.397	56.38079
418.61	73.24557
418.823	31.08639
419.035	-8.95613
419.248	41.62532
419.46	92.22017
419.673	18.44046
419.885	79.57023
420.098	35.30189
420.311	64.813
420.523	-34.24164
420.736	-11.06339
420.948	73.24557
421.161	1.58054
421.373	66.92111
421.586	-11.06339
421.798	50.05688
422.01	52.16483
422.223	22.65567
422.435	31.08639
422.648	43.73317
422.86	-32.13465
423.073	90.11179
423.285	-4.74153
423.497	43.73317
423.71	1.58054
423.922	-8.95613
424.134	10.01031
424.347	3.68794
424.559	31.08639
424.771	62.70491
424.984	73.24557
425.196	50.05688
425.408	62.70491
425.621	26.87099
425.833	-6.84884
426.045	-4.74153
426.257	50.05688
426.47	45.84105
426.682	-44.77622
426.894	14.22533
427.106	-0.52684
427.318	47.94895
427.531	-91.12085
427.743	69.02924
427.955	31.08639
428.167	24.76332
428.379	31.08639
428.591	75.35377
428.804	-15.27784
429.016	-11.06339
429.228	128.06598
429.44	22.65567
429.652	-2.6342
429.864	54.2728
430.076	52.16483
430.288	24.76332
430.5	-32.13465
430.712	-27.92059
430.924	1.58054
431.136	47.94895
431.348	73.24557
431.56	75.35377
431.772	31.08639
431.984	26.87099
432.196	64.813
432.408	-25.81353
432.62	-30.02763
432.832	47.94895
433.044	50.05688
433.256	16.33288
433.468	22.65567
433.679	-6.84884
433.891	39.51749
434.103	47.94895
434.315	90.11179
434.527	77.46199
434.739	18.44046
434.95	10.01031
435.162	-40.56246
435.374	31.08639
435.586	10.01031
435.798	56.38079
436.009	-36.3486
436.221	12.11781
436.433	14.22533
436.645	-19.49219
436.856	-27.92059
437.068	-8.95613
437.28	-4.74153
437.491	54.2728
437.703	-17.38502
437.915	16.33288
438.126	31.08639
438.338	81.6785
438.55	39.51749
438.761	56.38079
438.973	62.70491
439.184	26.87099
439.396	-0.52684
439.608	33.19413
439.819	22.65567
440.031	111.19658
440.242	41.62532
440.454	73.24557
440.665	24.76332
440.877	64.813
441.088	18.44046
441.3	5.79537
441.511	-11.06339
441.723	47.94895
441.934	24.76332
442.146	14.22533
442.357	-19.49219
442.569	41.62532
442.78	-36.3486
442.991	43.73317
443.203	41.62532
443.414	24.76332
443.626	24.76332
443.837	-2.6342
444.048	7.90283
444.26	73.24557
444.471	58.48881
444.682	-0.52684
444.894	56.38079
445.105	75.35377
445.316	47.94895
445.528	7.90283
445.739	47.94895
445.95	47.94895
446.161	-4.74153
446.373	85.8951
446.584	14.22533
446.795	22.65567
447.006	7.90283
447.217	64.813
447.429	33.19413
447.64	47.94895
447.851	39.51749
448.062	-6.84884
448.273	83.78679
448.484	-0.52684
448.695	39.51749
448.907	22.65567
449.118	39.51749
449.329	24.76332
449.54	41.62532
449.751	71.13739
449.962	66.92111
450.173	33.19413
450.384	56.38079
450.595	81.6785
450.806	73.24557
451.017	90.11179
451.228	104.87091
451.439	88.00344
451.65	31.08639
451.861	31.08639
452.072	77.46199
452.283	83.78679
452.494	24.76332
452.705	109.088
452.915	73.24557
453.126	98.54544
453.337	3.68794
453.548	121.73979
453.759	-36.3486
453.97	18.44046
454.181	115.4138
454.391	54.2728
454.602	64.813
454.813	134.39237
455.024	-2.6342
455.235	58.48881
455.445	100.65391
455.656	37.40968
455.867	71.13739
456.078	31.08639
456.288	58.48881
456.499	83.78679
456.71	81.6785
456.921	24.76332
457.131	56.38079
457.342	64.813
457.553	73.24557
457.763	88.00344
457.974	90.11179
458.184	81.6785
458.395	119.63111
458.606	138.61006
458.816	119.63111
459.027	106.97945
459.237	102.7624
459.448	102.7624
459.659	77.46199
459.869	98.54544
460.08	10.01031
460.29	123.8485
460.501	157.59075
460.711	102.7624
460.922	96.437
461.132	45.84105
461.343	111.19658
461.553	132.28355
461.764	115.4138
461.974	115.4138
462.184	64.813
462.395	85.8951
462.605	90.11179
462.816	90.11179
463.026	104.87091
463.236	149.15468
463.447	81.6785
463.657	102.7624
463.867	178.68239
464.078	159.69982
464.288	237.74979
464.498	212.43327
464.709	178.68239
464.919	227.2009
465.129	142.82785
465.339	157.59075
465.55	125.95723
465.76	109.088
465.97	277.83996
466.18	153.37267
466.391	163.91802
466.601	134.39237
466.811	191.33836
467.021	227.2009
467.231	187.11962
467.441	191.33836
467.651	174.4639
467.862	208.21413
468.072	296.83241
468.282	241.96948
468.492	203.99507
468.702	153.37267
468.912	267.28925
469.122	345.37533
469.332	258.84902
469.542	239.85962
469.752	301.05315
469.962	296.83241
470.172	402.37219
470.382	372.81673
470.592	358.04023
470.802	438.26527
471.012	330.6004
471.222	334.82172
471.432	336.93241
471.642	349.59689
471.852	387.59405
472.062	353.81853
472.272	400.26098
472.482	415.03981
472.691	440.37677
472.901	427.708
473.111	522.73711
473.321	480.4982
473.531	575.54369
473.741	541.74649
473.95	592.44357
474.16	539.63428
474.37	522.73711
474.58	562.86933
474.79	607.23165
474.999	567.09406
475.209	603.00642
475.419	676.95506
475.628	706.53856
475.838	613.56959
476.048	714.99138
476.258	729.78425
476.467	852.3727
476.677	831.2345
476.886	1019.39227
477.096	810.0972
477.306	791.07442
477.515	788.96083
477.725	778.393
477.935	900.9938
478.144	1057.45324
478.354	977.10462
478.563	1093.40136
478.773	968.64741
478.982	998.24813
479.192	1089.17209
479.401	1118.77737
479.611	1268.93059
479.82	1154.72785
480.03	1224.5173
480.239	1349.30007
480.449	1203.36858
480.658	1366.22027
480.868	1400.06086
481.077	1340.84
481.287	1313.34496
481.496	1531.1938
481.705	1535.42387
481.915	1744.80251
482.124	1691.93149
482.333	1670.78254
482.543	1641.17355
482.752	1613.67908
482.961	1636.94366
483.171	1823.04736
483.38	1725.76918
483.589	1837.84978
483.799	1882.25563
484.008	2070.42389
484.217	1920.31597
484.426	2002.77364
484.636	1935.11673
484.845	2290.23262
485.054	2053.51199
485.263	2140.18048
485.472	2072.53785
485.682	2326.15385
485.891	2076.76574
486.1	2376.86136
486.309	2271.21439
486.518	2357.84672
486.727	2212.04188
486.936	2628.19434
487.146	2440.23747
487.355	2376.86136
487.564	2419.11315
487.773	2507.82796
487.982	2490.93141
488.191	2507.82796
488.4	2569.07182
488.609	2862.4739
488.818	2727.41373
489.027	2820.27364
489.236	2714.74901
489.445	3037.54291
489.654	2847.70445
489.863	2904.66847
490.072	3033.3256
490.281	3054.41155
490.49	3016.45573
490.698	3096.57878
490.907	3012.23811
491.116	3244.11355
491.325	3132.41596
491.534	3326.27617
491.743	3201.96894
491.952	3357.87024
492.16	3488.41701
492.369	3524.20003
492.578	3343.12682
492.787	3589.43773
492.996	3465.2605
493.204	3707.24081
493.413	3675.69226
493.622	3650.45032
493.831	3587.33357
494.039	3785.04202
494.248	3684.10563
494.457	3782.93963
494.665	3751.40152
494.874	3993.07969
495.083	3833.39144
495.291	3967.87351
495.5	3755.60685
495.709	3900.64276
495.917	3860.71475
496.126	4114.86778
496.335	4024.58326
496.543	3963.6722
496.752	4182.03121
496.96	4137.95763
497.169	4026.68334
497.377	4079.17849
497.586	4108.5701
497.794	4286.93066
498.003	4074.97935
498.211	4429.50765
498.42	4268.0527
498.628	4500.75831
498.837	4370.81162
499.045	4578.2668
499.254	4379.19782
499.462	4486.09113
499.671	4372.9082
499.879	4519.61452
500.087	4628.52629
500.296	4682.95953
500.504	4636.90163
500.713	4722.72805
500.921	4745.74821
501.129	4739.47026
501.338	4687.14608
501.546	4984.15855
501.754	4636.90163
501.962	4839.893
502.171	4731.09934
502.379	5028.04372
502.587	4896.35773
502.795	5092.80797
503.004	4925.62917
503.212	5209.74491
503.42	4917.26636
503.628	5213.91988
503.837	4973.70819
504.045	5295.31309
504.253	5161.72607
504.461	5157.54993
504.669	5266.09911
504.877	5096.98555
505.085	5303.65911
505.294	5247.31627
505.502	5216.00733
505.71	5378.75634
505.918	5224.35689
506.126	5182.60534
506.334	5224.35689
506.542	5680.92278
506.75	5147.10919
506.958	5510.10327
507.166	5393.35505
507.374	5574.70001
507.582	5397.5259
507.79	5595.53284
507.998	5410.03788
508.206	5728.80709
508.414	5514.27149
508.622	5608.03141
508.83	5801.65056
509.037	5780.84109
509.245	5522.60763
509.453	5922.29895
509.661	5755.86661
509.869	5849.50339
510.077	5747.54103
510.285	5891.10439
510.492	5739.21507
510.7	5909.82177
510.908	5724.64374
511.116	5997.14425
511.324	5732.97036
511.531	6069.88124
511.739	5693.41555
511.947	6065.72561
512.155	6163.35787
512.362	6211.11645
512.57	6074.03677
512.778	6173.74123
512.985	6096.89049
513.193	6049.10218
513.401	6059.492
513.608	6049.10218
513.816	6111.43228
514.024	6042.86801
514.231	5974.2781
514.439	6179.97096
514.646	6190.35337
514.854	6420.69231
515.061	6098.96796
515.269	6491.18909
515.477	6389.58224
515.684	6621.74464
515.892	6329.42124
516.099	6576.16424
516.307	6362.61594
516.514	6648.67326
516.722	6410.32287
516.929	6511.91832
517.136	6478.75043
517.344	6540.93536
517.551	6611.38644
517.759	6727.36542
517.966	6702.51884
518.173	6632.10226
518.381	6673.527
518.588	6847.41075
518.796	6648.67326
519.003	6818.44132
519.21	6787.39768
519.418	6770.83898
519.625	6694.23592
519.832	6876.37572
520.039	6837.06504
520.247	6930.15602
520.454	6919.81484
520.661	6969.44733
520.868	6886.71928
521.076	6961.17615
521.283	6839.13422
521.49	6940.49663
521.697	7062.47327
521.904	7308.25753
522.112	7008.7305
522.319	7190.56811
522.526	7143.05905
522.733	7456.81606
522.94	7233.93571
523.147	7333.02514
523.354	7339.21655
523.561	7318.57775
523.768	7271.10019
523.975	7502.1865
524.183	7231.87081
524.39	7458.87858
524.597	7353.66241
524.804	7450.62837
525.011	7555.79267
525.218	7559.91562
525.425	7355.72602
525.632	7471.25324
525.838	7500.12443
526.045	7835.96007
526.252	7518.68225
526.459	7747.41985
526.666	7685.62465
526.873	7914.17293
527.08	7669.14272
527.287	7973.84168
527.494	7611.44529
527.701	8066.39715
527.907	7634.11412
528.114	7965.61254
528.321	7887.41926
528.528	8043.77628
528.735	7975.89892
528.941	7928.57731
529.148	7949.15326
529.355	8257.54939
529.562	7835.96007
529.768	8089.01558
529.975	7870.95373
530.182	8323.2826
530.388	7722.70404
530.595	8177.40977
530.802	8078.73478
531.008	8278.09318
531.215	8372.56938
531.422	8610.6329
531.628	8313.01311
531.835	8228.78479
532.042	8409.52714
532.248	8460.847
532.455	8329.44406
532.661	8553.19269
532.868	8358.19523
533.074	8661.90641
533.281	8555.24438
533.487	8327.39026
533.694	8411.58016
533.9	8848.44475
534.107	8331.49784
534.313	8666.00779
534.52	8547.0375
534.726	8760.31912
534.933	8750.06978
535.139	8739.81997
535.345	8721.36916
535.552	8676.26092
535.758	8690.61451
535.965	8879.17839
536.171	9051.21287
536.377	8873.03198
536.584	8846.3957
536.79	8844.34663
536.996	8825.90417
537.203	9280.40193
537.409	8838.1993
537.615	9116.71733
537.821	8926.29548
538.028	9159.69506
538.234	8911.9565
538.44	8877.12961
538.646	8776.71713
538.853	9040.9762
539.059	8854.5918
539.265	9251.76492
539.471	9341.75595
539.677	9186.29654
539.883	9163.78778
540.09	9417.40548
540.296	9403.09512
540.502	9454.19989
540.708	9266.08384
540.914	9819.82157
541.12	9419.44975
541.326	9591.11123
541.532	9562.50878
541.738	9652.39186
541.944	9464.41964
542.15	9636.05173
542.356	9421.49401
542.562	9717.74248
542.768	9599.28279
542.974	9909.6202
543.18	9642.17939
543.386	9970.83022
543.592	9842.27392
543.798	10058.54191
544.004	9729.99398
544.21	9874.92867
544.415	9723.8683
544.621	9952.46859
544.827	10078.9362
545.033	10227.77217
545.239	9936.14615
545.445	10038.14621
545.651	9858.60177
545.856	10029.98752
546.062	10034.06689
546.268	9995.31057
546.474	9989.19068
546.679	9838.19181
546.885	10068.73924
547.091	10103.40749
547.297	9907.57964
547.502	10113.60326
547.708	10156.42169
547.914	10203.31105
548.119	10146.22738
548.325	10276.68855
548.531	9989.19068
548.736	10025.9081
548.942	10115.64237
549.147	10193.11833
549.353	10187.00253
549.559	10447.83538
549.764	10282.80255
549.97	10233.88715
550.175	10612.7835
550.381	10787.82485
550.586	10415.24313
550.792	10409.13171
550.997	10462.09345
551.203	10747.1255
551.408	10594.46
551.614	10747.1255
551.819	10635.17752
552.025	10677.92562
552.23	10531.338
552.435	10832.58868
552.641	10863.10624
552.846	10781.72025
553.052	10688.10295
553.257	10567.99095
553.462	10586.3159
553.668	10901.75809
553.873	10553.73751
554.078	10804.10326
554.283	10918.03131
554.489	11157.97863
554.694	11257.57379
554.899	10995.31925
555.105	10806.13801
555.31	10828.51948
555.515	10915.9972
555.72	11074.62438
555.925	10952.6095
556.131	11141.7158
556.336	11259.60609
556.541	11198.63275
556.746	11052.25796
556.951	11340.88953
557.156	11111.22115
557.361	11361.20788
557.567	11310.41014
557.772	10918.03131
557.977	10964.81279
558.182	11202.69793
558.387	11281.96066
558.592	11218.95823
558.797	11129.51823
559.002	11253.50917
559.207	11149.8473
559.412	11216.92573
559.617	11031.92369
559.822	11361.20788
560.027	11275.86408
560.232	11452.62821
560.437	11369.33494
560.642	11576.52245
560.847	11481.06608
561.051	11560.27602
561.256	11426.21993
561.461	11444.50276
561.666	11487.15966
561.871	11767.37451
562.076	11791.73298
562.281	11803.91175
562.485	11541.99808
562.69	11625.25821
562.895	11846.53504
563.1	11730.83446
563.305	11635.41082
563.509	11820.14964
563.714	11509.50207
563.919	11789.70316
564.123	11692.26132
564.328	11797.82241
564.533	11535.90526
564.737	11708.50303
564.942	11653.68497
565.147	11935.82901
565.351	11594.79898
565.556	11807.97128
565.761	11783.61363
565.965	11911.4777
566.17	11694.29156
566.374	12132.62672
566.579	11952.06257
566.784	12061.62571
566.988	11893.21344
567.193	12246.20923
567.397	12096.11309
567.602	12183.33606
567.806	11712.56337
568.011	12485.47119
568.215	12268.5174
568.42	12049.45317
568.624	12055.53948
568.828	12217.81576
569.033	12067.71188
569.237	12327.32571
569.442	12177.25118
569.646	12083.94133
569.85	12165.08123
570.055	12232.01267
570.259	12004.81808
570.463	12473.30759
570.668	11956.12088
570.872	12280.68512
571.076	12201.59028
571.281	12288.7968
571.485	12203.61849
571.689	12536.15035
571.893	12580.74473
572.098	12264.46143
572.302	12254.32139
572.506	12659.79106
572.71	12185.36433
572.914	12607.09454
573.119	12598.98702
573.323	12629.38972
573.527	12365.85212
573.731	12779.35677
573.935	12451.00705
574.139	12669.92454
574.343	12623.30929
574.547	12836.09286
574.751	12696.27088
574.955	12603.04079
575.159	12594.93322
575.364	12629.38972
575.568	12633.44331
575.772	12615.20197
575.976	12428.70571
576.18	12388.15575
576.383	12477.36215
576.587	12680.05787
576.791	12578.71778
576.995	12574.66386
577.199	12710.45697
577.403	12637.49688
577.607	12753.01351
577.811	12821.90925
578.015	12453.03441
578.219	12574.66386
578.422	12688.16442
578.626	13255.40948
578.83	12825.96174
579.034	12854.32855
579.238	13099.45611
579.442	13289.8372
579.645	12868.51155
579.849	13065.02113
580.053	13058.94423
580.257	12937.39671
580.46	12880.66821
580.664	13135.91518
580.868	13046.79028
581.071	13218.95525
581.275	13210.85411
581.479	13056.91858
581.682	12696.27088
581.886	12965.75943
582.09	13376.91364
582.293	13542.94614
582.497	13314.13837
582.7	13289.8372
582.904	13093.37945
583.107	13508.52685
583.311	13214.90469
583.515	13216.92997
583.718	12923.21497
583.922	13089.32832
584.125	13542.94614
584.329	13389.06324
584.532	13214.90469
584.735	13411.33713
584.939	13259.45987
585.142	13668.46673
585.346	13498.40332
585.549	13826.36201
585.753	13522.69963
585.956	13571.29066
586.159	13342.48898
586.363	13717.05191
586.566	13765.63527
586.769	13662.39346
586.973	13755.51388
587.176	13789.92628
587.379	13490.30444
587.582	13767.65953
587.786	13743.36811
587.989	13988.28769
588.192	13494.35389
588.395	13834.45872
588.599	13676.56439
588.802	13931.61565
589.005	13579.38897
589.208	14123.88806
589.411	13874.94154
589.615	13755.51388
589.818	13988.28769
590.021	14008.52723
590.224	13907.327
590.427	13763.61099
590.63	13947.80786
590.833	13968.0479
591.036	13895.18254
591.239	14289.83356
591.442	13644.17345
591.645	14251.38394
591.848	13887.08617
592.051	13899.2307
592.254	14107.69751
592.457	14273.64433
592.66	14156.26874
592.863	14018.6469
593.066	14196.74383
593.269	14518.49526
593.472	14117.81662
593.675	14348.51858
593.878	14154.24496
594.081	14085.43527
594.284	13982.21578
594.486	14407.2022
594.689	14435.53176
594.892	14378.87235
595.095	14601.45658
595.298	14441.60234
595.5	14429.46116
595.703	14783.56062
595.906	14380.89592
596.109	14672.27573
596.311	14206.86248
596.514	14482.07254
596.717	14366.73089
596.92	14817.95728
597.122	14522.5422
597.325	14502.30744
597.528	14575.15199
597.73	14619.66735
597.933	14593.36288
598.136	14761.30384
598.338	14536.70646
598.541	14805.81731
598.743	14702.62642
598.946	14668.22895
599.148	14473.97855
599.351	14569.08167
599.554	15117.40452
599.756	14510.40136
599.959	14647.99502
600.161	14866.51695
600.363	14654.06521
600.566	14769.39723
600.768	14704.64979
600.971	14785.58396
601.173	14868.54027
601.376	15060.75287
601.578	15194.28881
601.78	14953.5189
601.983	15267.12663
602.185	15151.80013
602.388	14917.09959
602.59	15267.12663
602.792	15004.10107
602.995	15291.40595
603.197	15143.70705
603.399	15141.68377
603.601	14854.37707
603.804	14998.03122
604.006	14834.14388
604.208	14917.09959
604.41	14925.19278
604.613	14925.19278
604.815	14927.21608
605.017	14919.12289
605.219	14779.51394
605.421	14846.2838
605.623	15176.07937
605.826	15392.57021
606.028	15133.59069
606.23	15111.33471
606.432	14923.16949
606.634	15530.15536
606.836	14892.81997
607.038	15546.34202
607.24	15289.38267
607.442	15246.89388
607.644	15101.21835
607.846	15416.84977
608.048	15165.96302
608.25	15230.7077
608.452	15295.4525
608.654	15091.10198
608.856	14898.88988
609.058	15089.07871
609.26	14836.1672
609.462	14741.07033
609.664	15172.03283
609.866	15348.05783
610.067	15190.24227
610.269	15441.1294
610.471	15097.1718
610.673	15348.05783
610.875	15305.5689
611.077	15327.82499
611.278	14846.2838
611.48	15263.08008
611.682	15208.45171
611.884	15568.59876
612.085	15186.19573
612.287	15295.4525
612.489	15198.33535
612.69	15218.56807
612.892	15137.63723
613.094	15635.36951
613.295	15151.80013
613.497	15261.0568
613.699	15238.80079
613.9	15323.77843
614.102	15163.93975
614.304	15068.84597
614.505	14996.00794
614.707	15307.59218
614.908	15428.98958
615.11	15398.64009
615.311	15568.59876
615.513	15321.75514
615.714	15643.46299
615.916	15487.66555
616.117	15129.54415
616.319	15250.94043
616.52	15331.87156
616.722	15424.94297
616.923	15424.94297
617.124	15477.54897
617.326	15018.26404
617.527	15350.08112
617.729	15321.75514
617.93	15194.28881
618.131	15463.38578
618.333	15060.75287
618.534	15335.91812
618.735	15661.67337
618.937	15147.75359
619.138	15273.19646
619.339	15234.75424
619.54	15344.01126
619.742	15435.05948
619.943	15540.27202
620.144	15339.96469
620.345	15263.08008
620.546	15307.59218
620.748	15457.31585
620.949	15356.15098
621.15	15722.37519
621.351	15431.01288
621.552	15360.19756
621.753	15339.96469
621.954	15870.08676
622.155	15424.94297
622.356	15572.64545
622.558	15354.12769
622.759	15382.45375
622.96	15295.4525
623.161	15188.219
623.362	15311.63874
623.563	15600.97235
623.764	15716.30497
623.965	15774.98413
624.166	15619.18258
624.366	15485.64224
624.567	15202.38189
624.768	15524.08537
624.969	15014.21748
625.17	15546.34202
625.371	15327.82499
625.572	15491.71219
625.773	15327.82499
625.973	15582.76218
626.174	15491.71219
626.375	15910.55676
626.576	15742.60932
626.777	15851.87543
626.977	15530.15536
627.178	15647.50974
627.379	15449.22262
627.58	15364.24413
627.78	15204.40517
627.981	15376.38387
628.182	15422.91967
628.382	15515.99206
628.583	15222.61461
628.784	15509.92208
628.984	15190.24227
629.185	15957.09788
629.386	15584.78553
629.586	15653.57986
629.787	15550.38869
629.987	15955.07434
630.188	15635.36951
630.388	15756.77326
630.589	15376.38387
630.79	15748.67957
630.99	15657.62662
631.191	15857.94586
631.391	15760.82012
631.591	15692.02418
631.792	15730.46883
631.992	16104.82024
632.193	15667.74352
632.393	16121.00947
632.594	15710.23476
632.794	15463.38578
632.994	15592.87893
633.195	15955.07434
633.395	15851.87543
633.595	15823.54686
633.796	15821.5234
633.996	15985.42761
634.196	15805.33577
634.397	16033.99349
634.597	15878.18072
634.797	16210.05212
634.997	15868.06328
635.198	15861.99282
635.398	15732.49224
635.598	15975.30982
635.798	15750.70299
635.998	15631.32277
636.199	15683.93061
636.399	15801.28887
636.599	15501.82879
636.799	15659.65
636.999	15402.68669
637.199	15837.71112
637.399	16013.7576
637.599	15685.954
637.799	15341.98798
637.999	15916.6273
638.199	15766.8904
638.399	15914.60379
638.599	15629.2994
638.799	15793.19508
638.999	15520.03871
639.199	16116.96216
639.399	15918.65082
639.599	15942.93312
639.799	15681.90722
639.999	15914.60379
640.199	15880.20422
640.399	16076.48932
640.599	15374.36058
640.799	16155.41194
640.998	16031.96989
641.198	15772.9607
641.398	15853.8989
641.598	16242.43207
641.798	15918.65082
641.997	15898.41571
642.197	15987.45117
642.397	16112.91484
642.597	16121.00947
642.796	16315.28863
642.996	15967.21561
643.196	16163.5067
643.395	15898.41571
643.595	16031.96989
643.795	15758.79669
643.994	15969.23916
644.194	15801.28887
644.394	15969.23916
644.593	15940.90959
644.793	15809.38267
644.992	16096.72566
645.192	16276.83627
645.392	16357.78939
645.591	16461.00908
645.791	16297.07427
645.99	16351.7178
646.19	16226.24204
646.389	16062.32397
646.589	15963.16852
646.788	16123.03314
646.987	16007.68687
647.187	16392.19538
647.386	16131.1278
647.586	16541.96941
647.785	16108.86754
647.984	16238.38456
648.184	16001.61614
648.383	16485.29682
648.582	16428.62587
648.782	16675.56156
648.981	16023.87553
649.18	16096.72566
649.38	16331.4793
649.579	16645.19885
649.778	16675.56156
649.977	16711.9975
650.177	16556.13781
650.376	16495.41681
650.575	16206.00466
650.774	16357.78939
650.973	16163.5067
651.173	16254.57467
651.372	16351.7178
651.571	16485.29682
651.77	16260.64599
651.969	16082.5602
652.168	16098.7493
652.367	16501.48882
652.566	16513.63291
652.765	16218.14707
652.964	16025.89912
653.163	16495.41681
653.362	16550.06563
653.561	16649.24718
653.76	16252.5509
653.959	16337.55083
654.158	16177.67261
654.357	16252.5509
654.556	16274.81248
654.755	16420.53015
654.954	16228.26579
655.153	16315.28863
655.352	16402.3149
655.551	16665.4406
655.749	16521.72901
655.948	16568.28225
656.147	16456.96115
656.346	16418.50623
656.545	16398.26708
656.743	16232.31329
656.942	16371.95649
657.141	16309.21716
657.34	16349.69394
657.538	16930.62972
657.737	16855.72466
657.936	16847.62702
658.135	16825.35873
658.333	16639.12636
658.532	16422.55408
658.731	16651.27135
658.929	16369.93261
659.128	16659.36805
659.326	16517.68095
659.525	16622.93318
659.724	16327.43162
659.922	16363.86099
660.121	16509.58487
660.319	16331.4793
660.518	16295.05046
660.716	16456.96115
660.915	16491.36881
661.113	16720.09448
661.312	16400.29099
661.51	16922.53171
661.709	16736.28856
661.907	16574.35449
662.105	16238.38456
662.304	16956.94856
662.502	16495.41681
662.701	16624.95732
662.899	16695.80366
663.097	16566.25817
663.296	16546.01751
663.494	16633.0539
663.692	16378.02814
663.891	16602.69191
664.089	16293.02665
664.287	16475.17689
664.485	16503.51283
664.684	16792.96903
664.882	15855.92238
665.08	16448.86531
665.278	16143.26984
665.476	16665.4406
665.675	16311.24098
665.873	16669.48897
666.071	16293.02665
666.269	16384.0998
666.467	16416.4823
666.665	16809.1638
666.863	16299.09808
667.061	16436.72162
667.259	16284.93145
667.457	16517.68095
667.655	16616.86078
667.853	16386.12369
668.051	16254.57467
668.249	16604.71602
668.447	16489.34481
668.645	16754.50707
668.843	16987.31701
669.041	16612.81252
669.239	16697.82788
669.437	16792.96903
669.635	16240.40831
669.833	16282.90765
670.031	16428.62587
670.229	16675.56156
670.426	16228.26579
670.624	16568.28225
670.822	16543.99346
671.02	16278.86006
671.218	16485.29682
671.415	16661.39223
671.613	16270.7649
671.811	16343.62238
672.009	16082.5602
672.206	16367.90874
672.404	16311.24098
672.602	16201.9572
672.799	16347.67008
672.997	16450.88927
673.195	16327.43162
673.392	16373.98037
673.59	16406.36272
673.788	16084.58383
673.985	16036.01708
674.183	16149.34088
674.38	16222.19455
674.578	16191.83859
674.775	16127.08046
674.973	16373.98037
675.17	16481.24885
675.368	16440.76951
675.565	16244.45584
675.763	16181.72002
675.96	16177.67261
676.158	16009.71044
676.355	15785.10132
676.553	16084.58383
676.75	15971.26271
676.947	16064.34758
677.145	16048.15869
677.342	15902.46272
677.539	16189.81487
677.737	16276.83627
677.934	16179.69631
678.131	16505.53684
678.329	16335.52698
678.526	16074.46569
678.723	16141.24616
678.92	16153.38825
679.118	15928.76842
679.315	15758.79669
679.512	15837.71112
679.709	15918.65082
679.906	15540.27202
680.104	16054.22951
680.301	15861.99282
680.498	16165.5304
680.695	15752.72642
680.892	15698.09436
681.089	15651.55648
681.286	15708.21136
681.483	15511.94541
681.68	15924.72138
681.877	15687.97739
682.075	15692.02418
682.272	15649.53311
682.469	16056.25312
682.665	15833.66418
682.862	15750.70299
683.059	15833.66418
683.256	15779.031
683.453	15631.32277
683.65	15631.32277
683.847	15641.43962
684.044	15641.43962
684.241	15544.31869
684.438	15813.42958
684.635	15552.41203
684.831	16050.1823
685.028	15536.22535
685.225	15700.11776
685.422	15368.29071
685.619	15659.65
685.815	15732.49224
686.012	15837.71112
686.209	15558.48205
686.405	16288.97905
686.602	15728.44542
686.799	15491.71219
686.996	15849.85195
687.192	15859.96934
687.389	15534.20202
687.586	15665.72014
687.782	15564.55207
687.979	15728.44542
688.175	15833.66418
688.372	15641.43962
688.568	15692.02418
688.765	15509.92208
688.962	15339.96469
689.158	15321.75514
689.355	15165.96302
689.551	15386.50033
689.748	15469.45572
689.944	15339.96469
690.14	15489.68887
690.337	15497.78215
690.533	15522.06204
690.73	15135.61396
690.926	14880.68013
691.123	15184.17246
691.319	15283.31284
691.515	15224.63788
691.712	14838.19052
691.908	15240.82406
692.104	15004.10107
692.301	14959.58877
692.497	15020.28732
692.693	15400.66339
692.889	15149.77686
693.086	15273.19646
693.282	15327.82499
693.478	15378.40716
693.674	15368.29071
693.87	15528.13203
694.067	15348.05783
694.263	15621.20594
694.459	15188.219
694.655	15192.26554
694.851	15198.33535
695.047	15155.84667
695.243	15004.10107
695.439	15202.38189
695.635	15008.14763
695.831	15083.00889
696.027	15099.19507
696.224	15376.38387
696.42	14967.68193
696.615	14870.56358
696.811	14605.50343
697.007	14987.9148
697.203	14815.93396
697.399	15095.14853
697.595	14961.61206
697.791	14856.40038
697.987	14927.21608
698.183	15048.61322
698.379	14684.41603
698.575	14941.37915
698.77	14629.7844
698.966	14739.04697
699.162	14405.17865
699.358	14844.26048
699.554	14158.29251
699.749	14567.05823
699.945	14184.60139
700.141	14362.68372
700.337	14623.71417
700.532	14494.2135
700.728	14587.2926
700.924	14652.04182
701.119	14732.9769
701.315	14949.47232
701.511	14609.55027
701.706	14850.33044
701.902	14267.57334
702.097	14459.814
702.293	14415.29639
702.489	14370.77805
702.684	14471.95504
702.88	14615.62052
703.075	14364.7073
703.271	14563.01134
703.466	14437.55528
703.662	14755.2338
703.857	14518.49526
704.053	14473.97855
704.248	14340.42418
704.443	14603.48001
704.639	14558.96445
704.834	14486.11953
705.03	14455.76697
705.225	14554.91755
705.42	14279.7153
705.616	14755.2338
705.811	14453.74346
706.006	14397.08443
706.202	14451.71994
706.397	14520.51873
706.592	14445.64938
706.787	14601.45658
706.983	14255.4313
707.178	14698.57967
707.373	14528.6126
707.568	14785.58396
707.763	14312.09357
707.959	14324.2353
708.154	14310.06994
708.349	14014.59904
708.544	13961.97592
708.739	14233.17073
708.934	14186.62513
709.129	14332.32976
709.324	14303.99905
709.519	14589.31603
709.714	14073.29212
709.909	14449.69642
710.104	13970.07189
710.299	14299.95177
710.494	14065.19664
710.689	14202.81503
710.884	14382.91949
711.079	14105.67368
711.274	14208.8862
711.469	14382.91949
711.664	14093.53066
711.859	14257.45498
712.054	14340.42418
712.249	14348.51858
712.443	14176.50639
712.638	13773.73232
712.833	13891.13436
713.028	13901.25478
713.223	13571.29066
713.417	13947.80786
713.612	13931.61565
713.807	13579.38897
714.002	13868.86919
714.196	13984.23975
714.391	13688.71078
714.586	14148.17362
714.78	14036.86217
714.975	14127.93567
715.17	13678.5888
715.364	14032.81435
715.559	14071.26826
715.754	13767.65953
715.948	13546.9954
716.143	13686.68639
716.337	13463.98265
716.532	13929.59161
716.726	13672.51557
716.921	13961.97592
717.115	13573.31525
717.31	13791.95052
717.504	13696.80831
717.699	13779.80508
717.893	13692.75955
718.088	13842.55537
718.282	13737.29519
718.476	14000.43144
718.671	13636.07558
718.865	13715.02756
719.059	13759.56244
719.254	13559.1431
719.448	13449.80911
719.642	13571.29066
719.837	13168.32197
720.031	13538.89687
720.225	13212.8794
720.419	13413.36201
720.614	13190.60096
720.808	13407.28737
721.002	13133.88971
721.196	13251.35908
721.39	13174.39811
721.585	13500.42804
721.779	13330.33882
721.973	13360.71394
722.167	13231.10682
722.361	13014.3789
722.555	13156.16956
722.749	13123.76232
722.943	13275.66123
723.137	13245.28345
723.331	13000.19852
723.525	12994.12114
723.719	12878.64211
723.913	13243.25823
724.107	12994.12114
724.301	13182.49957
724.495	12836.09286
724.689	12941.44859
724.883	12825.96174
725.077	12957.6559
725.271	12791.51487
725.465	13036.66186
725.659	12888.77253
725.853	13212.8794
726.046	12927.26693
726.24	12748.96061
726.434	12566.55594
726.628	12917.13701
726.822	12712.48353
727.015	12933.34481
727.209	13111.6093
727.403	12923.21497
727.596	12578.71778
727.79	13125.78781
727.984	12714.51008
728.177	12909.03298
728.371	12880.66821
728.565	12746.93416
728.758	12979.94041
728.952	13137.94064
729.146	12834.06665
729.339	13160.22038
729.533	12876.61601
729.726	13368.81382
729.92	12708.4304
730.113	13214.90469
730.307	13034.63616
730.5	13259.45987
730.694	12975.88873
730.887	12750.98706
731.081	12732.74881
731.274	13081.226
731.468	12866.48543
731.661	13024.5076
731.854	12830.0142
732.048	13245.28345
732.241	13048.81595
732.435	13409.31225
732.628	13249.33388
732.821	13235.15731
733.014	13129.83877
733.208	13032.61046
733.401	13022.48187
733.594	13105.53273
733.788	13054.89293
733.981	13085.27717
734.174	12937.39671
734.367	12809.75165
734.56	12696.27088
734.754	12692.21767
734.947	12530.06907
735.14	12965.75943
735.333	12706.40383
735.526	12684.11116
735.719	12343.54766
735.912	12335.43674
736.105	12619.25564
736.298	12667.89785
736.491	12898.90282
736.684	12708.4304
736.877	12769.22486
737.07	12659.79106
737.263	12862.43316
737.456	12913.085
737.649	12825.96174
737.842	12671.95121
738.035	12609.12141
738.228	12842.17148
738.421	12598.98702
738.614	12894.85072
738.807	12708.4304
739	12613.17512
739.192	12475.33488
739.385	12746.93416
739.578	12744.9077
739.771	12688.16442
739.964	12359.76917
740.156	12274.60129
740.349	12197.53384
740.542	12416.541
740.735	12345.57537
740.927	12499.66176
741.12	12234.04078
741.313	12412.48605
741.505	12408.43107
741.698	12361.79683
741.891	12347.60308
742.083	12526.01484
742.276	12503.71615
742.468	12343.54766
742.661	12057.56823
742.854	12240.12504
743.046	11958.15002
743.239	12122.48429
743.431	12167.10958
743.624	12079.88401
743.816	11921.62422
744.009	12130.59825
744.201	11807.97128
744.393	12008.87597
744.586	12132.62672
744.778	12023.07835
744.971	11925.68278
745.163	12057.56823
745.355	12140.74053
745.548	12128.56977
745.74	12010.90491
745.932	12094.08448
746.125	11887.1252
746.317	12136.68364
746.509	12023.07835
746.702	12335.43674
746.894	11945.97505
747.086	11966.26651
747.278	12140.74053
747.471	11933.79978
747.663	12079.88401
747.855	11812.03076
748.047	12102.19886
748.239	12189.42087
748.431	11793.7628
748.623	11972.35379
748.815	11889.15462
749.008	12116.39874
749.2	11820.14964
749.392	12209.70308
749.584	12169.13791
749.776	12298.93623
749.968	12221.87206
750.16	12035.25151
750.352	11783.61363
750.544	11980.47006
750.736	12169.13791
750.928	11887.1252
751.12	11826.2387
751.311	11617.13595
751.503	12118.42727
751.695	11870.88954
751.887	11771.43434
752.079	11980.47006
752.271	11700.38224
752.463	11881.03689
752.654	11885.09577
752.846	12126.54129
753.038	11732.86453
753.23	11673.98871
753.421	11641.50229
753.613	11639.47181
753.805	11812.03076
753.997	11868.86004
754.188	11771.43434
754.38	11943.94586
754.572	11621.19709
754.763	11901.33097
754.955	11521.68836
755.146	11718.65381
755.338	11617.13595
755.53	11621.19709
755.721	11761.2847
755.913	11828.26838
756.104	11434.34573
756.296	11584.64545
756.487	11373.39841
756.679	11430.28285
756.87	11092.9232
757.062	11192.5349
757.253	11283.99283
757.445	11316.5062
757.636	10979.04945
757.827	11249.44451
758.019	11294.15354
758.21	11088.85687
758.401	11263.67065
758.593	11430.28285
758.784	11096.98949
758.975	11261.63837
759.167	11088.85687
759.358	10974.98189
759.549	10836.65784
759.74	11121.3863
759.932	11155.94581
760.123	11251.47685
760.314	10987.18444
760.505	10810.20747
760.696	10761.37081
760.888	10629.07021
761.079	10698.27998
761.27	11058.35802
761.461	11133.58413
761.652	11227.08813
761.843	10932.26979
762.034	11220.99072
762.225	11064.45799
762.416	10883.44984
762.607	10458.01978
762.798	10714.56259
762.989	10822.41558
763.18	11064.45799
763.371	10946.50771
763.562	11131.55118
763.753	10684.03206
763.944	11001.42024
764.135	10659.60567
764.326	10834.62327
764.517	10789.85969
764.708	10557.80998
764.899	10555.77375
765.089	10675.89012
765.28	10405.05737
765.471	10333.74786
765.662	10388.75947
765.853	10838.6924
766.043	10506.90043
766.234	10643.32043
766.425	10392.83402
766.615	10885.48413
766.806	10307.25734
766.997	10382.64754
767.187	10288.91643
767.378	10539.48345
767.569	10290.95436
767.759	10527.2652
767.95	10437.65066
768.141	10403.02018
768.331	9960.62946
768.522	10421.35443
768.712	10364.31105
768.903	10345.9735
769.093	9948.38807
769.284	10068.73924
769.474	10146.22738
769.665	10168.6544
769.855	9907.57964
770.046	9966.74996
770.236	9740.20313
770.426	10009.58982
770.617	10052.42335
770.807	10123.79868
770.998	9970.83022
771.188	9883.09177
771.378	9834.10964
771.569	10156.42169
771.759	9989.19068
771.949	9964.70981
772.139	10078.9362
772.33	9615.62517
772.52	9785.11892
772.71	9699.36421
772.9	9781.03597
773.09	9993.27062
773.281	9870.84704
773.471	10013.66947
773.661	9703.44838
773.851	9664.6463
774.041	9548.2064
774.231	9478.7266
774.421	9680.9847
774.611	9625.83864
774.802	9511.42527
774.992	9758.57866
775.182	9656.47673
775.372	9719.78444
775.562	9486.90165
775.752	9689.15352
775.942	9507.33816
776.131	9721.82637
776.321	9689.15352
776.511	9578.85342
776.701	9264.03833
776.891	9306.9905
777.081	9102.38974
777.271	9409.22823
777.461	9343.80082
777.651	9116.71733
777.84	9000.02513
778.03	9102.38974
778.22	9171.97302
778.41	9255.85612
778.599	9075.77912
778.789	9421.49401
778.979	9313.12593
779.169	9245.628
779.358	9180.15799
779.548	9462.37572
779.738	9343.80082
779.927	9409.22823
780.117	9399.0063
780.307	9112.62382
780.496	9073.73203
780.686	9315.17104
780.875	9079.87325
781.065	9212.89516
781.254	8967.25922
781.444	9323.35131
781.633	9045.07092
781.823	9270.1748
782.012	9231.30791
782.202	9241.53663
782.391	8858.68975
782.581	8928.34384
782.77	8873.03198
782.96	9098.29599
783.149	9002.07285
783.338	9024.59661
783.528	8641.39841
783.717	8870.98315
783.906	8534.72662
784.096	8778.7668
784.285	8774.66745
784.474	8821.80565
784.663	8526.51899
784.853	8657.80496
785.042	8789.01487
785.231	8620.88854
785.42	8786.9653
785.61	8702.91687
785.799	8438.26774
785.988	8405.42103
786.177	8442.37323
786.366	8456.74186
786.555	8450.58399
786.744	8454.68925
786.933	8331.49784
787.122	8508.05071
787.312	8493.68544
787.501	8421.845
787.69	8335.60535
787.879	8512.15491
788.068	8144.52323
788.257	8276.03889
788.445	8337.65907
788.634	8575.76024
788.823	8399.26172
789.012	8386.94259
789.201	8202.07132
789.39	8313.01311
789.579	8117.79915
789.768	8467.00458
789.957	8062.28445
790.145	8294.52679
790.334	8378.72944
790.523	8191.79602
790.712	8019.09616
790.9	8421.845
791.089	8031.43659
791.278	7992.35607
791.467	7831.84278
791.655	8113.68745
791.844	8045.83282
792.033	8391.04904
792.221	8263.71274
792.41	8306.85118
792.599	7893.59349
792.787	7803.01938
792.976	7566.09989
793.164	7753.59833
793.353	7794.78337
793.541	7873.01199
793.73	7858.60371
793.918	7965.61254
794.107	7537.23833
794.295	7718.58445
794.484	7656.78039
794.672	7792.72432
794.861	7788.60615
795.049	7844.19441
795.238	7687.68479
795.426	8111.63157
795.614	7722.70404
795.803	7726.82355
795.991	7611.44529
796.179	7743.30076
796.368	7561.97706
796.556	7803.01938
796.744	7345.40777
796.932	7776.25114
797.121	7508.37257
797.309	7528.9914
797.497	7656.78039
797.685	7704.1652
797.874	7425.87567
798.062	7584.65153
798.25	7039.73779
798.438	7425.87567
798.626	7477.44028
798.814	7627.93197
799.002	7446.50314
799.19	7508.37257
799.378	7099.67092
799.566	7068.67338
799.755	7308.25753
799.943	7535.17663
800.131	7586.71271
800.318	7747.41985
800.506	7076.93988
800.694	7157.51957
800.882	7107.93609
801.07	7430.00134
801.258	7260.77744
801.446	7450.62837
801.634	7027.33548
801.822	7337.15277
802.01	7048.00555
802.197	7454.75352
802.385	7155.45385
802.573	7207.09025
802.761	6992.19121
802.949	7489.81378
803.136	7124.46534
803.324	7405.24603
803.512	7347.47146
803.699	7394.9304
803.887	7446.50314
804.075	7415.56112
804.262	7293.8083
804.45	7504.24854
804.638	7229.80588
804.825	7580.52909
805.013	7101.73725
805.201	7087.27251
805.388	7083.13953
805.576	7326.83354
805.763	7149.25655
805.951	7153.3881
806.138	7345.40777
806.326	7405.24603
806.513	7217.41587
806.701	7318.57775
806.888	7289.67975
807.075	7363.98022
807.263	7207.09025
807.45	7518.68225
807.638	7227.74094
807.825	7347.47146
808.012	7231.87081
808.2	7304.12929
808.387	7085.20603
808.574	7229.80588
808.761	7182.30651
808.949	7324.76962
809.136	7087.27251
809.323	7264.9066
809.51	7456.81606
809.698	7264.9066
809.885	7120.33316
810.072	7012.8651
810.259	6950.83667
810.446	7200.89462
810.633	6938.42855
810.82	7283.48676
811.008	7122.39926
811.195	7372.23408
811.382	7308.25753
811.569	7335.08897
811.756	7192.63346
811.943	7442.37782
812.13	7074.87329
812.317	7407.30909
812.504	7143.05905
812.691	7566.09989
812.878	7258.71282
813.064	7399.05671
813.251	7045.93865
813.438	7361.91671
813.625	7213.28569
813.812	7297.93676
813.999	7273.16467
814.186	7200.89462
814.372	7335.08897
814.559	7549.60808
814.746	7256.64818
814.933	7287.61544
815.12	7202.95985
815.306	7068.67338
815.493	6990.1237
815.68	7126.5314
815.866	7277.29357
816.053	7469.19085
816.24	7174.04455
816.426	7215.35079
816.613	7432.06414
816.799	7281.42239
816.986	7180.24105
817.173	7421.74991
817.359	7293.8083
817.546	7083.13953
817.732	7070.74004
817.919	7145.1249
818.105	6963.24398
818.292	7202.95985
818.478	7167.84785
818.665	7099.67092
818.851	6963.24398
819.037	7458.87858
819.224	7122.39926
819.41	7134.7954
819.597	6919.81484
819.783	7014.93236
819.969	6847.41075
820.156	7120.33316
820.342	7240.13029
820.528	7136.86134
820.714	7091.4054
820.901	7326.83354
821.087	7182.30651
821.273	7033.53674
821.459	7006.66317
821.646	6818.44132
821.832	6743.92796
822.018	6975.65048
822.204	6855.68691
822.39	6940.49663
822.576	6880.51321
822.762	7147.19074
822.948	6934.29233
823.134	7037.6708
823.32	6772.9089
823.507	6975.65048
823.693	6791.53713
823.879	6930.15602
824.065	6685.95263
824.25	6785.32793
824.436	6679.73992
824.622	6681.81084
824.808	6667.31388
824.994	6712.87198
825.18	6522.28207
825.366	6859.82485
825.552	6418.61847
825.738	6710.8014
825.923	6240.18081
826.109	6553.36985
826.295	6466.31094
826.481	6447.65013
826.667	6439.35584
826.852	6453.87061
827.038	6013.77239
827.224	6416.5446
827.409	6250.55983
827.595	6569.94786
827.781	6300.37096
827.966	6375.06242
828.152	6439.35584
828.338	6592.74022
828.523	6296.22055
828.709	6582.38041
828.894	6209.04025
829.08	6646.60197
829.266	6372.98806
829.451	6416.5446
829.637	6304.52128
829.822	6474.60403
830.008	5997.14425
830.193	6489.11604
830.378	6428.98744
830.564	6547.15271
830.749	6242.25666
830.935	6296.22055
831.12	5938.93388
831.305	6279.61796
831.491	6105.20023
831.676	6310.74659
831.861	6101.0454
832.047	6188.27694
832.232	5965.96242
832.417	6130.12719
832.602	5805.81217
832.788	5949.32995
832.973	5999.22285
833.158	6192.42979
833.343	5972.19921
833.528	6125.97293
833.714	6057.41409
833.899	5947.25078
834.084	5789.16517
834.269	6055.33615
834.454	5970.12031
834.639	5870.30507
834.824	5974.2781
835.009	6005.45851
835.194	5830.77986
835.379	6246.40829
835.564	5861.98468
835.749	6076.11449
835.934	5826.61881
836.119	5982.59339
836.304	5605.94837
836.489	5595.53284
836.674	5441.31413
836.859	5705.90746
837.044	5520.52363
837.228	5457.99264
837.413	5334.95331
837.598	5489.26078
837.783	5149.19739
837.968	5549.69751
838.152	5380.84194
838.337	5612.19741
838.522	5489.26078
838.707	5626.77766
838.891	5349.55547
839.076	5503.85077
839.261	5207.65739
839.445	5822.45767
839.63	5522.60763
839.815	5687.16927
839.999	5510.10327
840.184	5737.13352
840.368	5641.35677
840.553	5614.28037
840.737	5297.39963
840.922	5508.01913
841.106	5401.69665
841.291	5505.93496
841.475	5380.84194
841.66	5689.25139
841.844	5422.54902
842.029	5605.94837
842.213	5389.18411
842.397	5351.6414
842.582	5071.91871
842.766	5216.00733
842.951	5299.48615
843.135	5597.616
843.319	5257.75141
843.504	5303.65911
843.688	5209.74491
843.872	5422.54902
844.056	5161.72607
844.241	5322.43626
844.425	5038.49107
844.609	5272.35963
844.793	5297.39963
844.977	5330.78105
845.161	4816.88408
845.346	5055.20563
845.53	4862.89917
845.714	5163.8141
845.898	4858.71643
846.082	4871.26436
846.266	4887.99364
846.45	4890.0847
846.634	4766.67325
846.818	4837.8014
847.002	4795.96449
847.186	5030.13324
847.37	4689.23931
847.554	4833.61812
847.738	4624.33849
847.922	4762.48842
848.106	4756.21101
848.29	4762.48842
848.473	4816.88408
848.657	4982.06852
848.841	4814.79223
849.025	5084.45254
849.209	4722.72805
849.392	4628.52629
849.576	4605.49229
849.76	4720.63518
849.944	4620.15061
850.127	4745.74821
850.311	4435.79549
850.495	4752.02596
850.678	4343.5541
850.862	4626.43241
851.046	4538.46893
851.229	4574.07793
851.413	4268.0527
851.596	4521.70954
851.78	4412.7391
851.964	4511.2342
852.147	4213.50663
852.331	4354.0382
852.514	4242.87938
852.698	4498.66306
852.881	4280.6382
853.065	4553.13224
853.248	4404.3543
853.431	4620.15061
853.615	4314.19576
853.798	4674.58618
853.982	4414.83524
854.165	4303.70961
854.348	4234.48759
854.532	4303.70961
854.715	4060.28172
854.898	4255.46642
855.081	4163.14367
855.265	4125.36348
855.448	4041.38328
855.631	4179.93267
855.814	3953.16856
855.997	4200.91703
856.181	3944.76528
856.364	4318.39007
856.547	4142.15551
856.73	4213.50663
856.913	3902.74403
857.096	4087.57651
857.279	3806.06478
857.462	3986.77842
857.645	3894.33882
857.828	3873.32437
858.011	3793.45136
858.194	3925.85672
858.377	3854.40967
858.56	4207.21192
858.743	3980.47697
858.926	4312.09858
859.109	4137.95763
859.292	4007.78193
859.475	3881.73039
859.658	3930.05876
859.841	3698.82829
860.023	3776.63236
860.206	3740.88784
860.389	3856.51138
860.572	3780.83723
860.755	3761.91471
860.937	3648.3467
861.12	3839.69712
861.303	3721.962
861.486	3721.962
861.668	3566.2909
861.851	3688.3122
862.034	3498.94197
862.216	3648.3467
862.399	3334.70163
862.581	3639.93204
862.764	3210.39839
862.947	3345.23308
863.129	3185.10924
863.312	3505.25673
863.494	3252.54167
863.677	3385.24859
863.859	3345.23308
864.042	3519.99053
864.224	3250.43466
864.406	3477.89159
864.589	2957.40352
864.771	3406.30684
864.954	3073.38758
865.136	3187.21676
865.318	3252.54167
865.501	3244.11355
865.683	3161.92545
865.865	3421.04657
866.048	3100.79516
866.23	3372.61279
866.412	3145.06327
866.594	3507.36162
866.777	3307.31787
866.959	3284.14472
867.141	3022.78205
867.323	3115.55198
867.505	2957.40352
867.687	3142.95543
867.869	3033.3256
868.052	3187.21676
868.234	2919.43521
868.416	3216.72031
868.598	3014.34692
868.78	3345.23308
868.962	3014.34692
869.144	3123.9841
869.326	2978.49495
869.508	3134.52389
869.69	2955.2943
869.872	3185.10924
870.054	2887.79133
870.236	3083.92927
870.417	2921.54468
870.599	2970.05856
870.781	2896.23002
870.963	2991.14909
871.145	2955.2943
871.327	3056.52006
871.508	2927.87302
871.69	2961.62193
871.872	2908.88761
872.054	3098.68698
872.235	2889.90102
872.417	2955.2943
872.599	2756.9629
872.78	3098.68698
872.962	2955.2943
873.144	2955.2943
873.325	2887.79133
873.507	3069.1708
873.689	2792.8405
873.87	3045.97736
874.052	2883.5719
874.233	2957.40352
874.415	2790.73016
874.596	3157.71
874.778	2729.52447
874.959	2856.14422
875.141	2811.83292
875.322	2936.3106
875.503	2632.41701
875.685	2854.0343
875.866	2699.97291
876.048	2835.04437
876.229	2695.75104
876.41	2809.72271
876.592	2752.74175
876.773	3001.69379
876.954	2716.85983
877.136	2972.16768
877.317	2778.06784
877.498	2997.47595
877.679	2702.08382
877.86	2866.69361
878.042	2668.3077
878.223	2820.27364
878.404	2786.50944
878.585	2889.90102
878.766	2560.62498
878.947	2799.17143
879.128	2718.97063
879.309	2955.2943
879.49	2858.25412
879.672	2972.16768
879.853	2691.52913
880.034	3010.12927
880.215	2710.52733
880.396	2959.51273
880.576	2634.52833
880.757	3022.78205
880.938	2613.41461
881.119	2892.0107
881.3	2714.74901
881.481	2866.69361
881.662	2727.41373
881.843	2740.07798
882.023	2518.38794
882.204	2778.06784
882.385	2678.86309
882.566	2866.69361
882.747	2566.96013
882.927	2929.98244
883.108	2645.08473
883.289	3014.34692
883.469	2649.3072
883.65	2896.23002
883.831	2761.18399
884.011	2778.06784
884.192	2854.0343
884.373	2906.77805
884.553	2600.74578
884.734	2917.32572
884.914	2735.85661
885.095	2879.35241
885.275	2693.6401
885.456	2837.15442
885.636	2710.52733
885.817	2851.92436
885.997	2735.85661
886.178	2934.20123
886.358	2628.19434
886.538	2942.63863
886.719	2676.75204
886.899	2894.12037
887.08	2854.0343
887.26	2830.82423
887.44	2552.17794
887.621	3069.1708
887.801	2678.86309
887.981	2832.93431
888.161	2811.83292
888.342	2799.17143
888.522	2864.58376
888.702	2944.74795
888.882	2733.74591
889.062	2946.85725
889.242	2746.40992
889.423	3064.95395
889.603	2778.06784
889.783	3026.99951
889.963	2577.51847
890.143	2923.65415
890.323	2744.29929
890.503	2866.69361
890.683	2702.08382
890.863	2773.84696
891.043	2575.40683
891.223	2723.19221
891.403	2689.41816
891.583	2875.13287
891.763	2763.29452
891.943	2892.0107
892.122	2725.30298
892.302	2782.28867
892.482	2569.07182
892.662	2989.0401
892.842	2588.07652
893.022	2780.17826
893.201	2374.74866
893.381	2744.29929
893.561	2528.94764
893.741	2689.41816
893.92	2425.45056
894.1	2543.73072
894.28	2537.39518
894.459	2788.6198
894.639	2406.43805
894.819	2617.63745
894.998	2362.07226
895.178	2685.19617
895.357	2459.24844
895.537	2771.7365
895.716	2271.21439
895.896	2617.63745
896.075	2501.49184
896.255	2474.03413
896.434	2241.62901
896.614	2600.74578
896.793	2406.43805
896.973	2482.48286
897.152	2520.4999
897.331	2575.40683
897.511	2408.5506
897.69	2406.43805
897.87	2188.79365
898.049	2406.43805
898.228	2131.72558
898.407	2402.21294
898.587	1987.97423
898.766	2262.76161
898.945	2127.49808
899.124	2279.66703
899.304	2045.05587
899.483	2357.84672
899.662	2106.36013
899.841	2212.04188
900.02	2087.33533
900.199	2275.44073
900.378	2074.6518
900.557	2199.36115
900.737	2228.94902
900.916	2195.13418
901.095	2123.27055
901.274	2283.89329
901.453	2068.30993
901.632	2032.37149
901.811	1922.43038
901.989	2049.28395
902.168	1916.08713
902.347	2102.13245
902.526	1782.86827
902.705	1884.37013
902.884	1698.27612
903.063	1886.48464
903.242	1763.83554
903.42	1865.33937
903.599	1706.73558
903.778	1985.86001
903.957	1789.21243
904.135	1996.43107
904.314	1708.85044
904.493	1911.85827
904.672	1831.50591
904.85	1708.85044
905.029	1630.5988
905.207	1918.20155
905.386	1543.88399
905.565	1759.60601
905.743	1573.49424
905.922	1603.10418
906.1	1423.32638
906.279	1598.87421
906.457	1433.90163
906.636	1522.73366
906.814	1510.04342
906.993	1476.20267
907.171	1467.74247
907.35	1501.58325
907.528	1359.87518
907.707	1406.406
907.885	1298.54007
908.063	1342.95502
908.242	1304.88501
908.42	1446.59194
908.598	1015.1634
908.777	1319.68995
908.955	1194.90918
909.133	1285.85024
909.311	1040.53703
909.49	1342.95502
909.668	1135.69509
909.846	1359.87518
910.024	1144.15405
910.202	1340.84
910.38	1294.31011
910.559	1326.03495
910.737	1112.43331
910.915	1383.14053
911.093	1137.80982
911.271	1315.45996
911.449	1129.35091
911.627	1421.21133
911.805	1199.13887
911.983	1281.62031
912.161	1239.32159
912.339	1452.9371
912.517	1205.48343
912.695	1311.22997
912.872	1262.58576
913.05	1334.49497
913.228	1216.05777
913.406	1438.13174
913.584	1302.77003
913.762	1334.49497
913.939	1285.85024
914.117	1376.79543
914.295	1036.30803
914.473	1258.35589
914.65	1171.64614
914.828	1298.54007
915.006	1192.79434
915.184	1266.81564
915.361	1097.63065
915.539	1192.79434
915.716	1013.04897
915.894	1260.47082
916.072	1112.43331
916.249	1226.63219
916.427	1211.82803
916.604	1311.22997
916.782	1146.2688
916.959	1241.4365
917.137	1040.53703
917.314	1095.516
917.492	1061.68236
917.669	1053.22416
917.847	1032.07905
918.024	1074.36982
918.201	1099.7453
918.379	1294.31011
918.556	1106.08928
918.733	1144.15405
918.911	996.13375
919.088	1068.02606
919.265	926.36301
919.442	1095.516
919.62	1158.9574
919.797	1182.22019
919.974	966.53312
920.151	1038.42252
920.328	879.85366
920.506	1123.00677
920.683	947.50485
920.86	1004.59131
921.037	892.53765
921.214	1070.14064
921.391	856.60045
921.568	1072.25523
921.745	930.59132
921.922	1048.99509
922.099	850.25884
922.276	983.44761
922.453	799.52889
922.63	1002.47691
922.807	879.85366
922.984	987.67629
923.161	848.14499
923.338	951.73331
923.514	778.393
923.691	833.34828
923.868	727.67095
924.045	822.77947
924.222	742.46427
924.399	841.80349
924.575	782.6201
924.752	831.2345
924.929	769.93892
925.105	877.73969
925.282	691.74653
925.459	683.29419
925.635	714.99138
925.812	649.48669
925.989	562.86933
926.165	687.52034
926.342	596.66867
926.518	786.84724
926.695	607.23165
926.871	717.10462
927.048	499.50499
927.224	753.03124
927.401	596.66867
927.577	666.39007
927.754	488.94552
927.93	649.48669
928.107	681.18114
928.283	670.61603
928.459	539.63428
928.636	600.89382
928.812	548.0832
928.988	622.02035
929.165	436.15378
929.341	577.65613
929.517	512.17684
929.693	571.31885
929.87	491.05738
930.046	558.64466
930.222	472.05113
930.398	562.86933
930.574	497.39307
930.751	497.39307
930.927	406.59467
931.103	465.71598
931.279	436.15378
931.455	548.0832
931.631	442.48828
931.807	516.40091
931.983	393.92744
932.159	461.49263
932.335	326.37915
932.511	427.708
932.687	345.37533
932.863	529.07344
933.039	326.37915
933.215	421.37383
933.391	305.27397
933.566	275.72978
933.742	362.262
933.918	379.14977
934.094	288.39113
934.27	320.04741
934.445	309.49486
934.621	246.18925
934.797	305.27397
934.973	250.4091
935.148	326.37915
935.324	260.95905
935.5	212.43327
935.675	275.72978
935.851	191.33836
936.027	269.39935
936.202	201.88557
936.378	235.63997
936.553	252.51905
936.729	174.4639
936.904	203.99507
937.08	263.0691
937.255	90.11179
937.431	142.82785
937.606	77.46199
937.782	119.63111
937.957	159.69982
938.133	125.95723
938.308	41.62532
938.483	115.4138
938.659	100.65391
938.834	125.95723
939.009	166.02716
939.185	102.7624
939.36	56.38079
939.535	115.4138
939.71	157.59075
939.886	161.80891
940.061	88.00344
940.236	109.088
940.411	81.6785
940.586	50.05688
940.761	60.59685
940.937	149.15468
941.112	104.87091
941.287	92.22017
941.462	69.02924
941.637	35.30189
941.812	132.28355
941.987	132.28355
942.162	22.65567
942.337	123.8485
942.512	14.22533
942.687	88.00344
942.862	52.16483
943.037	96.437
943.212	52.16483
943.386	83.78679
943.561	100.65391
943.736	5.79537
943.911	75.35377
944.086	60.59685
944.26	58.48881
944.435	60.59685
944.61	90.11179
944.785	77.46199
944.959	52.16483
945.134	119.63111
945.309	39.51749
945.483	90.11179
945.658	113.30518
945.833	24.76332
946.007	39.51749
946.182	121.73979
946.357	31.08639
946.531	33.19413
946.706	22.65567
946.88	106.97945
947.055	-55.31017
947.229	81.6785
947.404	81.6785
947.578	117.52244
947.752	64.813
947.927	56.38079
948.101	-8.95613
948.276	5.79537
948.45	66.92111
948.624	47.94895
948.799	47.94895
948.973	-17.38502
949.147	56.38079
949.321	56.38079
949.496	43.73317
949.67	66.92111
949.844	75.35377
950.018	102.7624
950.193	-8.95613
950.367	62.70491
950.541	100.65391
950.715	121.73979
950.889	7.90283
951.063	56.38079
951.237	12.11781
951.411	1.58054
951.585	85.8951
951.759	16.33288
951.933	35.30189
952.107	-19.49219
952.281	39.51749
952.455	102.7624
952.629	81.6785
952.803	41.62532
952.977	60.59685
953.151	62.70491
953.325	94.32857
953.499	119.63111
953.672	47.94895
953.846	83.78679
954.02	31.08639
954.194	117.52244
954.368	134.39237
954.541	60.59685
954.715	41.62532
954.889	100.65391
955.062	14.22533
955.236	104.87091
955.41	66.92111
955.583	94.32857
955.757	41.62532
955.93	94.32857
956.104	102.7624
956.278	52.16483
956.451	111.19658
956.625	47.94895
956.798	60.59685
956.972	50.05688
957.145	43.73317
957.319	73.24557
957.492	64.813
957.665	75.35377
957.839	100.65391
958.012	81.6785
958.185	106.97945
958.359	47.94895
958.532	123.8485
958.705	94.32857
958.879	92.22017
959.052	64.813
959.225	69.02924
959.398	31.08639
959.572	100.65391
959.745	109.088
959.918	102.7624
960.091	54.2728
960.264	98.54544
960.438	96.437
960.611	100.65391
960.784	41.62532
960.957	144.93677
961.13	73.24557
961.303	111.19658
961.476	54.2728
961.649	81.6785
961.822	85.8951
961.995	77.46199
962.168	47.94895
962.341	47.94895
962.514	88.00344
962.686	134.39237
962.859	128.06598
963.032	123.8485
963.205	115.4138
963.378	64.813
963.551	60.59685
963.723	22.65567
963.896	56.38079
964.069	106.97945
964.242	66.92111
964.414	31.08639
964.587	1.58054
964.76	62.70491
964.932	92.22017
965.105	-8.95613
965.278	92.22017
965.45	81.6785
965.623	-57.41689
965.795	14.22533
965.968	22.65567
966.14	26.87099
966.313	117.52244
966.485	69.02924
966.658	125.95723
966.83	52.16483
967.003	52.16483
967.175	7.90283
967.348	-13.17063
967.52	35.30189
967.692	-36.3486
967.865	73.24557
968.037	111.19658
968.209	73.24557
968.382	111.19658
968.554	125.95723
968.726	71.13739
968.898	73.24557
969.071	73.24557
969.243	41.62532
969.415	-4.74153
969.587	18.44046
969.759	73.24557
969.932	83.78679
970.104	52.16483
970.276	22.65567
970.448	60.59685
970.62	37.40968
970.792	81.6785
970.964	56.38079
971.136	41.62532
971.308	81.6785
971.48	64.813
971.652	14.22533
971.824	106.97945
971.996	39.51749
972.168	18.44046
972.339	50.05688
972.511	31.08639
972.683	83.78679
972.855	24.76332
973.027	73.24557
973.199	-8.95613
973.37	37.40968
973.542	73.24557
973.714	85.8951
973.886	37.40968
974.057	33.19413
974.229	-36.3486
974.401	3.68794
974.572	52.16483
974.744	12.11781
974.915	24.76332
975.087	66.92111
975.259	-11.06339
975.43	39.51749
975.602	22.65567
975.773	50.05688
975.945	81.6785
976.116	69.02924
976.288	39.51749
976.459	22.65567
976.63	33.19413
976.802	14.22533
976.973	22.65567
977.145	-8.95613
977.316	56.38079
977.487	50.05688
977.659	-15.27784
977.83	10.01031
978.001	31.08639
978.172	73.24557
978.344	54.2728
978.515	24.76332
978.686	39.51749
978.857	24.76332
979.028	90.11179
979.2	-13.17063
979.371	7.90283
979.542	35.30189
979.713	-27.92059
979.884	20.54805
980.055	35.30189
980.226	47.94895
980.397	35.30189
980.568	1.58054
980.739	39.51749
980.91	113.30518
981.081	5.79537
981.252	-15.27784
981.423	43.73317
981.594	81.6785
981.765	7.90283
981.936	26.87099
982.106	56.38079
982.277	16.33288
982.448	52.16483
982.619	1.58054
982.79	-15.27784
982.96	-0.52684
983.131	39.51749
983.302	26.87099
983.472	52.16483
983.643	-2.6342
983.814	-11.06339
983.984	109.088
984.155	-0.52684
984.326	39.51749
984.496	-19.49219
984.667	73.24557
984.837	24.76332
985.008	41.62532
985.178	-38.45555
985.349	31.08639
985.519	85.8951
985.69	-44.77622
985.86	31.08639
986.031	-8.95613
986.201	-27.92059
986.371	14.22533
986.542	-15.27784
986.712	-36.3486
986.882	1.58054
987.053	-0.52684
987.223	20.54805
987.393	16.33288
987.563	106.97945
987.734	-19.49219
987.904	113.30518
988.074	47.94895
988.244	5.79537
988.414	58.48881
988.585	16.33288
988.755	41.62532
988.925	-27.92059
989.095	-6.84884
989.265	-40.56246
989.435	50.05688
989.605	24.76332
989.775	50.05688
989.945	-25.81353
990.115	5.79537
990.285	31.08639
990.455	39.51749
990.625	14.22533
990.795	-0.52684
990.965	56.38079
991.134	125.95723
991.304	-4.74153
991.474	14.22533
991.644	18.44046
991.814	37.40968
991.984	52.16483
992.153	26.87099
992.323	39.51749
992.493	39.51749
992.662	18.44046
992.832	33.19413
993.002	111.19658
993.171	1.58054
993.341	18.44046
993.511	31.08639
993.68	47.94895
993.85	5.79537
994.019	-53.20343
994.189	-51.09666
994.358	-27.92059
994.528	35.30189
994.697	-25.81353
994.867	16.33288
995.036	33.19413
995.206	-21.59933
995.375	20.54805
995.544	-30.02763
995.714	-19.49219
995.883	-4.74153
996.052	26.87099
996.222	31.08639
996.391	-15.27784
996.56	-42.66935
996.73	14.22533
996.899	-23.70644
997.068	81.6785
997.237	-42.66935
997.406	54.2728
997.576	28.97868
997.745	22.65567
997.914	71.13739
998.083	7.90283
998.252	81.6785
998.421	14.22533
998.59	79.57023
998.759	52.16483
998.928	-25.81353
999.097	-11.06339
999.266	-59.52357
999.435	-80.58907
999.604	18.44046
999.773	66.92111
999.942	1.58054
1000.111	-25.81353
1000.28	58.48881
1000.448	-23.70644
1000.617	43.73317
1000.786	-0.52684
1000.955	14.22533
1001.124	39.51749
1001.292	24.76332
1001.461	81.6785
1001.63	47.94895
1001.798	64.813
1001.967	56.38079
1002.136	20.54805
1002.304	60.59685
1002.473	66.92111
1002.642	22.65567
1002.81	-2.6342
1002.979	39.51749
1003.147	31.08639
1003.316	-34.24164
1003.484	73.24557
1003.653	14.22533
1003.821	-15.27784
1003.99	18.44046
1004.158	5.79537
1004.327	-44.77622
1004.495	24.76332
1004.663	-23.70644
1004.832	81.6785
1005	-53.20343
1005.168	37.40968
1005.337	43.73317
1005.505	35.30189
1005.673	75.35377
1005.842	-59.52357
1006.01	35.30189
1006.178	81.6785
1006.346	10.01031
1006.514	47.94895
1006.683	58.48881
1006.851	-25.81353
1007.019	39.51749
1007.187	-2.6342
1007.355	41.62532
1007.523	10.01031
1007.691	-11.06339
1007.859	18.44046
1008.027	24.76332
1008.195	-8.95613
1008.363	96.437
1008.531	-42.66935
1008.699	50.05688
1008.867	39.51749
1009.035	52.16483
1009.203	24.76332
1009.37	-27.92059
1009.538	22.65567
1009.706	-86.90822
1009.874	-74.26969
1010.042	33.19413
1010.209	66.92111
1010.377	5.79537
1010.545	-25.81353
1010.713	-57.41689
1010.88	37.40968
1011.048	-6.84884
1011.216	52.16483
1011.383	-42.66935
1011.551	3.68794
1011.718	24.76332
1011.886	-17.38502
1012.054	1.58054
1012.221	20.54805
1012.389	-36.3486
1012.556	-27.92059
1012.724	-118.50043
1012.891	33.19413
1013.058	18.44046
1013.226	-17.38502
1013.393	24.76332
1013.561	-112.18246
1013.728	12.11781
1013.895	-11.06339
1014.063	16.33288
1014.23	-27.92059
1014.397	5.79537
1014.565	-61.63024
1014.732	22.65567
1014.899	22.65567
1015.066	3.68794
1015.233	-46.88306
1015.401	-74.26969
1015.568	22.65567
1015.735	-36.3486
1015.902	-25.81353
1016.069	41.62532
1016.236	43.73317
1016.403	73.24557
1016.57	-4.74153
1016.737	66.92111
1016.904	-13.17063
1017.071	5.79537
1017.238	33.19413
1017.405	-57.41689
1017.572	-2.6342
1017.739	-36.3486
1017.906	35.30189
1018.073	35.30189
1018.24	-40.56246
1018.407	-32.13465
1018.573	-42.66935
1018.74	-8.95613
1018.907	-65.84349
1019.074	-61.63024
1019.241	39.51749
1019.407	-25.81353
1019.574	-11.06339
1019.741	77.46199
1019.907	37.40968
1020.074	16.33288
1020.241	-6.84884
1020.407	-40.56246
1020.574	-25.81353
1020.74	115.4138
1020.907	-2.6342
1021.073	5.79537
1021.24	16.33288
1021.406	24.76332
1021.573	41.62532
1021.739	-44.77622
1021.906	22.65567
1022.072	16.33288
1022.239	-27.92059
1022.405	-2.6342
1022.571	-59.52357
1022.738	20.54805
1022.904	-19.49219
1023.07	-57.41689
1023.237	-0.52684
1023.403	3.68794
1023.569	47.94895
1023.735	18.44046
1023.902	1.58054
1024.068	-34.24164
1024.234	-17.38502
1024.4	5.79537
1024.566	-2.6342
1024.732	-0.52684
1024.898	10.01031
1025.065	16.33288
1025.231	-15.27784
1025.397	26.87099
1025.563	14.22533
1025.729	-70.05664
1025.895	-17.38502
1026.061	60.59685
1026.227	14.22533
1026.392	18.44046
1026.558	35.30189
1026.724	5.79537
1026.89	-51.09666
1027.056	1.58054
1027.222	-15.27784
1027.388	60.59685
1027.553	20.54805
1027.719	-53.20343
1027.885	-11.06339
1028.051	-25.81353
1028.216	-36.3486
1028.382	-15.27784
1028.548	22.65567
1028.713	3.68794
1028.879	24.76332
1029.045	-27.92059
1029.21	1.58054
1029.376	-107.97035
1029.541	-61.63024
1029.707	5.79537
1029.873	14.22533
1030.038	22.65567
1030.204	-25.81353
1030.369	41.62532
1030.534	35.30189
1030.7	-34.24164
1030.865	24.76332
1031.031	-44.77622
1031.196	77.46199
1031.361	26.87099
1031.527	-51.09666
1031.692	-44.77622
1031.857	-23.70644
1032.023	26.87099
1032.188	-95.33338
1032.353	-6.84884
1032.518	75.35377
1032.684	-2.6342
1032.849	-8.95613
1033.014	-27.92059
1033.179	-36.3486
1033.344	5.79537
1033.509	20.54805
1033.674	81.6785
1033.839	-42.66935
1034.004	7.90283
1034.17	-15.27784
1034.335	45.84105
1034.5	-25.81353
1034.664	-57.41689
1034.829	-27.92059
1034.994	100.65391
1035.159	5.79537
1035.324	-15.27784
1035.489	-6.84884
1035.654	-34.24164
1035.819	7.90283
1035.984	-11.06339
1036.148	31.08639
1036.313	-23.70644
1036.478	5.79537
1036.643	39.51749
1036.807	-15.27784
1036.972	3.68794
1037.137	45.84105
1037.301	35.30189
1037.466	-19.49219
1037.631	-8.95613
1037.795	-78.48264
1037.96	33.19413
1038.124	-11.06339
1038.289	-11.06339
1038.454	20.54805
1038.618	77.46199
1038.783	33.19413
1038.947	-17.38502
1039.111	56.38079
1039.276	-2.6342
1039.44	71.13739
1039.605	60.59685
1039.769	-67.95008
1039.933	37.40968
1040.098	-48.98987
1040.262	-19.49219
1040.426	37.40968
1040.591	-36.3486
1040.755	-70.05664
1040.919	26.87099
1041.083	-0.52684
1041.248	39.51749
1041.412	47.94895
1041.576	-103.75813
1041.74	41.62532
1041.904	-15.27784
1042.068	56.38079
1042.232	41.62532
1042.397	31.08639
1042.561	-19.49219
1042.725	5.79537
1042.889	39.51749
1043.053	-78.48264
1043.217	41.62532
1043.381	-44.77622
1043.544	-2.6342
1043.708	1.58054
1043.872	56.38079
1044.036	-67.95008
1044.2	-13.17063
1044.364	-36.3486
1044.528	37.40968
1044.691	35.30189
1044.855	12.11781
1045.019	39.51749
1045.183	-32.13465
1045.346	-21.59933
1045.51	5.79537
1045.674	-11.06339
1045.837	14.22533
1046.001	-46.88306
1046.165	-48.98987
1046.328	-8.95613
1046.492	10.01031
1046.655	-61.63024
1046.819	-19.49219
1046.983	-48.98987
1047.146	115.4138
1047.31	-78.48264
1047.473	54.2728
1047.636	37.40968
1047.8	-36.3486
1047.963	-0.52684
1048.127	90.11179
1048.29	-11.06339
