Data from absorb_only_2.23.25_USB4F045381__65__0170.txt Node

Date: Sun Feb 23 19:24:53 EST 2025
User: ssocol
Spectrometer: USB4F04538
Trigger mode: 4
Integration Time (sec): 2.600000E-3
Scans to average: 1
Electric dark correction enabled: true
Nonlinearity correction enabled: true
Boxcar width: 0
XAxis mode: Wavelengths
Number of Pixels in Spectrum: 3648
>>>>>Begin Spectral Data<<<<<
345.52	-22.65289
345.736	-22.65289
345.952	-22.65289
346.168	-60.57691
346.384	-35.29512
346.6	11.06405
346.816	-31.08114
347.032	32.14026
347.248	-14.22423
347.464	13.17157
347.68	-62.68356
347.896	-16.33143
348.112	46.895
348.328	30.03253
348.544	27.92483
348.76	-39.50901
348.975	2.63424
349.191	-10.00976
349.407	53.21881
349.623	-5.79519
349.839	70.08331
350.055	-1.58052
350.27	44.78711
350.486	-56.36353
350.702	-3.68787
350.918	-7.90249
351.133	27.92483
351.349	-35.29512
351.565	49.00291
351.781	59.54283
351.996	-14.22423
352.212	36.35578
352.428	-47.93647
352.644	-69.00336
352.859	21.60186
353.075	36.35578
353.291	30.03253
353.506	-10.00976
353.722	-1.58052
353.938	-3.68787
354.153	19.49425
354.369	-47.93647
354.584	15.2791
354.8	36.35578
355.016	80.62436
355.231	82.73264
355.447	-83.74867
355.662	-16.33143
355.878	53.21881
356.093	4.74166
356.309	46.895
356.524	61.65088
356.74	30.03253
356.955	-12.11701
357.171	34.24801
357.386	-73.21644
357.602	23.70949
357.817	-5.79519
358.033	-5.79519
358.248	-10.00976
358.464	-31.08114
358.679	36.35578
358.895	-28.97412
359.11	49.00291
359.325	6.8491
359.541	11.06405
359.756	49.00291
359.972	0.52684
360.187	17.38667
360.402	6.8491
360.618	32.14026
360.833	36.35578
361.048	-1.58052
361.264	-37.40208
361.479	-31.08114
361.694	27.92483
361.909	2.63424
362.125	-10.00976
362.34	11.06405
362.555	72.19148
362.77	27.92483
362.986	11.06405
363.201	17.38667
363.416	19.49425
363.631	42.67924
363.847	19.49425
364.062	86.94927
364.277	-10.00976
364.492	4.74166
364.707	-37.40208
364.922	-7.90249
365.138	34.24801
365.353	-60.57691
365.568	53.21881
365.783	-22.65289
365.998	36.35578
366.213	72.19148
366.428	-58.47023
366.643	103.81665
366.858	27.92483
367.073	-35.29512
367.288	-43.72279
367.503	2.63424
367.718	-28.97412
367.933	-1.58052
368.148	-39.50901
368.363	25.81715
368.578	30.03253
368.793	-26.86706
369.008	32.14026
369.223	86.94927
369.438	-52.15005
369.653	27.92483
369.868	-41.61591
370.083	40.5714
370.298	-69.00336
370.513	-18.43861
370.728	-31.08114
370.943	2.63424
371.157	-31.08114
371.372	-37.40208
371.587	6.8491
371.802	0.52684
372.017	13.17157
372.232	32.14026
372.446	27.92483
372.661	-5.79519
372.876	65.86705
373.091	21.60186
373.306	2.63424
373.52	-12.11701
373.735	23.70949
373.95	59.54283
374.165	13.17157
374.379	-1.58052
374.594	36.35578
374.809	67.97517
375.023	2.63424
375.238	-1.58052
375.453	-47.93647
375.667	4.74166
375.882	40.5714
376.097	2.63424
376.311	51.11085
376.526	11.06405
376.741	36.35578
376.955	17.38667
377.17	2.63424
377.384	57.4348
377.599	6.8491
377.813	-10.00976
378.028	32.14026
378.242	-54.2568
378.457	108.03372
378.672	-81.64228
378.886	36.35578
379.101	4.74166
379.315	53.21881
379.53	42.67924
379.744	-14.22423
379.958	-39.50901
380.173	27.92483
380.387	40.5714
380.602	82.73264
380.816	55.32679
381.031	15.2791
381.245	49.00291
381.459	49.00291
381.674	15.2791
381.888	51.11085
382.103	65.86705
382.317	36.35578
382.531	19.49425
382.746	44.78711
382.96	15.2791
383.174	36.35578
383.388	-3.68787
383.603	46.895
383.817	13.17157
384.031	-45.82964
384.246	34.24801
384.46	95.38278
384.674	-39.50901
384.888	27.92483
385.103	-7.90249
385.317	11.06405
385.531	46.895
385.745	17.38667
385.959	-3.68787
386.174	27.92483
386.388	19.49425
386.602	55.32679
386.816	19.49425
387.03	74.29967
387.244	-10.00976
387.458	-31.08114
387.672	49.00291
387.887	21.60186
388.101	2.63424
388.315	57.4348
388.529	13.17157
388.743	8.95656
388.957	-18.43861
389.171	30.03253
389.385	-66.89679
389.599	40.5714
389.813	-20.54576
390.027	-52.15005
390.241	21.60186
390.455	-37.40208
390.669	61.65088
390.883	27.92483
391.097	13.17157
391.311	-5.79519
391.525	-1.58052
391.738	-26.86706
391.952	-31.08114
392.166	13.17157
392.38	53.21881
392.594	-12.11701
392.808	-52.15005
393.022	13.17157
393.236	11.06405
393.449	-1.58052
393.663	2.63424
393.877	-18.43861
394.091	11.06405
394.305	17.38667
394.518	-20.54576
394.732	95.38278
394.946	-12.11701
395.16	-31.08114
395.373	84.84094
395.587	-12.11701
395.801	30.03253
396.015	30.03253
396.228	44.78711
396.442	55.32679
396.656	-20.54576
396.869	-26.86706
397.083	-3.68787
397.297	99.59967
397.51	57.4348
397.724	53.21881
397.938	89.05761
398.151	-69.00336
398.365	23.70949
398.578	6.8491
398.792	-14.22423
399.005	30.03253
399.219	63.75895
399.433	25.81715
399.646	15.2791
399.86	-35.29512
400.073	-1.58052
400.287	6.8491
400.5	44.78711
400.714	-1.58052
400.927	0.52684
401.141	-12.11701
401.354	120.68545
401.567	30.03253
401.781	-39.50901
401.994	55.32679
402.208	70.08331
402.421	-12.11701
402.635	15.2791
402.848	-5.79519
403.061	17.38667
403.275	-5.79519
403.488	44.78711
403.701	-20.54576
403.915	-16.33143
404.128	6.8491
404.341	30.03253
404.555	-1.58052
404.768	97.49122
404.981	-45.82964
405.195	78.51611
405.408	25.81715
405.621	6.8491
405.834	11.06405
406.048	15.2791
406.261	55.32679
406.474	-3.68787
406.687	-60.57691
406.9	44.78711
407.114	34.24801
407.327	30.03253
407.54	-39.50901
407.753	-14.22423
407.966	63.75895
408.179	-31.08114
408.392	38.46358
408.605	23.70949
408.819	19.49425
409.032	55.32679
409.245	21.60186
409.458	-1.58052
409.671	19.49425
409.884	-1.58052
410.097	-50.04327
410.31	-41.61591
410.523	44.78711
410.736	11.06405
410.949	-14.22423
411.162	8.95656
411.375	-18.43861
411.588	86.94927
411.801	53.21881
412.014	19.49425
412.227	13.17157
412.44	30.03253
412.653	2.63424
412.865	38.46358
413.078	63.75895
413.291	2.63424
413.504	-1.58052
413.717	32.14026
413.93	0.52684
414.143	44.78711
414.356	160.75436
414.568	2.63424
414.781	30.03253
414.994	46.895
415.207	-5.79519
415.42	-31.08114
415.632	36.35578
415.845	101.70815
416.058	2.63424
416.271	19.49425
416.483	-5.79519
416.696	11.06405
416.909	95.38278
417.121	27.92483
417.334	-1.58052
417.547	2.63424
417.759	36.35578
417.972	80.62436
418.185	-39.50901
418.397	0.52684
418.61	30.03253
418.823	40.5714
419.035	40.5714
419.248	4.74166
419.46	-3.68787
419.673	99.59967
419.885	4.74166
420.098	13.17157
420.311	19.49425
420.523	2.63424
420.736	-10.00976
420.948	19.49425
421.161	32.14026
421.373	30.03253
421.586	19.49425
421.798	65.86705
422.01	11.06405
422.223	32.14026
422.435	40.5714
422.648	44.78711
422.86	-60.57691
423.073	57.4348
423.285	32.14026
423.497	11.06405
423.71	-1.58052
423.922	19.49425
424.134	42.67924
424.347	63.75895
424.559	-14.22423
424.771	15.2791
424.984	86.94927
425.196	-5.79519
425.408	-22.65289
425.621	65.86705
425.833	-16.33143
426.045	82.73264
426.257	55.32679
426.47	67.97517
426.682	-5.79519
426.894	23.70949
427.106	36.35578
427.318	105.92518
427.531	27.92483
427.743	78.51611
427.955	36.35578
428.167	-22.65289
428.379	70.08331
428.591	-5.79519
428.804	65.86705
429.016	44.78711
429.228	-33.18815
429.44	57.4348
429.652	53.21881
429.864	23.70949
430.076	99.59967
430.288	4.74166
430.5	-5.79519
430.712	44.78711
430.924	27.92483
431.136	-26.86706
431.348	55.32679
431.56	46.895
431.772	-24.75999
431.984	-31.08114
432.196	124.90287
432.408	46.895
432.62	11.06405
432.832	97.49122
433.044	53.21881
433.256	13.17157
433.468	105.92518
433.679	-1.58052
433.891	-28.97412
434.103	72.19148
434.315	36.35578
434.527	74.29967
434.739	19.49425
434.95	36.35578
435.162	-14.22423
435.374	40.5714
435.586	44.78711
435.798	36.35578
436.009	19.49425
436.221	21.60186
436.433	8.95656
436.645	53.21881
436.856	15.2791
437.068	-3.68787
437.28	36.35578
437.491	53.21881
437.703	-18.43861
437.915	72.19148
438.126	-1.58052
438.338	40.5714
438.55	53.21881
438.761	51.11085
438.973	15.2791
439.184	55.32679
439.396	25.81715
439.608	-31.08114
439.819	15.2791
440.031	32.14026
440.242	61.65088
440.454	72.19148
440.665	-1.58052
440.877	23.70949
441.088	11.06405
441.3	65.86705
441.511	53.21881
441.723	57.4348
441.934	97.49122
442.146	44.78711
442.357	55.32679
442.569	-12.11701
442.78	36.35578
442.991	44.78711
443.203	55.32679
443.414	82.73264
443.626	11.06405
443.837	15.2791
444.048	67.97517
444.26	4.74166
444.471	-5.79519
444.682	-28.97412
444.894	36.35578
445.105	36.35578
445.316	40.5714
445.528	2.63424
445.739	11.06405
445.95	-12.11701
446.161	59.54283
446.373	-56.36353
446.584	53.21881
446.795	0.52684
447.006	49.00291
447.217	-20.54576
447.429	86.94927
447.64	74.29967
447.851	44.78711
448.062	70.08331
448.273	44.78711
448.484	27.92483
448.695	0.52684
448.907	89.05761
449.118	40.5714
449.329	97.49122
449.54	2.63424
449.751	-31.08114
449.962	19.49425
450.173	55.32679
450.384	27.92483
450.595	17.38667
450.806	27.92483
451.017	55.32679
451.228	89.05761
451.439	65.86705
451.65	105.92518
451.861	61.65088
452.072	78.51611
452.283	57.4348
452.494	103.81665
452.705	23.70949
452.915	116.46812
453.126	93.27437
453.337	93.27437
453.548	61.65088
453.759	-3.68787
453.97	112.25088
454.181	49.00291
454.391	70.08331
454.602	105.92518
454.813	30.03253
455.024	30.03253
455.235	124.90287
455.445	44.78711
455.656	129.12037
455.867	15.2791
456.078	30.03253
456.288	89.05761
456.499	46.895
456.71	44.78711
456.921	46.895
457.131	49.00291
457.342	57.4348
457.553	40.5714
457.763	80.62436
457.974	23.70949
458.184	19.49425
458.395	65.86705
458.606	70.08331
458.816	72.19148
459.027	116.46812
459.237	78.51611
459.448	63.75895
459.659	74.29967
459.869	129.12037
460.08	171.30008
460.29	129.12037
460.501	74.29967
460.711	53.21881
460.922	2.63424
461.132	42.67924
461.343	27.92483
461.553	103.81665
461.764	67.97517
461.974	70.08331
462.184	95.38278
462.395	61.65088
462.605	93.27437
462.816	105.92518
463.026	42.67924
463.236	44.78711
463.447	55.32679
463.657	99.59967
463.867	148.10019
464.078	103.81665
464.288	156.53622
464.498	162.86346
464.709	105.92518
464.919	99.59967
465.129	120.68545
465.339	150.20917
465.55	154.42718
465.76	86.94927
465.97	137.55563
466.18	46.895
466.391	108.03372
466.601	63.75895
466.811	95.38278
467.021	154.42718
467.231	72.19148
467.441	103.81665
467.651	114.35949
467.862	171.30008
468.072	175.51851
468.282	91.16598
468.492	139.6645
468.702	186.06495
468.912	120.68545
469.122	175.51851
469.332	183.95562
469.542	86.94927
469.752	129.12037
469.962	158.64528
470.172	124.90287
470.382	133.33796
470.592	158.64528
470.802	205.04983
471.012	145.99124
471.222	116.46812
471.432	171.30008
471.642	169.1909
471.852	221.92663
472.062	238.8047
472.272	249.35413
472.482	209.26891
472.691	291.55658
472.901	183.95562
473.111	243.02442
473.321	213.48807
473.531	270.45441
473.741	285.22573
473.95	289.44628
474.16	238.8047
474.37	293.6669
474.58	264.12413
474.79	243.02442
474.999	314.77108
475.209	331.65572
475.419	356.9848
475.628	365.42837
475.838	314.77108
476.048	299.99796
476.258	373.87222
476.467	331.65572
476.677	302.10835
476.886	492.11332
477.096	466.77183
477.306	559.70082
477.515	409.76156
477.725	416.09547
477.935	490.00145
478.144	490.00145
478.354	428.76371
478.563	521.68107
478.773	599.83753
478.982	447.76714
479.192	498.44903
479.401	496.33711
479.611	470.99526
479.82	547.02707
480.03	492.11332
480.239	616.7386
480.449	593.49984
480.658	639.97888
480.868	593.49984
481.077	743.52096
481.287	686.4638
481.496	764.6552
481.705	745.63433
481.915	790.01762
482.124	745.63433
482.333	781.56332
482.543	855.54351
482.752	859.77128
482.961	891.48064
483.171	874.56875
483.38	859.77128
483.589	1003.53411
483.799	866.113
484.008	1024.67841
484.217	959.13317
484.426	1176.93315
484.636	1043.70879
484.845	1022.56395
485.054	999.30532
485.263	1128.29355
485.472	1187.50725
485.682	1240.37905
485.891	1136.75245
486.1	1227.68963
486.309	1227.68963
486.518	1291.13766
486.727	1195.9666
486.936	1320.74745
487.146	1265.75817
487.355	1392.65821
487.564	1530.13629
487.773	1437.07421
487.982	1320.74745
488.191	1331.32246
488.4	1456.10968
488.609	1515.33103
488.818	1473.03009
489.027	1663.38034
489.236	1671.84
489.445	1614.73656
489.654	1580.89675
489.863	1841.02169
490.072	1722.59694
490.281	1754.31906
490.49	1618.9665
490.698	1688.75917
490.907	1593.58674
491.116	1948.86004
491.325	1718.36726
491.534	1813.5314
491.743	1993.25977
491.952	2058.79701
492.16	1870.62573
492.369	2022.85804
492.578	1900.22878
492.787	2050.34096
492.996	2177.16916
493.204	2306.08056
493.413	2126.4412
493.622	2103.18938
493.831	1974.23165
494.039	2295.51532
494.248	2251.13879
494.457	2437.06889
494.665	2225.77897
494.874	2487.76322
495.083	2369.46688
495.291	2255.3653
495.5	2339.8877
495.709	2576.46265
495.917	2418.05691
496.126	2565.90427
496.335	2434.95649
496.543	2525.77976
496.752	2363.12865
496.96	2534.22737
497.169	2447.63073
497.377	2785.45425
497.586	2553.23383
497.794	2544.78663
498.003	2565.90427
498.211	2842.42948
498.42	2772.79173
498.628	2907.83283
498.837	2926.81831
499.045	2770.68126
499.254	2768.57078
499.462	3011.18369
499.671	2772.79173
499.879	2777.01263
500.087	2766.46029
500.296	2937.36528
500.504	2787.56462
500.713	2890.95586
500.921	3011.18369
501.129	3013.29252
501.338	2893.06554
501.546	2947.91189
501.754	3063.89973
501.962	3127.14608
502.171	3129.25404
502.379	3255.70214
502.587	3097.63288
502.795	3295.73155
503.004	3011.18369
503.212	3331.54212
503.42	3034.37993
503.628	3257.80911
503.837	3087.09171
504.045	3339.96741
504.253	3190.37801
504.461	3339.96741
504.669	3422.09937
504.877	3491.57455
505.085	3316.79719
505.294	3468.41833
505.502	3344.17995
505.71	3594.69806
505.918	3405.25397
506.126	3760.86341
506.334	3453.68142
506.542	3775.58113
506.75	3512.62374
506.958	3813.42229
507.166	3619.946
507.374	3723.01347
507.582	3563.13434
507.79	3710.39543
507.998	3592.59394
508.206	3981.52722
508.414	3626.25757
508.622	3847.05351
508.83	3691.46708
509.037	3737.73364
509.245	3645.19124
509.453	4029.83341
509.661	3706.18927
509.869	4250.22191
510.077	3798.70704
510.285	3952.11816
510.492	3884.88256
510.7	3903.79466
510.908	3842.84989
511.116	4017.23284
511.324	3920.60405
511.531	4023.53322
511.739	3872.2736
511.947	4162.09431
512.155	4222.94832
512.362	4128.51209
512.57	4029.83341
512.778	4046.63302
512.985	3926.90723
513.193	4111.71896
513.401	4113.81818
513.608	4216.65391
513.816	4038.23338
514.024	4197.76951
514.231	4055.03232
514.439	4323.63283
514.646	4340.40877
514.854	4283.78445
515.061	4055.03232
515.269	4220.85021
515.477	4432.65159
515.684	4491.32954
515.892	4449.41848
516.099	4522.75704
516.307	4522.75704
516.514	4491.32954
516.722	4436.84344
516.929	4510.18664
517.136	4308.95276
517.344	4415.88331
517.551	4405.40242
517.759	4642.13603
517.966	4568.84171
518.173	4570.93622
518.381	4577.21959
518.588	4621.19759
518.796	4558.36887
519.003	4600.25691
519.21	4640.04228
519.418	4757.25726
519.625	4686.09945
519.832	4970.57298
520.039	4746.79452
520.247	4918.31174
520.454	4882.7659
520.661	4962.21214
520.868	4750.97968
521.076	5060.42863
521.283	4901.58511
521.49	4868.12745
521.697	4788.6421
521.904	5035.35693
522.112	4901.58511
522.319	5072.96323
522.526	4993.56337
522.733	5102.20738
522.94	5152.32963
523.147	5206.61362
523.354	4792.82636
523.561	5227.48788
523.768	4876.49242
523.975	5127.27018
524.183	5052.07176
524.39	5415.25095
524.597	5288.01003
524.804	5369.37085
525.011	5235.83693
525.218	5419.42131
525.425	5177.38574
525.632	5127.27018
525.838	5114.7392
526.045	5523.64963
526.252	5333.91026
526.459	5279.66331
526.666	5279.66331
526.873	5711.11217
527.08	5427.76174
527.287	5406.90996
527.494	5536.15307
527.701	5477.79641
527.907	5429.84679
528.114	5498.64019
528.321	5527.81753
528.528	5713.19402
528.735	5634.06736
528.941	5523.64963
529.148	5265.05566
529.355	5723.60288
529.562	5638.23277
529.768	5802.69098
529.975	5563.24095
530.182	5885.90478
530.388	5644.48071
530.595	5925.41812
530.802	5602.82378
531.008	5894.22409
531.215	5946.21119
531.422	5840.14186
531.628	5944.13199
531.835	6154.01235
532.042	5904.62269
532.248	5942.05276
532.455	5969.08084
532.661	6068.84234
532.868	5933.73563
533.074	6039.75084
533.281	5838.06146
533.487	6249.52195
533.694	6151.9355
533.9	6411.35984
534.107	6068.84234
534.313	6232.91515
534.52	5929.57692
534.726	6029.3599
534.933	6085.46398
535.139	6293.10768
535.345	6208.00214
535.552	6239.14288
535.758	6234.99108
535.965	6508.80909
536.171	6369.87649
536.377	6452.83388
536.584	6384.39672
536.79	6517.10027
536.996	6369.87649
537.203	6450.7604
537.409	6490.15256
537.615	6488.0795
537.821	6417.58154
538.028	6602.06356
538.234	6384.39672
538.44	6736.68203
538.646	6392.69349
538.853	6419.65539
539.059	6351.20594
539.265	6481.86017
539.471	6645.56631
539.677	6697.34206
539.883	6914.64404
540.09	6753.24375
540.296	6670.42046
540.502	6809.12877
540.708	6825.68409
540.914	7057.30635
541.12	6763.59409
541.326	7166.81505
541.532	6850.51435
541.738	7030.43614
541.944	6718.04834
542.15	6881.54757
542.356	6817.40661
542.562	7154.42098
542.768	6982.88722
542.974	7137.89431
543.18	7022.16761
543.386	7100.70409
543.592	7191.60079
543.798	7075.90659
544.004	6999.42733
544.21	7193.66612
544.415	7049.039
544.621	7263.87432
544.827	7230.83835
545.033	7303.09721
545.239	7040.77128
545.445	7459.90983
545.651	7288.6476
545.856	7610.41483
546.062	7065.57335
546.268	7459.90983
546.474	6997.35989
546.679	7560.94634
546.885	7065.57335
547.091	7476.40912
547.297	7206.05766
547.502	7577.43721
547.708	7309.28958
547.914	7503.21752
548.119	7395.96198
548.325	7517.65131
548.531	7509.40356
548.736	7544.45411
548.942	7230.83835
549.147	7433.09553
549.353	7443.40916
549.559	7773.16227
549.764	7581.55971
549.97	7701.07523
550.175	7637.20513
550.381	7699.01522
550.586	7499.09339
550.792	7832.87211
550.997	7503.21752
551.203	7703.13521
551.408	7674.29347
551.614	7863.74964
551.819	7608.35389
552.025	7688.71486
552.23	7748.44961
552.435	7939.89434
552.641	7888.44831
552.846	7946.067
553.052	7748.44961
553.257	7941.95191
553.462	7830.81344
553.668	7939.89434
553.873	7946.067
554.078	8112.65952
554.283	7746.39008
554.489	8118.82706
554.694	8139.38425
554.899	8067.42531
555.105	8050.97409
555.31	8164.05023
555.515	8194.87866
555.72	8178.43739
555.925	8250.3586
556.131	8316.09401
556.336	8057.14345
556.541	8283.22882
556.746	8053.03057
556.951	8188.71334
557.156	8161.99484
557.361	8439.29412
557.567	8264.73994
557.772	8092.09972
557.977	8266.79434
558.182	8550.11512
558.387	8266.79434
558.592	8513.18095
558.797	8032.46492
559.002	8077.70667
559.207	8143.49544
559.412	8244.19488
559.617	8277.06604
559.822	8787.99009
560.027	8346.90058
560.232	8311.98613
560.437	8375.64943
560.642	8390.02244
560.847	8615.76078
561.051	8609.60731
561.256	8439.29412
561.461	8751.09473
561.666	8431.08294
561.871	8562.42514
562.076	8587.04317
562.281	8802.33669
562.485	8461.87328
562.69	8738.79496
562.895	8422.87146
563.1	8474.18821
563.305	8701.8917
563.509	8701.8917
563.714	8554.21853
563.919	8769.54315
564.123	8564.47675
564.328	8539.85624
564.533	8578.83746
564.737	8638.32205
564.942	8595.24857
565.147	8730.59475
565.351	8513.18095
565.556	8589.09455
565.761	8646.52558
565.965	8742.89496
566.17	8716.24368
566.374	8831.02722
566.579	8869.95872
566.784	8953.94678
566.988	8876.10521
567.193	9017.43019
567.397	8857.66527
567.602	9072.70848
567.806	8712.1432
568.011	9142.30022
568.215	9084.99082
568.42	9142.30022
568.624	8831.02722
568.828	8785.9405
569.033	8751.09473
569.237	9078.84973
569.442	8767.4934
569.646	8919.1261
569.85	8880.20277
570.055	9089.0848
570.259	8677.2862
570.463	9205.73427
570.668	9119.78742
570.872	9037.90511
571.076	9146.39324
571.281	9070.66136
571.485	8996.95351
571.689	9365.27104
571.893	9140.25369
572.098	9320.28374
572.302	9127.97414
572.506	9072.70848
572.71	8988.76236
572.914	9359.13688
573.119	9168.90359
573.323	9293.69657
573.527	9168.90359
573.731	9287.56067
573.935	9236.42232
574.139	9571.70276
574.343	9485.87978
574.547	9524.70794
574.751	9328.46384
574.955	9355.04736
575.159	9308.01308
575.364	9418.42762
575.568	9211.87219
575.772	9602.34707
575.976	9342.77839
576.18	9422.51613
576.383	9602.34707
576.587	9592.13269
576.791	9404.11732
576.995	9496.09828
577.199	9424.56036
577.403	9639.11558
577.607	9481.79227
577.811	9671.79447
578.015	9363.22634
578.219	9759.59949
578.422	9512.44704
578.626	9761.64113
578.83	9626.85997
579.034	9822.88336
579.238	9618.68925
579.442	10067.71952
579.645	9641.15812
579.849	9551.27126
580.053	9718.76346
580.257	9788.18109
580.46	9604.38989
580.664	9849.41747
580.868	9594.1756
581.071	9716.7215
581.275	9814.71851
581.479	9953.48871
581.682	9635.03044
581.886	9565.57348
582.09	9802.47079
582.293	9933.08559
582.497	9814.71851
582.7	9843.29444
582.904	9845.33547
583.107	10104.42708
583.311	9882.07139
583.515	9949.4082
583.718	10024.88823
583.922	10226.753
584.125	9914.72154
584.329	10081.99523
584.532	9845.33547
584.735	10296.04914
584.939	9841.2534
585.142	10096.27024
585.346	9955.52894
585.549	10505.88216
585.753	9998.37047
585.956	10271.59346
586.159	9961.64955
586.363	10410.15029
586.566	9953.48871
586.769	10047.32445
586.973	10190.06044
587.176	10157.4411
587.379	10249.17405
587.582	10499.77246
587.786	10157.4411
587.989	10375.51681
588.192	10145.20793
588.395	10283.82154
588.599	10259.36489
588.802	10263.44114
589.005	9967.77003
589.208	10501.80904
589.411	10287.89746
589.615	10383.66621
589.818	10287.89746
590.021	10534.39257
590.224	10434.59518
590.427	10428.48413
590.63	10381.62888
590.833	10597.51399
591.036	10483.47937
591.239	10890.56982
591.442	10412.18743
591.645	10805.12064
591.848	10654.51662
592.051	10644.33828
592.254	10342.91713
592.457	10587.33393
592.66	10491.62602
592.863	10735.93234
593.066	10599.54996
593.269	10845.81328
593.472	10744.07286
593.675	11069.54122
593.878	10689.12067
594.081	10796.98155
594.284	10371.44204
594.486	10719.65074
594.689	10607.69374
594.892	10752.21318
595.095	11132.56766
595.298	10880.39837
595.5	10878.36404
595.703	11295.16959
595.906	10931.25277
596.109	11158.99503
596.311	10727.79164
596.514	10882.43268
596.717	10884.46698
596.92	10996.33609
597.122	10841.74422
597.325	11104.10538
597.528	10776.633
597.73	11398.7942
597.933	10833.60598
598.136	11211.84443
598.338	10957.69426
598.541	11287.04107
598.743	11165.0934
598.946	11057.34135
599.148	11049.20789
599.351	11248.42834
599.554	11075.641
599.756	11193.55121
599.959	11211.84443
600.161	11325.65012
600.363	11331.74595
600.566	11246.39599
600.768	11429.26712
600.971	11366.28731
601.173	11037.00736
601.376	11163.06062
601.578	11193.55121
601.78	11343.93735
601.983	11276.88018
602.185	11421.14122
602.388	11195.58383
602.59	11599.87566
602.792	11508.48653
602.995	11274.84797
603.197	11087.84028
603.399	11561.29144
603.601	11368.31906
603.804	11185.42062
604.006	10963.79587
604.208	11234.20166
604.41	11226.0719
604.613	11134.60059
604.815	11158.99503
605.017	11508.48653
605.219	11376.44598
605.421	11071.57449
605.623	11219.97448
605.826	11715.6086
606.028	11559.2606
606.23	11508.48653
606.432	11217.94198
606.634	11792.74789
606.836	11459.73785
607.038	11851.60899
607.24	11652.66975
607.442	11695.30668
607.644	11482.08168
607.846	11419.10972
608.048	11169.15893
608.25	11630.33454
608.452	11492.23758
608.654	11443.48707
608.856	11413.01517
609.058	11350.03291
609.26	11484.11288
609.462	11398.7942
609.664	11459.73785
609.866	11360.19198
610.067	11390.66771
610.269	11675.00388
610.471	11158.99503
610.673	11490.20642
610.875	11543.01354
611.077	11467.86302
611.278	11171.19168
611.48	11475.98802
611.682	11410.98363
611.884	11758.23976
612.085	11327.68208
612.287	11821.16449
612.489	11435.36144
612.69	11719.66888
612.892	11520.67284
613.094	11504.42435
613.295	11410.98363
613.497	11530.82785
613.699	11524.73487
613.9	11831.31287
614.102	11492.23758
614.304	11522.70386
614.505	11455.67521
614.707	11719.66888
614.908	11339.87359
615.11	11796.80751
615.311	11756.20979
615.513	11739.96973
615.714	11398.7942
615.916	11758.23976
616.117	11394.73097
616.319	11752.14983
616.52	11648.60889
616.722	11579.56859
616.923	11569.41471
617.124	11713.57845
617.326	11413.01517
617.527	11618.15124
617.729	11735.90963
617.93	11670.94321
618.131	11707.48794
618.333	11530.82785
618.534	11605.9676
618.735	11650.63933
618.937	11378.47769
619.138	11626.27348
619.339	11654.70017
619.54	11752.14983
619.742	11695.30668
619.943	12078.86968
620.144	11459.73785
620.345	11595.81432
620.546	11382.54107
620.748	11530.82785
620.949	11707.48794
621.15	11640.48705
621.351	11632.36506
621.552	11949.01882
621.753	11591.75295
621.954	11624.24293
622.155	11687.18567
622.356	11804.92664
622.558	11577.53784
622.759	11679.06451
622.96	11711.54829
623.161	11687.18567
623.362	11636.42607
623.563	11770.41939
623.764	11867.84529
623.965	11634.39557
624.166	11711.54829
624.366	11737.93969
624.567	11551.13714
624.768	11526.76587
624.969	11378.47769
625.17	11849.57942
625.371	11780.56883
625.572	11679.06451
625.773	11656.73058
625.973	11800.86709
626.174	11471.92554
626.375	11762.29967
626.576	11963.22284
626.777	11794.7777
626.977	11516.61078
627.178	11800.86709
627.379	11484.11288
627.58	11439.42427
627.78	11650.63933
627.981	11461.76916
628.182	11711.54829
628.382	11593.78364
628.583	11762.29967
628.784	11839.43142
628.984	11689.21593
629.185	11863.78627
629.386	11788.68824
629.586	12032.20824
629.787	11869.87479
629.987	11965.25196
630.188	11892.19873
630.388	11717.63874
630.589	11573.47629
630.79	11861.75674
630.99	11934.8144
631.191	11961.19372
631.391	11843.49064
631.591	11821.16449
631.792	11780.56883
631.992	11906.40436
632.193	12040.32357
632.393	12009.89044
632.594	11827.25354
632.794	12020.03502
632.994	12101.18457
633.195	12072.78364
633.395	11944.96046
633.595	12076.84101
633.796	11794.7777
633.996	11914.52168
634.196	11949.01882
634.397	12257.36342
634.597	11981.48458
634.797	12208.68899
634.997	12084.95565
635.198	12064.66881
635.398	11829.28321
635.598	12030.17939
635.798	11737.93969
635.998	11746.05982
636.199	11877.9927
636.399	11989.6007
636.599	11853.63856
636.799	11847.54984
636.999	11679.06451
637.199	12145.8116
637.399	12086.98429
637.599	12030.17939
637.799	11725.75923
637.999	12101.18457
638.199	11965.25196
638.399	12279.67115
638.599	11973.36833
638.799	11969.31016
638.999	11906.40436
639.199	11946.98964
639.399	11898.28691
639.599	12224.91426
639.799	11963.22284
639.999	12060.61135
640.199	11802.89687
640.399	12190.43499
640.599	11443.48707
640.799	12366.86594
640.998	12005.83256
641.198	12042.35238
641.398	11914.52168
641.598	12147.84001
641.798	12068.72624
641.997	12299.95016
642.197	11997.71669
642.397	12247.22326
642.597	12279.67115
642.796	12249.25131
642.996	12379.03164
643.196	12283.72701
643.395	12281.69909
643.595	12125.52704
643.795	12117.41301
643.994	12127.55553
644.194	11786.6584
644.394	12020.03502
644.593	11916.55099
644.793	12322.25626
644.992	12230.99862
645.192	12151.89682
645.392	12474.32124
645.591	12474.32124
645.791	12443.91126
645.99	12709.44369
646.19	12449.99337
646.389	12141.75475
646.589	12125.52704
646.788	12143.78318
646.987	12160.01034
647.187	12279.67115
647.386	12115.38448
647.586	12368.89357
647.785	12141.75475
647.984	12320.22847
648.184	12157.98197
648.383	12263.44743
648.582	12346.58923
648.782	12670.93788
648.981	12393.22464
649.18	12306.03373
649.38	12289.81075
649.579	12502.70256
649.778	12567.56944
649.977	12656.75099
650.177	12454.04808
650.376	12411.47231
650.575	12304.00588
650.774	12387.14197
650.973	12277.64321
651.173	12372.94882
651.372	12084.95565
651.571	12474.32124
651.77	12557.43441
651.969	12490.53929
652.168	12522.97416
652.367	12468.23936
652.566	12206.6608
652.765	12449.99337
652.964	12415.52727
653.163	12356.72767
653.362	12267.50341
653.561	12202.60439
653.76	12476.34851
653.959	12306.03373
654.158	12322.25626
654.357	12200.57617
654.556	12527.0284
654.755	12474.32124
654.954	12218.82984
655.153	12508.7841
655.352	12514.86559
655.551	12344.56152
655.749	12247.22326
655.948	12160.01034
656.147	12620.26906
656.346	12377.00404
656.545	12385.11439
656.743	12204.6326
656.942	12289.81075
657.141	12587.83902
657.34	12571.6234
657.538	12798.607
657.737	12695.25758
657.936	12816.8436
658.135	12474.32124
658.333	12644.59056
658.532	12561.48844
658.731	12808.7385
658.929	12403.3623
659.128	12194.49149
659.326	12342.5338
659.525	12701.33738
659.724	12186.37847
659.922	12153.92521
660.121	12520.94703
660.319	12518.91989
660.518	12423.63711
660.716	12304.00588
660.915	12660.80441
661.113	12786.44902
661.312	12429.71943
661.51	12652.69753
661.709	12437.82908
661.907	12539.19098
662.105	12253.30738
662.304	12770.23805
662.502	12389.16953
662.701	12589.86594
662.899	12760.10602
663.097	12468.23936
663.296	12541.21805
663.494	12658.7777
663.692	12222.88613
663.891	12697.28419
664.089	12230.99862
664.287	12539.19098
664.485	12352.67231
664.684	13045.77745
664.882	12662.83112
665.08	12484.45757
665.278	12336.45061
665.476	12681.07119
665.675	12297.9223
665.873	12563.51545
666.071	12125.52704
666.269	12474.32124
666.467	12449.99337
666.665	12606.08111
666.863	12267.50341
667.061	12419.5822
667.259	12498.64816
667.457	12604.05423
667.655	12606.08111
667.853	12654.72426
668.051	12660.80441
668.249	12486.48481
668.447	12443.91126
668.645	12614.18854
668.843	12695.25758
669.041	12713.49681
669.239	12480.40305
669.437	12790.5017
669.635	12421.60966
669.833	12425.66456
670.031	12531.08262
670.229	12575.67734
670.426	12417.55474
670.624	12679.04454
670.822	12441.88387
671.02	12650.6708
671.218	12287.78284
671.415	12397.27973
671.613	12101.18457
671.811	12137.69787
672.009	12279.67115
672.206	12656.75099
672.404	12192.46324
672.602	12360.783
672.799	12176.23703
672.997	12595.94667
673.195	12346.58923
673.392	12508.7841
673.59	12164.06706
673.788	12206.6608
673.985	12275.61527
674.183	12535.13681
674.38	12206.6608
674.578	12362.81065
674.775	12214.77352
674.973	12478.37579
675.17	12076.84101
675.368	12541.21805
675.565	12474.32124
675.763	12340.50608
675.96	12176.23703
676.158	12259.39143
676.355	12202.60439
676.553	12492.56652
676.75	11975.39741
676.947	12251.27935
677.145	11719.66888
677.342	12249.25131
677.539	12249.25131
677.737	12306.03373
677.934	12099.15599
678.131	12320.22847
678.329	12295.89442
678.526	12336.45061
678.723	12243.16714
678.92	12626.34951
679.118	12003.8036
679.315	12186.37847
679.512	11778.53896
679.709	11997.71669
679.906	12036.26592
680.104	12170.15208
680.301	12095.09879
680.498	12080.89834
680.695	12166.09541
680.892	12224.91426
681.089	12078.86968
681.286	12030.17939
681.483	11780.56883
681.68	12117.41301
681.877	12066.69753
682.075	12113.35594
682.272	11587.69153
682.469	12020.03502
682.665	11886.11049
682.862	11936.84363
683.059	12080.89834
683.256	12153.92521
683.453	11819.13479
683.65	11995.68771
683.847	11711.54829
684.044	11719.66888
684.241	11620.18181
684.438	11835.37216
684.635	11540.98261
684.831	11833.34252
685.028	11703.42755
685.225	12117.41301
685.422	11916.55099
685.619	11821.16449
685.815	11739.96973
686.012	11961.19372
686.209	11685.15539
686.405	11744.0298
686.602	11648.60889
686.799	11321.58618
686.996	11612.05946
687.192	11727.78932
687.389	12074.81233
687.586	11827.25354
687.782	11693.27644
687.979	12040.32357
688.175	11760.26972
688.372	11938.87285
688.568	11768.38947
688.765	11681.09481
688.962	11670.94321
689.158	11955.10631
689.355	11687.18567
689.551	11632.36506
689.748	11565.3531
689.944	11465.83174
690.14	11646.57844
690.337	11565.3531
690.533	11522.70386
690.73	11465.83174
690.926	11524.73487
691.123	11165.0934
691.319	11276.88018
691.515	11360.19198
691.712	11282.97674
691.908	11547.07536
692.104	11439.42427
692.301	11480.05047
692.497	11297.2017
692.693	11473.95679
692.889	11524.73487
693.086	11735.90963
693.282	11321.58618
693.478	11719.66888
693.674	11415.0467
693.87	11741.99977
694.067	11543.01354
694.263	11502.39325
694.459	11120.3698
694.655	11756.20979
694.851	11402.85738
695.047	11228.10436
695.243	11632.36506
695.439	11463.80045
695.635	11301.26588
695.831	11565.3531
696.027	11325.65012
696.224	11307.36208
696.42	11317.5222
696.615	11536.92073
696.811	11348.00107
697.007	11224.03944
697.203	11142.73224
697.399	11289.07321
697.595	11226.0719
697.791	11073.60775
697.987	10965.82971
698.183	11295.16959
698.379	11193.55121
698.575	11331.74595
698.77	10910.91187
698.966	10935.32082
699.162	11043.10767
699.358	11049.20789
699.554	10827.50217
699.749	11028.87346
699.945	10973.96499
700.141	11075.641
700.337	10892.60408
700.532	11370.35081
700.728	11134.60059
700.924	11614.09006
701.119	11337.8417
701.315	11238.26648
701.511	10886.50128
701.706	11262.65451
701.902	10833.60598
702.097	11047.17449
702.293	11185.42062
702.489	11047.17449
702.684	10910.91187
702.88	10782.73769
703.075	10701.33302
703.271	10971.93119
703.466	11110.20462
703.662	11006.50432
703.857	10766.45828
704.053	10874.29536
704.248	10986.16757
704.443	11132.56766
704.639	10760.35331
704.834	11028.87346
705.03	10937.35482
705.225	11158.99503
705.42	10845.81328
705.616	10978.03256
705.811	11034.9739
706.006	11228.10436
706.202	10770.5282
706.397	11120.3698
706.592	10843.77876
706.787	10874.29536
706.983	10768.49325
707.178	10973.96499
707.373	10845.81328
707.568	11069.54122
707.763	10715.58022
707.959	10988.2013
708.154	10595.478
708.349	10607.69374
708.544	10503.8456
708.739	10674.87237
708.934	10634.15964
709.129	10825.46754
709.324	10821.39826
709.519	10790.87711
709.714	10487.55272
709.909	10744.07286
710.104	10491.62602
710.299	10351.06737
710.494	10560.86431
710.689	10813.25954
710.884	10717.61549
711.079	10992.26871
711.274	10344.95471
711.469	10556.79187
711.664	10106.46626
711.859	10811.22483
712.054	10393.85265
712.249	10648.40965
712.443	10328.65371
712.638	10683.01433
712.833	10300.1249
713.028	10406.07596
713.223	10263.44114
713.417	10326.61602
713.612	10446.81692
713.807	10501.80904
714.002	10287.89746
714.196	10668.76577
714.391	10495.69926
714.586	10487.55272
714.78	10509.95522
714.975	10542.53795
715.17	10387.74083
715.364	10399.96436
715.559	10416.26169
715.754	10371.44204
715.948	10477.36925
716.143	10444.78
716.337	10391.81539
716.532	10713.54495
716.726	10393.85265
716.921	10495.69926
717.115	10296.04914
717.31	10554.75563
717.504	10157.4411
717.699	10355.14241
717.893	10363.29233
718.088	10503.8456
718.282	10328.65371
718.476	10381.62888
718.671	10210.44574
718.865	10363.29233
719.059	10271.59346
719.254	10328.65371
719.448	9906.55935
719.642	10039.16602
719.837	9775.93219
720.031	10071.79836
720.225	9679.96358
720.419	10028.96767
720.614	9880.03063
720.808	10145.20793
721.002	9716.7215
721.196	10039.16602
721.39	9977.97054
721.585	10100.34869
721.779	10004.49017
721.973	10306.23843
722.167	9757.55783
722.361	9757.55783
722.555	9677.92132
722.749	9775.93219
722.943	9777.97372
723.137	10112.5837
723.331	9749.39105
723.525	9888.19358
723.719	9822.88336
723.913	9920.84302
724.107	9639.11558
724.301	9924.92394
724.495	9592.13269
724.689	9749.39105
724.883	9679.96358
725.077	9839.21234
725.271	9745.30757
725.465	9602.34707
725.659	9612.56105
725.853	9857.58131
726.046	9892.27497
726.24	9667.70983
726.434	9430.69296
726.628	9745.30757
726.822	9610.51828
727.015	9604.38989
727.209	9751.43277
727.403	9826.9657
727.596	9702.42734
727.79	9702.42734
727.984	9669.75216
728.177	9747.34932
728.371	9447.04584
728.565	9722.84734
728.758	9594.1756
728.952	9961.64955
729.146	9890.23428
729.339	10063.64062
729.533	9722.84734
729.726	9761.64113
729.92	9847.37648
730.113	10002.45028
730.307	9810.636
730.5	9737.14043
730.694	9675.87905
730.887	9798.38809
731.081	9667.70983
731.274	9757.55783
731.468	9424.56036
731.661	9973.89038
731.854	9614.6038
732.048	9906.55935
732.241	9963.68972
732.435	9955.52894
732.628	9857.58131
732.821	9998.37047
733.014	9704.46941
733.208	9675.87905
733.401	9708.5535
733.594	9733.05676
733.788	9849.41747
733.981	9849.41747
734.174	9508.35994
734.367	9592.13269
734.56	9467.48548
734.754	9735.0986
734.947	9520.62104
735.14	9583.96091
735.333	9594.1756
735.526	9586.00388
735.719	9577.83191
735.912	9389.80622
736.105	9426.60458
736.298	9359.13688
736.491	9344.82326
736.684	9571.70276
736.877	9612.56105
737.07	9536.96827
737.263	9377.53893
737.456	9520.62104
737.649	9479.74849
737.842	9614.6038
738.035	9310.05823
738.228	9377.53893
738.421	9616.64653
738.614	9481.79227
738.807	9737.14043
739	9408.20606
739.192	9285.51533
739.385	9479.74849
739.578	9373.4497
739.771	9412.29473
739.964	9369.3604
740.156	9428.64878
740.349	9035.85769
740.542	9391.85071
740.735	9541.05491
740.927	9361.18162
741.12	9340.7335
741.313	9097.27254
741.505	9269.15207
741.698	9203.68827
741.891	9062.47271
742.083	9283.46998
742.276	9250.74211
742.468	9393.89519
742.661	8935.51294
742.854	9283.46998
743.046	9041.99988
743.239	9308.01308
743.431	9185.27346
743.624	8939.60947
743.816	9105.46001
744.009	8999.00126
744.201	9005.14439
744.393	9146.39324
744.586	8972.37919
744.778	8777.74197
744.971	9078.84973
745.163	9209.82623
745.355	8931.41634
745.548	8896.59233
745.74	9011.28737
745.932	9177.08866
746.125	8876.10521
746.317	9162.76461
746.509	8923.22292
746.702	8976.47509
746.894	8919.1261
747.086	8837.17473
747.278	9058.37829
747.471	8927.31966
747.663	8806.43555
747.855	8876.10521
748.047	8974.42715
748.239	9111.60043
748.431	9144.34674
748.623	8843.32208
748.815	8982.6188
749.008	9013.33499
749.2	9125.92748
749.392	9228.23921
749.584	9011.28737
749.776	9066.56707
749.968	9005.14439
750.16	9017.43019
750.352	8861.76316
750.544	8769.54315
750.736	8869.95872
750.928	8915.02921
751.12	8720.34408
751.311	8644.47473
751.503	8761.34403
751.695	8841.27299
751.887	8705.99235
752.079	8999.00126
752.271	8431.08294
752.463	8824.87955
752.654	9037.90511
752.846	8933.46465
753.038	8664.98246
753.23	9037.90511
753.421	8652.67804
753.613	8732.64483
753.805	8603.45368
753.997	8677.2862
754.188	8742.89496
754.38	8660.88106
754.572	8718.29388
754.763	8779.79163
754.955	8584.99177
755.146	8738.79496
755.338	8513.18095
755.53	8591.14591
755.721	8632.1692
755.913	8712.1432
756.104	8541.90805
756.296	8660.88106
756.487	8418.7656
756.679	8519.33707
756.87	8324.30952
757.062	8155.82855
757.253	8289.39142
757.445	8324.30952
757.636	8238.03097
757.827	8546.01162
758.019	8381.80941
758.21	8470.08331
758.401	8143.49544
758.593	8474.18821
758.784	8151.7176
758.975	8548.06338
759.167	8289.39142
759.358	8351.00779
759.549	8038.63483
759.74	8194.87866
759.932	8229.81216
760.123	8161.99484
760.314	7968.6985
760.505	8011.89725
760.696	7974.8703
760.888	7917.25967
761.079	7929.60616
761.27	8168.16094
761.461	8131.16161
761.652	8316.09401
761.843	8270.90308
762.034	8118.82706
762.225	7919.31747
762.416	7983.09908
762.607	7657.81061
762.798	8022.18134
762.989	7882.27392
763.18	8026.29483
763.371	7968.6985
763.562	8079.76288
763.753	7995.44164
763.944	8178.43739
764.135	7690.77497
764.326	8036.57821
764.517	7880.21575
764.708	7855.51609
764.899	7554.76192
765.089	7731.97282
765.28	7799.93092
765.471	7740.21139
765.662	7639.26577
765.853	7818.46099
766.043	7674.29347
766.234	7608.35389
766.425	7651.62919
766.615	7859.6329
766.806	7616.59752
766.997	7688.71486
767.187	7560.94634
767.378	7853.45765
767.569	7542.39249
767.759	7748.44961
767.95	7678.41397
768.141	7736.09215
768.331	7577.43721
768.522	7614.53665
768.712	7515.5894
768.903	7503.21752
769.093	7414.52964
769.284	7497.03129
769.474	7497.03129
769.665	7486.72048
769.855	7115.16781
770.046	7344.37591
770.236	7082.10627
770.426	7164.74942
770.617	7096.57139
770.807	7389.77237
770.998	7051.10587
771.188	7129.63044
771.378	7187.47005
771.569	7480.53373
771.759	7055.23955
771.949	7431.03274
772.139	7311.35365
772.33	7015.96599
772.52	6989.08993
772.71	7261.80974
772.9	7001.49474
773.09	7280.39019
773.281	7420.71846
773.471	7113.10163
773.661	6984.95482
773.851	7315.48174
774.041	6941.53066
774.231	6956.00648
774.421	6891.89084
774.611	7071.77336
774.802	7059.37313
774.992	6927.05372
775.182	7028.36904
775.372	6941.53066
775.562	7051.10587
775.752	7051.10587
775.942	6891.89084
776.131	7224.64348
776.321	6829.8227
776.511	6943.5987
776.701	6815.33719
776.891	7094.50501
777.081	6792.57198
777.271	6718.04834
777.461	6838.09963
777.651	6788.43255
777.84	6637.28086
778.03	6751.17362
778.22	6599.99175
778.41	6566.8396
778.599	6488.0795
778.789	6956.00648
778.979	6889.82223
779.169	6852.58339
779.358	6815.33719
779.548	6947.73472
779.738	6583.41641
779.927	6858.79038
780.117	6798.78095
780.307	6616.56561
780.496	6701.4835
780.686	6626.92352
780.875	6351.20594
781.065	6616.56561
781.254	6342.90731
781.444	6742.89285
781.633	6707.69549
781.823	6662.13611
782.012	6597.91991
782.202	6744.96307
782.391	6525.39109
782.581	6624.85198
782.77	6583.41641
782.96	6593.77617
783.149	6156.08917
783.338	6268.20281
783.528	6394.76762
783.717	6388.54515
783.906	6193.46799
784.096	6313.85916
784.285	6270.27835
784.474	6365.72764
784.663	6191.39158
784.853	6181.00923
785.042	6162.3195
785.231	6168.54962
785.42	6029.3599
785.61	6218.38297
785.799	5967.0019
785.988	6081.30871
786.177	6066.76453
786.366	6185.16224
786.555	6149.85863
786.744	6089.61916
786.933	6085.46398
787.122	6301.40855
787.312	5971.15976
787.501	5906.70234
787.69	6000.26214
787.879	6097.92923
788.068	5831.8201
788.257	6203.84964
788.445	6014.8116
788.634	6241.21874
788.823	5989.86896
789.012	6004.41925
789.201	5867.18497
789.39	5998.18355
789.579	5679.88168
789.768	5946.21119
789.957	5665.30564
790.145	6029.3599
790.334	5819.33676
790.523	5875.50512
790.712	5777.71947
790.9	5794.36752
791.089	5850.54353
791.278	5756.90729
791.467	5529.90145
791.655	5652.81096
791.844	5767.31367
792.033	5910.86156
792.221	5746.50031
792.41	5813.09477
792.599	5383.97029
792.787	5694.45657
792.976	5531.98535
793.164	5340.1685
793.353	5609.07292
793.541	5561.15741
793.73	5408.99525
793.918	5527.81753
794.107	5406.90996
794.295	5152.32963
794.484	5354.77025
794.672	5465.28901
794.861	5229.57518
795.049	5511.14533
795.238	5367.28512
795.426	5606.98989
795.614	5534.06922
795.803	5494.47163
795.991	5484.04979
796.179	5212.87614
796.368	5302.61587
796.556	5436.10179
796.744	5346.42653
796.932	5390.22685
797.121	5235.83693
797.309	5534.06922
797.497	5352.68435
797.685	5365.19936
797.874	5381.88473
798.062	5346.42653
798.25	4958.03159
798.438	5054.16102
798.626	5177.38574
798.814	5273.40303
799.002	5075.05225
799.19	5358.94196
799.378	5022.81983
799.566	5054.16102
799.755	5052.07176
799.943	5436.10179
800.131	5367.28512
800.318	5319.30687
800.506	5156.50588
800.694	5127.27018
800.882	5031.17799
801.07	5131.44699
801.258	5085.49699
801.446	5089.67473
801.634	5045.80387
801.822	5022.81983
802.01	5026.99896
802.197	5338.08244
802.385	4960.12188
802.573	5208.70115
802.761	4893.22124
802.949	5156.50588
803.136	4976.84336
803.324	5246.27272
803.512	5162.77009
803.699	5267.14254
803.887	5045.80387
804.075	5110.56202
804.262	4792.82636
804.45	5146.06509
804.638	4937.12744
804.825	5127.27018
805.013	4884.85701
805.201	5123.09328
805.388	4811.6544
805.576	5095.94116
805.763	5091.76356
805.951	5116.82775
806.138	5187.82479
806.326	5423.59157
806.513	5152.32963
806.701	5062.51779
806.888	4939.21796
807.075	5146.06509
807.263	4901.58511
807.45	5265.05566
807.638	4955.94128
807.825	5302.61587
808.012	4985.20355
808.2	5158.59397
808.387	5098.02992
808.574	5237.92413
808.761	4935.0369
808.949	5127.27018
809.136	4997.74314
809.323	5319.30687
809.51	4916.22099
809.698	4985.20355
809.885	4978.93344
810.072	4734.23847
810.259	4866.03616
810.446	5037.44636
810.633	4968.4828
810.82	5260.88184
811.008	5192.00025
811.195	5152.32963
811.382	5143.97686
811.569	5062.51779
811.756	4914.13022
811.943	5202.43849
812.13	4939.21796
812.317	5031.17799
812.504	5035.35693
812.691	5196.17562
812.878	5079.23021
813.064	4999.83299
813.251	4826.29716
813.438	5135.6237
813.625	4958.03159
813.812	5179.4736
813.999	5112.65062
814.186	5131.44699
814.372	4987.29354
814.559	5202.43849
814.746	4870.21873
814.933	5123.09328
815.12	5112.65062
815.306	5079.23021
815.493	4836.75559
815.68	4997.74314
815.866	5008.19216
816.053	5045.80387
816.24	4935.0369
816.426	5047.89319
816.613	4859.76212
816.799	5135.6237
816.986	5018.64061
817.173	5106.38475
817.359	4801.1946
817.546	5006.10241
817.732	4734.23847
817.919	5198.26326
818.105	4924.58384
818.292	4976.84336
818.478	5054.16102
818.665	5169.03408
818.851	4901.58511
819.037	5160.68204
819.224	4847.21345
819.41	5156.50588
819.597	4872.30998
819.783	4838.8472
819.969	4709.12395
820.156	5031.17799
820.342	4817.93
820.528	4945.48937
820.714	4759.34974
820.901	4989.3835
821.087	4924.58384
821.273	5110.56202
821.459	4828.38889
821.646	4960.12188
821.832	4828.38889
822.018	5202.43849
822.204	4478.75714
822.39	5052.07176
822.576	4786.54994
822.762	5060.42863
822.948	4857.67074
823.134	4861.85349
823.32	4828.38889
823.507	4895.31224
823.693	4822.11363
823.879	4717.49582
824.065	4792.82636
824.25	4824.2054
824.436	4549.99019
824.622	4742.60926
824.808	4549.99019
824.994	4621.19759
825.18	4415.88331
825.366	4581.40839
825.552	4451.51424
825.738	4700.75172
825.923	4508.09149
826.109	4700.75172
826.295	4315.24435
826.481	4761.4422
826.667	4315.24435
826.852	4579.314
827.038	4457.80139
827.224	4554.17957
827.409	4348.79622
827.595	4585.59711
827.781	4239.7325
827.966	4526.947
828.152	4227.1445
828.338	4426.36365
828.523	4428.45965
828.709	4518.567
828.894	4426.36365
829.08	4493.42486
829.266	4321.53574
829.451	4702.84481
829.637	4166.29171
829.822	4258.61306
830.008	4256.51531
830.193	4413.78717
830.378	4290.07682
830.564	4499.71069
830.749	4130.61113
830.935	4338.31185
831.12	4290.07682
831.305	4319.43863
831.491	4134.80916
831.676	4243.92833
831.861	4130.61113
832.047	4298.46634
832.232	4344.60254
832.417	4225.04642
832.602	4052.93253
832.788	4342.50566
832.973	4111.71896
833.158	4225.04642
833.343	4071.82994
833.528	4197.76951
833.714	3878.57817
833.899	4105.4212
834.084	3987.82864
834.269	4044.53314
834.454	3779.78602
834.639	4092.8251
834.824	4139.00711
835.009	4155.79805
835.194	3987.82864
835.379	4130.61113
835.564	4021.43312
835.749	4191.47433
835.934	4046.63302
836.119	3956.3197
836.304	3783.99083
836.489	3670.43375
836.674	3628.36138
836.859	3912.19951
837.044	3733.52797
837.228	3765.06857
837.413	3638.88019
837.598	3790.29789
837.783	3516.83337
837.968	3815.52439
838.152	3678.84731
838.337	3897.49081
838.522	3886.98399
838.707	3933.21024
838.891	3619.946
839.076	3754.55552
839.261	3727.21933
839.445	3832.34048
839.63	3651.50212
839.815	3672.53717
839.999	3499.99444
840.184	3744.04199
840.368	3601.0103
840.553	3897.49081
840.737	3765.06857
840.922	3876.47667
841.106	3584.17729
841.291	3502.09937
841.475	3626.25757
841.66	3857.56223
841.844	3516.83337
842.029	3783.99083
842.213	3464.20788
842.397	3752.45286
842.582	3512.62374
842.766	3481.04927
842.951	3470.52353
843.135	3750.35017
843.319	3449.47071
843.504	3405.25397
843.688	3329.43575
843.872	3512.62374
844.056	3403.14822
844.241	3550.50769
844.425	3432.62717
844.609	3556.8211
844.793	3409.46543
844.977	3396.83085
845.161	3243.06001
845.346	3131.36199
845.53	3021.72767
845.714	3240.95293
845.898	2979.54948
846.082	3131.36199
846.266	3133.46992
846.45	3219.88121
846.634	3089.19997
846.818	3139.79363
847.002	3021.72767
847.186	3365.24162
847.37	3059.6828
847.554	3179.84037
847.738	3068.11659
847.922	3230.41728
848.106	3192.48549
848.29	3019.6189
848.473	3091.30822
848.657	3162.9793
848.841	3192.48549
849.025	3365.24162
849.209	3108.17367
849.392	2985.8766
849.576	3028.05387
849.76	3173.51759
849.944	2751.68645
850.127	3173.51759
850.311	2855.08926
850.495	2960.56733
850.678	2808.6676
850.862	3004.85712
851.046	2806.55736
851.229	2895.17519
851.413	2741.13331
851.596	2905.72326
851.78	2745.35461
851.964	2880.40729
852.147	2513.10799
852.331	2787.56462
852.514	2572.23934
852.698	2876.18776
852.881	2489.87535
853.065	2909.94239
853.248	2745.35461
853.431	3006.96599
853.615	2690.47365
853.798	2728.4691
853.982	2538.45111
854.165	2715.80442
854.348	2546.89845
854.532	2817.1084
854.715	2625.02731
854.898	2842.42948
855.081	2557.45736
855.265	2859.30907
855.448	2563.79256
855.631	2751.68645
855.814	2523.66783
855.997	2532.11549
856.181	2399.04407
856.364	2580.68592
856.547	2521.55588
856.73	2684.14066
856.913	2500.43581
857.096	2445.51838
857.279	2418.05691
857.462	2428.61923
857.645	2513.10799
857.828	2415.94441
858.011	2257.47854
858.194	2475.09023
858.377	2369.46688
858.56	2639.80657
858.743	2356.79032
858.926	2530.00359
859.109	2487.76322
859.292	2601.80153
859.475	2240.57235
859.658	2394.81888
859.841	2373.69231
860.023	2390.59365
860.206	2213.09859
860.389	2568.01597
860.572	2208.87172
860.755	2453.9677
860.937	2407.49433
861.12	2251.13879
861.303	2312.41958
861.486	2325.09738
861.668	2075.70877
861.851	2202.53136
862.034	2003.83073
862.216	2077.8227
862.399	1948.86004
862.581	2001.71655
862.764	1906.57216
862.947	1993.25977
863.129	2058.79701
863.312	2096.84781
863.494	1938.28829
863.677	1976.34591
863.859	1868.51119
864.042	2191.96393
864.224	1796.61392
864.406	1953.0887
864.589	1847.3655
864.771	1972.11738
864.954	1946.7457
865.136	2003.83073
865.318	1828.33396
865.501	1999.60236
865.683	2005.9449
865.865	2164.48761
866.048	1919.25876
866.23	2052.45498
866.412	1745.85991
866.594	1986.91712
866.777	1845.2509
866.959	1972.11738
867.141	1769.12244
867.323	1819.87538
867.505	1781.8109
867.687	1950.97438
867.869	1805.07269
868.052	2065.13897
868.234	1898.11431
868.416	2082.05056
868.598	1802.958
868.78	1828.33396
868.962	1781.8109
869.144	1891.77087
869.326	1807.18737
869.508	1771.2372
869.69	1673.9549
869.872	1866.39664
870.054	1633.77123
870.236	1836.79247
870.417	1659.1505
870.599	1714.13757
870.781	1612.62159
870.963	1864.28209
871.145	1646.46091
871.327	1762.77816
871.508	1625.3114
871.69	1722.59694
871.872	1684.52939
872.054	1760.66339
872.235	1627.42636
872.417	1764.89292
872.599	1538.59641
872.78	1644.34597
872.962	1587.24175
873.144	1777.58143
873.325	1686.64428
873.507	1682.4145
873.689	1559.74665
873.87	1965.77454
874.052	1680.29961
874.233	1676.06981
874.415	1756.43384
874.596	1752.20428
874.778	1621.08147
874.959	1638.00113
875.141	1547.05652
875.322	1714.13757
875.503	1608.39164
875.685	1781.8109
875.866	1625.3114
876.048	1663.38034
876.229	1479.37525
876.41	1585.12675
876.592	1479.37525
876.773	1771.2372
876.954	1553.40159
877.136	1671.84
877.317	1625.3114
877.498	1644.34597
877.679	1532.25132
877.86	1610.50661
878.042	1608.39164
878.223	1967.88883
878.404	1549.17155
878.585	1769.12244
878.766	1648.57585
878.947	1731.05625
879.128	1593.58674
879.309	1811.41673
879.49	1466.68494
879.672	1764.89292
879.853	1627.42636
880.034	1726.8266
880.215	1671.84
880.396	1934.05954
880.576	1466.68494
880.757	1819.87538
880.938	1528.02125
881.119	1726.8266
881.3	1648.57585
881.481	1716.25242
881.662	1667.61017
881.843	1735.28588
882.023	1570.32172
882.204	1731.05625
882.385	1551.28657
882.566	1663.38034
882.747	1508.9859
882.927	1709.90787
883.108	1618.9665
883.289	1786.04035
883.469	1489.95049
883.65	1692.98893
883.831	1415.92371
884.011	1627.42636
884.192	1618.9665
884.373	1684.52939
884.553	1618.9665
884.734	1722.59694
884.914	1506.87086
885.095	1843.1363
885.275	1451.87957
885.456	1496.29563
885.636	1407.46352
885.817	1735.28588
885.997	1409.57856
886.178	1616.85154
886.358	1599.9317
886.538	1654.92065
886.719	1534.36635
886.899	1754.31906
887.08	1494.18059
887.26	1798.72862
887.44	1589.35675
887.621	1561.86167
887.801	1496.29563
887.981	1663.38034
888.161	1449.76452
888.342	1771.2372
888.522	1627.42636
888.702	1832.56322
888.882	1530.13629
889.062	1583.01175
889.242	1515.33103
889.423	1627.42636
889.603	1612.62159
889.783	1764.89292
889.963	1447.64947
890.143	1591.47174
890.323	1580.89675
890.503	1525.90622
890.683	1517.44607
890.863	1614.73656
891.043	1473.03009
891.223	1707.79301
891.403	1477.2602
891.583	1709.90787
891.763	1519.56111
891.943	1767.00769
892.122	1542.82647
892.302	1566.0917
892.482	1411.69361
892.662	1479.37525
892.842	1534.36635
893.022	1618.9665
893.201	1322.86244
893.381	1371.50784
893.561	1255.18349
893.741	1500.52573
893.92	1462.45484
894.1	1517.44607
894.28	1479.37525
894.459	1673.9549
894.639	1563.97668
894.819	1585.12675
894.998	1331.32246
895.178	1648.57585
895.357	1377.85294
895.537	1447.64947
895.716	1354.58762
895.896	1477.2602
896.075	1346.12754
896.255	1375.73791
896.434	1316.51745
896.614	1394.77325
896.793	1255.18349
896.973	1316.51745
897.152	1303.82752
897.331	1422.26885
897.511	1244.60887
897.69	1322.86244
897.87	1261.52829
898.049	1248.83871
898.228	1185.39243
898.407	1299.59756
898.587	1086.00015
898.766	1170.58874
898.945	1189.62209
899.124	1367.27778
899.304	1107.14661
899.483	1369.39281
899.662	1007.76292
899.841	1181.16278
900.02	1041.59428
900.199	1269.98806
900.378	1096.57332
900.557	1231.91943
900.737	1128.29355
900.916	1217.11521
901.095	1026.79287
901.274	1189.62209
901.453	1092.34404
901.632	1170.58874
901.811	1050.05236
901.989	1282.67779
902.168	1132.52299
902.347	1094.45868
902.526	969.70455
902.705	1105.03195
902.884	925.30594
903.063	1073.31252
903.242	910.50712
903.42	957.01892
903.599	933.76257
903.778	1018.33505
903.957	756.20138
904.135	967.59026
904.314	957.01892
904.493	995.07656
904.672	899.93677
904.85	931.6484
905.029	927.42009
905.207	999.30532
905.386	895.70869
905.565	872.4548
905.743	711.82155
905.922	868.22692
906.1	857.65739
906.279	751.97453
906.457	711.82155
906.636	781.56332
906.814	766.76868
906.993	821.7226
907.171	747.74772
907.35	781.56332
907.528	686.4638
907.707	675.89855
907.885	589.27478
908.063	787.90403
908.242	642.09171
908.42	713.93477
908.598	631.5277
908.777	825.95009
908.955	673.78553
909.133	671.67253
909.311	610.4006
909.49	639.97888
909.668	504.78487
909.846	639.97888
910.024	648.43026
910.202	656.88183
910.38	644.20454
910.559	688.57688
910.737	568.15026
910.915	703.36879
911.093	703.36879
911.271	576.59991
911.449	542.8026
911.627	650.54313
911.805	460.4368
911.983	756.20138
912.161	587.16227
912.339	652.65602
912.517	606.17534
912.695	758.31482
912.872	601.95012
913.05	682.23766
913.228	620.96399
913.406	694.9162
913.584	652.65602
913.762	635.75326
913.939	623.07671
914.117	686.4638
914.295	642.09171
914.473	627.30218
914.65	551.2516
914.828	585.04977
915.006	593.49984
915.184	637.86606
915.361	568.15026
915.539	601.95012
915.716	521.68107
915.894	568.15026
916.072	544.91483
916.249	604.06272
916.427	551.2516
916.604	585.04977
916.782	519.56899
916.959	654.76892
917.137	604.06272
917.314	635.75326
917.492	490.00145
917.669	504.78487
917.847	530.12951
918.024	606.17534
918.201	589.27478
918.379	530.12951
918.556	502.6729
918.733	593.49984
918.911	447.76714
919.088	635.75326
919.265	479.44231
919.442	671.67253
919.62	490.00145
919.797	650.54313
919.974	561.81316
920.151	538.57818
920.328	580.82481
920.506	559.70082
920.683	561.81316
920.86	559.70082
921.037	466.77183
921.214	534.35382
921.391	511.12083
921.568	445.65559
921.745	432.98659
921.922	559.70082
922.099	409.76156
922.276	494.22521
922.453	447.76714
922.63	397.09419
922.807	460.4368
922.984	437.20952
923.161	407.65029
923.338	454.1019
923.514	369.65026
923.691	563.92551
923.868	344.31995
924.045	470.99526
924.222	418.2068
924.399	437.20952
924.575	373.87222
924.752	420.31815
924.929	369.65026
925.105	367.53931
925.282	411.87285
925.459	422.42952
925.635	356.9848
925.812	365.42837
925.989	367.53931
926.165	365.42837
926.342	207.15936
926.518	264.12413
926.695	369.65026
926.871	382.31634
927.048	308.43963
927.224	337.98775
927.401	278.89506
927.577	302.10835
927.754	270.45441
927.93	359.09566
928.107	274.6747
928.283	276.78487
928.459	243.02442
928.636	306.32919
928.812	198.72135
928.988	316.8816
929.165	297.88759
929.341	219.81696
929.517	340.09847
929.693	333.76638
929.87	154.42718
930.046	207.15936
930.222	281.00526
930.398	257.79401
930.574	281.00526
930.751	230.36551
930.927	234.58507
931.103	179.73703
931.279	293.6669
931.455	226.14603
931.631	196.6119
931.807	171.30008
931.983	179.73703
932.159	207.15936
932.335	183.95562
932.511	150.20917
932.687	154.42718
932.863	230.36551
933.039	207.15936
933.215	232.47528
933.391	194.50247
933.566	205.04983
933.742	240.91455
933.918	162.86346
934.094	129.12037
934.27	158.64528
934.445	61.65088
934.621	112.25088
934.797	129.12037
934.973	133.33796
935.148	224.03632
935.324	154.42718
935.5	145.99124
935.675	139.6645
935.851	95.38278
936.027	124.90287
936.202	127.01161
936.378	36.35578
936.553	108.03372
936.729	99.59967
936.904	44.78711
937.08	148.10019
937.255	95.38278
937.431	89.05761
937.606	97.49122
937.782	61.65088
937.957	108.03372
938.133	141.77339
938.308	44.78711
938.483	11.06405
938.659	116.46812
938.834	11.06405
939.009	74.29967
939.185	97.49122
939.36	49.00291
939.535	38.46358
939.71	53.21881
939.886	-10.00976
940.061	-1.58052
940.236	65.86705
940.411	70.08331
940.586	114.35949
940.761	108.03372
940.937	17.38667
941.112	-3.68787
941.287	91.16598
941.462	8.95656
941.637	61.65088
941.812	86.94927
941.987	46.895
942.162	-14.22423
942.337	13.17157
942.512	40.5714
942.687	162.86346
942.862	0.52684
943.037	36.35578
943.212	6.8491
943.386	-14.22423
943.561	63.75895
943.736	112.25088
943.911	63.75895
944.086	46.895
944.26	49.00291
944.435	27.92483
944.61	95.38278
944.785	-12.11701
944.959	105.92518
945.134	63.75895
945.309	84.84094
945.483	34.24801
945.658	70.08331
945.833	57.4348
946.007	93.27437
946.182	129.12037
946.357	40.5714
946.531	78.51611
946.706	95.38278
946.88	36.35578
947.055	42.67924
947.229	65.86705
947.404	82.73264
947.578	32.14026
947.752	70.08331
947.927	-5.79519
948.101	-10.00976
948.276	32.14026
948.45	42.67924
948.624	61.65088
948.799	30.03253
948.973	95.38278
949.147	78.51611
949.321	105.92518
949.496	171.30008
949.67	67.97517
949.844	82.73264
950.018	70.08331
950.193	17.38667
950.367	6.8491
950.541	53.21881
950.715	70.08331
950.889	59.54283
951.063	15.2791
951.237	53.21881
951.411	-22.65289
951.585	110.14229
951.759	122.79415
951.933	103.81665
952.107	38.46358
952.281	99.59967
952.455	-18.43861
952.629	36.35578
952.803	53.21881
952.977	112.25088
953.151	110.14229
953.325	95.38278
953.499	0.52684
953.672	-14.22423
953.846	30.03253
954.02	-14.22423
954.194	-37.40208
954.368	72.19148
954.541	-41.61591
954.715	116.46812
954.889	-18.43861
955.062	0.52684
955.236	70.08331
955.41	15.2791
955.583	120.68545
955.757	129.12037
955.93	61.65088
956.104	70.08331
956.278	49.00291
956.451	86.94927
956.625	103.81665
956.798	25.81715
956.972	11.06405
957.145	53.21881
957.319	-12.11701
957.492	-31.08114
957.665	44.78711
957.839	49.00291
958.012	105.92518
958.185	74.29967
958.359	78.51611
958.532	23.70949
958.705	15.2791
958.879	105.92518
959.052	112.25088
959.225	59.54283
959.398	0.52684
959.572	122.79415
959.745	27.92483
959.918	93.27437
960.091	27.92483
960.264	61.65088
960.438	63.75895
960.611	91.16598
960.784	15.2791
960.957	135.44678
961.13	-39.50901
961.303	86.94927
961.476	27.92483
961.649	21.60186
961.822	76.40788
961.995	27.92483
962.168	6.8491
962.341	61.65088
962.514	53.21881
962.686	-22.65289
962.859	-10.00976
963.032	36.35578
963.205	61.65088
963.378	42.67924
963.551	49.00291
963.723	53.21881
963.896	57.4348
964.069	70.08331
964.242	30.03253
964.414	55.32679
964.587	2.63424
964.76	82.73264
964.932	32.14026
965.105	53.21881
965.278	99.59967
965.45	46.895
965.623	63.75895
965.795	63.75895
965.968	49.00291
966.14	53.21881
966.313	23.70949
966.485	2.63424
966.658	27.92483
966.83	30.03253
967.003	32.14026
967.175	129.12037
967.348	82.73264
967.52	57.4348
967.692	80.62436
967.865	118.57677
968.037	65.86705
968.209	11.06405
968.382	61.65088
968.554	27.92483
968.726	97.49122
968.898	103.81665
969.071	4.74166
969.243	61.65088
969.415	80.62436
969.587	78.51611
969.759	65.86705
969.932	8.95656
970.104	4.74166
970.276	21.60186
970.448	80.62436
970.62	13.17157
970.792	34.24801
970.964	80.62436
971.136	34.24801
971.308	63.75895
971.48	19.49425
971.652	0.52684
971.824	97.49122
971.996	2.63424
972.168	55.32679
972.339	80.62436
972.511	32.14026
972.683	49.00291
972.855	57.4348
973.027	120.68545
973.199	53.21881
973.37	53.21881
973.542	32.14026
973.714	19.49425
973.886	44.78711
974.057	19.49425
974.229	97.49122
974.401	32.14026
974.572	36.35578
974.744	11.06405
974.915	-3.68787
975.087	15.2791
975.259	70.08331
975.43	-5.79519
975.602	59.54283
975.773	86.94927
975.945	63.75895
976.116	55.32679
976.288	76.40788
976.459	-5.79519
976.63	103.81665
976.802	23.70949
976.973	27.92483
977.145	-3.68787
977.316	36.35578
977.487	-16.33143
977.659	-37.40208
977.83	101.70815
978.001	2.63424
978.172	86.94927
978.344	40.5714
978.515	-7.90249
978.686	15.2791
978.857	53.21881
979.028	4.74166
979.2	13.17157
979.371	40.5714
979.542	4.74166
979.713	-14.22423
979.884	46.895
980.055	19.49425
980.226	15.2791
980.397	53.21881
980.568	27.92483
980.739	40.5714
980.91	-22.65289
981.081	78.51611
981.252	25.81715
981.423	36.35578
981.594	13.17157
981.765	8.95656
981.936	4.74166
982.106	53.21881
982.277	2.63424
982.448	65.86705
982.619	4.74166
982.79	-28.97412
982.96	-3.68787
983.131	27.92483
983.302	46.895
983.472	27.92483
983.643	21.60186
983.814	70.08331
983.984	55.32679
984.155	19.49425
984.326	32.14026
984.496	72.19148
984.667	-1.58052
984.837	-22.65289
985.008	38.46358
985.178	13.17157
985.349	-5.79519
985.519	27.92483
985.69	91.16598
985.86	38.46358
986.031	105.92518
986.201	49.00291
986.371	38.46358
986.542	44.78711
986.712	-10.00976
986.882	82.73264
987.053	91.16598
987.223	53.21881
987.393	-14.22423
987.563	53.21881
987.734	89.05761
987.904	51.11085
988.074	53.21881
988.244	27.92483
988.414	27.92483
988.585	63.75895
988.755	122.79415
988.925	57.4348
989.095	70.08331
989.265	42.67924
989.435	108.03372
989.605	103.81665
989.775	13.17157
989.945	112.25088
990.115	27.92483
990.285	-39.50901
990.455	55.32679
990.625	-60.57691
990.795	15.2791
990.965	8.95656
991.134	38.46358
991.304	44.78711
991.474	2.63424
991.644	55.32679
991.814	-1.58052
991.984	40.5714
992.153	46.895
992.323	32.14026
992.493	53.21881
992.662	59.54283
992.832	38.46358
993.002	21.60186
993.171	55.32679
993.341	4.74166
993.511	-64.79019
993.68	57.4348
993.85	78.51611
994.019	38.46358
994.189	70.08331
994.358	61.65088
994.528	40.5714
994.697	27.92483
994.867	61.65088
995.036	-22.65289
995.206	59.54283
995.375	53.21881
995.544	19.49425
995.714	-1.58052
995.883	27.92483
996.052	11.06405
996.222	2.63424
996.391	-5.79519
996.56	19.49425
996.73	38.46358
996.899	-22.65289
997.068	15.2791
997.237	25.81715
997.406	11.06405
997.576	36.35578
997.745	51.11085
997.914	38.46358
998.083	2.63424
998.252	114.35949
998.421	4.74166
998.59	46.895
998.759	11.06405
998.928	44.78711
999.097	-22.65289
999.266	-22.65289
999.435	57.4348
999.604	-5.79519
999.773	11.06405
999.942	65.86705
1000.111	-22.65289
1000.28	-1.58052
1000.448	55.32679
1000.617	25.81715
1000.786	0.52684
1000.955	84.84094
1001.124	27.92483
1001.292	6.8491
1001.461	53.21881
1001.63	-39.50901
1001.798	15.2791
1001.967	67.97517
1002.136	13.17157
1002.304	-10.00976
1002.473	32.14026
1002.642	57.4348
1002.81	-5.79519
1002.979	76.40788
1003.147	-14.22423
1003.316	2.63424
1003.484	-41.61591
1003.653	51.11085
1003.821	78.51611
1003.99	46.895
1004.158	32.14026
1004.327	17.38667
1004.495	-73.21644
1004.663	49.00291
1004.832	-3.68787
1005	11.06405
1005.168	13.17157
1005.337	44.78711
1005.505	32.14026
1005.673	97.49122
1005.842	53.21881
1006.01	51.11085
1006.178	23.70949
1006.346	23.70949
1006.514	-22.65289
1006.683	21.60186
1006.851	-10.00976
1007.019	11.06405
1007.187	70.08331
1007.355	-14.22423
1007.523	-1.58052
1007.691	-47.93647
1007.859	19.49425
1008.027	40.5714
1008.195	21.60186
1008.363	8.95656
1008.531	11.06405
1008.699	70.08331
1008.867	38.46358
1009.035	19.49425
1009.203	11.06405
1009.37	-56.36353
1009.538	11.06405
1009.706	40.5714
1009.874	17.38667
1010.042	-16.33143
1010.209	74.29967
1010.377	57.4348
1010.545	40.5714
1010.713	32.14026
1010.88	-28.97412
1011.048	34.24801
1011.216	15.2791
1011.383	36.35578
1011.551	59.54283
1011.718	-56.36353
1011.886	80.62436
1012.054	74.29967
1012.221	-18.43861
1012.389	0.52684
1012.556	19.49425
1012.724	-5.79519
1012.891	4.74166
1013.058	27.92483
1013.226	44.78711
1013.393	36.35578
1013.561	53.21881
1013.728	27.92483
1013.895	-3.68787
1014.063	89.05761
1014.23	-98.49271
1014.397	-5.79519
1014.565	65.86705
1014.732	91.16598
1014.899	55.32679
1015.066	17.38667
1015.233	27.92483
1015.401	11.06405
1015.568	74.29967
1015.735	70.08331
1015.902	2.63424
1016.069	49.00291
1016.236	-14.22423
1016.403	-18.43861
1016.57	38.46358
1016.737	-35.29512
1016.904	-14.22423
1017.071	32.14026
1017.238	13.17157
1017.405	36.35578
1017.572	-1.58052
1017.739	-35.29512
1017.906	70.08331
1018.073	-56.36353
1018.24	4.74166
1018.407	30.03253
1018.573	11.06405
1018.74	63.75895
1018.907	57.4348
1019.074	-7.90249
1019.241	4.74166
1019.407	19.49425
1019.574	36.35578
1019.741	-33.18815
1019.907	40.5714
1020.074	53.21881
1020.241	23.70949
1020.407	-22.65289
1020.574	23.70949
1020.74	-22.65289
1020.907	80.62436
1021.073	49.00291
1021.24	120.68545
1021.406	23.70949
1021.573	30.03253
1021.739	-64.79019
1021.906	-7.90249
1022.072	11.06405
1022.239	-7.90249
1022.405	78.51611
1022.571	0.52684
1022.738	23.70949
1022.904	65.86705
1023.07	-14.22423
1023.237	44.78711
1023.403	40.5714
1023.569	78.51611
1023.735	15.2791
1023.902	-1.58052
1024.068	15.2791
1024.234	80.62436
1024.4	40.5714
1024.566	19.49425
1024.732	44.78711
1024.898	13.17157
1025.065	21.60186
1025.231	-31.08114
1025.397	36.35578
1025.563	57.4348
1025.729	97.49122
1025.895	19.49425
1026.061	27.92483
1026.227	49.00291
1026.392	57.4348
1026.558	-22.65289
1026.724	4.74166
1026.89	13.17157
1027.056	-35.29512
1027.222	44.78711
1027.388	2.63424
1027.553	53.21881
1027.719	13.17157
1027.885	-39.50901
1028.051	-7.90249
1028.216	2.63424
1028.382	42.67924
1028.548	61.65088
1028.713	-28.97412
1028.879	36.35578
1029.045	95.38278
1029.21	-14.22423
1029.376	-1.58052
1029.541	38.46358
1029.707	15.2791
1029.873	-43.72279
1030.038	0.52684
1030.204	-69.00336
1030.369	25.81715
1030.534	44.78711
1030.7	30.03253
1030.865	-45.82964
1031.031	44.78711
1031.196	-14.22423
1031.361	-1.58052
1031.527	57.4348
1031.692	44.78711
1031.857	32.14026
1032.023	-3.68787
1032.188	-5.79519
1032.353	53.21881
1032.518	2.63424
1032.684	-7.90249
1032.849	21.60186
1033.014	76.40788
1033.179	11.06405
1033.344	27.92483
1033.509	55.32679
1033.674	53.21881
1033.839	-85.85504
1034.004	-56.36353
1034.17	21.60186
1034.335	53.21881
1034.5	-64.79019
1034.664	70.08331
1034.829	49.00291
1034.994	15.2791
1035.159	-45.82964
1035.324	2.63424
1035.489	19.49425
1035.654	-5.79519
1035.819	-14.22423
1035.984	-3.68787
1036.148	-12.11701
1036.313	0.52684
1036.478	6.8491
1036.643	-56.36353
1036.807	17.38667
1036.972	-10.00976
1037.137	36.35578
1037.301	-5.79519
1037.466	-3.68787
1037.631	4.74166
1037.795	46.895
1037.96	23.70949
1038.124	34.24801
1038.289	-35.29512
1038.454	34.24801
1038.618	23.70949
1038.783	-1.58052
1038.947	40.5714
1039.111	-14.22423
1039.276	-18.43861
1039.44	13.17157
1039.605	-39.50901
1039.769	78.51611
1039.933	95.38278
1040.098	55.32679
1040.262	40.5714
1040.426	19.49425
1040.591	13.17157
1040.755	65.86705
1040.919	80.62436
1041.083	27.92483
1041.248	-1.58052
1041.412	-10.00976
1041.576	11.06405
1041.74	61.65088
1041.904	36.35578
1042.068	11.06405
1042.232	15.2791
1042.397	-26.86706
1042.561	49.00291
1042.725	53.21881
1042.889	49.00291
1043.053	6.8491
1043.217	-7.90249
1043.381	32.14026
1043.544	-26.86706
1043.708	34.24801
1043.872	44.78711
1044.036	-22.65289
1044.2	23.70949
1044.364	-7.90249
1044.528	-1.58052
1044.691	-64.79019
1044.855	-5.79519
1045.019	27.92483
1045.183	-22.65289
1045.346	-35.29512
1045.51	19.49425
1045.674	15.2791
1045.837	36.35578
1046.001	4.74166
1046.165	46.895
1046.328	-66.89679
1046.492	49.00291
1046.655	-62.68356
1046.819	78.51611
1046.983	-14.22423
1047.146	-18.43861
1047.31	30.03253
1047.473	30.03253
1047.636	-37.40208
1047.8	34.24801
1047.963	23.70949
1048.127	13.17157
1048.29	-54.2568
