Data from absorb_only_2.23.25_USB4F045381__56__0161.txt Node

Date: Sun Feb 23 19:23:00 EST 2025
User: ssocol
Spectrometer: USB4F04538
Trigger mode: 4
Integration Time (sec): 2.600000E-3
Scans to average: 1
Electric dark correction enabled: true
Nonlinearity correction enabled: true
Boxcar width: 0
XAxis mode: Wavelengths
Number of Pixels in Spectrum: 3648
>>>>>Begin Spectral Data<<<<<
345.52	65.69137
345.736	65.69137
345.952	65.69137
346.168	29.85689
346.384	0.35123
346.6	-79.71139
346.816	-27.04265
347.032	12.99594
347.248	-60.75247
347.464	19.31862
347.68	23.53386
347.896	8.78094
348.112	-1.75614
348.328	-1.75614
348.544	27.74919
348.76	8.78094
348.975	69.90763
349.191	40.39575
349.407	4.56604
349.623	6.67348
349.839	-1.75614
350.055	2.45862
350.27	-62.85911
350.486	-1.75614
350.702	53.04315
350.918	59.36716
351.133	31.96461
351.349	-27.04265
351.565	48.82725
351.781	0.35123
351.996	-52.32561
352.212	12.99594
352.428	-1.75614
352.644	-8.0781
352.859	36.18013
353.075	34.07236
353.291	-67.07234
353.506	23.53386
353.722	-8.0781
353.938	25.64151
354.153	-14.39983
354.369	-33.36373
354.584	23.53386
354.8	34.07236
355.016	44.61145
355.231	27.74919
355.447	-16.50703
355.662	6.67348
355.878	95.20708
356.093	0.35123
356.309	-43.89836
356.524	2.45862
356.74	-27.04265
356.955	27.74919
357.171	-18.61421
357.386	0.35123
357.602	0.35123
357.817	46.71934
358.033	76.23219
358.248	8.78094
358.464	-12.29261
358.679	15.10348
358.895	69.90763
359.11	25.64151
359.325	29.85689
359.541	-20.72135
359.756	-48.11204
359.972	19.31862
360.187	-8.0781
360.402	84.66525
360.618	50.93519
360.833	-60.75247
361.048	17.21104
361.264	-56.53909
361.479	40.39575
361.694	8.78094
361.909	-77.60495
362.125	48.82725
362.34	-39.68458
362.555	21.42623
362.77	-16.50703
362.986	74.12398
363.201	-16.50703
363.416	27.74919
363.631	-24.93558
363.847	25.64151
364.062	36.18013
364.277	34.07236
364.492	61.47521
364.707	-43.89836
364.922	15.10348
365.138	38.28793
365.353	-10.18537
365.568	10.88843
365.783	-16.50703
365.998	65.69137
366.213	-43.89836
366.428	-52.32561
366.643	2.45862
366.858	8.78094
367.073	55.15113
367.288	2.45862
367.503	36.18013
367.718	23.53386
367.933	-27.04265
368.148	44.61145
368.363	-31.25673
368.578	-35.47071
368.793	-35.47071
369.008	-1.75614
369.223	25.64151
369.438	36.18013
369.653	19.31862
369.868	31.96461
370.083	23.53386
370.298	-94.45578
370.513	29.85689
370.728	-69.17891
370.943	118.40105
371.157	46.71934
371.372	-10.18537
371.587	-35.47071
371.802	-50.21884
372.017	-18.61421
372.232	12.99594
372.446	-1.75614
372.661	6.67348
372.876	-56.53909
373.091	-16.50703
373.306	-56.53909
373.52	-50.21884
373.735	19.31862
373.95	-56.53909
374.165	10.88843
374.379	-8.0781
374.594	6.67348
374.809	10.88843
375.023	50.93519
375.238	2.45862
375.453	23.53386
375.667	19.31862
375.882	34.07236
376.097	65.69137
376.311	23.53386
376.526	15.10348
376.741	17.21104
376.955	-10.18537
377.17	19.31862
377.384	-39.68458
377.599	-1.75614
377.813	-39.68458
378.028	-22.82848
378.242	-24.93558
378.457	57.25913
378.672	-1.75614
378.886	53.04315
379.101	50.93519
379.315	-52.32561
379.53	-16.50703
379.744	19.31862
379.958	15.10348
380.173	-22.82848
380.387	84.66525
380.602	-10.18537
380.816	8.78094
381.031	10.88843
381.245	-1.75614
381.459	-22.82848
381.674	-39.68458
381.888	44.61145
382.103	8.78094
382.317	-54.43236
382.531	90.99028
382.746	0.35123
382.96	-39.68458
383.174	-24.93558
383.388	-69.17891
383.603	23.53386
383.817	-12.29261
384.031	-67.07234
384.246	-41.79148
384.46	-33.36373
384.674	69.90763
384.888	25.64151
385.103	76.23219
385.317	-27.04265
385.531	-10.18537
385.745	40.39575
385.959	-18.61421
386.174	6.67348
386.388	21.42623
386.602	-31.25673
386.816	27.74919
387.03	-18.61421
387.244	-31.25673
387.458	23.53386
387.672	-48.11204
387.887	-67.07234
388.101	-16.50703
388.315	6.67348
388.529	2.45862
388.743	2.45862
388.957	-8.0781
389.171	40.39575
389.385	-73.39198
389.599	74.12398
389.813	-18.61421
390.027	-43.89836
390.241	-27.04265
390.455	15.10348
390.669	31.96461
390.883	19.31862
391.097	23.53386
391.311	-50.21884
391.525	23.53386
391.738	53.04315
391.952	15.10348
392.166	23.53386
392.38	34.07236
392.594	-14.39983
392.808	44.61145
393.022	31.96461
393.236	-18.61421
393.449	57.25913
393.663	-10.18537
393.877	36.18013
394.091	29.85689
394.305	61.47521
394.518	53.04315
394.732	4.56604
394.946	-71.28546
395.16	67.79949
395.373	-33.36373
395.587	42.50359
395.801	67.79949
396.015	6.67348
396.228	57.25913
396.442	40.39575
396.656	-90.24323
396.869	-27.04265
397.083	8.78094
397.297	10.88843
397.51	2.45862
397.724	17.21104
397.938	48.82725
398.151	-3.86348
398.365	19.31862
398.578	27.74919
398.792	46.71934
399.005	-5.9708
399.219	-77.60495
399.433	2.45862
399.646	36.18013
399.86	-1.75614
400.073	-52.32561
400.287	44.61145
400.5	-50.21884
400.714	23.53386
400.927	25.64151
401.141	15.10348
401.354	-43.89836
401.567	46.71934
401.781	23.53386
401.994	-1.75614
402.208	-33.36373
402.421	-1.75614
402.635	-31.25673
402.848	65.69137
403.061	-64.96574
403.275	10.88843
403.488	15.10348
403.701	-69.17891
403.915	-10.18537
404.128	-10.18537
404.341	-5.9708
404.555	-8.0781
404.768	-33.36373
404.981	25.64151
405.195	74.12398
405.408	-10.18537
405.621	-14.39983
405.834	-3.86348
406.048	8.78094
406.261	-62.85911
406.474	120.50972
406.687	40.39575
406.9	-48.11204
407.114	53.04315
407.327	-81.81781
407.54	34.07236
407.753	48.82725
407.966	15.10348
408.179	50.93519
408.392	50.93519
408.605	-60.75247
408.819	38.28793
409.032	-8.0781
409.245	10.88843
409.458	25.64151
409.671	8.78094
409.884	-33.36373
410.097	50.93519
410.31	34.07236
410.523	15.10348
410.736	103.64094
410.949	-5.9708
411.162	-1.75614
411.375	36.18013
411.588	57.25913
411.801	0.35123
412.014	25.64151
412.227	15.10348
412.44	0.35123
412.653	40.39575
412.865	65.69137
413.078	8.78094
413.291	69.90763
413.504	-50.21884
413.717	-10.18537
413.93	-35.47071
414.143	34.07236
414.356	-39.68458
414.568	-8.0781
414.781	2.45862
414.994	78.34042
415.207	27.74919
415.42	63.58328
415.632	48.82725
415.845	23.53386
416.058	0.35123
416.271	12.99594
416.483	4.56604
416.696	141.59765
416.909	74.12398
417.121	74.12398
417.334	36.18013
417.547	36.18013
417.759	12.99594
417.972	40.39575
418.185	0.35123
418.397	48.82725
418.61	15.10348
418.823	65.69137
419.035	93.09867
419.248	-14.39983
419.46	-10.18537
419.673	0.35123
419.885	-37.57766
420.098	17.21104
420.311	126.83588
420.523	-1.75614
420.736	6.67348
420.948	48.82725
421.161	34.07236
421.373	50.93519
421.586	4.56604
421.798	46.71934
422.01	-8.0781
422.223	40.39575
422.435	-31.25673
422.648	-5.9708
422.86	-24.93558
423.073	-43.89836
423.285	15.10348
423.497	-10.18537
423.71	95.20708
423.922	84.66525
424.134	-10.18537
424.347	17.21104
424.559	59.36716
424.771	55.15113
424.984	-14.39983
425.196	23.53386
425.408	-27.04265
425.621	31.96461
425.833	44.61145
426.045	48.82725
426.257	15.10348
426.47	-35.47071
426.682	-27.04265
426.894	-10.18537
427.106	-8.0781
427.318	-27.04265
427.531	74.12398
427.743	6.67348
427.955	10.88843
428.167	-5.9708
428.379	-41.79148
428.591	-24.93558
428.804	74.12398
429.016	6.67348
429.228	44.61145
429.44	40.39575
429.652	-48.11204
429.864	34.07236
430.076	50.93519
430.288	27.74919
430.5	23.53386
430.712	-14.39983
430.924	63.58328
431.136	38.28793
431.348	-5.9708
431.56	50.93519
431.772	12.99594
431.984	120.50972
432.196	4.56604
432.408	15.10348
432.62	-1.75614
432.832	84.66525
433.044	23.53386
433.256	6.67348
433.468	95.20708
433.679	0.35123
433.891	23.53386
434.103	44.61145
434.315	103.64094
434.527	50.93519
434.739	61.47521
434.95	50.93519
435.162	-1.75614
435.374	97.31551
435.586	40.39575
435.798	15.10348
436.009	25.64151
436.221	15.10348
436.433	31.96461
436.645	34.07236
436.856	55.15113
437.068	6.67348
437.28	19.31862
437.491	50.93519
437.703	19.31862
437.915	-20.72135
438.126	31.96461
438.338	-1.75614
438.55	63.58328
438.761	17.21104
438.973	-31.25673
439.184	-18.61421
439.396	25.64151
439.608	-35.47071
439.819	90.99028
440.031	116.2924
440.242	-14.39983
440.454	65.69137
440.665	-3.86348
440.877	65.69137
441.088	-1.75614
441.3	78.34042
441.511	-1.75614
441.723	36.18013
441.934	6.67348
442.146	10.88843
442.357	99.42397
442.569	74.12398
442.78	69.90763
442.991	29.85689
443.203	67.79949
443.414	-18.61421
443.626	84.66525
443.837	0.35123
444.048	0.35123
444.26	69.90763
444.471	57.25913
444.682	12.99594
444.894	27.74919
445.105	69.90763
445.316	34.07236
445.528	57.25913
445.739	12.99594
445.95	21.42623
446.161	99.42397
446.373	44.61145
446.584	48.82725
446.795	59.36716
447.006	-52.32561
447.217	-8.0781
447.429	42.50359
447.64	74.12398
447.851	93.09867
448.062	31.96461
448.273	44.61145
448.484	40.39575
448.695	120.50972
448.907	36.18013
449.118	36.18013
449.329	103.64094
449.54	118.40105
449.751	55.15113
449.962	78.34042
450.173	46.71934
450.384	31.96461
450.595	198.54556
450.806	50.93519
451.017	139.48876
451.228	74.12398
451.439	36.18013
451.65	65.69137
451.861	74.12398
452.072	40.39575
452.283	50.93519
452.494	169.01513
452.705	101.53244
452.915	74.12398
453.126	42.50359
453.337	23.53386
453.548	103.64094
453.759	84.66525
453.97	162.68771
454.181	34.07236
454.391	42.50359
454.602	103.64094
454.813	128.94464
455.024	55.15113
455.235	133.16222
455.445	109.96657
455.656	40.39575
455.867	78.34042
456.078	2.45862
456.288	101.53244
456.499	34.07236
456.71	103.64094
456.921	40.39575
457.131	17.21104
457.342	65.69137
457.553	27.74919
457.763	59.36716
457.974	147.92445
458.184	97.31551
458.395	97.31551
458.606	65.69137
458.816	114.18377
459.027	61.47521
459.237	99.42397
459.448	128.94464
459.659	145.81549
459.869	19.31862
460.08	82.55695
460.29	93.09867
460.501	84.66525
460.711	57.25913
460.922	103.64094
461.132	97.31551
461.343	82.55695
461.553	116.2924
461.764	118.40105
461.974	217.53151
462.184	158.46953
462.395	99.42397
462.605	116.2924
462.816	139.48876
463.026	200.65503
463.236	63.58328
463.447	97.31551
463.657	90.99028
463.867	179.56125
464.078	67.79949
464.288	152.14241
464.498	179.56125
464.709	225.97022
464.919	137.37989
465.129	141.59765
465.339	162.68771
465.55	82.55695
465.76	145.81549
465.97	141.59765
466.18	179.56125
466.391	107.85801
466.601	194.32669
466.811	179.56125
467.021	150.03342
467.231	204.87403
467.441	196.43612
467.651	236.51906
467.862	225.97022
468.072	247.06838
468.282	164.79683
468.492	221.75083
468.702	331.47983
468.912	280.82941
469.122	306.15332
469.332	259.7282
469.542	263.94829
469.752	285.04988
469.962	316.70572
470.172	297.71172
470.382	310.37423
470.592	285.04988
470.802	323.03738
471.012	329.36919
471.222	297.71172
471.432	449.70275
471.642	329.36919
471.852	403.25187
472.062	331.47983
472.272	344.14405
472.482	371.58532
472.691	437.03357
472.901	310.37423
473.111	394.80709
473.321	447.59118
473.531	411.69691
473.741	508.83283
473.95	521.50506
474.16	443.36809
474.37	532.06565
474.58	599.66148
474.79	622.90065
474.999	635.5772
475.209	635.5772
475.419	572.19902
475.628	578.53632
475.838	639.80281
476.048	671.49644
476.258	612.3372
476.467	690.51389
476.677	772.93306
476.886	884.96245
477.096	914.55914
477.306	671.49644
477.515	791.95509
477.725	830.00146
477.935	808.86421
478.144	914.55914
478.354	846.91191
478.563	1060.44886
478.773	920.90149
478.982	1016.04441
479.192	1130.23204
479.401	1121.7732
479.611	1020.27329
479.82	1235.97299
480.03	1233.85809
480.239	1187.33102
480.449	1157.72378
480.658	1284.61651
480.868	1147.14995
481.077	1367.10153
481.287	1358.64142
481.496	1316.3412
481.705	1464.39363
481.915	1400.94213
482.124	1360.75644
482.333	1529.96003
482.543	1388.25188
482.752	1483.42909
482.961	1532.07507
483.171	1902.16704
483.38	1671.66375
483.589	1815.46984
483.799	1707.61677
484.008	1927.54019
484.217	1817.5845
484.426	2012.1112
484.636	1868.33498
484.845	2009.99704
485.054	1874.67859
485.263	1978.28398
485.472	1834.50163
485.682	1959.25546
485.891	1967.71264
486.1	2128.37881
486.309	2098.78552
486.518	2187.56076
486.727	2136.83376
486.936	2297.4523
487.146	2170.65229
487.355	2470.6898
487.564	2217.1493
487.773	2341.82449
487.982	2422.10583
488.191	2451.67936
488.4	2527.71569
488.609	2515.04398
488.818	2643.85316
489.027	2800.05071
489.236	2567.84
489.445	2776.83676
489.654	2569.95169
489.863	2814.82237
490.072	2705.07425
490.281	2690.29773
490.49	3015.22559
490.698	3008.89911
490.907	2753.62116
491.116	3048.9645
491.325	3101.67357
491.534	3091.13254
491.743	2964.60993
491.952	3084.80773
492.16	3263.95432
492.369	3204.9544
492.578	3183.87985
492.787	3333.47294
492.996	3295.556
493.204	3487.18907
493.413	3554.54128
493.622	3554.54128
493.831	3312.40866
494.039	3550.33231
494.248	3520.86752
494.457	3586.10613
494.665	3609.25102
494.874	3720.73527
495.083	3565.06336
495.291	3735.45558
495.5	3647.11958
495.709	3588.2103
495.917	3668.15502
496.126	3727.04409
496.335	3827.96141
496.543	3874.20002
496.752	3647.11958
496.96	3983.45268
497.169	3874.20002
497.377	4017.05783
497.586	3802.73631
497.794	4266.82906
498.003	4010.75726
498.211	4180.80706
498.42	4000.25591
498.628	4040.15833
498.837	4044.35815
499.045	4147.22784
499.254	4168.21549
499.462	4107.34553
499.671	4161.91942
499.879	4302.4862
500.087	4390.55356
500.296	4182.90559
500.504	4264.73139
500.713	4459.72243
500.921	4468.10491
501.129	4451.33959
501.338	4262.6337
501.546	4656.61714
501.754	4371.6852
501.962	4470.20048
502.171	4327.65219
502.379	4528.86737
502.587	4461.81808
502.795	4633.58643
503.004	4514.20227
503.212	4757.08289
503.42	4554.00502
503.628	4842.85607
503.837	4528.86737
504.045	4918.13751
504.253	4824.03109
504.461	4985.02938
504.669	4675.45842
504.877	4949.49601
505.085	4947.4056
505.294	4951.58639
505.502	4989.20934
505.71	5227.31394
505.918	5014.28716
506.126	5114.56515
506.334	4851.22214
506.542	5193.91397
506.75	4920.22823
506.958	5206.43966
507.166	5304.52846
507.374	5173.03596
507.582	5400.48019
507.79	5373.36843
507.998	5147.97928
508.206	5325.39175
508.414	5200.17692
508.622	5406.73619
508.83	5277.40268
509.037	5467.19992
509.245	5281.57613
509.453	5654.71993
509.661	5306.61489
509.869	5625.56269
510.077	5239.83738
510.285	5377.53973
510.492	5298.26902
510.7	5731.75608
510.908	5465.11529
511.116	5400.48019
511.324	5606.81631
511.531	5787.95126
511.739	5594.31766
511.947	5785.87027
512.155	5523.47596
512.362	5681.79036
512.57	5758.81517
512.778	5675.54369
512.985	5891.97098
513.193	5573.48469
513.401	5438.013
513.608	5744.24539
513.816	5773.38379
514.024	5933.56235
514.231	5750.48972
514.439	5954.3545
514.646	5785.87027
514.854	6033.34317
515.061	5781.7082
515.269	5935.64167
515.477	6054.124
515.684	6006.32456
515.892	6029.18672
516.099	6241.04575
516.307	6157.99291
516.514	6255.57614
516.722	6083.21322
516.929	6097.7561
517.136	6006.32456
517.344	6209.90533
517.551	6218.20996
517.759	6270.10539
517.966	6398.74297
518.173	6288.78416
518.381	6155.9161
518.588	6388.3723
518.796	6446.44057
519.003	6489.97981
519.21	6404.9651
519.418	6724.08724
519.625	6263.87871
519.832	6489.97981
520.039	6469.24812
520.247	6529.36364
520.454	6521.073
520.661	6668.17682
520.868	6496.19887
521.076	6868.96249
521.283	6574.95552
521.49	6614.32132
521.697	6664.03464
521.904	6742.72033
522.112	6610.17794
522.319	6957.90204
522.526	6577.02761
522.733	6777.91111
522.94	6798.60848
523.147	6951.69832
523.354	6730.29847
523.561	6937.22216
523.768	6881.37518
523.975	7030.26388
524.183	6945.49439
524.39	7135.65621
524.597	7015.79372
524.804	7226.53637
525.011	7026.12966
525.218	7050.93363
525.425	7079.86752
525.632	7071.60114
525.838	7148.05149
526.045	7228.60133
526.252	7050.93363
526.459	7191.42867
526.666	7335.94889
526.873	7455.61291
527.08	7009.59188
527.287	7467.98778
527.494	7274.02487
527.701	7531.91223
527.907	7385.47392
528.114	7546.34392
528.321	7424.67233
528.528	7397.85321
528.735	7333.88507
528.941	7511.2937
529.148	7430.86084
529.355	7727.68177
529.562	7604.06019
529.768	7525.72689
529.975	7389.60044
530.182	7610.24308
530.388	7744.15891
530.595	7651.45748
530.802	7422.60945
531.008	7970.58435
531.215	7952.06802
531.422	7991.15612
531.628	7748.27798
531.835	7842.99359
532.042	7906.79887
532.248	8122.76734
532.455	7731.80118
532.661	8093.98445
532.868	7884.16056
533.074	8301.54493
533.281	7972.64162
533.487	8026.12344
533.694	8157.71271
533.9	8326.1922
534.107	7880.04424
534.313	8172.10031
534.52	8106.32046
534.726	8167.98967
534.933	8209.09249
535.139	8254.29645
535.345	8198.81753
535.552	8262.51432
535.758	8539.68525
535.965	8523.27006
536.171	8283.05763
536.377	8478.122
536.584	8215.25723
536.79	8291.27441
536.996	8361.10436
537.203	8595.07763
537.409	8490.43602
537.615	8584.82082
537.821	8590.97496
538.028	8435.01751
538.234	8636.1002
538.44	8865.69023
538.646	8566.35737
538.853	8853.39655
539.059	8549.94414
539.265	8814.46229
539.471	8793.96795
539.677	8726.32369
539.883	8644.30382
540.09	8716.07282
540.296	8742.72413
540.502	9033.63964
540.708	8796.01746
540.914	8935.34225
541.12	8918.9554
541.326	9199.4257
541.532	9176.91814
541.738	9004.97375
541.944	8869.78798
542.15	9189.19525
542.356	9115.5234
542.562	9248.52601
542.768	8855.44555
542.974	9205.56377
543.18	9101.19574
543.386	9475.49057
543.592	9467.31516
543.798	9455.05156
544.004	9205.56377
544.21	9653.24288
544.415	8984.49601
544.621	9510.2332
544.827	9060.25491
545.033	9606.26247
545.239	9422.34578
545.445	9612.39082
545.651	9410.08004
545.856	9622.60442
546.062	9264.89062
546.268	9510.2332
546.474	9553.14421
546.679	9604.21966
546.885	9348.74254
547.091	9485.70947
547.297	9469.35903
547.502	9475.49057
547.708	9475.49057
547.914	9718.5933
548.119	9630.77502
548.325	9645.07296
548.531	9405.99133
548.736	9440.74329
548.942	9477.53438
549.147	9610.34805
549.353	9698.17298
549.559	9865.57483
549.764	9563.36009
549.97	9800.25933
550.175	9965.55987
550.381	10226.58314
550.586	9822.71326
550.792	10212.31433
550.997	9871.69738
551.203	9975.76046
551.408	9788.01097
551.614	10246.96599
551.819	9902.30812
552.025	10108.33549
552.23	10124.64828
552.435	10365.15999
552.641	10332.55923
552.846	10344.78491
553.052	10409.98053
553.257	10081.82528
553.462	9973.72037
553.668	10108.33549
553.873	9971.68027
554.078	10611.59589
554.283	10359.04761
554.489	10619.73938
554.694	10522.00442
554.899	10391.64562
555.105	10420.16613
555.31	10658.41823
555.515	10196.0063
555.72	10289.76557
555.925	10359.04761
556.131	10723.55161
556.336	10242.88953
556.541	10674.70274
556.746	10383.49643
556.951	10550.51343
557.156	10503.67589
557.361	10674.70274
557.567	10538.29559
557.772	10880.22884
557.977	10454.79475
558.182	10585.12821
558.387	10452.75788
558.592	10719.48114
558.797	10656.38261
559.002	10825.29799
559.207	10636.02575
559.412	10680.80923
559.617	10467.01573
559.822	11055.13855
560.027	10750.00853
560.232	10959.55865
560.437	10676.73825
560.642	11083.60447
560.847	10821.2287
561.051	11118.16736
561.256	10988.03182
561.461	10878.19452
561.666	10922.94704
561.871	10947.35518
562.076	10951.42305
562.281	11374.24496
562.485	10837.50558
562.69	10874.12583
562.895	10916.84475
563.1	11061.23857
563.305	10811.05527
563.509	11093.77035
563.714	11168.98953
563.919	11122.23338
564.123	10994.13293
564.328	11093.77035
564.533	11024.63698
564.737	10906.67403
564.942	11063.27189
565.147	11138.49703
565.351	10943.28727
565.556	10971.76171
565.761	10886.33175
565.965	11162.89122
566.17	11337.67237
566.374	11550.9679
566.579	11297.03236
566.784	11105.96905
566.988	11175.08775
567.193	11485.9748
567.397	11382.37176
567.602	11514.41048
567.806	11195.41445
568.011	11355.95907
568.215	11825.05472
568.42	11546.90612
568.624	11386.4351
568.828	11622.04316
569.033	11427.06637
569.237	11691.077
569.442	11727.62015
569.646	11530.6586
569.85	11485.9748
570.055	11504.25509
570.259	11561.12221
570.463	11648.43969
570.668	11709.34893
570.872	11662.65256
571.076	11449.4119
571.281	11658.59179
571.485	11725.59005
571.689	11926.5283
571.893	11701.22816
572.098	11885.94137
572.302	11617.98202
572.506	11658.59179
572.71	11561.12221
572.914	12019.86594
573.119	11938.70374
573.323	11993.48963
573.527	11739.80056
573.731	11754.01065
573.935	11784.4594
574.139	12023.92372
574.343	11644.37878
574.547	12259.22243
574.751	11967.11197
574.955	12172.01138
575.159	11958.9955
575.364	11952.90806
575.568	11743.86063
575.772	11975.22832
575.976	11910.29392
576.18	11841.2919
576.383	11997.54761
576.587	12090.8725
576.791	12200.40716
576.995	12076.67195
577.199	12251.11034
577.403	12032.03917
577.607	11971.17016
577.811	12226.77338
578.015	11924.49903
578.219	12169.98305
578.422	11918.41118
578.626	12303.83689
578.83	12076.67195
579.034	12346.42025
579.238	12368.7246
579.442	12551.18441
579.645	12245.0262
579.849	12297.75331
580.053	12320.05949
580.257	12155.78456
580.46	12259.22243
580.664	12478.20685
580.868	12214.60451
581.071	12547.13031
581.275	12461.98848
581.479	12399.1383
581.682	12133.47192
581.886	12360.61403
582.09	12370.75223
582.293	12557.2655
582.497	12693.06209
582.7	12466.04311
582.904	12362.64168
583.107	12715.35448
583.311	12370.75223
583.515	12486.31588
583.718	12413.33083
583.922	12810.59593
584.125	12536.99497
584.329	12717.38102
584.532	12455.90648
584.735	12810.59593
584.939	12358.58637
585.142	12682.92895
585.346	12611.99279
585.549	12626.18061
585.753	12666.71562
585.956	12571.45449
586.159	12853.14662
586.363	12942.29273
586.566	12903.79908
586.769	12901.77305
586.973	12802.49076
587.176	12875.43412
587.379	12830.85847
587.582	13106.3767
587.786	13055.73695
587.989	13075.99321
588.192	12794.3855
588.395	13227.90017
588.599	12772.09558
588.802	13090.17231
589.005	12889.61673
589.208	13205.62209
589.411	13065.86514
589.615	12822.75352
589.818	12954.44823
590.021	13161.0643
590.224	13175.24202
590.427	13173.21664
590.63	13144.86092
590.833	13118.52979
591.036	13272.45473
591.239	13406.10619
591.442	12980.78451
591.645	12917.98117
591.848	13150.93722
592.051	13319.03228
592.254	13053.7113
592.457	13363.58266
592.66	13466.85108
592.863	13628.82119
593.066	13418.25544
593.269	13642.99251
593.472	13086.12116
593.675	13612.62519
593.878	13408.13107
594.081	13424.33002
594.284	13199.54616
594.486	13742.18727
594.689	13395.9817
594.892	13485.07388
595.095	13353.45775
595.298	13713.84669
595.5	13618.69872
595.703	13758.38161
595.906	13663.23697
596.109	13936.50706
596.311	13979.01115
596.514	13697.6518
596.717	13614.6497
596.92	13707.77363
597.122	13719.91972
597.325	13778.62427
597.528	13671.33466
597.73	13851.49538
597.933	13904.12222
598.136	13873.76081
598.338	13806.96348
598.541	13966.86724
598.743	14175.32586
598.946	13754.33305
599.148	13841.37461
599.351	13948.6512
599.554	14015.44234
599.756	13721.94406
599.959	14088.3024
600.161	14013.41841
600.363	13924.36283
600.566	13928.41092
600.768	13948.6512
600.971	13960.79525
601.173	13847.44708
601.376	14096.39777
601.578	14163.18329
601.78	14157.11198
601.983	14043.77717
602.185	14177.34962
602.388	14106.51694
602.59	14120.68369
602.792	14191.51584
602.995	14306.86586
603.197	14187.46836
603.399	14406.0218
603.601	14266.39286
603.804	13985.08307
604.006	14146.99308
604.208	14254.25082
604.41	14252.22714
604.613	14146.99308
604.815	14090.32624
605.017	14359.47971
605.219	13985.08307
605.421	13970.91522
605.623	14187.46836
605.826	14466.72766
606.028	14365.55046
606.23	14304.84223
606.432	14211.75314
606.634	14460.65713
606.836	14381.73907
607.038	14592.18255
607.24	14191.51584
607.442	14397.92758
607.644	14090.32624
607.846	14209.72942
608.048	14341.26735
608.25	14424.2337
608.452	14308.88949
608.654	14171.27835
608.856	14142.9455
609.058	14231.99024
609.26	13887.92954
609.462	14440.42195
609.664	14155.0882
609.866	14112.58842
610.067	14262.34552
610.269	14667.04864
610.471	14298.77132
610.673	14122.7075
610.875	14256.2745
611.077	14153.06442
611.278	14197.58705
611.48	14306.86586
611.682	14403.99825
611.884	14602.29968
612.085	14418.16308
612.287	14422.21016
612.489	14476.84517
612.69	14438.39842
612.892	14327.10209
613.094	14567.90133
613.295	14418.16308
613.497	14341.26735
613.699	14225.91913
613.9	14590.15912
614.102	13976.98717
614.304	14229.96654
614.505	14157.11198
614.707	14389.83334
614.908	14033.65764
615.11	14675.14219
615.311	14491.00964
615.513	14456.6101
615.714	14389.83334
615.916	14563.85445
616.117	14250.20346
616.319	14620.51043
616.52	14159.13575
616.722	14642.76791
616.923	14511.24448
617.124	14665.02525
617.326	14266.39286
617.527	14634.67429
617.729	14187.46836
617.93	14211.75314
618.131	14432.32783
618.333	14238.06133
618.534	14414.11599
618.735	14557.78411
618.937	14632.65089
619.138	14505.17404
619.339	14373.64478
619.54	14618.48702
619.742	14511.24448
619.943	14687.28248
620.144	14387.80977
620.345	14436.37489
620.546	14412.09244
620.748	14624.55726
620.949	14606.34652
621.15	14926.03582
621.351	14478.86867
621.552	14665.02525
621.753	14341.26735
621.954	14926.03582
622.155	14383.76264
622.356	14798.56703
622.558	14341.26735
622.759	14539.57303
622.96	14432.32783
623.161	14403.99825
623.362	14229.96654
623.563	15126.34064
623.764	14658.95508
623.965	14567.90133
624.166	14537.54957
624.366	14486.96266
624.567	14290.67675
624.768	14770.24029
624.969	14205.68197
625.17	14507.19752
625.371	14590.15912
625.572	14501.12707
625.773	14486.96266
625.973	14717.63307
626.174	14391.8569
626.375	14727.74989
626.576	14952.33865
626.777	15071.71228
626.977	14527.43225
627.178	14879.49986
627.379	14634.67429
627.58	14412.09244
627.78	14420.18662
627.981	14750.00681
628.182	14644.79131
628.382	14869.38331
628.583	14454.58659
628.784	14705.49286
628.984	14341.26735
629.185	15162.75951
629.386	14543.61994
629.586	15134.43372
629.787	14677.16558
629.987	15011.01395
630.188	14677.16558
630.388	14667.04864
630.589	14428.28077
630.79	14839.03357
630.99	14707.51623
631.191	14618.48702
631.391	14715.6097
631.591	14529.45572
631.792	14365.55046
631.992	14948.29207
632.193	14968.52497
632.393	14907.82613
632.594	14784.40368
632.794	15065.64245
632.994	14828.91696
633.195	14970.54826
633.395	14861.29006
633.595	14871.40662
633.796	14917.94263
633.996	15120.27082
634.196	15083.85192
634.397	15429.83262
634.597	15146.57335
634.797	15551.23175
634.997	15011.01395
635.198	15267.96966
635.398	14843.08021
635.598	15243.69037
635.798	14940.19889
635.998	14598.25283
636.199	14709.5396
636.399	15021.13035
636.599	14681.21234
636.799	14774.28698
636.999	14640.74451
637.199	14806.66036
637.399	14921.98923
637.599	14996.85097
637.799	14721.6798
637.999	14711.56297
638.199	14863.31338
638.399	14972.57154
638.599	14646.81471
638.799	14812.73035
638.999	14697.39937
639.199	14758.10021
639.399	14980.66469
639.599	15055.52608
639.799	14834.98693
639.999	14926.03582
640.199	14875.45324
640.399	14988.75783
640.599	14365.55046
640.799	15395.43654
640.998	15191.0853
641.198	15081.82865
641.398	14891.6397
641.598	14994.82769
641.798	14998.87425
641.997	15089.92174
642.197	14798.56703
642.397	15150.61989
642.597	15164.78278
642.796	15312.48177
642.996	15128.36391
643.196	15326.64474
643.395	14754.05351
643.595	15154.66643
643.795	15006.96739
643.994	15154.66643
644.194	15039.33986
644.394	15195.13184
644.593	14857.24343
644.793	15037.31658
644.992	14743.93675
645.192	15120.27082
645.392	15207.27147
645.591	15342.83101
645.791	15243.69037
645.99	15494.57856
646.19	15102.06138
646.389	15120.27082
646.589	14994.82769
646.788	15126.34064
646.987	14901.75622
647.187	15348.90087
647.386	15140.50353
647.586	15089.92174
647.785	14818.80034
647.984	15369.13375
648.184	15411.62292
648.383	15397.45984
648.582	15274.03949
648.782	15468.27545
648.981	15450.06567
649.18	15263.92311
649.38	15393.41325
649.579	15622.04901
649.778	15484.46197
649.977	15739.40557
650.177	15530.99841
650.376	15583.60524
650.575	15237.62055
650.774	15460.18221
650.973	15185.01549
651.173	15328.66803
651.372	15292.24898
651.571	15397.45984
651.77	15551.23175
651.969	15611.9322
652.168	15356.99402
652.367	15516.83511
652.566	15191.0853
652.765	15575.51185
652.964	15180.96894
653.163	15399.48313
653.362	15484.46197
653.561	15482.43865
653.76	15443.99575
653.959	15318.55162
654.158	15377.22691
654.357	15176.9224
654.556	15458.1589
654.755	15435.90253
654.954	15189.06203
655.153	15288.20242
655.352	15516.83511
655.551	15437.92583
655.749	15282.13259
655.948	15443.99575
656.147	15243.69037
656.346	15215.36455
656.545	15286.17915
656.743	15308.43521
656.942	15235.59728
657.141	15435.90253
657.34	15650.37618
657.538	15856.7655
657.737	15846.64811
657.936	15781.89754
658.135	15711.07784
658.333	15476.36871
658.532	15450.06567
658.731	15613.95556
658.929	15182.99222
659.128	15284.15587
659.326	15427.80932
659.525	15755.59293
659.724	15405.55302
659.922	15535.04507
660.121	15587.65194
660.319	15526.95175
660.518	15288.20242
660.716	15095.99156
660.915	15609.90884
661.113	15686.79708
661.312	15488.5086
661.51	15767.7335
661.709	15700.96084
661.907	15346.87758
662.105	15377.22691
662.304	15630.14247
662.502	15450.06567
662.701	15597.7687
662.899	15601.81541
663.097	15628.1191
663.296	15662.51645
663.494	15462.20552
663.692	15638.23595
663.891	15498.6252
664.089	15322.59818
664.287	15541.11507
664.485	15640.25932
664.684	15711.07784
664.882	15607.88548
665.08	15476.36871
665.278	15403.52973
665.476	15514.81178
665.675	15185.01549
665.873	15241.66709
666.071	15300.34209
666.269	15437.92583
666.467	15199.17838
666.665	15806.17887
666.863	15496.60188
667.061	15729.2885
667.259	15417.69281
667.457	15696.91405
667.655	15191.0853
667.853	15482.43865
668.051	15437.92583
668.249	15539.09174
668.447	15656.44631
668.645	15717.14805
668.843	15520.88176
669.041	15707.03104
669.239	15672.63336
669.437	15599.79206
669.635	15425.78601
669.833	15678.70352
670.031	15510.76513
670.229	15480.41534
670.426	15286.17915
670.624	15478.39202
670.822	15187.03876
671.02	15466.25214
671.218	15785.94442
671.415	15577.5352
671.613	15361.04059
671.811	15199.17838
672.009	15091.94501
672.206	15543.13841
672.404	15021.13035
672.602	15458.1589
672.799	15320.5749
672.997	15512.78846
673.195	15195.13184
673.392	15377.22691
673.59	15314.50505
673.788	15138.48026
673.985	15120.27082
674.183	15152.64316
674.38	14974.59483
674.578	15308.43521
674.775	15245.71364
674.973	15193.10857
675.17	15381.27349
675.368	15193.10857
675.565	15150.61989
675.763	15182.99222
675.96	15136.45699
676.158	15308.43521
676.355	14792.49703
676.553	15128.36391
676.75	14820.82366
676.947	15310.45849
677.145	14760.12356
677.342	15053.5028
677.539	15108.13119
677.737	15286.17915
677.934	15207.27147
678.131	15320.5749
678.329	15290.2257
678.526	15389.36666
678.723	15235.59728
678.92	15249.76019
679.118	14687.28248
679.315	15077.7821
679.512	14843.08021
679.709	14555.76066
679.906	14861.29006
680.104	14938.1756
680.301	14924.01253
680.498	14877.47655
680.695	14824.87032
680.892	15150.61989
681.089	14790.47369
681.286	14984.71126
681.483	14559.80755
681.68	14885.56979
681.877	14934.12901
682.075	14652.8849
682.272	14665.02525
682.469	14869.38331
682.665	14830.94029
682.862	14527.43225
683.059	14727.74989
683.256	14711.56297
683.453	14681.21234
683.65	14847.12685
683.847	14557.78411
684.044	14493.03313
684.241	14430.3043
684.438	14901.75622
684.635	14521.36184
684.831	14602.29968
685.028	14602.29968
685.225	14719.65643
685.422	14567.90133
685.619	14782.38034
685.815	14717.63307
686.012	14667.04864
686.209	14381.73907
686.405	15019.10707
686.602	14606.34652
686.799	14553.73721
686.996	14699.42274
687.192	14343.29095
687.389	14551.71376
687.586	14525.40878
687.782	14764.17025
687.979	14652.8849
688.175	14505.17404
688.372	14561.831
688.568	14337.22014
688.765	14513.26795
688.962	14501.12707
689.158	14472.79817
689.355	14381.73907
689.551	14505.17404
689.748	14452.56307
689.944	14519.33837
690.14	14590.15912
690.337	14470.77467
690.533	14424.2337
690.73	14068.0638
690.926	14389.83334
691.123	14288.6531
691.319	14140.92171
691.515	14171.27835
691.712	14080.20698
691.908	14197.58705
692.104	13912.2185
692.301	14319.00762
692.497	13728.01706
692.693	14181.39712
692.889	14191.51584
693.086	14312.93675
693.282	14238.06133
693.478	14327.10209
693.674	14298.77132
693.87	14507.19752
694.067	14272.46386
694.263	14422.21016
694.459	14306.86586
694.655	14229.96654
694.851	13855.54366
695.047	13944.60317
695.243	14106.51694
695.439	14213.77686
695.635	13679.4323
695.831	14312.93675
696.027	14118.65987
696.224	14274.48752
696.42	13924.36283
696.615	14116.63606
696.811	13934.48303
697.007	13847.44708
697.203	13736.11434
697.399	13754.33305
697.595	13821.13287
697.791	14029.60982
697.987	13865.66433
698.183	14041.75327
698.379	13620.72322
698.575	14029.60982
698.77	13446.60317
698.966	13875.78492
699.162	13531.64188
699.358	13549.86362
699.554	13296.75634
699.749	13460.77675
699.945	13359.53271
700.141	13539.74047
700.337	13436.47907
700.532	13827.20542
700.728	13869.71257
700.924	13891.97773
701.119	13946.62719
701.315	13592.37989
701.511	13474.95014
701.706	13831.25378
701.902	13371.68251
702.097	13570.10966
702.293	13476.97489
702.489	13837.32629
702.684	13470.90062
702.88	13553.91286
703.075	13703.72491
703.271	13630.84567
703.466	13663.23697
703.662	13748.26017
703.857	13683.4811
704.053	13679.4323
704.248	13472.92538
704.443	13491.14808
704.639	13574.15882
704.834	13377.75736
705.03	13341.30772
705.225	13497.22224
705.42	13545.81437
705.616	13448.62798
705.811	13262.32888
706.006	13450.65278
706.202	13416.23058
706.397	13517.46922
706.592	13298.78145
706.787	13679.4323
706.983	13347.38275
707.178	13478.99964
707.373	13406.10619
707.568	13596.42898
707.763	13171.19126
707.959	13574.15882
708.154	13290.681
708.349	13110.42775
708.544	13047.63431
708.739	13106.3767
708.934	13223.84965
709.129	13681.4567
709.324	13422.30517
709.519	13531.64188
709.714	13280.55534
709.909	13242.07685
710.104	13007.11993
710.299	13015.22297
710.494	13213.72327
710.689	13240.05162
710.884	13171.19126
711.079	13531.64188
711.274	13199.54616
711.469	13491.14808
711.664	12958.50002
711.859	13321.05734
712.054	13462.80153
712.249	13533.66653
712.443	13023.32592
712.638	12980.78451
712.833	12794.3855
713.028	13055.73695
713.223	12911.90316
713.417	12843.01572
713.612	12755.88429
713.807	12940.2668
714.002	12903.79908
714.196	13150.93722
714.391	13100.30009
714.586	13317.00722
714.78	13080.04441
714.975	12917.98117
715.17	13029.40309
715.364	13108.40223
715.559	12996.99102
715.754	12549.15736
715.948	12676.84899
716.143	12887.59066
716.337	12755.88429
716.532	13039.53159
716.726	13195.49551
716.921	12851.12045
717.115	12832.88469
717.31	12942.29273
717.504	12666.71562
717.699	12847.0681
717.893	12717.38102
718.088	12968.62941
718.282	12628.20742
718.476	12693.06209
718.671	12419.41325
718.865	12648.47516
719.059	12674.82233
719.254	12751.83142
719.448	12384.94543
719.642	12573.48146
719.837	12291.66965
720.031	12348.44796
720.225	12145.64256
720.419	12447.79706
720.614	12096.95834
720.808	12210.54816
721.002	12125.358
721.196	12366.69697
721.39	12271.39035
721.585	12344.39254
721.779	12316.00388
721.973	12464.0158
722.167	12165.92638
722.361	12293.69755
722.555	11954.93721
722.749	12113.1869
722.943	12316.00388
723.137	12190.26597
723.331	12172.01138
723.525	12172.01138
723.719	11934.6453
723.913	11969.14107
724.107	11751.98066
724.301	12139.55727
724.495	11825.05472
724.689	12307.89259
724.883	11861.58761
725.077	12011.7503
725.271	11890.00021
725.465	12025.95259
725.659	11774.31003
725.853	12090.8725
726.046	11999.57659
726.24	12058.41354
726.434	11896.08841
726.628	12342.36483
726.822	12200.40716
727.015	12036.09685
727.209	11875.79412
727.403	12098.98694
727.596	11902.17654
727.79	12200.40716
727.984	12078.70062
728.177	11918.41118
728.371	11910.29392
728.565	12226.77338
728.758	11983.34454
728.952	12163.89803
729.146	12015.80813
729.339	12058.41354
729.533	12261.25044
729.726	12354.53102
729.92	12068.55718
730.113	12027.98146
730.307	12025.95259
730.5	12109.1298
730.694	12133.47192
730.887	12060.44228
731.081	12044.21212
731.274	12040.1545
731.468	11812.87649
731.661	12117.24396
731.854	12113.1869
732.048	12334.25389
732.241	11930.58682
732.435	12226.77338
732.628	12182.15289
732.821	12399.1383
733.014	12021.89483
733.208	12188.23771
733.401	12249.0823
733.594	12066.52847
733.788	12161.86967
733.981	12303.83689
734.174	12052.32727
734.367	11914.35257
734.56	12017.83704
734.754	11910.29392
734.947	11885.94137
735.14	11825.05472
735.333	11849.41029
735.526	11825.05472
735.719	11987.4026
735.912	11851.43986
736.105	11837.23266
736.298	11674.83468
736.491	11918.41118
736.684	12025.95259
736.877	11971.17016
737.07	11950.87889
737.263	12017.83704
737.456	12040.1545
737.649	11863.61714
737.842	12019.86594
738.035	11747.92067
738.228	11829.11407
738.421	11812.87649
738.614	12015.80813
738.807	11950.87889
739	11601.7371
739.192	11613.92085
739.385	11831.14373
739.578	11780.39968
739.771	11707.31876
739.964	11577.36861
740.156	11628.1348
740.349	11453.4746
740.542	11670.77401
740.735	11583.46085
740.927	11528.62762
741.12	11668.74366
741.313	11634.22636
741.505	11699.19795
741.698	11597.67577
741.891	11542.84429
742.083	11382.37176
742.276	11670.77401
742.468	11364.08623
742.661	11171.02228
742.854	11028.704
743.046	11305.16068
743.239	11207.60996
743.431	11079.53804
743.624	11148.66146
743.816	11132.39824
744.009	11120.20038
744.201	10920.91295
744.393	11244.19426
744.586	11183.21855
744.778	11231.99987
744.971	11343.76803
745.163	11492.06832
745.355	11473.78752
745.548	11219.8051
745.74	11262.48516
745.932	11451.44326
746.125	11345.79989
746.317	11136.46411
746.509	11063.27189
746.702	11179.15317
746.894	11272.6464
747.086	11158.82563
747.278	11203.54483
747.471	11156.79282
747.663	10941.2533
747.855	11075.47157
748.047	11002.26759
748.239	11264.51743
748.431	10969.72789
748.623	11089.70403
748.815	10981.93061
749.008	10985.9981
749.2	11124.26638
749.392	11445.34917
749.584	11372.21323
749.776	11335.64047
749.968	11020.56992
750.16	11116.13434
750.352	10967.69406
750.544	11246.22663
750.736	11221.83759
750.928	11321.41685
751.12	10861.9195
751.311	10886.33175
751.503	11187.28389
751.695	11081.57126
751.887	11110.0352
752.079	10949.38912
752.271	10998.20028
752.463	11246.22663
752.654	11140.52994
752.846	11333.60855
753.038	11055.13855
753.23	11081.57126
753.421	10845.64374
753.613	10922.94704
753.805	11010.40207
753.997	10994.13293
754.188	11085.63766
754.38	11000.23394
754.572	10835.47101
754.763	10878.19452
754.955	10652.31134
755.146	10882.26316
755.338	10597.34432
755.53	10847.67825
755.721	10949.38912
755.913	10764.25372
756.104	10487.383
756.296	10904.63986
756.487	10587.16426
756.679	10554.58595
756.87	10165.42637
757.062	10328.4839
757.253	10442.57331
757.445	10397.75737
757.636	10285.68968
757.827	10387.57105
758.019	10253.08058
758.21	10436.46242
758.401	10403.86901
758.593	10228.62148
758.784	10434.42543
758.975	10283.65171
759.167	10361.08508
759.358	10259.19505
759.549	10092.0218
759.74	10438.4994
759.932	10210.27587
760.123	10200.08339
760.314	10145.03802
760.505	10189.89056
760.696	9879.86057
760.888	9861.49306
761.079	9783.92806
761.27	10216.3912
761.461	10446.64718
761.652	10092.0218
761.843	10067.54957
762.034	10065.51012
762.225	9985.96068
762.416	9983.92067
762.607	10083.86461
762.798	9908.42987
762.989	9859.45215
763.18	10210.27587
763.371	10124.64828
763.562	10043.0753
763.753	9832.91899
763.944	10177.65871
764.135	9824.75444
764.326	10322.3708
764.517	9967.60002
764.708	9749.22091
764.899	9767.59583
765.089	9794.13522
765.28	9434.61093
765.471	9822.71326
765.662	9659.37015
765.853	9875.77901
766.043	9916.592
766.234	9924.7539
766.425	9694.08874
766.615	9643.03045
766.806	9565.40322
766.997	9516.36378
767.187	9358.96648
767.378	9614.43357
767.569	9477.53438
767.759	9749.22091
767.95	9753.30433
768.141	9354.87696
768.331	9459.13949
768.522	9436.65507
768.712	9524.53765
768.903	9608.30527
769.093	9332.38338
769.284	9189.19525
769.474	9457.09553
769.665	9195.33357
769.855	9254.66286
770.046	9248.52601
770.236	9027.49724
770.426	9037.73449
770.617	9373.27931
770.807	9123.71026
770.998	9013.16436
771.188	9047.9713
771.378	9088.91422
771.569	8939.43879
771.759	8959.9204
771.949	9111.42987
772.139	9289.43554
772.33	9090.96118
772.52	9017.25955
772.71	9248.52601
772.9	8947.63165
773.09	9217.83946
773.281	9019.30713
773.471	9273.07253
773.661	9140.08314
773.851	8935.34225
774.041	8828.80725
774.231	8964.01652
774.421	8937.39053
774.611	8994.7351
774.802	8994.7351
774.992	8849.29852
775.182	8554.04756
775.372	9054.11318
775.562	8757.07355
775.752	8888.22697
775.942	8742.72413
776.131	9052.06591
776.321	8584.82082
776.511	8890.27566
776.701	8714.0226
776.891	8533.5297
777.081	8529.4259
777.271	8545.84064
777.461	8486.33142
777.651	8535.58157
777.84	8459.64968
778.03	8443.22854
778.22	8476.06959
778.41	8459.64968
778.599	8260.45988
778.789	8603.28274
778.979	8716.07282
779.169	8566.35737
779.358	8488.38373
779.548	8673.01414
779.738	8703.77117
779.927	8738.62413
780.117	8800.11644
780.307	8459.64968
780.496	8486.33142
780.686	8580.71796
780.875	8239.91441
781.065	8469.91227
781.254	8281.00339
781.444	8484.27909
781.633	8369.31817
781.823	8504.80151
782.012	8455.54451
782.202	8636.1002
782.391	8541.73707
782.581	8631.99828
782.77	8287.16606
782.96	8363.15784
783.149	8005.55514
783.338	8246.07826
783.528	8032.29353
783.717	8167.98967
783.906	8307.70701
784.096	8207.03754
784.285	8071.36656
784.474	8032.29353
784.663	7993.21318
784.853	7781.22755
785.042	7925.31927
785.231	8042.57662
785.42	8032.29353
785.61	8040.52004
785.799	7789.46411
785.988	7968.52706
786.177	7709.14339
786.366	7775.04992
786.555	7579.3267
786.744	7840.93502
786.933	7880.04424
787.122	7890.33489
787.312	7801.81832
787.501	7622.60829
787.69	7628.79061
787.879	8011.72584
788.068	7527.78869
788.257	7768.87209
788.445	7476.23726
788.634	7927.37699
788.823	7777.10915
789.012	7768.87209
789.201	7597.8771
789.39	7737.98014
789.579	7597.8771
789.768	7713.26318
789.957	7527.78869
790.145	7507.16973
790.334	7571.08151
790.523	7500.98363
790.712	7465.92536
790.9	7552.52861
791.089	7463.86291
791.278	7505.10772
791.467	7375.15724
791.655	7451.48778
791.844	7521.60323
792.033	7439.11188
792.221	7389.60044
792.41	7434.9864
792.599	7098.46556
792.787	7108.79702
792.976	7271.96039
793.164	7048.86676
793.353	7158.38028
793.541	7224.47139
793.73	6959.96991
793.918	7191.42867
794.107	6937.22216
794.295	6995.12015
794.484	7203.82036
794.672	7030.26388
794.861	7036.46504
795.049	7234.79608
795.238	7170.7741
795.426	7352.45863
795.614	6755.14136
795.803	7234.79608
795.991	7112.92945
796.179	7024.06252
796.368	6868.96249
796.556	7079.86752
796.744	6922.7449
796.932	7019.92816
797.121	6798.60848
797.309	7038.53205
797.497	6862.75584
797.685	6808.95631
797.874	6823.44231
798.062	6897.92415
798.25	6703.38163
798.438	6637.10824
798.626	6695.09874
798.814	6939.29025
799.002	6630.8939
799.19	6761.35156
799.378	6726.15767
799.566	6688.88634
799.755	6792.39951
799.943	6786.19033
800.131	6962.03775
800.318	6734.43918
800.506	6792.39951
800.694	6630.8939
800.882	6597.74726
801.07	6548.01621
801.258	6653.67879
801.446	6678.53187
801.634	6404.9651
801.822	6722.01678
802.01	6489.97981
802.197	6616.39297
802.385	6319.91123
802.573	6599.8191
802.761	6523.14569
802.949	6390.44648
803.136	6415.33484
803.324	6655.75001
803.512	6682.67372
803.699	6885.51256
803.887	6686.81549
804.075	6769.63152
804.262	6471.32139
804.45	6666.10574
804.638	6477.54107
804.825	6637.10824
805.013	6570.81126
805.201	6630.8939
805.388	6525.21836
805.576	6612.24964
805.763	6433.99891
805.951	6620.53621
806.138	6699.24023
806.326	6672.31891
806.513	6591.53161
806.701	6875.16894
806.888	6620.53621
807.075	6672.31891
807.263	6635.03682
807.45	6916.54002
807.638	6431.92521
807.825	6637.10824
808.012	6757.21145
808.2	6550.08861
808.387	6674.38992
808.574	6668.17682
808.761	6477.54107
808.949	6788.26008
809.136	6429.8515
809.323	6744.79056
809.51	6674.38992
809.698	6744.79056
809.885	6346.88378
810.072	6612.24964
810.259	6407.03909
810.446	6359.33132
810.633	6581.17172
810.82	6585.31575
811.008	6664.03464
811.195	6788.26008
811.382	6570.81126
811.569	6765.49159
811.756	6288.78416
811.943	6695.09874
812.13	6483.76055
812.317	6593.60351
812.504	6655.75001
812.691	6740.65008
812.878	6545.9438
813.064	6782.05076
813.251	6469.24812
813.438	6711.66415
813.625	6355.18223
813.812	6661.96352
813.999	6757.21145
814.186	6728.22809
814.372	6463.02816
814.559	6753.07124
814.746	6336.51019
814.933	6595.6754
815.12	6514.85478
815.306	6676.4609
815.493	6529.36364
815.68	6709.59355
815.866	6672.31891
816.053	6713.73472
816.24	6404.9651
816.426	6610.17794
816.613	6415.33484
816.799	6603.9627
816.986	6587.38772
817.173	6672.31891
817.359	6645.3937
817.546	6651.60756
817.732	6346.88378
817.919	6624.67935
818.105	6199.52402
818.292	6431.92521
818.478	6583.24375
818.665	6664.03464
818.851	6404.9651
819.037	6579.09968
819.224	6577.02761
819.41	6541.7989
819.597	6311.61119
819.783	6288.78416
819.969	6407.03909
820.156	6321.98619
820.342	6243.12159
820.528	6655.75001
820.714	6234.81809
820.901	6429.8515
821.087	6442.29344
821.273	6348.95843
821.459	6157.99291
821.646	6321.98619
821.832	6184.9892
822.018	6467.17482
822.204	6074.90249
822.39	6321.98619
822.576	6184.9892
822.762	6268.02985
822.948	6344.80911
823.134	6494.12587
823.32	6058.27989
823.507	6479.61425
823.693	6375.92672
823.879	6197.44769
824.065	5927.32425
824.25	6172.52986
824.436	6039.57766
824.622	6321.98619
824.808	6220.28606
824.994	6222.36213
825.18	5939.80024
825.366	6085.29085
825.552	5731.75608
825.738	5966.82866
825.923	5885.73146
826.109	5904.44938
826.295	5748.4083
826.481	5933.56235
826.667	5790.03223
826.852	6029.18672
827.038	5891.97098
827.224	5858.69109
827.409	5762.97775
827.595	6081.13557
827.781	5889.89116
827.966	6081.13557
828.152	5715.10235
828.338	5735.91928
828.523	5848.28988
828.709	5919.00644
828.894	5740.08238
829.08	5931.48301
829.266	5898.21029
829.451	5867.01163
829.637	5648.47234
829.822	5792.11318
830.008	5598.48397
830.193	5896.13054
830.378	5798.35589
830.564	5995.93172
830.749	5762.97775
830.935	5604.73326
831.12	5396.30941
831.305	5825.40516
831.491	5523.47596
831.676	5706.77492
831.861	5581.81816
832.047	5556.81662
832.232	5598.48397
832.417	5456.77655
832.602	5335.82252
832.788	5460.94597
832.973	5365.02555
833.158	5454.69181
833.343	5200.17692
833.528	5425.50291
833.714	5200.17692
833.899	5675.54369
834.084	5308.70131
834.269	5556.81662
834.454	5214.78965
834.639	5379.62534
834.824	5533.89557
835.009	5652.63742
835.194	5392.13853
835.379	5640.14188
835.564	5191.82627
835.749	5598.48397
835.934	5314.9604
836.119	5241.92454
836.304	5047.71909
836.489	5041.45105
836.674	5056.07614
836.859	5116.65371
837.044	5005.92826
837.228	5185.56305
837.413	4746.62013
837.598	4830.30629
837.783	4729.87855
837.968	5106.21069
838.152	4734.06408
838.337	5154.24376
838.522	4982.93937
838.707	5160.50804
838.891	4930.68153
839.076	5189.73856
839.261	4819.84751
839.445	5091.58949
839.63	4821.93931
839.815	4943.22472
839.999	4974.57908
840.184	5173.03596
840.368	4897.22897
840.553	5120.83075
840.737	5008.01802
840.922	5225.22661
841.106	4884.68275
841.291	4704.76346
841.475	4872.13571
841.66	5122.91924
841.844	4704.76346
842.029	4826.12285
842.213	4861.67921
842.397	4945.31517
842.582	4646.14897
842.766	4796.83619
842.951	4543.53139
843.135	5039.36166
843.319	4706.85651
843.504	4746.62013
843.688	4748.71273
843.872	4558.19432
844.056	4597.9882
844.241	4654.52355
844.425	4629.39874
844.609	4788.46775
844.793	4621.02309
844.977	4574.95062
845.161	4285.70714
845.346	4692.2047
845.53	4164.01813
845.714	4520.48745
845.898	4147.22784
846.082	4359.10532
846.266	4336.04017
846.45	4405.22773
846.634	4226.96966
846.818	4310.87521
847.002	4153.52436
847.186	4386.36075
847.37	4212.28267
847.554	4164.01813
847.738	4260.53599
847.922	4233.26376
848.106	4329.74922
848.29	4394.74629
848.473	4285.70714
848.657	4302.4862
848.841	4348.62148
849.025	4417.80474
849.209	4071.65498
849.392	4128.33717
849.576	4117.84161
849.76	4258.43825
849.944	4109.44479
850.127	4247.94925
850.311	4029.65841
850.495	4117.84161
850.678	3840.57289
850.862	4080.05329
851.046	3823.75742
851.229	4017.05783
851.413	3912.02442
851.596	4050.65773
851.78	3727.04409
851.964	4044.35815
852.147	3764.89336
852.331	3836.36914
852.514	3718.63229
852.698	3869.9969
852.881	3781.71323
853.065	3962.4468
853.248	3941.43889
853.431	4017.05783
853.615	3800.63409
853.798	3895.21437
853.982	3632.39365
854.165	3832.16531
854.348	3682.8787
854.532	3777.50838
854.715	3647.11958
854.898	3861.59044
855.081	3497.71408
855.265	3716.52929
855.448	3461.92718
855.631	3651.32682
855.814	3491.39913
855.997	3550.33231
856.181	3493.50413
856.364	3735.45558
856.547	3760.68819
856.73	3701.80776
856.913	3457.71662
857.096	3714.42627
857.279	3436.6627
857.462	3261.84741
857.645	3411.39565
857.828	3388.23195
858.011	3367.17219
858.194	3419.81829
858.377	3390.33783
858.56	3714.42627
858.743	3615.56287
858.926	3634.49741
859.109	3554.54128
859.292	3514.55316
859.475	3512.44834
859.658	3663.94809
859.841	3453.50598
860.023	3417.71266
860.206	3200.73962
860.389	3497.71408
860.572	3215.49106
860.755	3356.64165
860.937	3200.73962
861.12	3183.87985
861.303	3141.72584
861.486	3354.53549
861.668	3145.94153
861.851	3314.51516
862.034	2983.59182
862.216	3158.58822
862.399	2947.73612
862.581	3080.59112
862.764	2888.67037
862.947	2996.24574
863.129	2861.24313
863.312	3177.55716
863.494	2867.57271
863.677	2905.54746
863.859	2899.21866
864.042	3065.83246
864.224	2850.69356
864.406	2827.48325
864.589	2555.16962
864.771	2899.21866
864.954	2787.38876
865.136	3002.57249
865.318	2738.84675
865.501	2850.69356
865.683	2686.07575
865.865	3044.74735
866.048	2808.49174
866.23	2897.10903
866.412	2884.45095
866.594	2947.73612
866.777	2863.35301
866.959	2812.71218
867.141	2755.73173
867.323	2899.21866
867.505	2504.48391
867.687	2808.49174
867.869	2679.74269
868.052	2956.17314
868.234	2660.74281
868.416	3032.09554
868.598	2586.84477
868.78	2698.74153
868.962	2755.73173
869.144	2918.20467
869.326	2496.03565
869.508	2639.63063
869.69	2453.79168
869.872	2711.40685
870.054	2553.05785
870.236	2639.63063
870.417	2305.90447
870.599	2639.63063
870.781	2424.21829
870.963	2626.96272
871.145	2483.36292
871.327	2730.40394
871.508	2500.2598
871.69	2734.62537
871.872	2392.53022
872.054	2500.2598
872.235	2432.66805
872.417	2694.51966
872.599	2430.55562
872.78	2561.50486
872.962	2453.79168
873.144	2645.96441
873.325	2479.13859
873.507	2705.07425
873.689	2460.12855
873.87	2618.5172
874.052	2381.96701
874.233	2707.18513
874.415	2339.71162
874.596	2724.0717
874.778	2291.11307
874.959	2502.37186
875.141	2335.48587
875.322	2396.75543
875.503	2424.21829
875.685	2434.78046
875.866	2398.86802
876.048	2468.57757
876.229	2419.99335
876.41	2479.13859
876.592	2316.46947
876.773	2620.6286
876.954	2381.96701
877.136	2510.81999
877.317	2191.7878
877.498	2453.79168
877.679	2407.31828
877.86	2419.99335
878.042	2339.71162
878.223	2569.95169
878.404	2316.46947
878.585	2540.38698
878.766	2367.17808
878.947	2400.9806
879.128	2479.13859
879.309	2485.47507
879.49	2525.60376
879.672	2705.07425
879.853	2555.16962
880.034	2557.28138
880.215	2479.13859
880.396	2546.72247
880.576	2331.26007
880.757	2512.93199
880.938	2263.64211
881.119	2407.31828
881.3	2436.89286
881.481	2597.40255
881.662	2373.51625
881.843	2519.26793
882.023	2255.1892
882.204	2400.9806
882.385	2417.88087
882.566	2534.05138
882.747	2288.99998
882.927	2578.39832
883.108	2284.77376
883.289	2715.62852
883.469	2445.34235
883.65	2669.18733
883.831	2348.16302
884.011	2515.04398
884.192	2426.33075
884.373	2584.73317
884.553	2432.66805
884.734	2662.85396
884.914	2238.28293
885.095	2550.94607
885.275	2265.75532
885.456	2439.00525
885.636	2365.06534
885.817	2553.05785
885.997	2517.15596
886.178	2426.33075
886.358	2240.39624
886.538	2362.95258
886.719	2458.01627
886.899	2567.84
887.08	2371.40354
887.26	2542.49882
887.44	2282.66064
887.621	2314.35649
887.801	2168.53869
887.981	2633.29673
888.161	2276.32121
888.342	2563.61659
888.522	2413.65586
888.702	2563.61659
888.882	2474.91422
889.062	2563.61659
889.242	2274.20805
889.423	2462.24082
889.603	2329.14716
889.783	2445.34235
889.963	2360.83982
890.143	2426.33075
890.323	2246.73613
890.503	2460.12855
890.683	2301.67841
890.863	2394.64283
891.043	2238.28293
891.223	2373.51625
891.403	2174.87946
891.583	2567.84
891.763	2105.12706
891.943	2432.66805
892.122	2327.03423
892.302	2485.47507
892.482	2276.32121
892.662	2451.67936
892.842	2375.62896
893.022	2377.74165
893.201	2267.86851
893.381	2242.50955
893.561	2191.7878
893.741	2534.05138
893.92	2198.12829
894.1	2257.30244
894.28	2322.80836
894.459	2491.81145
894.639	2141.06119
894.819	2343.93734
894.998	2229.82958
895.178	2567.84
895.357	2147.40227
895.537	2462.24082
895.716	2060.73484
895.896	2318.58244
896.075	1963.48406
896.255	2265.75532
896.434	1967.71264
896.614	2196.0148
896.793	1974.05546
896.973	2170.65229
897.152	2062.84883
897.331	2122.03752
897.511	1889.48018
897.69	2103.01322
897.87	1944.45516
898.049	2128.37881
898.228	1969.82692
898.407	1919.08256
898.587	1821.81381
898.766	2134.72004
898.945	1781.63467
899.124	2014.22534
899.304	1667.43393
899.483	2018.45361
899.662	1711.84648
899.841	1859.87676
900.02	1510.92469
900.199	1897.93811
900.378	1752.02805
900.557	1876.79312
900.737	1722.4207
900.916	1876.79312
901.095	1449.58827
901.274	1807.01115
901.453	1618.79026
901.632	1760.48716
901.811	1519.38485
901.989	1889.48018
902.168	1688.58293
902.347	1849.30387
902.526	1513.03973
902.705	1798.55239
902.884	1510.92469
903.063	1513.03973
903.242	1388.25188
903.42	1614.56032
903.599	1369.21656
903.778	1720.30586
903.957	1563.80043
904.135	1688.58293
904.314	1483.42909
904.493	1713.96133
904.672	1455.93342
904.85	1513.03973
905.029	1358.64142
905.207	1453.81837
905.386	1386.13684
905.565	1527.845
905.743	1326.9162
905.922	1455.93342
906.1	1189.44585
906.279	1278.27162
906.457	1087.93856
906.636	1350.18133
906.814	1113.31442
906.993	1318.4562
907.171	1159.83855
907.35	1159.83855
907.528	1189.44585
907.707	1216.93897
907.885	1028.73113
908.063	1208.47949
908.242	1100.6264
908.42	1204.24977
908.598	944.15735
908.777	1109.08506
908.955	961.07124
909.133	1159.83855
909.311	948.38578
909.49	1132.34677
909.668	1049.87614
909.846	1106.97039
910.024	923.01562
910.202	1104.85572
910.38	969.52836
910.559	1183.10137
910.737	1032.96009
910.915	1227.51339
911.093	990.67163
911.271	1145.0352
911.449	1007.58672
911.627	1102.74106
911.805	965.29979
911.983	1180.98655
912.161	1136.57623
912.339	1106.97039
912.517	939.92894
912.695	1079.4801
912.872	1013.92998
913.05	1210.59435
913.228	1083.70932
913.406	1157.72378
913.584	1274.04171
913.762	1172.5273
913.939	990.67163
914.117	1231.74319
914.295	1007.58672
914.473	982.21424
914.65	878.6205
914.828	982.21424
915.006	935.70057
915.184	1092.16782
915.361	952.61424
915.539	1049.87614
915.716	925.12976
915.894	975.87127
916.072	965.29979
916.249	1085.82394
916.427	948.38578
916.604	1020.27329
916.782	935.70057
916.959	1098.51175
917.137	946.27156
917.314	999.12912
917.492	863.82293
917.669	948.38578
917.847	834.22902
918.024	971.64266
918.201	842.68425
918.379	887.07645
918.556	825.77394
918.733	1134.46149
918.911	834.22902
919.088	865.93684
919.265	800.40958
919.442	1092.16782
919.62	846.91191
919.797	946.27156
919.974	868.05076
920.151	908.21687
920.328	791.95509
920.506	914.55914
920.683	836.34282
920.86	787.7279
921.037	785.61432
921.214	844.79808
921.391	749.685
921.568	741.23147
921.745	707.41905
921.922	720.09839
922.099	766.59256
922.276	794.0687
922.453	665.1575
922.63	783.50075
922.807	538.40216
922.984	884.96245
923.161	682.06158
923.338	686.28771
923.514	637.69
923.691	663.04455
923.868	669.38345
924.045	633.46441
924.222	616.56254
924.399	694.74011
924.575	576.42387
924.752	745.45822
924.929	701.07953
925.105	644.02847
925.282	616.56254
925.459	591.21126
925.635	517.28093
925.812	529.9535
925.989	394.80709
926.165	557.41247
926.342	443.36809
926.518	690.51389
926.695	534.1778
926.871	639.80281
927.048	491.93733
927.224	544.73881
927.401	466.59585
927.577	517.28093
927.754	430.69919
927.93	494.04922
928.107	489.82546
928.283	589.09874
928.459	475.04277
928.636	479.26632
928.812	449.70275
928.988	479.26632
929.165	517.28093
929.341	517.28093
929.517	411.69691
929.693	453.92593
929.87	453.92593
930.046	399.02945
930.222	348.36559
930.398	405.3631
930.574	337.81186
930.751	380.02937
930.927	369.47435
931.103	523.61715
931.279	373.69631
931.455	388.47368
931.631	361.03064
931.807	422.25357
931.983	358.91976
932.159	371.58532
932.335	339.92257
932.511	407.47436
932.687	327.25857
932.863	344.14405
933.039	348.36559
933.215	285.04988
933.391	396.91826
933.566	365.25246
933.742	221.75083
933.918	331.47983
934.094	221.75083
934.27	293.49103
934.445	244.95848
934.621	318.81625
934.797	173.23352
934.973	179.56125
935.148	259.7282
935.324	230.1897
935.5	211.20268
935.675	259.7282
935.851	270.27857
936.027	175.34274
936.202	187.99852
936.378	228.07995
936.553	209.09311
936.729	137.37989
936.904	219.64116
937.08	107.85801
937.255	175.34274
937.431	114.18377
937.606	76.23219
937.782	183.77985
937.957	196.43612
938.133	82.55695
938.308	48.82725
938.483	124.72714
938.659	8.78094
938.834	103.64094
939.009	124.72714
939.185	55.15113
939.36	124.72714
939.535	90.99028
939.71	120.50972
939.886	118.40105
940.061	78.34042
940.236	84.66525
940.411	48.82725
940.586	48.82725
940.761	61.47521
940.937	23.53386
941.112	48.82725
941.287	53.04315
941.462	90.99028
941.637	76.23219
941.812	25.64151
941.987	-48.11204
942.162	57.25913
942.337	55.15113
942.512	65.69137
942.687	76.23219
942.862	53.04315
943.037	109.96657
943.212	74.12398
943.386	31.96461
943.561	53.04315
943.736	31.96461
943.911	99.42397
944.086	44.61145
944.26	50.93519
944.435	78.34042
944.61	67.79949
944.785	69.90763
944.959	40.39575
945.134	99.42397
945.309	-10.18537
945.483	44.61145
945.658	86.77357
945.833	112.07516
946.007	59.36716
946.182	10.88843
946.357	48.82725
946.531	74.12398
946.706	4.56604
946.88	59.36716
947.055	72.0158
947.229	57.25913
947.404	48.82725
947.578	76.23219
947.752	-5.9708
947.927	17.21104
948.101	50.93519
948.276	61.47521
948.45	6.67348
948.624	67.79949
948.799	-18.61421
948.973	40.39575
949.147	46.71934
949.321	93.09867
949.496	109.96657
949.67	31.96461
949.844	44.61145
950.018	53.04315
950.193	53.04315
950.367	99.42397
950.541	78.34042
950.715	23.53386
950.889	82.55695
951.063	4.56604
951.237	23.53386
951.411	124.72714
951.585	36.18013
951.759	-5.9708
951.933	95.20708
952.107	15.10348
952.281	57.25913
952.455	57.25913
952.629	61.47521
952.803	120.50972
952.977	31.96461
953.151	-3.86348
953.325	36.18013
953.499	116.2924
953.672	90.99028
953.846	65.69137
954.02	124.72714
954.194	31.96461
954.368	76.23219
954.541	53.04315
954.715	40.39575
954.889	175.34274
955.062	103.64094
955.236	25.64151
955.41	74.12398
955.583	116.2924
955.757	53.04315
955.93	124.72714
956.104	124.72714
956.278	50.93519
956.451	50.93519
956.625	40.39575
956.798	120.50972
956.972	107.85801
957.145	65.69137
957.319	128.94464
957.492	67.79949
957.665	63.58328
957.839	57.25913
958.012	99.42397
958.185	27.74919
958.359	158.46953
958.532	53.04315
958.705	50.93519
958.879	112.07516
959.052	31.96461
959.225	57.25913
959.398	50.93519
959.572	93.09867
959.745	84.66525
959.918	103.64094
960.091	107.85801
960.264	57.25913
960.438	17.21104
960.611	23.53386
960.784	82.55695
960.957	93.09867
961.13	171.12431
961.303	90.99028
961.476	93.09867
961.649	17.21104
961.822	88.88192
961.995	112.07516
962.168	61.47521
962.341	112.07516
962.514	112.07516
962.686	65.69137
962.859	8.78094
963.032	38.28793
963.205	31.96461
963.378	82.55695
963.551	61.47521
963.723	23.53386
963.896	95.20708
964.069	61.47521
964.242	179.56125
964.414	36.18013
964.587	31.96461
964.76	59.36716
964.932	-1.75614
965.105	61.47521
965.278	90.99028
965.45	99.42397
965.623	57.25913
965.795	40.39575
965.968	-3.86348
966.14	74.12398
966.313	59.36716
966.485	42.50359
966.658	12.99594
966.83	-10.18537
967.003	116.2924
967.175	82.55695
967.348	65.69137
967.52	69.90763
967.692	50.93519
967.865	82.55695
968.037	80.44868
968.209	69.90763
968.382	48.82725
968.554	48.82725
968.726	69.90763
968.898	38.28793
969.071	120.50972
969.243	95.20708
969.415	23.53386
969.587	59.36716
969.759	82.55695
969.932	27.74919
970.104	95.20708
970.276	44.61145
970.448	15.10348
970.62	86.77357
970.792	78.34042
970.964	-18.61421
971.136	74.12398
971.308	116.2924
971.48	65.69137
971.652	34.07236
971.824	48.82725
971.996	23.53386
972.168	95.20708
972.339	72.0158
972.511	88.88192
972.683	-24.93558
972.855	48.82725
973.027	109.96657
973.199	44.61145
973.37	86.77357
973.542	-5.9708
973.714	59.36716
973.886	31.96461
974.057	57.25913
974.229	65.69137
974.401	23.53386
974.572	40.39575
974.744	29.85689
974.915	116.2924
975.087	40.39575
975.259	8.78094
975.43	23.53386
975.602	74.12398
975.773	31.96461
975.945	78.34042
976.116	74.12398
976.288	135.27105
976.459	124.72714
976.63	46.71934
976.802	40.39575
976.973	90.99028
977.145	44.61145
977.316	34.07236
977.487	57.25913
977.659	48.82725
977.83	-14.39983
978.001	34.07236
978.172	65.69137
978.344	23.53386
978.515	40.39575
978.686	57.25913
978.857	-8.0781
979.028	15.10348
979.2	29.85689
979.371	50.93519
979.542	109.96657
979.713	59.36716
979.884	31.96461
980.055	67.79949
980.226	10.88843
980.397	50.93519
980.568	57.25913
980.739	59.36716
980.91	42.50359
981.081	38.28793
981.252	133.16222
981.423	67.79949
981.594	90.99028
981.765	17.21104
981.936	86.77357
982.106	-39.68458
982.277	46.71934
982.448	6.67348
982.619	42.50359
982.79	15.10348
982.96	31.96461
983.131	29.85689
983.302	42.50359
983.472	23.53386
983.643	34.07236
983.814	133.16222
983.984	6.67348
984.155	27.74919
984.326	40.39575
984.496	80.44868
984.667	-39.68458
984.837	-27.04265
985.008	103.64094
985.178	23.53386
985.349	15.10348
985.519	-27.04265
985.69	46.71934
985.86	15.10348
986.031	93.09867
986.201	80.44868
986.371	23.53386
986.542	12.99594
986.712	82.55695
986.882	-1.75614
987.053	118.40105
987.223	63.58328
987.393	-22.82848
987.563	57.25913
987.734	15.10348
987.904	19.31862
988.074	-58.64579
988.244	-10.18537
988.414	-5.9708
988.585	10.88843
988.755	82.55695
988.925	12.99594
989.095	57.25913
989.265	67.79949
989.435	31.96461
989.605	0.35123
989.775	40.39575
989.945	36.18013
990.115	0.35123
990.285	-16.50703
990.455	6.67348
990.625	40.39575
990.795	82.55695
990.965	-10.18537
991.134	-16.50703
991.304	82.55695
991.474	59.36716
991.644	57.25913
991.814	44.61145
991.984	15.10348
992.153	84.66525
992.323	-5.9708
992.493	-35.47071
992.662	53.04315
992.832	99.42397
993.002	101.53244
993.171	34.07236
993.341	36.18013
993.511	23.53386
993.68	-35.47071
993.85	15.10348
994.019	40.39575
994.189	-41.79148
994.358	48.82725
994.528	69.90763
994.697	25.64151
994.867	2.45862
995.036	74.12398
995.206	-16.50703
995.375	57.25913
995.544	74.12398
995.714	2.45862
995.883	-1.75614
996.052	23.53386
996.222	10.88843
996.391	25.64151
996.56	4.56604
996.73	-37.57766
996.899	17.21104
997.068	25.64151
997.237	65.69137
997.406	25.64151
997.576	17.21104
997.745	6.67348
997.914	6.67348
998.083	0.35123
998.252	-43.89836
998.421	2.45862
998.59	48.82725
998.759	17.21104
998.928	38.28793
999.097	-8.0781
999.266	38.28793
999.435	-18.61421
999.604	40.39575
999.773	15.10348
999.942	0.35123
1000.111	50.93519
1000.28	-8.0781
1000.448	-14.39983
1000.617	-27.04265
1000.786	-20.72135
1000.955	-16.50703
1001.124	15.10348
1001.292	12.99594
1001.461	40.39575
1001.63	-10.18537
1001.798	42.50359
1001.967	36.18013
1002.136	17.21104
1002.304	17.21104
1002.473	-67.07234
1002.642	74.12398
1002.81	74.12398
1002.979	112.07516
1003.147	90.99028
1003.316	-8.0781
1003.484	15.10348
1003.653	-27.04265
1003.821	23.53386
1003.99	-52.32561
1004.158	-14.39983
1004.327	23.53386
1004.495	44.61145
1004.663	44.61145
1004.832	34.07236
1005	40.39575
1005.168	-1.75614
1005.337	6.67348
1005.505	-5.9708
1005.673	69.90763
1005.842	-52.32561
1006.01	34.07236
1006.178	19.31862
1006.346	65.69137
1006.514	78.34042
1006.683	67.79949
1006.851	-20.72135
1007.019	19.31862
1007.187	-18.61421
1007.355	-8.0781
1007.523	-8.0781
1007.691	-29.1497
1007.859	12.99594
1008.027	8.78094
1008.195	0.35123
1008.363	-18.61421
1008.531	34.07236
1008.699	-27.04265
1008.867	15.10348
1009.035	158.46953
1009.203	-37.57766
1009.37	57.25913
1009.538	10.88843
1009.706	0.35123
1009.874	-5.9708
1010.042	4.56604
1010.209	-60.75247
1010.377	53.04315
1010.545	15.10348
1010.713	21.42623
1010.88	15.10348
1011.048	40.39575
1011.216	-18.61421
1011.383	-1.75614
1011.551	-39.68458
1011.718	10.88843
1011.886	-18.61421
1012.054	-35.47071
1012.221	19.31862
1012.389	-29.1497
1012.556	10.88843
1012.724	36.18013
1012.891	21.42623
1013.058	38.28793
1013.226	-58.64579
1013.393	4.56604
1013.561	12.99594
1013.728	23.53386
1013.895	2.45862
1014.063	57.25913
1014.23	-52.32561
1014.397	15.10348
1014.565	6.67348
1014.732	-12.29261
1014.899	12.99594
1015.066	2.45862
1015.233	-35.47071
1015.401	-18.61421
1015.568	-35.47071
1015.735	48.82725
1015.902	2.45862
1016.069	10.88843
1016.236	36.18013
1016.403	-27.04265
1016.57	-22.82848
1016.737	-5.9708
1016.904	0.35123
1017.071	31.96461
1017.238	38.28793
1017.405	23.53386
1017.572	46.71934
1017.739	48.82725
1017.906	-1.75614
1018.073	-33.36373
1018.24	36.18013
1018.407	69.90763
1018.573	10.88843
1018.74	10.88843
1018.907	23.53386
1019.074	31.96461
1019.241	6.67348
1019.407	-10.18537
1019.574	40.39575
1019.741	48.82725
1019.907	61.47521
1020.074	-86.03057
1020.241	40.39575
1020.407	0.35123
1020.574	55.15113
1020.74	-14.39983
1020.907	-12.29261
1021.073	-12.29261
1021.24	23.53386
1021.406	-31.25673
1021.573	50.93519
1021.739	2.45862
1021.906	0.35123
1022.072	-1.75614
1022.239	46.71934
1022.405	-1.75614
1022.571	21.42623
1022.738	21.42623
1022.904	10.88843
1023.07	6.67348
1023.237	-5.9708
1023.403	-14.39983
1023.569	36.18013
1023.735	31.96461
1023.902	-64.96574
1024.068	0.35123
1024.234	10.88843
1024.4	-77.60495
1024.566	-46.00521
1024.732	-1.75614
1024.898	34.07236
1025.065	95.20708
1025.231	23.53386
1025.397	27.74919
1025.563	6.67348
1025.729	31.96461
1025.895	42.50359
1026.061	-1.75614
1026.227	23.53386
1026.392	12.99594
1026.558	-18.61421
1026.724	25.64151
1026.89	-41.79148
1027.056	-8.0781
1027.222	-3.86348
1027.388	-24.93558
1027.553	50.93519
1027.719	31.96461
1027.885	6.67348
1028.051	36.18013
1028.216	57.25913
1028.382	-8.0781
1028.548	-22.82848
1028.713	31.96461
1028.879	23.53386
1029.045	-18.61421
1029.21	-10.18537
1029.376	-1.75614
1029.541	116.2924
1029.707	0.35123
1029.873	-8.0781
1030.038	69.90763
1030.204	10.88843
1030.369	48.82725
1030.534	-33.36373
1030.7	-10.18537
1030.865	-50.21884
1031.031	63.58328
1031.196	48.82725
1031.361	-90.24323
1031.527	0.35123
1031.692	65.69137
1031.857	76.23219
1032.023	2.45862
1032.188	-31.25673
1032.353	59.36716
1032.518	27.74919
1032.684	69.90763
1032.849	2.45862
1033.014	17.21104
1033.179	17.21104
1033.344	23.53386
1033.509	-10.18537
1033.674	10.88843
1033.839	34.07236
1034.004	6.67348
1034.17	25.64151
1034.335	4.56604
1034.5	-33.36373
1034.664	19.31862
1034.829	-58.64579
1034.994	61.47521
1035.159	-52.32561
1035.324	-39.68458
1035.489	-46.00521
1035.654	-5.9708
1035.819	8.78094
1035.984	63.58328
1036.148	93.09867
1036.313	34.07236
1036.478	19.31862
1036.643	57.25913
1036.807	34.07236
1036.972	-18.61421
1037.137	8.78094
1037.301	-50.21884
1037.466	112.07516
1037.631	0.35123
1037.795	44.61145
1037.96	65.69137
1038.124	-1.75614
1038.289	44.61145
1038.454	65.69137
1038.618	-67.07234
1038.783	50.93519
1038.947	53.04315
1039.111	23.53386
1039.276	0.35123
1039.44	50.93519
1039.605	-56.53909
1039.769	31.96461
1039.933	12.99594
1040.098	2.45862
1040.262	6.67348
1040.426	10.88843
1040.591	17.21104
1040.755	40.39575
1040.919	23.53386
1041.083	0.35123
1041.248	21.42623
1041.412	-54.43236
1041.576	2.45862
1041.74	-3.86348
1041.904	27.74919
1042.068	-35.47071
1042.232	-10.18537
1042.397	-33.36373
1042.561	-16.50703
1042.725	-22.82848
1042.889	27.74919
1043.053	-31.25673
1043.217	-12.29261
1043.381	38.28793
1043.544	27.74919
1043.708	21.42623
1043.872	-14.39983
1044.036	65.69137
1044.2	-27.04265
1044.364	19.31862
1044.528	6.67348
1044.691	-16.50703
1044.855	42.50359
1045.019	40.39575
1045.183	-18.61421
1045.346	-24.93558
1045.51	-52.32561
1045.674	34.07236
1045.837	59.36716
1046.001	65.69137
1046.165	10.88843
1046.328	-52.32561
1046.492	17.21104
1046.655	-29.1497
1046.819	50.93519
1046.983	2.45862
1047.146	-1.75614
1047.31	63.58328
1047.473	42.50359
1047.636	-1.75614
1047.8	8.78094
1047.963	-73.39198
1048.127	-18.61421
1048.29	31.96461
