Data from absorb_only_2.23.25_USB4F045381__67__0172.txt Node

Date: Sun Feb 23 19:25:35 EST 2025
User: ssocol
Spectrometer: USB4F04538
Trigger mode: 4
Integration Time (sec): 2.600000E-3
Scans to average: 1
Electric dark correction enabled: true
Nonlinearity correction enabled: true
Boxcar width: 0
XAxis mode: Wavelengths
Number of Pixels in Spectrum: 3648
>>>>>Begin Spectral Data<<<<<
345.52	-97.96616
345.736	-97.96616
345.952	-97.96616
346.168	-17.91182
346.384	-1.05368
346.6	36.88273
346.816	11.59093
347.032	-1.05368
347.248	5.26851
347.464	15.80599
347.68	-11.5902
347.896	-22.12611
348.112	-3.16104
348.328	-13.69743
348.544	47.42198
348.76	-68.47672
348.975	3.16109
349.191	-34.76838
349.407	-9.48295
349.623	-76.90279
349.839	-43.19607
350.055	32.66719
350.27	22.12877
350.486	-9.48295
350.702	-45.30293
350.918	30.55946
351.133	17.91356
351.349	3.16109
351.565	-68.47672
351.781	53.7458
351.996	45.31408
352.212	-68.47672
352.428	-30.55439
352.644	-5.26836
352.859	-51.62336
353.075	-15.80464
353.291	36.88273
353.506	20.02115
353.722	45.31408
353.938	-43.19607
354.153	-13.69743
354.369	20.02115
354.584	5.26851
354.8	20.02115
355.016	36.88273
355.231	-11.5902
355.447	-17.91182
355.662	-28.44736
355.878	13.69845
356.093	36.88273
356.309	-3.16104
356.524	-36.87534
356.74	-15.80464
356.955	20.02115
357.171	22.12877
357.386	-22.12611
357.602	-3.16104
357.817	-22.12611
358.033	-83.22208
358.248	9.48343
358.464	-43.19607
358.679	30.55946
358.895	-20.01897
359.11	38.99053
359.325	-89.54113
359.541	-45.30293
359.756	-30.55439
359.972	53.7458
360.187	28.45175
360.402	-22.12611
360.618	3.16109
360.833	-28.44736
361.048	49.5299
361.264	-49.51657
361.479	28.45175
361.694	15.80599
361.909	-91.64742
362.125	-5.26836
362.34	30.55946
362.555	-36.87534
362.77	-26.3403
362.986	-34.76838
363.201	45.31408
363.416	-5.26836
363.631	-51.62336
363.847	-104.28467
364.062	-66.37014
364.277	-55.83685
364.492	-5.26836
364.707	-47.40976
364.922	11.59093
365.138	-11.5902
365.353	-1.05368
365.568	36.88273
365.783	-79.00925
365.998	1.05369
366.213	-43.19607
366.428	-104.28467
366.643	20.02115
366.858	3.16109
367.073	-28.44736
367.288	-55.83685
367.503	3.16109
367.718	-26.3403
367.933	-5.26836
368.148	26.34407
368.363	-64.26353
368.578	-5.26836
368.793	-45.30293
369.008	24.2364
369.223	-22.12611
369.438	-7.37567
369.653	-22.12611
369.868	-20.01897
370.083	28.45175
370.298	-3.16104
370.513	53.7458
370.728	-28.44736
370.943	28.45175
371.157	-93.7537
371.372	55.85379
371.587	32.66719
371.802	-17.91182
372.017	28.45175
372.232	53.7458
372.446	-55.83685
372.661	41.09836
372.876	-55.83685
373.091	-47.40976
373.306	-1.05368
373.52	7.37596
373.735	-5.26836
373.95	-102.17852
374.165	-5.26836
374.379	-38.98228
374.594	20.02115
374.809	22.12877
375.023	28.45175
375.238	-62.1569
375.453	-47.40976
375.667	-68.47672
375.882	-17.91182
376.097	104.34378
376.311	-15.80464
376.526	13.69845
376.741	-74.79631
376.955	11.59093
377.17	3.16109
377.384	3.16109
377.599	-55.83685
377.813	-68.47672
378.028	-127.45048
378.242	-49.51657
378.457	-9.48295
378.672	5.26851
378.886	-47.40976
379.101	26.34407
379.315	-66.37014
379.53	-5.26836
379.744	-43.19607
379.958	-55.83685
380.173	-13.69743
380.387	-60.05024
380.602	-55.83685
380.816	-22.12611
381.031	-30.55439
381.245	-45.30293
381.459	-22.12611
381.674	57.9618
381.888	-22.12611
382.103	-20.01897
382.317	41.09836
382.531	-17.91182
382.746	17.91356
382.96	-22.12611
383.174	-5.26836
383.388	55.85379
383.603	32.66719
383.817	-11.5902
384.031	-3.16104
384.246	13.69845
384.46	-15.80464
384.674	-20.01897
384.888	-22.12611
385.103	-28.44736
385.317	-76.90279
385.531	5.26851
385.745	-3.16104
385.959	43.20621
386.174	-1.05368
386.388	28.45175
386.602	11.59093
386.816	-9.48295
387.03	3.16109
387.244	13.69845
387.458	36.88273
387.672	45.31408
387.887	5.26851
388.101	-68.47672
388.315	20.02115
388.529	-38.98228
388.743	-1.05368
388.957	7.37596
389.171	45.31408
389.385	-49.51657
389.599	-22.12611
389.813	36.88273
390.027	5.26851
390.241	20.02115
390.455	-9.48295
390.669	-62.1569
390.883	45.31408
391.097	28.45175
391.311	17.91356
391.525	-26.3403
391.738	3.16109
391.952	-11.5902
392.166	-51.62336
392.38	-34.76838
392.594	24.2364
392.808	34.77495
393.022	9.48343
393.236	-64.26353
393.449	-89.54113
393.663	-13.69743
393.877	62.17789
394.091	30.55946
394.305	-55.83685
394.518	28.45175
394.732	30.55946
394.946	-57.94356
395.16	79.04317
395.373	57.9618
395.587	-3.16104
395.801	-5.26836
396.015	28.45175
396.228	20.02115
396.442	-49.51657
396.656	-47.40976
396.869	-3.16104
397.083	3.16109
397.297	-43.19607
397.51	-32.6614
397.724	-1.05368
397.938	7.37596
398.151	-38.98228
398.365	-32.6614
398.578	20.02115
398.792	-41.08919
399.005	11.59093
399.219	30.55946
399.433	-3.16104
399.646	-30.55439
399.86	-30.55439
400.073	-60.05024
400.287	-38.98228
400.5	53.7458
400.714	-1.05368
400.927	-9.48295
401.141	-43.19607
401.354	53.7458
401.567	-30.55439
401.781	62.17789
401.994	-1.05368
402.208	-26.3403
402.421	-34.76838
402.635	95.90989
402.848	-38.98228
403.061	95.90989
403.275	49.5299
403.488	5.26851
403.701	3.16109
403.915	-9.48295
404.128	1.05369
404.341	7.37596
404.555	20.02115
404.768	30.55946
404.981	20.02115
405.195	-30.55439
405.408	24.2364
405.621	66.39408
405.834	57.9618
406.048	-7.37567
406.261	-17.91182
406.474	-41.08919
406.687	-49.51657
406.9	11.59093
407.114	55.85379
407.327	83.25972
407.54	11.59093
407.753	9.48343
407.966	-5.26836
408.179	-28.44736
408.392	-30.55439
408.605	20.02115
408.819	28.45175
409.032	20.02115
409.245	3.16109
409.458	22.12877
409.671	-13.69743
409.884	13.69845
410.097	36.88273
410.31	-13.69743
410.523	-55.83685
410.736	24.2364
410.949	-24.23321
411.162	-20.01897
411.375	41.09836
411.588	15.80599
411.801	-9.48295
412.014	-17.91182
412.227	66.39408
412.44	24.2364
412.653	11.59093
412.865	-11.5902
413.078	-30.55439
413.291	-36.87534
413.504	-13.69743
413.717	-15.80464
413.93	30.55946
414.143	-28.44736
414.356	20.02115
414.568	-22.12611
414.781	22.12877
414.994	-49.51657
415.207	-13.69743
415.42	22.12877
415.632	15.80599
415.845	-20.01897
416.058	22.12877
416.271	45.31408
416.483	11.59093
416.696	36.88273
416.909	-30.55439
417.121	-45.30293
417.334	24.2364
417.547	64.28597
417.759	-30.55439
417.972	11.59093
418.185	-20.01897
418.397	-7.37567
418.61	32.66719
418.823	15.80599
419.035	-70.58328
419.248	70.61035
419.46	-20.01897
419.673	5.26851
419.885	22.12877
420.098	-38.98228
420.311	-26.3403
420.523	-1.05368
420.736	-53.73012
420.948	-38.98228
421.161	1.05369
421.373	24.2364
421.586	-55.83685
421.798	7.37596
422.01	28.45175
422.223	-72.68981
422.435	34.77495
422.648	34.77495
422.86	-64.26353
423.073	15.80599
423.285	32.66719
423.497	-20.01897
423.71	-11.5902
423.922	43.20621
424.134	36.88273
424.347	-60.05024
424.559	72.71852
424.771	74.82672
424.984	45.31408
425.196	9.48343
425.408	36.88273
425.621	34.77495
425.833	-11.5902
426.045	20.02115
426.257	36.88273
426.47	121.21262
426.682	-45.30293
426.894	24.2364
427.106	-30.55439
427.318	53.7458
427.531	-53.73012
427.743	-3.16104
427.955	3.16109
428.167	-13.69743
428.379	3.16109
428.591	-30.55439
428.804	9.48343
429.016	28.45175
429.228	-20.01897
429.44	45.31408
429.652	-5.26836
429.864	45.31408
430.076	-26.3403
430.288	38.99053
430.5	-9.48295
430.712	36.88273
430.924	45.31408
431.136	15.80599
431.348	30.55946
431.56	45.31408
431.772	-13.69743
431.984	17.91356
432.196	11.59093
432.408	30.55946
432.62	36.88273
432.832	7.37596
433.044	53.7458
433.256	64.28597
433.468	-9.48295
433.679	38.99053
433.891	-9.48295
434.103	43.20621
434.315	-13.69743
434.527	45.31408
434.739	11.59093
434.95	-17.91182
435.162	66.39408
435.374	28.45175
435.586	-1.05368
435.798	38.99053
436.009	5.26851
436.221	70.61035
436.433	28.45175
436.645	55.85379
436.856	32.66719
437.068	20.02115
437.28	55.85379
437.491	41.09836
437.703	45.31408
437.915	-17.91182
438.126	53.7458
438.338	57.9618
438.55	-5.26836
438.761	36.88273
438.973	-45.30293
439.184	20.02115
439.396	11.59093
439.608	11.59093
439.819	-20.01897
440.031	-20.01897
440.242	70.61035
440.454	41.09836
440.665	64.28597
440.877	41.09836
441.088	-91.64742
441.3	-3.16104
441.511	-13.69743
441.723	53.7458
441.934	83.25972
442.146	45.31408
442.357	11.59093
442.569	-20.01897
442.78	62.17789
442.991	51.63784
443.203	57.9618
443.414	45.31408
443.626	110.66943
443.837	64.28597
444.048	28.45175
444.26	24.2364
444.471	83.25972
444.682	95.90989
444.894	11.59093
445.105	45.31408
445.316	-3.16104
445.528	93.80147
445.739	43.20621
445.95	79.04317
446.161	129.64756
446.373	70.61035
446.584	57.9618
446.795	62.17789
447.006	62.17789
447.217	28.45175
447.429	1.05369
447.64	5.26851
447.851	95.90989
448.062	95.90989
448.273	62.17789
448.484	87.47635
448.695	85.36802
448.907	87.47635
449.118	57.9618
449.329	91.69308
449.54	47.42198
449.751	121.21262
449.962	53.7458
450.173	20.02115
450.384	30.55946
450.595	24.2364
450.806	98.01833
451.017	28.45175
451.228	62.17789
451.439	47.42198
451.65	95.90989
451.861	95.90989
452.072	76.93493
452.283	45.31408
452.494	116.99528
452.705	36.88273
452.915	129.64756
453.126	81.15143
453.337	32.66719
453.548	87.47635
453.759	127.53879
453.97	47.42198
454.181	112.77803
454.391	53.7458
454.602	112.77803
454.813	87.47635
455.024	66.39408
455.235	83.25972
455.445	186.59229
455.656	116.99528
455.867	98.01833
456.078	190.81102
456.288	121.21262
456.499	89.5847
456.71	140.19172
456.921	70.61035
457.131	66.39408
457.342	95.90989
457.553	57.9618
457.763	62.17789
457.974	140.19172
458.184	135.97399
458.395	104.34378
458.606	108.56086
458.816	171.82738
459.027	112.77803
459.237	144.40954
459.448	68.5022
459.659	135.97399
459.869	239.33216
460.08	49.5299
460.29	167.60902
460.501	129.64756
460.711	190.81102
460.922	167.60902
461.132	260.43154
461.343	121.21262
461.553	157.06349
461.764	199.24872
461.974	146.51847
462.184	192.92041
462.395	176.04582
462.605	180.26435
462.816	146.51847
463.026	292.08415
463.236	182.37364
463.447	239.33216
463.657	184.48295
463.867	281.53282
464.078	140.19172
464.288	207.68674
464.498	273.09208
464.709	233.00273
464.919	188.70164
465.129	243.55189
465.339	258.32152
465.55	262.54158
465.76	251.99156
465.97	247.77168
466.18	292.08415
466.391	380.73305
466.601	226.67346
466.811	382.84411
467.021	298.41518
467.231	420.84599
467.441	281.53282
467.651	397.62199
467.862	317.40923
468.072	399.73318
468.282	363.84518
468.492	498.97701
468.702	342.73688
468.912	376.51098
469.122	408.17811
469.332	450.40661
469.542	374.39997
469.752	484.19387
469.962	570.79075
470.172	551.77967
470.382	437.73739
470.592	452.5182
470.802	545.44289
471.012	606.70349
471.222	627.83037
471.432	615.15409
471.642	625.71762
471.852	746.16268
472.062	686.99207
472.272	763.0701
472.482	716.57631
472.691	822.25103
472.901	663.74887
473.111	807.4551
473.321	853.9581
473.531	936.4053
473.741	868.75541
473.95	1067.49742
474.16	864.52756
474.37	999.83392
474.58	1001.94831
474.79	1200.72501
474.999	999.83392
475.209	1133.05168
475.419	1128.82223
475.628	1128.82223
475.838	1050.58099
476.048	1245.1376
476.258	1249.36744
476.467	1287.43646
476.677	1270.5168
476.886	1424.91267
477.096	1255.71222
477.306	1384.72681
477.515	1300.1263
477.725	1611.03536
477.935	1507.39962
478.144	1632.18502
478.354	1577.1955
478.563	1871.15437
478.773	1651.21952
478.982	1769.65113
479.192	1771.76588
479.401	1957.84592
479.611	1759.07731
479.82	1926.13059
480.03	1797.14259
480.239	2126.96964
480.449	1981.10297
480.658	2152.33418
480.868	2224.19394
481.077	2169.24322
481.287	2074.12331
481.496	2247.44056
481.705	2200.94626
481.915	2361.54407
482.124	2232.64738
482.333	2456.60808
482.543	2427.0349
482.752	2644.55692
482.961	2397.45963
483.171	2614.99818
483.38	2517.85995
483.589	2773.31935
483.799	2971.6404
484.008	2845.06697
484.217	2695.22331
484.426	3020.1461
484.636	2792.31291
484.845	3273.08409
485.054	3022.25486
485.263	3209.87156
485.472	3005.38434
485.682	3235.15838
485.891	3119.24106
486.1	3443.68087
486.309	3281.51128
486.518	3519.46434
486.727	3422.62577
486.936	3492.1008
487.146	3534.19728
487.355	3687.78638
487.564	3738.25934
487.773	3870.69743
487.982	3729.84795
488.191	3824.45809
488.4	3694.09611
488.609	4087.05164
488.818	3940.03829
489.027	4026.15832
489.236	3864.39263
489.445	4057.65704
489.654	3895.91482
489.863	4168.91504
490.072	4175.2109
490.281	4244.4528
490.49	4223.47285
490.698	4273.82115
490.907	4105.94602
491.116	4498.13925
491.325	4363.99759
491.534	4525.37578
491.743	4466.70785
491.952	4558.89252
492.16	4621.72107
492.369	4866.55898
492.578	4711.7402
492.787	4795.44147
492.996	4833.0952
493.204	4801.71761
493.413	4935.55953
493.622	5163.29209
493.831	4684.5295
494.039	4971.09552
494.248	4948.1024
494.457	5033.78984
494.665	5119.43842
494.874	5165.38011
495.083	5052.59408
495.291	5171.64401
495.5	5219.66031
495.709	5276.01151
495.917	5205.04796
496.126	5405.34598
496.335	5246.79449
496.543	5407.43129
496.752	5480.40201
496.96	5628.33977
497.169	5305.22394
497.377	5547.09289
497.586	5349.03398
497.794	5865.6249
498.003	5524.17062
498.211	5851.0636
498.42	5807.37275
498.628	5836.50114
498.837	5726.20501
499.045	5774.07751
499.254	5694.97708
499.462	6004.93888
499.671	5911.38146
499.879	5923.85854
500.087	5986.23121
500.296	6131.68501
500.504	6096.37112
500.713	6268.7217
500.921	6160.76194
501.129	6289.47593
501.338	5905.1426
501.546	6453.35225
501.754	6308.15273
501.962	6376.61817
502.171	6434.69013
502.379	6695.789
502.587	6260.41935
502.795	6538.34474
503.004	6304.0025
503.212	6600.5097
503.42	6486.52469
503.628	6550.7794
503.837	6513.47292
504.045	6724.77739
504.253	6623.29832
504.461	6598.43787
504.669	6461.64591
504.877	6906.88758
505.085	6654.3692
505.294	7097.08799
505.502	6857.23865
505.71	7004.07897
505.918	6689.57661
506.126	6877.92729
506.334	6658.5116
506.542	7221.02971
506.75	6867.58325
506.958	7074.35664
507.166	7206.57396
507.374	7157.00314
507.582	7066.09002
507.79	7109.48576
507.998	7159.06885
508.206	7330.44533
508.414	7287.09936
508.622	7439.79945
508.83	7320.12574
509.037	7394.4146
509.245	7349.01922
509.453	7522.29051
509.661	7402.66717
509.869	7584.13623
510.077	7115.68435
510.285	7443.92482
510.492	7478.98701
510.7	7481.0493
510.908	7470.73765
511.116	7503.73303
511.324	7483.11156
511.531	7773.67708
511.739	7862.20587
511.947	7926.00518
512.155	7645.96272
512.362	7695.41015
512.57	7751.02399
512.778	7761.32116
512.985	7788.09137
513.193	7753.08346
513.401	7753.08346
513.608	7833.38677
513.816	7767.49922
514.024	7779.85476
514.231	7853.97226
514.439	8168.67478
514.646	8127.56411
514.854	8119.34102
515.061	8104.94983
515.269	8053.54468
515.477	8102.89387
515.684	8141.95375
515.892	8127.56411
516.099	8222.10673
516.307	8246.76312
516.514	8357.68185
516.722	8135.78688
516.929	8343.30671
517.136	8189.22712
517.344	8450.07083
517.551	8135.78688
517.759	8462.38641
517.966	8357.68185
518.173	8577.29886
518.381	8616.27356
518.588	8558.83479
518.796	8532.16177
519.003	8714.70601
519.21	8476.75373
519.418	8593.71008
519.625	8564.98965
519.832	8884.81245
520.039	8667.54579
520.247	8849.98153
520.454	8882.76372
520.661	8821.29333
520.868	8677.79884
521.076	9013.8469
521.283	8763.90629
521.49	8962.65115
521.697	8985.17863
521.904	9138.71878
522.112	8925.78339
522.319	9218.52142
522.526	8858.17751
522.733	9269.66343
522.94	9128.4858
523.147	9234.88801
523.354	8860.22646
523.561	9429.15982
523.768	9163.27619
523.975	9380.09466
524.183	9144.85836
524.39	9398.4952
524.597	9304.43403
524.804	9582.42867
525.011	9300.34362
525.218	9478.21565
525.425	9261.48142
525.632	9467.99645
525.838	9423.02719
526.045	9408.71715
526.252	9606.94341
526.459	9580.38567
526.666	9467.99645
526.873	9537.4791
527.08	9386.22832
527.287	9815.22882
527.494	9574.25659
527.701	9835.64046
527.907	9529.30563
528.114	9776.44258
528.321	9874.41847
528.528	9966.23992
528.735	9890.74446
528.941	10076.387
529.148	9676.38962
529.355	9905.02892
529.562	9958.07921
529.768	10172.22218
529.975	9735.60906
530.182	10235.41587
530.388	10013.15952
530.595	10078.42636
530.802	10098.81928
531.008	10335.27609
531.215	10431.03041
531.422	10591.91499
531.628	10467.69466
531.835	10318.97458
532.042	10563.40955
532.248	10628.56126
532.455	10247.64539
532.661	10569.51807
532.868	10612.27453
533.074	10316.93683
533.281	10602.09491
533.487	10709.98318
533.694	10689.62952
533.9	10726.26524
534.107	10687.59409
534.313	10777.14173
534.52	10632.63282
534.726	10734.40598
534.933	10766.96702
535.139	10882.94126
535.345	10720.15955
535.552	11047.68284
535.758	11145.27335
535.965	11104.61366
536.171	10846.32191
536.377	11106.64674
536.584	11061.91635
536.79	10742.54652
536.996	10988.70973
537.203	11185.92879
537.409	11159.50323
537.615	11110.71288
537.821	11224.54756
538.028	11383.04899
538.234	11468.37083
538.44	11299.74182
538.646	11080.21578
538.853	11397.27049
539.059	11159.50323
539.265	11393.20725
539.471	11655.20778
539.677	11663.32936
539.883	11600.38333
540.09	11671.45079
540.296	11604.44463
540.502	11900.82363
540.708	11817.6125
540.914	11809.49359
541.12	11785.13602
541.326	11898.79425
541.532	11614.59771
541.738	11764.8371
541.944	11762.80716
542.15	12128.06265
542.356	11675.51146
542.562	11965.75924
542.768	11998.22394
542.974	11906.91169
543.18	11813.55306
543.386	12148.34712
543.592	12229.47754
543.798	12178.77241
544.004	12077.34818
544.21	12626.85622
544.415	11955.6136
544.621	12551.86008
544.827	12211.22422
545.033	12460.63693
545.239	12363.31756
545.445	12651.17748
545.651	12150.37552
545.856	12460.63693
546.062	12566.04919
546.268	12655.23094
546.474	12121.97717
546.679	12418.06161
546.885	12306.54069
547.091	12716.02999
547.297	12547.806
547.502	12557.94117
547.708	12511.31807
547.914	12636.99018
548.119	12707.92376
548.325	12513.34523
548.531	12288.28982
548.736	12598.4803
548.942	12261.92644
549.147	12420.08907
549.353	12527.53518
549.559	12711.97689
549.764	12549.83304
549.97	12780.87654
550.175	12782.9029
550.381	12880.16168
550.586	12612.66841
550.792	12797.08727
550.997	12940.94211
551.203	13005.76942
551.408	12782.9029
551.614	13094.89862
551.819	12995.64049
552.025	13200.22126
552.23	12886.23994
552.435	13327.80752
552.641	13309.58195
552.846	13344.00774
553.052	13179.96787
553.257	12997.66629
553.462	13135.40881
553.668	13390.58193
553.873	13054.38652
554.078	13425.00497
554.283	13497.89715
554.489	13597.10382
554.694	13175.91714
554.899	13358.18272
555.105	13422.98012
555.31	13819.78341
555.515	13378.43235
555.72	13580.9074
555.925	13398.68157
556.131	13807.63822
556.336	13510.04537
556.541	13951.34989
556.746	13564.71075
556.951	13459.42689
557.156	13613.30003
557.361	13690.22907
557.567	13665.93621
557.772	13605.20196
557.977	13595.07928
558.182	13761.08065
558.387	13659.86292
558.592	13763.10493
558.797	13649.7407
559.002	13570.78452
559.207	13763.10493
559.412	13872.4114
559.617	13722.61884
559.822	14062.6668
560.027	13868.36316
560.232	13969.5659
560.437	13985.75773
560.642	13993.85359
560.847	13993.85359
561.051	14078.85774
561.256	14014.09306
561.461	14289.32765
561.666	14020.16485
561.871	14273.13841
562.076	14404.67276
562.281	14469.42566
562.485	14001.9494
562.69	14184.09545
562.895	14062.6668
563.1	13997.9015
563.305	14159.81034
563.509	14285.28035
563.714	14214.45143
563.919	14224.56999
564.123	14301.4695
564.328	14358.13065
564.533	14374.31931
564.737	14224.56999
564.942	14408.71986
565.147	14550.36479
565.351	14329.80024
565.556	14161.83411
565.761	14303.49314
565.965	14584.76331
566.17	14396.57854
566.374	14868.03444
566.579	14803.28814
566.784	14430.97881
566.988	14594.88045
567.193	14748.65791
567.397	14833.63805
567.602	14758.77466
567.806	14244.80697
568.011	14841.73133
568.215	14837.68469
568.42	14702.12057
568.624	14710.21406
568.828	14511.91897
569.033	14633.32536
569.237	14582.73987
569.442	14736.51778
569.646	14509.89549
569.85	14928.73355
570.055	15143.20123
570.259	14904.45396
570.463	14874.10437
570.668	14880.1743
570.872	15003.59525
571.076	14912.54717
571.281	15385.99451
571.485	14989.43226
571.689	15116.8987
571.893	15070.36343
572.098	15133.08487
572.302	15098.68926
572.506	14936.82674
572.71	14698.07383
572.914	15303.0398
573.119	15141.17796
573.323	15072.3867
573.527	15141.17796
573.731	15236.2717
573.935	15335.4123
574.139	15278.76047
574.343	15145.2245
574.547	15377.90134
574.751	15216.03898
574.955	15466.92658
575.159	15495.253
575.364	15292.92341
575.568	15195.80626
575.772	15408.25075
575.976	15509.41625
576.18	15294.94668
576.383	15230.20188
576.587	15543.81285
576.791	15365.7616
576.995	15572.13961
577.199	15333.38902
577.403	15608.55994
577.607	15604.51322
577.811	15479.06646
578.015	15260.55098
578.219	15661.16753
578.422	15475.01983
578.626	15754.24398
578.83	15584.27969
579.034	15873.62787
579.238	15893.86283
579.442	15731.98639
579.645	15847.32261
579.849	15869.58089
580.053	15914.09791
580.257	15618.67674
580.46	15653.07402
580.664	15825.06446
580.868	15942.42724
581.071	16015.27529
581.275	15970.75682
581.479	16021.34604
581.682	15924.2155
581.886	15938.38017
582.09	16023.36963
582.293	16209.54619
582.497	16160.97709
582.7	16195.3801
582.904	15960.63908
583.107	15980.8746
583.311	15932.30959
583.515	16082.05429
583.718	16126.57455
583.922	16019.32246
584.125	16122.52722
584.329	16005.1574
584.532	16163.00078
584.735	16519.19897
584.939	15958.61554
585.142	16383.59383
585.346	16363.35502
585.549	16745.90386
585.753	16725.66118
585.956	16418.00025
586.159	16401.80892
586.363	16565.75215
586.566	16573.84847
586.769	16492.88681
586.973	16480.74285
587.176	16628.49957
587.379	16241.92613
587.582	16330.97334
587.786	16644.6928
587.989	16545.5115
588.192	16509.07887
588.395	16824.85264
588.599	16867.36508
588.802	16515.15092
589.005	16385.61772
589.208	16802.58466
589.411	16768.17109
589.615	16592.06533
589.818	16766.14678
590.021	16893.68287
590.224	16936.19713
590.427	16683.15232
590.63	16822.82826
590.833	16936.19713
591.036	17148.78618
591.239	17274.32949
591.442	17077.9198
591.645	17219.65603
591.848	17126.51352
592.051	17600.39144
592.254	17053.62354
592.457	17057.67289
592.66	17106.26594
592.863	17430.2621
593.066	16875.46281
593.269	16839.02333
593.472	17114.36494
593.675	17480.8935
593.878	17387.73324
594.081	17027.30304
594.284	17268.25456
594.486	17359.38141
594.689	17401.90937
594.892	17539.62838
595.095	17391.78355
595.298	17756.36348
595.5	17626.72301
595.703	17792.82733
595.906	17529.50149
596.109	17651.02956
596.311	17294.57947
596.514	17320.90489
596.717	17509.24793
596.92	18044.05323
597.122	17725.97777
597.325	17932.61575
597.528	17659.13185
597.73	17999.47695
597.933	17717.87504
598.136	18072.42086
598.338	17527.47612
598.541	17669.25979
598.743	17778.64682
598.946	17470.76706
599.148	17614.56991
599.351	17746.23482
599.554	17859.68061
599.756	18066.34202
599.959	17932.61575
600.161	17756.36348
600.363	17985.29395
600.566	17938.69388
600.768	17950.85024
600.971	17811.05968
601.173	17776.62104
601.376	18309.52107
601.578	18001.50311
601.78	18017.71249
601.983	18046.07947
602.185	18293.30748
602.388	18252.77455
602.59	18331.81515
602.792	18266.96091
602.995	18398.70012
603.197	18230.48207
603.399	18386.53891
603.601	18054.18444
603.804	18050.13195
604.006	17977.18946
604.208	18072.42086
604.41	18098.76285
604.613	17997.4508
604.815	18143.34301
605.017	18382.48521
605.219	18011.63395
605.421	17952.87631
605.623	18341.94898
605.826	18674.39122
606.028	18418.96911
606.23	18321.68142
606.432	18716.96758
606.634	18692.63802
606.836	18429.10374
607.038	18765.6284
607.24	18787.93204
607.442	18538.56389
607.644	18125.10546
607.846	18414.91528
608.048	18337.89543
608.25	18346.00253
608.452	18425.04988
608.654	18275.06748
608.856	18256.82778
609.058	18416.94219
609.26	18287.22745
609.462	18423.02295
609.664	18135.2374
609.866	18311.54779
610.067	18343.97575
610.269	18427.07681
610.471	18348.02931
610.673	18508.15717
610.875	18299.38755
611.077	18212.2431
611.278	18112.94726
611.48	18258.85439
611.682	18358.16329
611.884	18575.0531
612.085	18613.57085
612.287	18834.56847
612.489	18362.2169
612.69	18437.21152
612.892	18400.727
613.094	18414.91528
613.295	17975.16334
613.497	18246.69474
613.699	17944.77205
613.9	18686.55572
614.102	18116.99998
614.304	18216.29618
614.505	18226.42894
614.707	18406.80767
614.908	18327.76165
615.11	18439.23847
615.311	18449.3733
615.513	18508.15717
615.714	18489.91356
615.916	18443.29239
616.117	18157.52798
616.319	18682.50087
616.52	18564.91709
616.722	18617.62544
616.923	18481.80538
617.124	18633.84392
617.326	18226.42894
617.527	18562.88989
617.729	18554.78116
617.93	18763.60082
618.131	18611.54357
618.333	18378.43151
618.534	18268.98754
618.735	18556.80834
618.937	18325.7349
619.138	18433.15762
619.339	18534.50961
619.54	18854.84583
619.742	18871.06801
619.943	18883.23482
620.144	18106.86821
620.345	18429.10374
620.546	18311.54779
620.748	18791.9873
620.949	18575.0531
621.15	18856.87359
621.351	18627.76196
621.552	18660.19949
621.753	18635.87125
621.954	19019.10728
622.155	18315.60123
622.356	18556.80834
622.558	18721.02256
622.759	18753.46298
622.96	18485.85946
623.161	18848.76258
623.362	18704.80273
623.563	18727.10506
623.764	18483.83242
623.965	18662.22687
624.166	18716.96758
624.366	18723.05006
624.567	18402.75389
624.768	18483.83242
624.969	17973.13723
625.17	18597.35268
625.371	18337.89543
625.572	18783.87679
625.773	18386.53891
625.973	18564.91709
626.174	18416.94219
626.375	18796.04257
626.576	18856.87359
626.777	18982.60245
626.977	18483.83242
627.178	18836.59619
627.379	18583.16199
627.58	18516.26555
627.78	18498.02179
627.981	18281.14745
628.182	18530.45535
628.382	18554.78116
628.583	18897.4296
628.784	19006.93886
628.984	18502.07593
629.185	18735.21512
629.386	18838.62391
629.586	19240.19243
629.787	18712.91261
629.987	18869.04023
630.188	18877.1514
630.388	18897.4296
630.589	18593.29818
630.79	18917.70821
630.99	18700.74781
631.191	18937.98722
631.391	18954.21071
631.591	18489.91356
631.792	18364.24372
631.992	19053.58526
632.193	19075.89517
632.393	19112.40336
632.594	19063.72607
632.794	18747.38033
632.994	19136.74288
633.195	19019.10728
633.395	18783.87679
633.595	18911.62459
633.796	19128.62964
633.996	19150.94121
634.196	19313.22207
634.397	19321.3368
634.597	19033.30395
634.797	19270.6208
634.997	18952.18276
635.198	19000.8547
635.398	18747.38033
635.598	19262.50647
635.798	19015.05112
635.998	18796.04257
636.199	18962.32256
636.399	18885.26263
636.599	18528.42822
636.799	18648.0353
636.999	18702.77527
637.199	18873.0958
637.399	19177.31006
637.599	19079.95157
637.799	18710.88514
637.999	19199.62271
638.199	19232.07835
638.399	19343.65266
638.599	18869.04023
638.799	19315.25075
638.999	19159.05463
639.199	19114.43163
639.399	19049.52897
639.599	19098.20557
639.799	18881.20701
639.999	18933.93138
640.199	19004.9108
640.399	19428.86328
640.599	18350.0561
640.799	19702.80423
640.998	19248.30657
641.198	19392.34355
641.398	19232.07835
641.598	19246.27803
641.798	19090.09264
641.997	19256.42078
642.197	18960.29459
642.397	19406.54551
642.597	19390.31471
642.796	19294.96416
642.996	19363.94024
643.196	19692.65692
643.395	19053.58526
643.595	19084.00799
643.795	19307.13606
643.994	19004.9108
644.194	18984.63046
644.394	19023.16345
644.593	18992.74255
644.793	19217.87888
644.992	19363.94024
645.192	19372.05539
645.392	19351.76764
645.591	19936.22151
645.791	19439.00789
645.99	19733.24682
646.19	19370.0266
646.389	19589.16024
646.589	18998.82666
646.788	19313.22207
646.987	19363.94024
647.187	19451.18155
647.386	19471.47133
647.586	19420.74767
647.785	19512.05213
647.984	19416.68988
648.184	19564.80966
648.383	19562.78047
648.582	19564.80966
648.782	19757.60157
648.981	19382.19942
649.18	19497.84866
649.38	20009.30268
649.579	19915.92215
649.778	19984.94169
649.977	19859.08618
650.177	19497.84866
650.376	19398.43008
650.575	19250.33511
650.774	19660.1862
650.973	19292.93552
651.173	19294.96416
651.372	19499.87771
651.571	19572.92645
651.77	19570.89725
651.969	19696.71583
652.168	19449.1526
652.367	19378.14179
652.566	19583.07254
652.765	19731.21728
652.964	19382.19942
653.163	19623.65792
653.362	19572.92645
653.561	19625.68724
653.76	19759.63115
653.959	19581.04331
654.158	19824.58023
654.357	19579.01409
654.556	19501.90677
654.755	19481.61637
654.954	19767.74955
655.153	19919.98199
655.352	19499.87771
655.551	19834.72892
655.749	19485.67442
655.948	19842.84794
656.147	19830.66943
656.346	19680.48027
656.545	19495.81961
656.743	19388.28588
656.942	19546.54712
657.141	19781.95692
657.34	19865.17559
657.538	20076.29855
657.737	19786.0162
657.936	20139.23823
658.135	20019.45328
658.333	20045.84532
658.532	19542.48882
658.731	19936.22151
658.929	19536.40141
659.128	19400.45893
659.326	19558.72211
659.525	20118.93467
659.724	19822.55051
659.922	19692.65692
660.121	19704.83371
660.319	19802.2535
660.518	19445.0947
660.716	19538.43054
660.915	19865.17559
661.113	19893.59334
661.312	19814.43166
661.51	20173.75526
661.709	19926.07178
661.907	19721.06967
662.105	19686.56857
662.304	20029.60398
662.502	19800.22383
662.701	20003.21238
662.899	19808.34256
663.097	19976.82149
663.296	19800.22383
663.494	19919.98199
663.692	19700.77476
663.891	19706.86319
664.089	19510.02305
664.287	19637.8632
664.485	19790.0755
664.684	20226.54836
664.882	19863.14578
665.08	19960.5813
665.278	19919.98199
665.476	19857.05638
665.675	19773.8384
665.873	19938.25147
666.071	19570.89725
666.269	19692.65692
666.467	19664.24498
666.665	19700.77476
666.863	19546.54712
667.061	19871.26504
667.259	19560.75129
667.457	20131.11676
667.655	19763.69035
667.853	19952.4613
668.051	19686.56857
668.249	19755.57198
668.447	19733.24682
668.645	19802.2535
668.843	20037.72461
669.041	19719.04016
669.239	19735.27636
669.437	19696.71583
669.635	19471.47133
669.833	19363.94024
670.031	19698.74529
670.229	19786.0162
670.426	19542.48882
670.624	19731.21728
670.822	19169.19649
671.02	19400.45893
671.218	19601.33575
671.415	19463.35537
671.613	19138.7712
671.811	19363.94024
672.009	19167.16811
672.206	19652.06869
672.404	19481.61637
672.602	19191.50896
672.799	19345.6814
672.997	19674.392
673.195	19469.44233
673.392	19710.92216
673.59	19605.39429
673.788	19461.32639
673.985	19414.661
674.183	19719.04016
674.38	19136.74288
674.578	19536.40141
674.775	19625.68724
674.973	19554.66376
675.17	19548.57627
675.368	19682.5097
675.565	19461.32639
675.763	19361.91147
675.96	19319.30811
676.158	19272.64939
676.355	18895.40176
676.553	19481.61637
676.75	19197.59426
676.947	18972.46245
677.145	18897.4296
677.342	19090.09264
677.539	19365.96902
677.737	19288.87826
677.934	19225.99284
678.131	19455.23947
678.329	19140.79953
678.526	19372.05539
678.723	19568.86805
678.92	19321.3368
679.118	19019.10728
679.315	18864.98467
679.512	19092.12087
679.709	18942.04307
679.906	18818.34686
680.104	19098.20557
680.301	19120.51647
680.498	18836.59619
680.695	18913.65246
680.892	19130.65794
681.089	19177.31006
681.286	18834.56847
681.483	18818.34686
681.68	19317.27943
681.877	18844.7071
682.075	18678.44604
682.272	18475.72429
682.469	19033.30395
682.665	18714.94009
682.862	18968.40648
683.059	18704.80273
683.256	18927.84766
683.453	18544.64534
683.65	18617.62544
683.847	18629.78928
684.044	18708.85766
684.241	18453.42726
684.438	18562.88989
684.635	18463.56221
684.831	18751.43543
685.028	18463.56221
685.225	18684.52829
685.422	18761.57324
685.619	18856.87359
685.815	18704.80273
686.012	18777.79396
686.209	18392.6195
686.405	18777.79396
686.602	18510.18426
686.799	18386.53891
686.996	18544.64534
687.192	18848.76258
687.389	18510.18426
687.586	18289.25412
687.782	18824.42993
687.979	19053.58526
688.175	18856.87359
688.372	18769.68357
688.568	18528.42822
688.765	18289.25412
688.962	18337.89543
689.158	18210.21657
689.355	18423.02295
689.551	18423.02295
689.748	18309.52107
689.944	18410.86147
690.14	18370.32418
690.337	18613.57085
690.533	18147.39584
690.73	18035.94832
690.926	18204.13699
691.123	17991.37236
691.319	18262.90764
691.515	18080.52602
691.712	18019.73868
691.908	18179.819
692.104	17859.68061
692.301	18086.60493
692.497	17547.72996
692.693	18135.2374
692.889	18204.13699
693.086	18447.34633
693.282	18291.2808
693.478	18404.78078
693.674	18372.35101
693.87	18303.44095
694.067	18187.92494
694.263	18390.59263
694.459	18189.95143
694.655	18388.56577
694.851	18009.60777
695.047	18487.88651
695.243	18054.18444
695.439	18212.2431
695.635	18050.13195
695.831	18287.22745
696.027	17802.95638
696.224	18125.10546
696.42	18025.81727
696.615	17638.87623
696.811	17719.90072
697.007	17784.72416
697.203	17644.95288
697.399	18066.34202
697.595	17756.36348
697.791	17671.28539
697.987	17689.51591
698.183	18048.1057
698.379	17764.46646
698.575	17772.5695
698.77	17612.54441
698.966	17590.26406
699.162	17418.11086
699.358	17543.67916
699.554	17152.83579
699.749	17464.69124
699.945	17266.22959
700.141	17211.55644
700.337	17254.07981
700.532	17493.04532
700.728	17452.53968
700.924	17545.70456
701.119	17796.87894
701.315	17665.2086
701.511	17456.59018
701.706	17835.3699
701.902	17274.32949
702.097	17527.47612
702.293	17728.00346
702.489	17213.58133
702.684	17294.57947
702.88	17345.20572
703.075	17270.27953
703.271	17235.85535
703.466	17407.98491
703.662	17703.69539
703.857	17369.50699
704.053	17679.38781
704.248	17434.31254
704.443	17642.92733
704.639	17266.22959
704.834	17458.61544
705.03	17333.05525
705.225	17513.29862
705.42	17375.58238
705.616	17474.81763
705.811	17258.12973
706.006	17685.46466
706.202	17245.98002
706.397	17116.38969
706.592	17053.62354
706.787	17219.65603
706.983	17211.55644
707.178	17578.11132
707.373	17440.38823
707.568	17337.1054
707.763	17098.16699
707.959	17221.68094
708.154	16737.80676
708.349	16778.29265
708.544	16810.68207
708.739	16911.90313
708.934	16725.66118
709.129	17019.20452
709.324	16685.17653
709.519	17436.33777
709.714	17096.14226
709.909	17013.13066
710.104	16741.85531
710.299	16936.19713
710.494	16681.12811
710.689	17069.821
710.884	17041.47556
711.079	16944.29522
711.274	16743.87958
711.469	17179.15854
711.664	16719.58842
711.859	17132.58784
712.054	16869.38951
712.249	16577.89665
712.443	16640.64448
712.638	16652.78948
712.833	16339.06871
713.028	16563.72808
713.223	16322.87799
713.417	16810.68207
713.612	16553.60773
713.807	16466.57499
714.002	16636.59617
714.196	17197.38227
714.391	16658.862
714.586	16928.09909
714.78	17108.29068
714.975	16936.19713
715.17	16490.86281
715.364	16689.22495
715.559	16612.30648
715.754	16335.02102
715.948	16296.56832
716.143	16387.64161
716.337	16209.54619
716.532	16794.48728
716.726	16644.6928
716.921	16466.57499
717.115	16223.71236
717.31	16409.90457
717.504	16689.22495
717.699	16834.97455
717.893	16235.85486
718.088	16853.19414
718.282	16450.38328
718.476	16602.18588
718.671	16397.76111
718.865	16547.53555
719.059	16211.56992
719.254	16685.17653
719.448	16029.4404
719.642	16138.71657
719.837	15620.7001
720.031	16171.09557
720.225	15778.52514
720.419	15986.94528
720.614	15875.65136
720.808	16189.30895
721.002	15798.75956
721.196	15903.98035
721.39	15843.27566
721.585	16104.31433
721.779	16209.54619
721.973	16405.85674
722.167	16015.27529
722.361	15794.71267
722.555	15687.47154
722.749	15687.47154
722.943	15711.75231
723.137	15808.87681
723.331	15942.42724
723.525	15764.36112
723.719	15537.74285
723.913	15976.82748
724.107	15464.90327
724.301	15746.1503
724.495	15432.53036
724.689	15841.25219
724.883	15296.96996
725.077	15183.66664
725.271	15323.27261
725.465	15677.3546
725.659	15582.25634
725.853	15671.28444
726.046	15539.76618
726.24	15570.11627
726.434	15197.82953
726.628	15468.94989
726.822	15175.57356
727.015	15825.06446
727.209	15568.09292
727.403	15713.77571
727.596	15527.62619
727.79	15355.64516
727.984	15596.4198
728.177	15321.24932
728.371	15402.18086
728.565	15216.03898
728.758	15339.45887
728.952	15381.94792
729.146	15760.31426
729.339	15661.16753
729.533	15673.30783
729.726	15990.99241
729.92	15689.49494
730.113	15829.11139
730.307	15916.12142
730.5	15616.65338
730.694	15226.15534
730.887	15547.85952
731.081	15503.34628
731.274	15377.90134
731.468	15620.7001
731.661	15717.82252
731.854	15598.44315
732.048	15669.26106
732.241	15440.62357
732.435	15707.70551
732.628	15632.84029
732.821	15559.99955
733.014	15610.5833
733.208	15638.9104
733.401	15691.51833
733.594	15606.53658
733.788	15430.50705
733.981	15388.0178
734.174	15495.253
734.367	15349.5753
734.56	15430.50705
734.754	15325.29589
734.947	15173.55029
735.14	14944.91991
735.333	15161.41066
735.526	15122.96852
735.719	15351.59858
735.912	15027.87462
736.105	14977.29255
736.298	14987.40898
736.491	15009.66509
736.684	15086.54962
736.877	15388.0178
737.07	15284.8303
737.263	15244.36479
737.456	15505.36961
737.649	15377.90134
737.842	15094.64271
738.035	15120.94525
738.228	15163.43393
738.421	15286.85357
738.614	15468.94989
738.807	15501.32296
739	15165.4572
739.192	14870.05775
739.385	15048.1074
739.578	15046.08412
739.771	15246.38807
739.964	15029.8979
740.156	15234.24843
740.349	14641.41897
740.542	14825.54476
740.735	14847.80129
740.927	15185.68991
741.12	14963.12953
741.313	14760.79801
741.505	14863.98781
741.698	14742.58784
741.891	14730.4477
742.083	14831.61473
742.276	15037.99101
742.468	14938.85003
742.661	14588.81017
742.854	14831.61473
743.046	14548.34134
743.239	14493.70762
743.431	14392.53142
743.624	14607.02099
743.816	14305.51677
744.009	14633.32536
744.201	14477.51967
744.393	14018.14092
744.586	14372.29573
744.778	14524.0598
744.971	14481.56667
745.163	14629.27854
745.355	14491.68414
745.548	14574.64613
745.74	14588.81017
745.932	14673.79327
746.125	14629.27854
746.317	14414.7905
746.509	14341.94188
746.702	14534.17713
746.894	14394.55498
747.086	14594.88045
747.278	14362.17782
747.471	14564.52893
747.663	14042.4279
747.855	14291.3513
748.047	14607.02099
748.239	14465.37865
748.431	14281.23305
748.623	14277.18573
748.815	14182.0717
749.008	14437.0494
749.2	14734.49442
749.392	14435.02587
749.584	14356.10706
749.776	14544.29443
749.968	14598.92731
750.16	14358.13065
750.352	14169.92917
750.544	14269.09109
750.736	14435.02587
750.928	14240.75959
751.12	14153.73902
751.311	14070.76229
751.503	14459.30812
751.695	14178.0242
751.887	14078.85774
752.079	14167.90541
752.271	14076.83388
752.463	14244.80697
752.654	14305.51677
752.846	14558.45859
753.038	14173.97669
753.23	14345.98909
753.421	14151.71524
753.613	14135.52493
753.805	14309.56403
753.997	14024.2127
754.188	14074.81002
754.38	14220.52257
754.572	14329.80024
754.763	14352.05987
754.955	14012.06912
755.146	13860.26665
755.338	13589.00564
755.53	13755.00781
755.721	13939.20577
755.913	13983.73376
756.104	13740.83773
756.296	13672.00947
756.487	13633.54498
756.679	13540.41535
756.87	13416.90553
757.062	13052.36086
757.253	13649.7407
757.445	13512.07006
757.636	13315.65717
757.827	13317.68224
758.019	13447.2781
758.21	13422.98012
758.401	13368.30758
758.593	13510.04537
758.784	13390.58193
758.975	13305.53177
759.167	13366.28262
759.358	13319.7073
759.549	13171.86639
759.74	13078.69401
759.932	13271.10462
760.123	13380.45729
760.314	13307.55686
760.505	13046.28386
760.696	12697.79084
760.888	13252.87799
761.079	12673.47122
761.27	13433.10435
761.461	13050.3352
761.652	13105.02634
761.843	13283.25552
762.034	13210.34779
762.225	13194.14529
762.416	12849.76967
762.607	12813.29763
762.798	12924.73446
762.989	12908.52647
763.18	13240.7267
763.371	12853.82201
763.562	13038.18113
763.753	13192.11996
763.944	13028.05261
764.135	13019.9497
764.326	12975.38227
764.517	12750.48045
764.708	12870.03115
764.899	12685.63113
765.089	12596.4534
765.28	12468.74618
765.471	12535.64358
765.662	12379.53854
765.853	12985.51144
766.043	12478.8826
766.234	12718.05654
766.425	12403.86918
766.615	12748.454
766.806	12507.26372
766.997	12430.22628
767.187	12361.28991
767.378	12661.31109
767.569	12600.50719
767.759	12683.6045
767.95	12677.52455
768.141	12888.26601
768.331	12343.04073
768.522	12403.86918
768.712	12209.19603
768.903	12517.39953
769.093	12077.34818
769.284	12158.48907
769.474	12150.37552
769.665	12101.69172
769.855	11825.73128
770.046	12255.84241
770.236	11843.99805
770.426	11894.73548
770.617	12124.00567
770.807	11927.20472
770.998	11910.97037
771.188	11787.16586
771.378	11809.49359
771.569	11955.6136
771.759	12227.44942
771.949	11963.73012
772.139	11862.26412
772.33	11667.39009
772.52	11904.88235
772.71	11923.14618
772.9	11837.9092
773.09	11843.99805
773.281	11939.38015
773.471	11957.64274
773.661	12065.17599
773.851	11908.94103
774.041	11598.35266
774.231	11527.27362
774.421	11517.11854
774.611	11387.11232
774.802	11565.8608
774.992	11811.52333
775.182	11600.38333
775.372	11632.87269
775.562	11433.83787
775.752	11600.38333
775.942	11464.30828
776.131	11734.38709
776.321	11427.74352
776.511	11561.79915
776.701	11372.89047
776.891	11569.92241
777.081	11289.58125
777.271	11311.93417
777.461	11236.74218
777.651	11151.37193
777.84	10815.80291
778.03	11102.58056
778.22	11126.97702
778.41	11063.94966
778.599	10996.8445
778.789	11318.0302
778.979	11232.67735
779.169	11543.52127
779.358	11395.23888
779.548	11508.9943
779.738	11320.06219
779.927	11407.42841
780.117	11427.74352
780.307	11559.76831
780.496	11226.58002
780.686	11102.58056
780.875	10854.45986
781.065	11110.71288
781.254	10821.90692
781.444	10978.54101
781.633	11287.54911
781.823	11218.45011
782.012	10964.30433
782.202	11131.04294
782.391	10779.17663
782.581	10868.70084
782.77	10838.18376
782.96	10927.6932
783.149	10479.91515
783.338	10809.69879
783.528	10500.2816
783.717	10465.65787
783.906	10703.87721
784.096	10809.69879
784.285	10541.0107
784.474	10510.46435
784.663	10650.95424
784.853	10424.9193
785.042	10703.87721
785.231	10602.09491
785.42	10636.70433
785.61	10624.48965
785.799	10347.50167
785.988	10636.70433
786.177	10139.60089
786.366	10488.06188
786.555	10392.32471
786.744	10198.72436
786.933	10233.37757
787.122	10306.74789
787.312	10333.23845
787.501	9949.91827
787.69	10011.1197
787.879	10288.40695
788.068	10084.54439
788.257	9970.32019
788.445	10049.87391
788.634	10610.23863
788.823	10380.10087
789.012	10151.83429
789.201	10363.80169
789.39	10304.71006
789.579	10041.71556
789.768	10159.98961
789.957	10284.33103
790.145	10235.41587
790.334	9949.91827
790.523	10141.63983
790.712	9702.93786
790.9	9886.66305
791.089	9602.85777
791.278	9774.40104
791.467	9651.88124
791.655	9856.05061
791.844	9886.66305
792.033	9882.58158
792.221	9827.47598
792.41	9766.23477
792.599	9365.78222
792.787	9780.52559
792.976	9369.87157
793.164	9676.38962
793.353	9404.62842
793.541	9451.6449
793.73	9502.74008
793.918	9529.30563
794.107	9406.67279
794.295	9298.29839
794.484	9304.43403
794.672	9478.21565
794.861	9414.85012
795.049	9696.81158
795.238	9343.28961
795.426	9635.54108
795.614	9351.46897
795.803	9611.02898
795.991	9245.11658
796.179	9508.87083
796.368	9425.07142
796.556	9449.60088
796.744	9173.50773
796.932	9367.8269
797.121	9161.22984
797.309	9103.92488
797.497	9005.65631
797.685	9122.3458
797.874	9214.4296
798.062	9273.75434
798.25	8882.76372
798.438	9042.51172
798.626	9134.62564
798.814	9200.10772
799.002	8876.61741
799.19	9015.8945
799.378	8870.47094
799.566	8683.95045
799.755	8794.65112
799.943	9189.87729
800.131	9169.41516
800.318	9504.78368
800.506	8909.39587
800.694	8827.4411
800.882	8720.85662
801.07	9022.0372
801.258	8702.40428
801.446	9071.17314
801.634	8921.68662
801.822	8915.54132
802.01	8616.27356
802.197	9247.16224
802.385	8886.86117
802.573	9097.78427
802.761	8954.45881
802.949	9148.95133
803.136	8770.05558
803.324	9058.89009
803.512	8968.79522
803.699	8917.58977
803.887	8895.05586
804.075	8911.44437
804.262	8825.39186
804.45	9081.40854
804.638	8579.35033
804.825	9036.36955
805.013	8757.75683
805.201	8837.68702
805.388	8720.85662
805.576	8811.04669
805.763	8972.89118
805.951	9134.62564
806.138	8893.00721
806.326	9144.85836
806.513	9062.98451
806.701	8866.3732
806.888	8675.74827
807.075	9034.32212
807.263	8765.95607
807.45	9251.25352
807.638	8813.09605
807.825	9298.29839
808.012	8899.15309
808.2	8901.20168
808.387	8942.16977
808.574	8802.84905
808.761	8784.4033
808.949	8979.03499
809.136	8696.25317
809.323	8679.8494
809.51	8763.90629
809.698	8702.40428
809.885	8612.17128
810.072	8800.79959
810.259	8704.45462
810.446	8890.95855
810.633	8706.50493
810.82	9140.76532
811.008	9030.22722
811.195	8956.50692
811.382	8976.98707
811.569	9193.96951
811.756	8683.95045
811.943	9015.8945
812.13	8778.25439
812.317	8835.63787
812.504	8698.30356
812.691	8866.3732
812.878	8786.4529
813.064	8737.25745
813.251	8579.35033
813.438	8737.25745
813.625	8710.60551
813.812	9013.8469
813.999	8530.10987
814.186	8845.88343
814.372	8628.57996
814.559	8970.84321
814.746	8686.00095
814.933	8933.97672
815.12	8636.78385
815.306	8677.79884
815.493	8501.38124
815.68	8642.93657
815.866	8515.74602
816.053	8819.24404
816.24	8784.4033
816.426	8782.35368
816.613	8530.10987
816.799	8860.22646
816.986	8997.46545
817.173	9032.27468
817.359	8706.50493
817.546	8813.09605
817.732	8679.8494
817.919	9011.79928
818.105	8655.24152
818.292	8743.40745
818.478	8882.76372
818.665	8868.42208
818.851	8772.10531
819.037	8556.78313
819.224	8915.54132
819.41	8677.79884
819.597	8439.80731
819.783	8528.05795
819.969	8597.8127
820.156	8849.98153
820.342	8718.80643
820.528	8686.00095
820.714	8460.33386
820.901	8573.19586
821.087	8519.85007
821.273	8710.60551
821.459	8392.58894
821.646	8573.19586
821.832	8546.52456
822.018	8808.99731
822.204	8448.01816
822.39	8731.10727
822.576	8439.80731
822.762	8722.90679
822.948	8515.74602
823.134	8634.7329
823.32	8390.53574
823.507	8591.65875
823.693	8546.52456
823.879	8417.22588
824.065	8657.29227
824.25	8326.87681
824.436	8398.74844
824.622	8318.66139
824.808	8152.23147
824.994	8324.82298
825.18	7888.96283
825.366	8104.94983
825.552	7907.48484
825.738	8090.55766
825.923	7823.09325
826.109	8281.68814
826.295	7831.32811
826.481	7874.55567
826.667	7880.7303
826.852	8141.95375
827.038	7726.30862
827.224	7816.91688
827.409	7915.71631
827.595	8193.33735
827.781	7940.40873
827.966	8096.72585
828.152	7839.56264
828.338	7893.07898
828.523	8055.60113
828.709	7899.25304
828.894	7798.38667
829.08	8131.67554
829.266	7886.90473
829.451	7995.9559
829.637	7987.72763
829.822	8269.36231
830.008	7726.30862
830.193	7954.81128
830.378	7963.04086
830.564	8012.41146
830.749	7670.68796
830.935	7938.35114
831.12	7386.16168
831.305	7777.79556
831.491	7553.21578
831.676	7598.56412
831.861	7641.84155
832.047	7802.50464
832.232	7600.62517
832.417	7853.97226
832.602	7460.42545
832.788	7594.44197
832.973	7398.54093
833.158	7470.73765
833.343	7573.82995
833.528	7652.14431
833.714	7336.63682
833.899	7375.84504
834.084	7183.85559
834.269	7637.72029
834.454	7115.68435
834.639	7559.40026
834.824	7419.17127
835.009	7437.73673
835.194	7464.5504
835.379	7631.53825
835.564	7375.84504
835.749	7553.21578
835.934	7229.28965
836.119	7315.99775
836.304	6989.60681
836.489	7080.55637
836.674	6896.54513
836.859	6869.65211
837.044	6685.43491
837.228	6805.50709
837.413	6807.57663
837.598	6906.88758
837.783	6484.45159
837.968	6726.84781
838.152	6824.13209
838.337	7039.22105
838.522	7161.13453
838.707	7233.41949
838.891	6815.85454
839.076	6979.26888
839.261	6840.6861
839.445	7245.80847
839.63	6931.70714
839.815	6877.92729
839.999	6782.7407
840.184	6944.11571
840.368	7097.08799
840.553	6902.75067
840.737	6989.60681
840.922	7090.8888
841.106	6927.57078
841.291	6960.65919
841.475	6650.22672
841.66	7134.27891
841.844	6716.49545
842.029	6869.65211
842.213	6480.30531
842.397	6766.18158
842.582	6343.42598
842.766	6675.08025
842.951	6534.19967
843.135	6788.94999
843.319	6534.19967
843.504	6478.23214
843.688	6536.27222
843.872	6608.7968
844.056	6409.80438
844.241	6405.65643
844.425	6368.32068
844.609	6652.29797
844.793	6436.76379
844.977	6193.98708
845.161	6183.60487
845.346	6119.22206
845.53	6169.06879
845.714	6256.26804
845.898	5967.52164
846.082	6181.52836
846.266	6081.82813
846.45	6123.37647
846.634	5907.22224
846.818	6169.06879
847.002	5944.65179
847.186	6166.99211
847.37	6085.98338
847.554	6119.22206
847.738	6027.80121
847.922	6268.7217
848.106	5938.41406
848.29	5840.66196
848.473	5907.22224
848.657	5994.54597
848.841	5965.44268
849.025	6121.29928
849.209	6029.87946
849.392	6015.3312
849.576	5830.25973
849.76	6056.8946
849.944	5776.15864
850.127	5948.81016
850.311	5969.60058
850.495	5744.93921
850.678	5713.71447
850.862	5848.98332
851.046	5736.61313
851.229	5813.61494
851.413	5401.17531
851.596	5682.48443
851.78	5407.43129
851.964	5763.6715
852.147	5405.34598
852.331	5319.82844
852.514	5332.34566
852.698	5545.00916
852.881	5440.79291
853.065	5588.76243
853.248	5667.90859
853.431	5780.32083
853.615	5467.89479
853.798	5615.84258
853.982	5422.02773
854.165	5649.16652
854.348	5202.96038
854.532	5438.70798
854.715	5311.48315
854.898	5428.283
855.081	5215.48547
855.265	5515.83454
855.448	5102.72956
855.631	5298.96452
855.814	5012.89404
855.997	5242.62026
856.181	5021.25263
856.364	5144.49892
856.547	5230.097
856.73	5369.89227
856.913	5019.16302
857.096	5292.70489
857.279	4914.65291
857.462	5134.05745
857.645	5002.44527
857.828	5017.07338
858.011	4927.19716
858.194	5253.05567
858.377	5033.78984
858.56	5152.85167
858.743	5031.70036
858.926	5301.05102
859.109	5205.04796
859.292	5171.64401
859.475	5048.41552
859.658	5161.20405
859.841	4812.17737
860.023	5177.9077
860.206	4761.96531
860.389	4994.08584
860.572	4688.71601
860.755	4835.18686
860.937	4883.28868
861.12	4900.01691
861.303	4581.93199
861.486	5012.89404
861.668	4676.15621
861.851	4634.28437
862.034	4343.02988
862.216	4678.24956
862.399	4516.99571
862.581	4713.83317
862.764	4317.86579
862.947	4542.13486
863.129	4303.18529
863.312	4491.85337
863.494	4223.47285
863.677	4514.90063
863.859	4173.1123
864.042	4462.51663
864.224	4200.39245
864.406	4250.74637
864.589	3988.35375
864.771	4242.3549
864.954	4278.01628
865.136	4491.85337
865.318	4284.30883
865.501	4204.58908
865.683	4110.14454
865.865	4613.34509
866.048	4401.73398
866.23	4508.61528
866.412	4152.12515
866.594	4363.99759
866.777	4168.91504
866.959	4403.83024
867.141	4074.45445
867.323	4250.74637
867.505	4110.14454
867.687	4061.85652
867.869	4021.95814
868.052	4231.86509
868.234	4009.35711
868.416	4405.92648
868.598	4030.35842
868.78	4139.53185
868.962	3992.55459
869.144	4051.35767
869.326	3795.02808
869.508	4038.75837
869.69	3879.10354
869.872	4059.75679
870.054	3874.90053
870.236	3847.57896
870.417	3660.44225
870.599	4139.53185
870.781	3855.98596
870.963	4026.15832
871.145	3763.49165
871.327	3956.84489
871.508	3778.20919
871.69	3919.02822
871.872	3921.12932
872.054	4091.25054
872.235	3973.65019
872.417	4231.86509
872.599	3761.38906
872.78	3832.86596
872.962	3788.72114
873.144	4009.35711
873.325	3868.59585
873.507	3973.65019
873.689	3799.2326
873.87	4093.34995
874.052	3837.06977
874.233	4015.65772
874.415	3799.2326
874.596	4158.42152
874.778	3561.55605
874.959	3677.26979
875.141	3660.44225
875.322	3933.73548
875.503	3725.64214
875.685	3931.63451
875.866	3654.13161
876.048	3740.36214
876.229	3675.16641
876.41	3803.43705
876.592	3626.78352
876.773	3813.94782
876.954	3630.99113
877.136	3845.47716
877.317	3666.75272
877.498	3799.2326
877.679	3765.59421
877.86	3988.35375
878.042	3780.31162
878.223	4049.25784
878.404	3744.56768
878.585	3755.08119
878.766	3664.64925
878.947	3870.69743
879.128	3584.70334
879.309	3923.2304
879.49	3803.43705
879.672	3805.53924
879.853	3698.3025
880.034	3889.61074
880.215	3795.02808
880.396	3761.38906
880.576	3689.88964
880.757	3828.66206
880.938	3618.36809
881.119	4042.95822
881.3	3795.02808
881.481	3954.74414
881.662	3687.78638
881.843	3895.91482
882.023	3559.45164
882.204	3752.97853
882.385	3782.41403
882.566	3923.2304
882.747	3647.82079
882.927	3721.43626
883.108	3738.25934
883.289	4024.05824
883.469	3464.73419
883.65	3874.90053
883.831	3731.95083
884.011	3979.95184
884.192	3769.79928
884.373	3971.5496
884.553	3689.88964
884.734	3803.43705
884.914	3601.53631
885.095	3891.71212
885.275	3670.9596
885.456	3824.45809
885.636	3769.79928
885.817	3799.2326
885.997	3620.47197
886.178	3660.44225
886.358	3595.22409
886.538	3849.68074
886.719	3601.53631
886.899	3948.44175
887.08	3710.9212
887.26	3832.86596
887.44	3382.61618
887.621	3803.43705
887.801	3252.01492
887.981	3643.61349
888.161	3534.19728
888.342	3845.47716
888.522	3988.35375
888.702	3971.5496
888.882	3584.70334
889.062	3984.15284
889.242	3780.31162
889.423	3883.30648
889.603	3824.45809
889.783	3942.13919
889.963	3630.99113
890.143	3605.74437
890.323	3405.78041
890.503	3977.85131
890.683	3744.56768
890.863	3885.40792
891.043	3584.70334
891.223	3853.88424
891.403	3622.57584
891.583	4066.05591
891.763	3487.89075
891.943	3792.92578
892.122	3401.56889
892.302	3853.88424
892.482	3584.70334
892.662	3702.50881
892.842	3553.1383
893.022	3706.71504
893.201	3622.57584
893.381	3405.78041
893.561	3483.68063
893.741	3607.84837
893.92	3492.1008
894.1	3809.74357
894.28	3534.19728
894.459	3872.79899
894.639	3567.86917
894.819	3921.12932
894.998	3595.22409
895.178	3647.82079
895.357	3468.94463
895.537	3572.07782
895.716	3327.85597
895.896	3521.5691
896.075	3462.62894
896.255	3563.66044
896.434	3209.87156
896.614	3367.87421
896.793	3142.42846
896.973	3407.88614
897.152	3275.19091
897.331	3382.61618
897.511	2994.83978
897.69	3146.64414
897.87	3020.1461
898.049	3201.44209
898.228	3121.34909
898.407	3171.93687
898.587	2851.39687
898.766	3285.72477
898.945	2889.3736
899.124	3148.75196
899.304	2982.1858
899.483	2999.05765
899.662	2762.76689
899.841	3022.25486
900.02	2819.74611
900.199	3155.07531
900.378	3024.3636
900.557	2963.20381
900.737	2870.38581
900.916	3072.86049
901.095	2788.09221
901.274	2994.83978
901.453	2754.32468
901.632	2891.48328
901.811	2764.87741
901.989	3098.15993
902.168	2756.43526
902.347	2889.3736
902.526	2640.33439
902.705	2902.03148
902.884	2589.6602
903.063	2674.1132
903.242	2446.04647
903.42	2583.32544
903.599	2473.50608
903.778	2773.31935
903.957	2484.06698
904.135	2674.1132
904.314	2448.15881
904.493	2691.00139
904.672	2498.85176
904.85	2403.79736
905.029	2422.80999
905.207	2524.19581
905.386	2530.53157
905.565	2644.55692
905.743	2234.76072
905.922	2473.50608
906.1	2101.60399
906.279	2348.8673
906.457	2065.66747
906.636	2391.12181
906.814	2099.49014
906.993	2194.6058
907.171	2145.99315
907.35	2192.4923
907.528	1919.78737
907.707	2184.03821
907.885	1904.98632
908.063	2065.66747
908.242	1837.32112
908.42	2101.60399
908.598	1788.68375
908.777	1987.44568
908.955	1799.25729
909.133	1972.64595
909.311	1685.05812
909.49	1723.12564
909.668	1879.61248
909.846	1900.7574
910.024	1788.68375
910.202	1915.55852
910.38	1782.33958
910.559	2103.71784
910.737	1959.96023
910.915	1904.98632
911.093	1883.84151
911.271	2014.93006
911.449	1835.2065
911.627	1926.13059
911.805	1685.05812
911.983	1830.97725
912.161	1784.45431
912.339	1974.76022
912.517	1894.41398
912.695	1934.58814
912.872	1892.2995
913.05	1983.21721
913.228	1754.84776
913.406	2145.99315
913.584	1674.48363
913.762	2101.60399
913.939	1847.89414
914.117	1974.76022
914.295	1814.06006
914.473	1839.43574
914.65	1704.09201
914.828	1985.33145
915.006	1712.55143
915.184	1782.33958
915.361	1642.75976
915.539	1875.38344
915.716	1674.48363
915.894	1824.63334
916.072	1752.73298
916.249	1856.35248
916.427	1767.53638
916.604	2052.98349
916.782	1769.65113
916.959	1934.58814
917.137	1839.43574
917.314	1953.61729
917.492	1566.62045
917.669	1704.09201
917.847	1547.58528
918.024	1896.52846
918.201	1524.31994
918.379	1735.81459
918.556	1627.9551
918.733	1733.69977
918.911	1644.8747
919.088	1788.68375
919.265	1634.29997
919.442	1627.9551
919.62	1511.6297
919.797	1697.7474
919.974	1431.25782
920.151	1600.46045
920.328	1298.01132
920.506	1583.5405
920.683	1418.56752
920.86	1456.63844
921.037	1399.5321
921.214	1524.31994
921.391	1382.61177
921.568	1566.62045
921.745	1367.80654
921.922	1482.01906
922.099	1344.54128
922.276	1443.94813
922.453	1350.88633
922.63	1498.93944
922.807	1331.85121
922.984	1323.39119
923.161	1200.72501
923.338	1333.96622
923.514	1363.57648
923.691	1314.93121
923.868	1213.41418
924.045	1355.11638
924.222	1198.61016
924.399	1308.58624
924.575	1215.52905
924.752	1262.05702
924.929	1171.11744
925.105	1302.24128
925.282	1169.00264
925.459	1194.38047
925.635	1084.41419
925.812	1111.90463
925.989	987.14771
926.165	1177.46186
926.342	1092.8727
926.518	1065.38284
926.695	976.57604
926.871	1050.58099
927.048	915.26385
927.224	957.54748
927.401	892.00914
927.577	944.86208
927.754	661.63592
927.93	997.71953
928.107	985.03336
928.283	946.9763
928.459	830.70605
928.636	1101.33129
928.812	822.25103
928.988	902.57934
929.165	949.09052
929.341	868.75541
929.517	868.75541
929.693	1059.03916
929.87	830.70605
930.046	796.88685
930.222	653.18424
930.398	841.27503
930.574	678.53983
930.751	712.34986
930.927	589.80291
931.103	746.16268
931.279	653.18424
931.455	640.50708
931.631	670.08778
931.807	718.68955
931.983	727.14263
932.159	714.46308
932.335	596.14053
932.511	725.02935
932.687	638.39427
932.863	505.31286
933.039	509.53683
933.215	608.81612
933.391	572.90316
933.566	602.47827
933.742	492.64129
933.918	575.01558
934.094	511.64884
934.27	515.8729
934.445	479.97025
934.621	488.41755
934.797	414.51198
934.973	435.62591
935.148	410.28938
935.324	435.62591
935.5	359.62338
935.675	427.18015
935.851	340.62615
936.027	340.62615
936.202	243.55189
936.378	283.64305
936.553	279.42261
936.729	315.29871
936.904	285.7533
937.08	294.19448
937.255	258.32152
937.431	188.70164
937.606	102.23527
937.782	188.70164
937.957	245.66178
938.133	150.73642
938.308	129.64756
938.483	188.70164
938.659	138.08285
938.834	106.45231
939.009	184.48295
939.185	165.49987
939.36	131.75635
939.535	148.62743
939.71	131.75635
939.886	121.21262
940.061	157.06349
940.236	102.23527
940.411	114.88664
940.586	114.88664
940.761	79.04317
940.937	89.5847
941.112	79.04317
941.287	89.5847
941.462	114.88664
941.637	53.7458
941.812	116.99528
941.987	62.17789
942.162	74.82672
942.337	146.51847
942.512	87.47635
942.687	62.17789
942.862	79.04317
943.037	87.47635
943.212	41.09836
943.386	47.42198
943.561	28.45175
943.736	43.20621
943.911	89.5847
944.086	95.90989
944.26	79.04317
944.435	3.16109
944.61	87.47635
944.785	64.28597
944.959	89.5847
945.134	81.15143
945.309	47.42198
945.483	108.56086
945.658	7.37596
945.833	112.77803
946.007	47.42198
946.182	41.09836
946.357	-17.91182
946.531	108.56086
946.706	53.7458
946.88	85.36802
947.055	32.66719
947.229	62.17789
947.404	87.47635
947.578	13.69845
947.752	144.40954
947.927	119.10394
948.101	91.69308
948.276	13.69845
948.45	62.17789
948.624	28.45175
948.799	45.31408
948.973	100.12679
949.147	79.04317
949.321	114.88664
949.496	79.04317
949.67	108.56086
949.844	108.56086
950.018	11.59093
950.193	49.5299
950.367	121.21262
950.541	79.04317
950.715	87.47635
950.889	49.5299
951.063	79.04317
951.237	11.59093
951.411	79.04317
951.585	47.42198
951.759	53.7458
951.933	30.55946
952.107	148.62743
952.281	53.7458
952.455	93.80147
952.629	64.28597
952.803	87.47635
952.977	57.9618
953.151	108.56086
953.325	87.47635
953.499	127.53879
953.672	83.25972
953.846	64.28597
954.02	66.39408
954.194	106.45231
954.368	36.88273
954.541	112.77803
954.715	70.61035
954.889	89.5847
955.062	11.59093
955.236	146.51847
955.41	146.51847
955.583	55.85379
955.757	9.48343
955.93	47.42198
956.104	28.45175
956.278	121.21262
956.451	30.55946
956.625	102.23527
956.798	104.34378
956.972	62.17789
957.145	121.21262
957.319	129.64756
957.492	70.61035
957.665	144.40954
957.839	108.56086
958.012	70.61035
958.185	79.04317
958.359	38.99053
958.532	43.20621
958.705	87.47635
958.879	72.71852
959.052	104.34378
959.225	87.47635
959.398	140.19172
959.572	70.61035
959.745	-5.26836
959.918	110.66943
960.091	62.17789
960.264	79.04317
960.438	114.88664
960.611	24.2364
960.784	112.77803
960.957	157.06349
961.13	114.88664
961.303	36.88273
961.476	95.90989
961.649	60.06984
961.822	116.99528
961.995	114.88664
962.168	108.56086
962.341	112.77803
962.514	104.34378
962.686	89.5847
962.859	74.82672
963.032	13.69845
963.205	11.59093
963.378	87.47635
963.551	60.06984
963.723	98.01833
963.896	11.59093
964.069	114.88664
964.242	123.32132
964.414	112.77803
964.587	11.59093
964.76	57.9618
964.932	121.21262
965.105	32.66719
965.278	106.45231
965.45	100.12679
965.623	91.69308
965.795	104.34378
965.968	79.04317
966.14	49.5299
966.313	98.01833
966.485	85.36802
966.658	62.17789
966.83	-17.91182
967.003	64.28597
967.175	22.12877
967.348	95.90989
967.52	93.80147
967.692	95.90989
967.865	49.5299
968.037	74.82672
968.209	36.88273
968.382	36.88273
968.554	-45.30293
968.726	112.77803
968.898	36.88273
969.071	-7.37567
969.243	41.09836
969.415	49.5299
969.587	98.01833
969.759	100.12679
969.932	57.9618
970.104	28.45175
970.276	87.47635
970.448	79.04317
970.62	30.55946
970.792	79.04317
970.964	57.9618
971.136	32.66719
971.308	95.90989
971.48	20.02115
971.652	11.59093
971.824	112.77803
971.996	91.69308
972.168	95.90989
972.339	-3.16104
972.511	95.90989
972.683	30.55946
972.855	95.90989
973.027	81.15143
973.199	62.17789
973.37	20.02115
973.542	45.31408
973.714	104.34378
973.886	49.5299
974.057	43.20621
974.229	64.28597
974.401	5.26851
974.572	-9.48295
974.744	47.42198
974.915	53.7458
975.087	13.69845
975.259	83.25972
975.43	47.42198
975.602	17.91356
975.773	32.66719
975.945	49.5299
976.116	28.45175
976.288	11.59093
976.459	41.09836
976.63	41.09836
976.802	70.61035
976.973	45.31408
977.145	38.99053
977.316	62.17789
977.487	36.88273
977.659	-9.48295
977.83	30.55946
978.001	62.17789
978.172	81.15143
978.344	24.2364
978.515	36.88273
978.686	68.5022
978.857	-9.48295
979.028	11.59093
979.2	15.80599
979.371	-17.91182
979.542	70.61035
979.713	-28.44736
979.884	-5.26836
980.055	-22.12611
980.226	32.66719
980.397	-81.11567
980.568	17.91356
980.739	17.91356
980.91	1.05369
981.081	34.77495
981.252	-30.55439
981.423	112.77803
981.594	51.63784
981.765	79.04317
981.936	20.02115
982.106	-3.16104
982.277	70.61035
982.448	72.71852
982.619	57.9618
982.79	17.91356
982.96	83.25972
983.131	32.66719
983.302	1.05369
983.472	36.88273
983.643	62.17789
983.814	-36.87534
983.984	20.02115
984.155	15.80599
984.326	22.12877
984.496	-24.23321
984.667	-20.01897
984.837	20.02115
985.008	-34.76838
985.178	62.17789
985.349	-26.3403
985.519	24.2364
985.69	36.88273
985.86	3.16109
986.031	41.09836
986.201	24.2364
986.371	-9.48295
986.542	-28.44736
986.712	-26.3403
986.882	20.02115
987.053	70.61035
987.223	70.61035
987.393	38.99053
987.563	-34.76838
987.734	104.34378
987.904	45.31408
988.074	7.37596
988.244	17.91356
988.414	57.9618
988.585	-3.16104
988.755	-64.26353
988.925	-9.48295
989.095	17.91356
989.265	13.69845
989.435	-3.16104
989.605	79.04317
989.775	30.55946
989.945	-13.69743
990.115	24.2364
990.285	20.02115
990.455	24.2364
990.625	38.99053
990.795	-55.83685
990.965	20.02115
991.134	13.69845
991.304	100.12679
991.474	-68.47672
991.644	32.66719
991.814	13.69845
991.984	62.17789
992.153	-13.69743
992.323	-11.5902
992.493	28.45175
992.662	-30.55439
992.832	43.20621
993.002	-51.62336
993.171	62.17789
993.341	-36.87534
993.511	20.02115
993.68	38.99053
993.85	-64.26353
994.019	-7.37567
994.189	49.5299
994.358	20.02115
994.528	-38.98228
994.697	1.05369
994.867	-62.1569
995.036	-5.26836
995.206	20.02115
995.375	-55.83685
995.544	-5.26836
995.714	-13.69743
995.883	-68.47672
996.052	20.02115
996.222	55.85379
996.391	1.05369
996.56	28.45175
996.73	-5.26836
996.899	20.02115
997.068	66.39408
997.237	15.80599
997.406	-91.64742
997.576	-5.26836
997.745	28.45175
997.914	41.09836
998.083	-51.62336
998.252	5.26851
998.421	36.88273
998.59	-30.55439
998.759	-66.37014
998.928	-30.55439
999.097	-26.3403
999.266	28.45175
999.435	5.26851
999.604	13.69845
999.773	62.17789
999.942	7.37596
1000.111	70.61035
1000.28	66.39408
1000.448	-9.48295
1000.617	26.34407
1000.786	34.77495
1000.955	11.59093
1001.124	17.91356
1001.292	38.99053
1001.461	32.66719
1001.63	-85.32845
1001.798	-11.5902
1001.967	15.80599
1002.136	-38.98228
1002.304	30.55946
1002.473	-49.51657
1002.642	17.91356
1002.81	-83.22208
1002.979	45.31408
1003.147	-3.16104
1003.316	13.69845
1003.484	15.80599
1003.653	-53.73012
1003.821	-24.23321
1003.99	41.09836
1004.158	11.59093
1004.327	55.85379
1004.495	-41.08919
1004.663	-15.80464
1004.832	28.45175
1005	-17.91182
1005.168	28.45175
1005.337	1.05369
1005.505	-38.98228
1005.673	36.88273
1005.842	34.77495
1006.01	53.7458
1006.178	-17.91182
1006.346	24.2364
1006.514	13.69845
1006.683	28.45175
1006.851	49.5299
1007.019	30.55946
1007.187	32.66719
1007.355	-20.01897
1007.523	-3.16104
1007.691	41.09836
1007.859	-83.22208
1008.027	53.7458
1008.195	11.59093
1008.363	-5.26836
1008.531	-22.12611
1008.699	9.48343
1008.867	-26.3403
1009.035	5.26851
1009.203	36.88273
1009.37	-79.00925
1009.538	-20.01897
1009.706	-38.98228
1009.874	-3.16104
1010.042	30.55946
1010.209	-13.69743
1010.377	-55.83685
1010.545	13.69845
1010.713	-28.44736
1010.88	36.88273
1011.048	15.80599
1011.216	-13.69743
1011.383	81.15143
1011.551	-34.76838
1011.718	7.37596
1011.886	7.37596
1012.054	-9.48295
1012.221	51.63784
1012.389	24.2364
1012.556	-3.16104
1012.724	-32.6614
1012.891	-11.5902
1013.058	-22.12611
1013.226	38.99053
1013.393	-22.12611
1013.561	-5.26836
1013.728	74.82672
1013.895	-41.08919
1014.063	-28.44736
1014.23	36.88273
1014.397	-17.91182
1014.565	28.45175
1014.732	20.02115
1014.899	32.66719
1015.066	-11.5902
1015.233	-13.69743
1015.401	64.28597
1015.568	-13.69743
1015.735	20.02115
1015.902	-36.87534
1016.069	64.28597
1016.236	-1.05368
1016.403	47.42198
1016.57	15.80599
1016.737	1.05369
1016.904	-22.12611
1017.071	30.55946
1017.238	-28.44736
1017.405	15.80599
1017.572	-97.96616
1017.739	5.26851
1017.906	-13.69743
1018.073	43.20621
1018.24	30.55946
1018.407	-28.44736
1018.573	34.77495
1018.74	-3.16104
1018.907	64.28597
1019.074	-11.5902
1019.241	-28.44736
1019.407	66.39408
1019.574	7.37596
1019.741	22.12877
1019.907	49.5299
1020.074	-30.55439
1020.241	-11.5902
1020.407	38.99053
1020.574	3.16109
1020.74	-20.01897
1020.907	17.91356
1021.073	-20.01897
1021.24	-15.80464
1021.406	11.59093
1021.573	45.31408
1021.739	45.31408
1021.906	-47.40976
1022.072	-20.01897
1022.239	55.85379
1022.405	-36.87534
1022.571	-20.01897
1022.738	-26.3403
1022.904	-7.37567
1023.07	-1.05368
1023.237	20.02115
1023.403	-22.12611
1023.569	-3.16104
1023.735	-5.26836
1023.902	-5.26836
1024.068	-3.16104
1024.234	-70.58328
1024.4	-38.98228
1024.566	9.48343
1024.732	15.80599
1024.898	24.2364
1025.065	3.16109
1025.231	-24.23321
1025.397	-11.5902
1025.563	62.17789
1025.729	57.9618
1025.895	-1.05368
1026.061	-53.73012
1026.227	20.02115
1026.392	32.66719
1026.558	-7.37567
1026.724	-60.05024
1026.89	-11.5902
1027.056	-3.16104
1027.222	5.26851
1027.388	3.16109
1027.553	-38.98228
1027.719	-34.76838
1027.885	11.59093
1028.051	43.20621
1028.216	-28.44736
1028.382	53.7458
1028.548	-28.44736
1028.713	-5.26836
1028.879	-17.91182
1029.045	-5.26836
1029.21	-38.98228
1029.376	-5.26836
1029.541	-64.26353
1029.707	-13.69743
1029.873	11.59093
1030.038	-30.55439
1030.204	-38.98228
1030.369	1.05369
1030.534	-26.3403
1030.7	-64.26353
1030.865	-87.4348
1031.031	-30.55439
1031.196	-55.83685
1031.361	-51.62336
1031.527	79.04317
1031.692	-1.05368
1031.857	-55.83685
1032.023	32.66719
1032.188	-76.90279
1032.353	-22.12611
1032.518	20.02115
1032.684	-41.08919
1032.849	32.66719
1033.014	-20.01897
1033.179	-57.94356
1033.344	36.88273
1033.509	-51.62336
1033.674	-28.44736
1033.839	45.31408
1034.004	-45.30293
1034.17	-15.80464
1034.335	24.2364
1034.5	-11.5902
1034.664	-28.44736
1034.829	7.37596
1034.994	-5.26836
1035.159	-53.73012
1035.324	-45.30293
1035.489	11.59093
1035.654	30.55946
1035.819	-1.05368
1035.984	3.16109
1036.148	49.5299
1036.313	-11.5902
1036.478	15.80599
1036.643	-30.55439
1036.807	30.55946
1036.972	57.9618
1037.137	-114.81498
1037.301	-17.91182
1037.466	9.48343
1037.631	-83.22208
1037.795	11.59093
1037.96	-13.69743
1038.124	-24.23321
1038.289	-13.69743
1038.454	-57.94356
1038.618	-32.6614
1038.783	-28.44736
1038.947	-30.55439
1039.111	-11.5902
1039.276	-20.01897
1039.44	3.16109
1039.605	-79.00925
1039.769	-87.4348
1039.933	15.80599
1040.098	-36.87534
1040.262	38.99053
1040.426	-5.26836
1040.591	5.26851
1040.755	-38.98228
1040.919	-3.16104
1041.083	-13.69743
1041.248	26.34407
1041.412	32.66719
1041.576	-5.26836
1041.74	-38.98228
1041.904	-76.90279
1042.068	-17.91182
1042.232	-32.6614
1042.397	13.69845
1042.561	28.45175
1042.725	7.37596
1042.889	-3.16104
1043.053	-51.62336
1043.217	28.45175
1043.381	38.99053
1043.544	-1.05368
1043.708	-47.40976
1043.872	-13.69743
1044.036	-30.55439
1044.2	-13.69743
1044.364	20.02115
1044.528	-28.44736
1044.691	-55.83685
1044.855	41.09836
1045.019	-30.55439
1045.183	133.86516
1045.346	-41.08919
1045.51	-3.16104
1045.674	-81.11567
1045.837	104.34378
1046.001	-13.69743
1046.165	-30.55439
1046.328	11.59093
1046.492	-38.98228
1046.655	1.05369
1046.819	-30.55439
1046.983	22.12877
1047.146	-5.26836
1047.31	5.26851
1047.473	-1.05368
1047.636	-74.79631
1047.8	47.42198
1047.963	-55.83685
1048.127	3.16109
1048.29	-38.98228
