Data from absorb_only_2.23.25_USB4F045381__59__0164.txt Node

Date: Sun Feb 23 19:23:26 EST 2025
User: ssocol
Spectrometer: USB4F04538
Trigger mode: 4
Integration Time (sec): 2.600000E-3
Scans to average: 1
Electric dark correction enabled: true
Nonlinearity correction enabled: true
Boxcar width: 0
XAxis mode: Wavelengths
Number of Pixels in Spectrum: 3648
>>>>>Begin Spectral Data<<<<<
345.52	-54.78349
345.736	-54.78349
345.952	-54.78349
346.168	-61.10358
346.384	-4.2147
346.6	-77.95602
346.816	-29.50088
347.032	14.75222
347.248	18.96735
347.464	-2.10736
347.68	8.4297
347.896	-14.75104
348.112	-86.38163
348.328	10.53718
348.544	6.32224
348.76	88.53052
348.975	63.23193
349.191	48.47593
349.407	10.53718
349.623	-8.42931
349.839	77.98905
350.055	-6.32202
350.27	27.39791
350.486	-14.75104
350.702	-82.16888
350.918	-25.28676
351.133	-21.07254
351.349	-4.2147
351.565	-48.46317
351.781	40.04444
351.996	18.96735
352.212	14.75222
352.428	23.18258
352.644	21.07496
352.859	-14.75104
353.075	18.96735
353.291	-44.2495
353.506	-6.32202
353.722	16.85977
353.938	61.12386
354.153	-35.82187
354.369	-105.33773
354.584	54.79979
354.8	0
355.016	18.96735
355.231	21.07496
355.447	2.10739
355.662	12.64469
355.878	4.2148
356.093	48.47593
356.309	-65.31684
356.524	52.69182
356.74	-27.39383
356.955	-65.31684
357.171	44.26014
357.386	27.39791
357.602	63.23193
357.817	-73.74306
358.033	-65.31684
358.248	-61.10358
358.464	-16.85823
358.679	-90.59428
358.895	-21.07254
359.11	-23.17966
359.325	-65.31684
359.541	-18.9654
359.756	50.58386
359.972	-21.07254
360.187	6.32224
360.402	-10.53658
360.618	18.96735
360.833	42.15228
361.048	-44.2495
361.264	-67.42343
361.479	-10.53658
361.694	31.61332
361.909	-4.2147
362.125	-48.46317
362.34	-8.42931
362.555	29.5056
362.77	-18.9654
362.986	18.96735
363.201	27.39791
363.416	-46.35635
363.631	-65.31684
363.847	27.39791
364.062	-25.28676
364.277	-10.53658
364.492	59.01582
364.707	10.53718
364.922	-54.78349
365.138	27.39791
365.353	56.90779
365.568	10.53718
365.783	16.85977
365.998	-37.92881
366.213	37.93663
366.428	-18.9654
366.643	44.26014
366.858	-54.78349
367.073	-46.35635
367.288	-6.32202
367.503	-12.64382
367.718	-31.6079
367.933	48.47593
368.148	-29.50088
368.363	-40.03573
368.578	29.5056
368.793	-27.39383
369.008	44.26014
369.223	10.53718
369.438	-12.64382
369.653	63.23193
369.868	35.82884
370.083	-31.6079
370.298	-4.2147
370.513	-2.10736
370.728	2.10739
370.943	44.26014
371.157	2.10739
371.372	-40.03573
371.587	56.90779
371.802	2.10739
372.017	-4.2147
372.232	10.53718
372.446	18.96735
372.661	12.64469
372.876	21.07496
373.091	23.18258
373.306	52.69182
373.52	42.15228
373.735	-2.10736
373.95	29.5056
374.165	52.69182
374.379	-6.32202
374.594	-90.59428
374.809	-56.89021
375.023	-25.28676
375.238	35.82884
375.453	18.96735
375.667	-23.17966
375.882	10.53718
376.097	-25.28676
376.311	56.90779
376.526	-2.10736
376.741	-23.17966
376.955	29.5056
377.17	-31.6079
377.384	-21.07254
377.599	-4.2147
377.813	-23.17966
378.028	-25.28676
378.242	25.29023
378.457	77.98905
378.672	10.53718
378.886	-37.92881
379.101	-14.75104
379.315	18.96735
379.53	-14.75104
379.744	0
379.958	12.64469
380.173	48.47593
380.387	-6.32202
380.602	-37.92881
380.816	103.28953
381.031	10.53718
381.245	-4.2147
381.459	-6.32202
381.674	-35.82187
381.888	-54.78349
382.103	-14.75104
382.317	-23.17966
382.531	35.82884
382.746	-12.64382
382.96	-48.46317
383.174	-8.42931
383.388	-40.03573
383.603	-35.82187
383.817	14.75222
384.031	-8.42931
384.246	33.72107
384.46	-33.71489
384.674	44.26014
384.888	-52.67674
385.103	-12.64382
385.317	-35.82187
385.531	-46.35635
385.745	-29.50088
385.959	-75.84956
386.174	-18.9654
386.388	40.04444
386.602	12.64469
386.816	90.63889
387.03	-37.92881
387.244	27.39791
387.458	-77.95602
387.672	35.82884
387.887	27.39791
388.101	69.55627
388.315	2.10739
388.529	-18.9654
388.743	73.77262
388.957	14.75222
389.171	18.96735
389.385	44.26014
389.599	-14.75104
389.813	27.39791
390.027	-6.32202
390.241	37.93663
390.455	-54.78349
390.669	10.53718
390.883	-21.07254
391.097	-10.53658
391.311	0
391.525	27.39791
391.738	-10.53658
391.952	23.18258
392.166	-31.6079
392.38	-52.67674
392.594	-12.64382
392.808	63.23193
393.022	-31.6079
393.236	-23.17966
393.449	94.85568
393.663	73.77262
393.877	37.93663
394.091	-18.9654
394.305	2.10739
394.518	4.2148
394.732	65.34002
394.946	18.96735
395.16	44.26014
395.373	27.39791
395.587	-18.9654
395.801	-14.75104
396.015	-14.75104
396.228	48.47593
396.442	31.61332
396.656	-27.39383
396.869	-2.10736
397.083	-4.2147
397.297	-35.82187
397.51	33.72107
397.724	14.75222
397.938	-61.10358
398.151	-6.32202
398.365	-2.10736
398.578	46.36803
398.792	27.39791
399.005	-31.6079
399.219	61.12386
399.433	-46.35635
399.646	-14.75104
399.86	21.07496
400.073	14.75222
400.287	4.2148
400.5	-46.35635
400.714	31.61332
400.927	-14.75104
401.141	18.96735
401.354	2.10739
401.567	-27.39383
401.781	35.82884
401.994	27.39791
402.208	-23.17966
402.421	-2.10736
402.635	-18.9654
402.848	27.39791
403.061	46.36803
403.275	23.18258
403.488	4.2148
403.701	44.26014
403.915	2.10739
404.128	94.85568
404.341	35.82884
404.555	14.75222
404.768	-107.44383
404.981	27.39791
405.195	10.53718
405.408	25.29023
405.621	-4.2147
405.834	73.77262
406.048	-14.75104
406.261	4.2148
406.474	8.4297
406.687	-16.85823
406.9	-23.17966
407.114	-42.14263
407.327	2.10739
407.54	-18.9654
407.753	37.93663
407.966	-18.9654
408.179	94.85568
408.392	-29.50088
408.605	23.18258
408.819	0
409.032	6.32224
409.245	-27.39383
409.458	56.90779
409.671	44.26014
409.884	61.12386
410.097	27.39791
410.31	-21.07254
410.523	-10.53658
410.736	-14.75104
410.949	52.69182
411.162	-52.67674
411.375	-2.10736
411.588	23.18258
411.801	25.29023
412.014	-61.10358
412.227	-8.42931
412.44	-31.6079
412.653	27.39791
412.865	54.79979
413.078	44.26014
413.291	2.10739
413.504	-90.59428
413.717	-27.39383
413.93	21.07496
414.143	-31.6079
414.356	-33.71489
414.568	29.5056
414.781	-56.89021
414.994	18.96735
415.207	63.23193
415.42	73.77262
415.632	46.36803
415.845	18.96735
416.058	44.26014
416.271	69.55627
416.483	18.96735
416.696	8.4297
416.909	2.10739
417.121	-31.6079
417.334	-6.32202
417.547	-44.2495
417.759	-23.17966
417.972	-18.9654
418.185	46.36803
418.397	40.04444
418.61	10.53718
418.823	80.0973
419.035	8.4297
419.248	-27.39383
419.46	-48.46317
419.673	69.55627
419.885	33.72107
420.098	23.18258
420.311	-4.2147
420.523	-6.32202
420.736	27.39791
420.948	33.72107
421.161	61.12386
421.373	35.82884
421.586	-23.17966
421.798	14.75222
422.01	14.75222
422.223	-46.35635
422.435	2.10739
422.648	25.29023
422.86	-6.32202
423.073	84.31387
423.285	-69.53
423.497	52.69182
423.71	-63.21022
423.922	-14.75104
424.134	96.96411
424.347	-21.07254
424.559	-65.31684
424.771	-12.64382
424.984	29.5056
425.196	2.10739
425.408	25.29023
425.621	-12.64382
425.833	27.39791
426.045	-46.35635
426.257	88.53052
426.47	-14.75104
426.682	42.15228
426.894	25.29023
427.106	27.39791
427.318	92.74727
427.531	31.61332
427.743	21.07496
427.955	54.79979
428.167	69.55627
428.379	52.69182
428.591	-31.6079
428.804	6.32224
429.016	-29.50088
429.228	2.10739
429.44	-18.9654
429.652	48.47593
429.864	27.39791
430.076	10.53718
430.288	52.69182
430.5	-23.17966
430.712	50.58386
430.924	-6.32202
431.136	33.72107
431.348	37.93663
431.56	-6.32202
431.772	6.32224
431.984	56.90779
432.196	31.61332
432.408	63.23193
432.62	-52.67674
432.832	88.53052
433.044	6.32224
433.256	-56.89021
433.468	-10.53658
433.679	12.64469
433.891	-4.2147
434.103	14.75222
434.315	50.58386
434.527	48.47593
434.739	12.64469
434.95	27.39791
435.162	31.61332
435.374	37.93663
435.586	-65.31684
435.798	73.77262
436.009	63.23193
436.221	77.98905
436.433	56.90779
436.645	31.61332
436.856	-18.9654
437.068	40.04444
437.28	18.96735
437.491	-6.32202
437.703	86.42218
437.915	14.75222
438.126	18.96735
438.338	67.44814
438.55	-23.17966
438.761	65.34002
438.973	-6.32202
439.184	33.72107
439.396	14.75222
439.608	96.96411
439.819	48.47593
440.031	21.07496
440.242	27.39791
440.454	42.15228
440.665	35.82884
440.877	21.07496
441.088	46.36803
441.3	12.64469
441.511	-18.9654
441.723	61.12386
441.934	14.75222
442.146	-48.46317
442.357	-12.64382
442.569	73.77262
442.78	27.39791
442.991	37.93663
443.203	44.26014
443.414	46.36803
443.626	-2.10736
443.837	12.64469
444.048	23.18258
444.26	12.64469
444.471	4.2148
444.682	-14.75104
444.894	10.53718
445.105	14.75222
445.316	2.10739
445.528	44.26014
445.739	8.4297
445.95	63.23193
446.161	40.04444
446.373	56.90779
446.584	137.02842
446.795	111.72373
447.006	16.85977
447.217	48.47593
447.429	80.0973
447.64	31.61332
447.851	69.55627
448.062	48.47593
448.273	6.32224
448.484	12.64469
448.695	14.75222
448.907	52.69182
449.118	67.44814
449.329	65.34002
449.54	12.64469
449.751	137.02842
449.962	35.82884
450.173	25.29023
450.384	73.77262
450.595	80.0973
450.806	52.69182
451.017	56.90779
451.228	37.93663
451.439	145.464
451.65	12.64469
451.861	54.79979
452.072	37.93663
452.283	69.55627
452.494	107.50658
452.705	52.69182
452.915	10.53718
453.126	94.85568
453.337	2.10739
453.548	-6.32202
453.759	27.39791
453.97	46.36803
454.181	67.44814
454.391	111.72373
454.602	21.07496
454.813	10.53718
455.024	86.42218
455.235	86.42218
455.445	56.90779
455.656	162.33619
455.867	153.89993
456.078	71.66443
456.288	-14.75104
456.499	-2.10736
456.71	99.07256
456.921	2.10739
457.131	94.85568
457.342	16.85977
457.553	2.10739
457.763	48.47593
457.974	50.58386
458.184	86.42218
458.395	69.55627
458.606	56.90779
458.816	120.15828
459.027	40.04444
459.237	46.36803
459.448	145.464
459.659	99.07256
459.869	96.96411
460.08	99.07256
460.29	25.29023
460.501	61.12386
460.711	48.47593
460.922	67.44814
461.132	105.39804
461.343	132.81075
461.553	94.85568
461.764	122.26697
461.974	-6.32202
462.184	103.28953
462.395	166.55444
462.605	63.23193
462.816	109.61514
463.026	86.42218
463.236	170.77278
463.447	-12.64382
463.657	37.93663
463.867	124.37568
464.078	122.26697
464.288	137.02842
464.498	242.49695
464.709	322.68561
464.919	115.94096
465.129	132.81075
465.339	198.19399
465.55	162.33619
465.76	86.42218
465.97	137.02842
466.18	221.39921
466.391	206.63197
466.601	238.27725
466.811	183.42829
467.021	61.12386
467.231	162.33619
467.441	229.83807
467.651	183.42829
467.862	204.52245
468.072	217.1799
468.282	183.42829
468.492	204.52245
468.702	246.71673
468.912	305.80158
469.122	181.31899
469.332	200.30345
469.542	170.77278
469.752	299.47036
469.962	326.9068
470.172	305.80158
470.382	299.47036
470.592	343.79226
470.802	314.24345
471.012	267.81677
471.222	356.45708
471.432	329.01742
471.642	350.12459
471.852	324.7962
472.062	449.35082
472.272	381.78858
472.482	398.67758
472.691	411.34503
472.901	373.34447
473.111	424.01305
473.321	474.69081
473.531	390.23295
473.741	457.79724
473.95	685.93553
474.16	474.69081
474.37	582.40916
474.58	582.40916
474.79	669.03129
474.999	605.64718
475.209	641.5635
475.419	637.33786
475.628	738.76589
475.838	694.38792
476.048	622.54853
476.258	753.55959
476.467	897.29422
476.677	802.17095
476.886	939.57658
477.096	880.38215
477.306	838.10432
477.515	812.73931
477.725	888.83812
477.935	835.99052
478.144	1024.14979
478.354	846.55961
478.563	1108.73262
478.773	1026.26425
478.982	1087.58612
479.192	1070.66929
479.401	1131.99431
479.611	1083.35688
479.82	1108.73262
480.03	1087.58612
480.239	1271.57427
480.449	1216.58649
480.658	1328.6787
480.868	1379.43922
481.077	1396.35953
481.287	1290.60891
481.496	1383.66929
481.705	1540.18269
481.915	1510.57218
482.124	1480.96153
482.333	1677.65598
482.543	1658.62177
482.752	1810.88806
482.961	1764.36423
483.171	1726.29789
483.38	1612.09285
483.589	1677.65598
483.799	1954.67445
484.008	1870.0971
484.217	1848.95144
484.426	2073.06634
484.636	1982.1601
484.845	2024.44362
485.054	1910.27244
485.263	2368.93869
485.472	2115.34386
485.682	2223.13725
485.891	2075.18028
486.1	2299.21318
486.309	2428.09112
486.518	2330.90792
486.727	2385.84021
486.936	2529.47561
487.146	2343.5852
487.355	2582.26963
487.564	2546.3705
487.773	2818.69103
487.982	2523.13984
488.191	2601.27366
488.4	2592.82755
488.609	2681.50189
488.818	2624.49947
489.027	2742.7163
489.236	2945.27527
489.445	2919.96258
489.654	2814.47067
489.863	2987.45835
490.072	2757.49054
490.281	2976.91314
490.49	3111.86285
490.698	3046.5045
490.907	2995.89425
491.116	3202.49579
491.325	3002.22101
491.534	3147.69805
491.743	3248.8544
491.952	3208.81789
492.16	3333.12188
492.369	3417.36172
492.578	3373.1393
492.787	3543.66797
492.996	3501.57314
493.204	3600.48428
493.413	3642.56165
493.622	3701.45724
493.831	3629.93923
494.039	3762.44036
494.248	3602.58833
494.457	3764.54293
494.665	3770.85054
494.874	3997.80552
495.083	3781.36283
495.291	3861.24016
495.5	3997.80552
495.709	3882.25576
495.917	3930.58401
496.126	4046.10805
496.335	3955.79451
496.543	4029.3084
496.752	3903.26935
496.96	4125.88825
497.169	4050.30775
497.377	4314.72005
497.586	4056.60716
497.794	4241.30594
498.003	4174.16161
498.211	4392.30054
498.42	4222.4238
498.628	4323.10856
498.837	4411.16698
499.045	4381.81843
499.254	4440.51124
499.462	4593.45071
499.671	4442.6071
499.879	4620.6741
500.087	4409.07079
500.296	4620.6741
500.504	4597.63917
500.713	4875.96962
500.921	4763.01153
501.129	4773.4734
501.338	4733.71529
501.546	4863.422
501.754	4716.97259
501.962	4863.422
502.171	4926.15184
502.379	5049.46017
502.587	4712.78669
502.795	4836.23268
503.004	4696.04218
503.212	5051.54945
503.42	5018.1182
503.628	5153.89574
503.837	5076.619
504.045	5068.26285
504.253	5174.77588
504.461	5020.20783
504.669	5206.09173
504.877	5337.56092
505.085	5254.09918
505.294	5454.34435
505.502	5310.43996
505.71	5368.84942
505.918	5412.64444
506.126	5293.74818
506.334	5145.54303
506.542	5593.97046
506.75	5331.30259
506.958	5456.42909
507.166	5477.27529
507.374	5345.90504
507.582	5625.21555
507.79	5656.45533
507.998	5385.53445
508.206	5673.11438
508.414	5575.22086
508.622	5573.13746
508.83	5743.89847
509.037	5968.56111
509.245	5537.71594
509.453	5829.21948
509.661	5556.46936
509.869	5943.61218
510.077	5743.89847
510.285	5839.62176
510.492	5754.3056
510.7	5945.69139
510.908	5926.97768
511.116	5935.29512
511.324	5877.06511
511.531	5941.53295
511.739	5868.74503
511.947	6159.72356
512.155	5879.14507
512.362	6168.03045
512.57	6095.33237
512.778	6336.16439
512.985	5910.34167
513.193	6313.3404
513.401	5976.87667
513.608	6091.17732
513.816	6238.62391
514.024	6163.87705
514.231	6168.03045
514.439	6251.07876
514.646	6263.53278
514.854	6361.06007
515.061	6155.56997
515.269	6358.98556
515.477	6371.43228
515.684	6584.97041
515.892	6377.65533
516.099	6473.0491
516.307	6454.38898
516.514	6526.94557
516.722	6599.47379
516.929	6404.61943
517.136	6483.41503
517.344	6533.16339
517.551	6674.04475
517.759	6692.68283
517.966	6734.09413
518.173	6678.18671
518.381	6642.97715
518.588	6806.54186
518.796	6736.16445
519.003	6769.28653
519.21	6520.72755
519.418	7017.51641
519.625	6837.58234
519.832	6963.76093
520.039	6804.47232
520.247	6986.50549
520.454	7141.50964
520.661	7073.32333
520.868	6914.12695
521.076	7176.62645
521.283	6914.12695
521.49	7164.23302
521.697	6744.44552
521.904	7294.32436
522.112	7186.9537
522.319	7172.49539
522.526	7058.85644
522.733	7343.85998
522.94	7383.06674
523.147	7570.73796
523.354	7083.65615
523.561	7449.08142
523.768	7166.29864
523.975	7325.2856
524.183	7335.60492
524.39	7449.08142
524.597	7449.08142
524.804	7339.73249
525.011	7438.76809
525.218	7525.38326
525.425	7585.16683
525.632	7335.60492
525.838	7694.38012
526.045	7735.57724
526.252	7414.01389
526.459	7706.74014
526.666	7616.08231
526.873	7972.29874
527.08	7632.5686
527.287	7848.82608
527.494	7537.75375
527.701	8003.15537
527.907	7723.21899
528.114	8089.52961
528.321	7881.75938
528.528	8034.00741
528.735	8009.32614
528.941	7865.29339
529.148	7855.00148
529.355	7889.99188
529.562	7875.58479
529.768	8052.51645
529.975	7817.94629
530.182	8122.42471
530.388	7782.94353
530.595	7962.01218
530.802	8132.70338
531.008	8469.57019
531.215	8177.92358
531.422	8251.89951
531.628	8177.92358
531.835	8323.79606
532.042	8297.09443
532.248	8233.40793
532.455	8389.50913
532.661	8545.49868
532.868	8268.33513
533.074	8492.14624
533.281	8488.04168
533.487	8537.29145
533.694	8498.30295
533.9	8695.22797
534.107	8397.72187
534.313	8566.01544
534.52	8455.2024
534.726	8678.82412
534.933	8545.49868
535.139	8588.5817
535.345	8793.62636
535.552	8930.90426
535.758	8842.80981
535.965	9008.72781
536.171	9025.10849
536.377	9111.08874
536.584	8713.68089
536.79	8879.69058
536.996	9051.72469
537.203	8906.32308
537.409	8902.22597
537.615	9115.18228
537.821	8971.8672
538.028	9209.31474
538.234	9242.04805
538.44	9197.03863
538.646	8832.56412
538.853	9104.9483
539.059	8853.05505
539.265	9356.58093
539.471	9266.59521
539.677	9240.00235
539.883	9129.50911
540.09	9503.76189
540.296	9364.75987
540.502	9544.63068
540.708	9190.90035
540.914	9528.28393
541.12	9669.24157
541.326	9636.56237
541.532	9389.29509
541.738	9699.87474
541.944	9346.3569
542.15	9409.73932
542.356	9659.02975
542.562	9726.42068
542.768	9291.13996
542.974	9818.29066
543.18	9654.94491
543.386	10057.01228
543.592	9779.50485
543.798	10083.52472
544.004	9816.24944
544.21	10020.29879
544.415	9518.06669
544.621	10093.72118
544.827	9869.31641
545.033	10273.122
545.239	10040.69575
545.445	10348.52044
545.651	10010.09978
545.856	10132.46452
546.062	10311.8424
546.268	9955.01889
546.474	10044.77497
546.679	9971.34025
546.885	9836.661
547.091	10144.6982
547.297	10120.23032
547.502	10154.89256
547.708	10238.4733
547.914	10169.16408
548.119	10185.47356
548.325	10085.56404
548.531	10022.33855
548.736	10423.90077
548.942	9977.46052
549.147	10057.01228
549.353	10205.85917
549.559	10281.27406
549.764	10375.00747
549.97	10489.08021
550.175	10452.4184
550.381	10812.75086
550.586	10438.1599
550.792	10603.11289
550.997	10517.59209
551.203	10430.0119
551.408	10686.57637
551.614	10729.31804
551.819	10576.64453
552.025	10668.25688
552.23	10574.60841
552.435	10613.29247
552.641	10713.03612
552.846	11105.6302
553.052	10552.21032
553.257	10924.6421
553.462	10635.68646
553.668	10881.92411
553.873	10564.42765
554.078	10662.15017
554.283	10869.71804
554.489	10963.2874
554.694	10949.05013
554.899	10885.9927
555.105	10995.82767
555.31	11101.56401
555.515	11215.40135
555.72	11099.53089
555.925	10975.49034
556.131	11272.3077
556.336	11195.07568
556.541	11274.33992
556.746	11008.02953
556.951	11105.6302
557.156	11166.61798
557.361	11233.69356
557.567	11107.66328
557.772	11132.05942
557.977	11359.68404
558.182	11274.33992
558.387	10849.37366
558.592	11430.79071
558.797	11028.36509
559.002	11266.21098
559.207	10957.18578
559.412	11146.28979
559.617	11288.56518
559.822	11420.63335
560.027	11554.69118
560.232	11422.66484
560.437	11487.66746
560.642	11477.51145
560.847	11542.50581
561.051	11583.1224
561.256	11367.81112
561.461	11516.10302
561.666	11337.33372
561.871	11723.22159
562.076	11849.07202
562.281	11593.27597
562.485	11377.96976
562.69	11727.2818
562.895	11351.55679
563.1	11564.84539
563.305	11838.92401
563.509	11930.24861
563.714	11741.49226
563.919	11802.38942
564.123	11595.30665
564.328	11899.80894
564.533	11475.48022
564.737	11597.33733
564.942	11623.73529
565.147	11987.06443
565.351	11461.26133
565.556	11536.413
565.761	11940.39476
565.965	12035.75871
566.17	11796.30006
566.374	12098.64884
566.579	12078.36251
566.784	11976.91921
566.988	12025.61445
567.193	12080.39118
567.397	12086.47713
567.602	12431.23999
567.806	11759.76223
568.011	12191.95618
568.215	12269.02439
568.42	12094.59163
568.624	11970.83198
568.828	12238.60398
569.033	11810.50846
569.237	12167.61666
569.442	12321.74932
569.646	12210.21013
569.85	12062.1329
570.055	12137.19075
570.259	12177.75826
570.463	12090.5344
570.668	12127.04841
570.872	12514.35881
571.076	12293.35956
571.281	12400.8279
571.485	12234.5478
571.689	12439.34963
571.893	12051.98914
572.098	12447.45916
572.302	12415.0204
572.506	12427.18514
572.71	12348.11001
572.914	12609.62812
573.119	12583.27841
573.323	12437.32223
573.527	12242.66013
573.731	12771.75785
573.935	12652.19085
574.139	12678.53788
574.343	12510.30448
574.547	12931.82535
574.751	12834.5732
574.955	12662.32444
575.159	12765.67866
575.364	12737.30841
575.568	12808.23193
575.772	12615.70868
575.976	12552.8736
576.18	12700.83073
576.383	12757.57299
576.587	12919.6695
576.791	12789.99512
576.995	12998.67918
577.199	12757.57299
577.403	12700.83073
577.607	12897.38329
577.811	12818.3633
578.015	12329.86042
578.219	12879.14863
578.422	12893.33118
578.626	13055.39934
578.83	13031.09118
579.034	12893.33118
579.238	13085.78356
579.442	13097.93695
579.645	13085.78356
579.849	12816.33704
580.053	12654.21758
580.257	13106.03911
580.46	12931.82535
580.664	13077.68121
580.868	13029.06547
581.071	13367.2951
581.275	13126.29418
581.479	13430.06709
581.682	12913.5915
581.886	13053.37369
582.09	13193.13263
582.293	13377.41987
582.497	13201.23392
582.7	13328.82004
582.904	13241.73931
583.107	13604.18969
583.311	13322.74489
583.515	13183.00591
583.718	13251.86538
583.922	13448.29051
584.125	13349.07025
584.329	13575.84597
584.532	13077.68121
584.735	13626.45929
584.939	13488.78589
585.142	13654.80182
585.346	13590.01792
585.549	13553.57542
585.753	13359.19521
585.956	13486.76116
586.159	13270.09204
586.363	13612.28777
586.566	13632.53274
586.769	13885.5681
586.973	13602.16516
587.176	13772.21413
587.379	13675.04609
587.582	13988.79368
587.786	13780.31114
587.989	13711.48495
588.192	13824.84388
588.395	13853.18216
588.599	13966.52991
588.802	14110.22729
589.005	13737.80127
589.208	13968.5539
589.411	13903.78488
589.615	13960.45792
589.818	14094.03662
590.021	13956.40991
590.224	13735.77695
590.427	14000.93743
590.63	13956.40991
590.833	13966.52991
591.036	14138.56062
591.239	14454.24934
591.442	14158.79845
591.645	14179.03608
591.848	14059.63098
592.051	14195.22603
592.254	13810.67453
592.457	14353.07167
592.66	14122.3702
592.863	14179.03608
593.066	14033.32033
593.269	14448.17878
593.472	14158.79845
593.675	14557.44687
593.878	14268.07925
594.081	14083.91739
594.284	14017.12895
594.486	14316.64673
594.689	14506.86027
594.892	14579.70472
595.095	14381.40181
595.298	14478.53142
595.5	14419.84936
595.703	14735.5061
595.906	14741.57617
596.109	14547.32961
596.311	14262.00825
596.514	14395.56676
596.717	14514.95418
596.92	14593.86874
597.122	14630.29025
597.325	14765.85637
597.528	14490.67239
597.73	14741.57617
597.933	14328.78844
598.136	14907.48891
598.338	14648.50087
598.541	14773.94975
598.743	14755.73964
598.946	14729.43602
599.148	14672.78158
599.351	14775.97309
599.554	14826.55642
599.756	15196.8179
599.959	14557.44687
600.161	14889.27918
600.363	14958.07131
600.566	14798.22981
600.768	14986.39734
600.971	15178.60846
601.173	14909.51222
601.376	14980.32748
601.578	15020.79314
601.78	15235.26006
601.983	15107.79398
602.185	15075.42161
602.388	15028.88626
602.59	15113.8638
602.792	15126.00343
602.995	15326.30753
603.197	14885.23257
603.399	15397.12262
603.601	14970.21104
603.804	15107.79398
604.006	14871.0694
604.208	14982.35076
604.41	14945.93156
604.613	14960.0946
604.815	15034.95609
605.017	15182.655
605.219	14814.41646
605.421	15053.16559
605.623	15202.88771
605.826	15389.02945
606.028	15308.098
606.23	15168.49211
606.432	15206.93425
606.634	15405.21581
606.836	15028.88626
607.038	15502.33462
607.24	15150.28267
607.442	15356.6568
607.644	15049.11903
607.846	15249.42298
608.048	15215.02734
608.25	15320.23768
608.452	15073.39834
608.654	15063.28197
608.856	14931.7685
609.058	15297.9816
609.26	14976.2809
609.462	15277.74883
609.664	15069.35179
609.866	15146.23613
610.067	15304.05144
610.269	15474.00817
610.471	14986.39734
610.673	15368.79653
610.875	15405.21581
611.077	15215.02734
611.278	14923.67531
611.48	15087.56126
611.682	15332.37738
611.884	15336.42395
612.085	15119.93361
612.287	15358.68009
612.489	15308.098
612.69	15312.14456
612.892	15219.07388
613.094	15449.72845
613.295	15012.70002
613.497	15308.098
613.699	15318.2144
613.9	15123.98015
614.102	14899.3957
614.304	15045.07248
614.505	14881.18595
614.707	15380.93628
614.908	15421.4022
615.11	15178.60846
615.311	15314.16784
615.513	15330.35409
615.714	15300.00488
615.916	15283.81866
616.117	15391.05274
616.319	15283.81866
616.52	15243.35316
616.722	15498.28798
616.923	15273.70227
617.124	15929.2743
617.326	15251.44625
617.527	15648.01558
617.729	15504.35794
617.93	15237.28334
618.131	15221.09716
618.333	14899.3957
618.534	15128.0267
618.735	15425.4488
618.937	15589.33807
619.138	15494.24134
619.339	15320.23768
619.54	15484.12475
619.742	15461.8683
619.943	15474.00817
620.144	15478.0548
620.345	15431.5187
620.546	15269.65572
620.748	15482.10143
620.949	15506.38127
621.15	15949.50961
621.351	15605.5249
621.552	15421.4022
621.753	15417.3556
621.954	15783.58374
622.155	15215.02734
622.356	15488.17138
622.558	15393.07603
622.759	15658.13246
622.96	15338.44723
623.161	15243.35316
623.362	15243.35316
623.563	15949.50961
623.764	15779.53686
623.965	15380.93628
624.166	15302.02816
624.366	15403.19251
624.567	15285.84193
624.768	15524.5912
624.969	15188.72482
625.17	15259.53935
625.371	15591.36142
625.572	15437.58861
625.773	15271.679
625.973	15872.61612
626.174	15688.48324
626.375	15724.90445
626.576	15674.31952
626.777	15830.12312
626.977	15534.70785
627.178	15801.79473
627.379	15433.54201
627.58	15342.4938
627.78	15368.79653
627.981	15550.89453
628.182	15326.30753
628.382	15492.21802
628.583	15609.57162
628.784	15652.06233
628.984	15340.47051
629.185	15690.50663
629.386	15591.36142
629.586	16014.2635
629.787	15635.87535
629.987	15767.39626
630.188	15591.36142
630.388	15530.66119
630.589	15417.3556
630.79	15959.62731
630.99	15672.29613
631.191	16040.57018
631.391	15512.45124
631.591	15860.47521
631.792	15603.50154
631.992	15832.14658
632.193	15983.90994
632.393	16109.37345
632.594	15686.45985
632.794	15785.60718
632.994	15927.25078
633.195	15650.03895
633.395	15882.73358
633.595	15963.6744
633.796	15898.92158
633.996	16101.27886
634.196	15840.24045
634.397	16068.90073
634.597	15957.60377
634.797	16285.4374
634.997	16064.85349
635.198	16070.92435
635.398	15785.60718
635.598	15822.02927
635.798	15769.41969
635.998	15637.89872
636.199	15710.74061
636.399	15925.22726
636.599	15619.68842
636.799	15688.48324
636.999	15583.26802
637.199	15803.81818
637.399	15846.31087
637.599	15957.60377
637.799	15516.49789
637.999	15947.48607
638.199	15886.78058
638.399	16111.3971
638.599	15755.2557
638.799	15696.57682
638.999	15607.54826
639.199	15933.32135
639.399	16002.12204
639.599	15975.81571
639.799	15983.90994
639.999	15872.61612
640.199	15633.85198
640.399	15935.34488
640.599	15340.47051
640.799	16060.80625
640.998	16081.04248
641.198	15919.1567
641.398	15799.77128
641.598	15896.89808
641.798	15945.46254
641.997	15773.46656
642.197	15826.07619
642.397	15874.63961
642.597	16048.66459
642.796	16176.15483
642.996	16200.43941
643.196	16170.08372
643.395	15965.69795
643.595	15919.1567
643.795	15809.88853
643.994	15850.35782
644.194	15795.72439
644.394	16032.47579
644.593	15868.56915
644.793	16157.94155
644.992	15882.73358
645.192	16275.31842
645.392	16038.54658
645.591	16437.22761
645.791	16281.3898
645.99	16627.4875
646.19	16166.03632
646.389	16054.73542
646.589	15753.23227
646.788	15977.83926
646.987	15915.10967
647.187	16346.15219
647.386	16131.63372
647.586	16366.39083
647.785	16079.01885
647.984	16101.27886
648.184	16159.96524
648.383	16360.31922
648.582	16101.27886
648.782	16659.87409
648.981	16364.36696
649.18	16303.65166
649.38	16530.33115
649.579	16649.75322
649.778	16135.68106
649.977	16734.77036
650.177	16714.52781
650.376	16180.20224
650.575	16461.51507
650.774	16109.37345
650.973	16038.54658
651.173	16198.41568
651.372	16263.17572
651.571	16558.6679
651.77	16734.77036
651.969	16495.92281
652.168	16376.51023
652.367	16435.20367
652.566	16323.88991
652.765	16506.04285
652.964	16313.77076
653.163	16455.44318
653.362	16246.98554
653.561	16433.17973
653.76	16305.67548
653.959	16661.89827
654.158	16522.23502
654.357	16109.37345
654.556	16340.08064
654.755	16783.35346
654.954	16451.39526
655.153	16344.12834
655.352	16327.93758
655.551	16617.36681
655.749	16291.5088
655.948	16510.09088
656.147	16236.86674
656.346	16550.57164
656.545	16289.485
656.743	16305.67548
656.942	16295.55641
657.141	16613.31855
657.34	16497.94681
657.538	16665.94664
657.737	16704.40662
657.936	17052.61121
658.135	16716.55205
658.333	16750.96457
658.532	16554.61977
658.731	16607.24617
658.929	16627.4875
659.128	16131.63372
659.326	16382.58188
659.525	16501.99482
659.724	16230.79548
659.922	16251.03307
660.121	16619.39094
660.319	16568.78827
660.518	16273.29463
660.716	16556.64383
660.915	16771.20755
661.113	16829.91359
661.312	16599.14971
661.51	16730.72183
661.709	16584.98097
661.907	16864.32844
662.105	16512.11489
662.304	16605.22205
662.502	16546.52353
662.701	16781.32914
662.899	16568.78827
663.097	16890.64618
663.296	16580.93278
663.494	16854.20635
663.692	16303.65166
663.891	16544.49947
664.089	16244.96178
664.287	16473.65891
664.485	16473.65891
664.684	16929.11134
664.882	16710.47932
665.08	16508.06686
665.278	16550.57164
665.476	16702.38239
665.675	16518.18696
665.873	16544.49947
666.071	16356.27149
666.269	16530.33115
666.467	16376.51023
666.665	16580.93278
666.863	16516.16294
667.061	16599.14971
667.259	16437.22761
667.457	16823.84045
667.655	16352.22376
667.853	16459.4911
668.051	16471.63493
668.249	16651.77739
668.447	16469.61095
668.645	16512.11489
668.843	16797.52379
669.041	16811.69425
669.239	16483.77883
669.437	16761.08603
669.635	16317.81841
669.833	16516.16294
670.031	16242.93801
670.229	16412.94044
670.426	16386.62967
670.624	16410.91652
670.822	16574.86052
671.02	16661.89827
671.218	16570.81235
671.415	16582.95688
671.613	16301.62785
671.811	16153.89417
672.009	16299.60403
672.206	16386.62967
672.404	16364.36696
672.602	16058.78264
672.799	16105.32615
672.997	16599.14971
673.195	16386.62967
673.392	16327.93758
673.59	16406.8687
673.788	16064.85349
673.985	16072.94797
674.183	16048.66459
674.38	15856.42825
674.578	16378.53411
674.775	16396.74916
674.973	16350.1999
675.17	16406.8687
675.368	16305.67548
675.565	16216.62926
675.763	16291.5088
675.96	16222.70049
676.158	16279.36601
676.355	15660.15584
676.553	16311.74694
676.75	16125.56271
676.947	16034.49938
677.145	15880.71009
677.342	16319.84224
677.539	16174.13112
677.737	16083.06611
677.934	16279.36601
678.131	16352.22376
678.329	16459.4911
678.526	16206.51059
678.723	16052.71181
678.92	16246.98554
679.118	15923.20374
679.315	15623.73515
679.512	15639.92209
679.709	15947.48607
679.906	15917.13318
680.104	16111.3971
680.301	16079.01885
680.498	16210.55806
680.695	16036.52298
680.892	15898.92158
681.089	15690.50663
681.286	16010.21634
681.483	15587.31472
681.68	15902.9686
681.877	15737.04492
682.075	15589.33807
682.272	15969.74505
682.469	16277.34221
682.665	15777.51342
682.862	16168.06002
683.059	15603.50154
683.256	15607.54826
683.453	15577.19797
683.65	15921.18022
683.847	15777.51342
684.044	15664.2026
684.241	15255.4928
684.438	15846.31087
684.635	15558.98788
684.831	15935.34488
685.028	15589.33807
685.225	15840.24045
685.422	15455.79837
685.619	15720.85763
685.815	15565.05791
686.012	15660.15584
686.209	15439.61192
686.405	16008.19276
686.602	15581.24467
686.799	15502.33462
686.996	15743.11517
687.192	15959.62731
687.389	15471.98486
687.586	15585.29137
687.782	15690.50663
687.979	15977.83926
688.175	15743.11517
688.372	15696.57682
688.568	15550.89453
688.765	15289.88849
688.962	15180.63173
689.158	15352.61023
689.355	15320.23768
689.551	15389.02945
689.748	15461.8683
689.944	15607.54826
690.14	15439.61192
690.337	15753.23227
690.533	15482.10143
690.73	15162.4223
690.926	15322.26096
691.123	15308.098
691.319	15257.51607
691.515	15243.35316
691.712	14818.46312
691.908	15119.93361
692.104	15008.65345
692.301	15059.23542
692.497	14838.69635
692.693	15253.46952
692.889	15253.46952
693.086	15368.79653
693.282	15243.35316
693.478	15399.14592
693.674	15213.00407
693.87	15417.3556
694.067	15243.35316
694.263	15261.56262
694.459	15117.91034
694.655	15233.23679
694.851	15099.70089
695.047	14883.20926
695.243	14956.04802
695.439	15150.28267
695.635	15045.07248
695.831	15235.26006
696.027	15028.88626
696.224	15293.93505
696.42	15136.11978
696.615	15158.37576
696.811	14672.78158
697.007	14620.1732
697.203	14867.02278
697.399	14943.90826
697.595	14860.95284
697.791	14917.60542
697.987	15049.11903
698.183	15180.63173
698.379	14790.13647
698.575	14826.55642
698.77	14711.22574
698.966	14634.33706
699.162	14531.14194
699.358	14670.75819
699.554	14207.36841
699.749	14510.90723
699.945	14284.26853
700.141	14514.95418
700.337	14551.37652
700.532	14591.84531
700.728	14769.90306
700.924	14755.73964
701.119	14782.04312
701.315	14828.57974
701.511	14561.49376
701.706	14745.62288
701.902	14484.60191
702.097	14646.47747
702.293	14583.75159
702.489	14684.92187
702.684	14249.86618
702.88	14506.86027
703.075	14302.48132
703.271	14816.43979
703.466	14399.61388
703.662	14624.22002
703.857	14759.78633
704.053	14577.68129
704.248	14199.2735
704.443	14438.06117
704.639	14391.51964
704.834	14476.50792
705.03	14191.17855
705.225	14630.29025
705.42	14510.90723
705.616	14622.19661
705.811	14363.18961
706.006	14486.62541
706.202	14377.35467
706.397	14563.51721
706.592	14336.88287
706.787	14496.74286
706.983	14355.09526
707.178	14654.57106
707.373	14264.03192
707.568	14519.00113
707.763	14450.2023
707.959	14314.6231
708.154	14274.15024
708.349	14102.13198
708.544	14015.10502
708.739	14142.6082
708.934	14152.72713
709.129	14282.24487
709.324	14429.96705
709.519	14684.92187
709.714	14160.82223
709.909	14045.46375
710.104	14191.17855
710.299	14201.29723
710.494	14061.65486
710.689	14272.12658
710.884	14187.13107
711.079	14304.50495
711.274	14136.53682
711.469	14215.46329
711.664	14174.98857
711.859	14300.45768
712.054	14363.18961
712.249	14174.98857
712.443	14136.53682
712.638	14015.10502
712.833	13877.47168
713.028	14154.7509
713.223	13642.6551
713.417	13800.55347
713.612	13646.70402
713.807	14007.00927
714.002	13658.8507
714.196	13857.23044
714.391	13887.59219
714.586	13968.5539
714.78	13926.04953
714.975	14112.25111
715.17	14013.08109
715.364	14039.39205
715.559	13806.62611
715.754	13762.09279
715.948	13616.33679
716.143	13543.4523
716.337	13598.11609
716.532	14033.32033
716.726	13772.21413
716.921	13988.79368
717.115	13624.4348
717.31	13741.84989
717.504	13632.53274
717.699	13778.28689
717.893	13594.06701
718.088	13917.95333
718.282	13909.85709
718.476	14148.67956
718.671	13535.35374
718.865	13796.50503
719.059	13725.65534
719.254	13836.98893
719.448	13650.75293
719.642	13440.19125
719.837	13106.03911
720.031	13466.51362
720.225	13259.96616
720.419	13332.87011
720.614	13025.01403
720.808	13312.61956
721.002	13081.7324
721.196	13227.56263
721.39	13594.06701
721.585	13251.86538
721.779	13478.66219
721.973	13496.88479
722.167	13085.78356
722.361	13047.2967
722.555	13037.16829
722.749	13243.76453
722.943	13043.24535
723.137	13351.09525
723.331	13110.09016
723.525	13033.11689
723.719	12802.15304
723.913	13004.75653
724.107	12915.61751
724.301	13239.71408
724.495	13114.1412
724.689	13055.39934
724.883	12976.39519
725.077	13101.98804
725.271	12765.67866
725.465	12903.46141
725.659	12775.81061
725.853	13278.19267
726.046	13079.70681
726.24	12787.96878
726.434	12538.68421
726.628	13288.31835
726.822	12948.03285
727.015	13308.5694
727.209	12789.99512
727.403	12838.62563
727.596	12619.76235
727.79	12830.52076
727.984	12745.41431
728.177	12972.34349
728.371	12818.3633
728.565	12974.36934
728.758	13075.65561
728.952	13146.54879
729.146	13104.01358
729.339	13223.5121
729.533	12992.60179
729.726	13353.12025
729.92	13018.93683
730.113	13180.98055
730.307	13081.7324
730.5	13077.68121
730.694	12723.12287
730.887	13029.06547
731.081	12921.69549
731.274	13099.9625
731.468	13039.19398
731.661	13170.8537
731.854	13016.91109
732.048	12903.46141
732.241	13166.80293
732.435	13276.16752
732.628	13027.03975
732.821	13247.81497
733.014	13318.69477
733.208	13176.92982
733.401	13101.98804
733.594	12984.49853
733.788	12978.42103
733.981	12939.92914
734.174	12787.96878
734.367	12921.69549
734.56	12895.35724
734.754	12721.09634
734.947	12871.04421
735.14	12729.20242
735.333	12729.20242
735.526	12708.93704
735.719	12548.81952
735.912	12777.83699
736.105	12427.18514
736.298	12635.97679
736.491	12781.88972
736.684	12846.7304
736.877	12743.38785
737.07	12690.6977
737.263	12615.70868
737.456	12773.78423
737.649	12826.4683
737.842	12846.7304
738.035	12767.70506
738.228	12739.3349
738.421	12789.99512
738.614	13061.47628
738.807	12929.79938
739	12492.05971
739.192	12427.18514
739.385	12648.13737
739.578	12577.19756
739.771	12652.19085
739.964	12327.83266
740.156	12725.1494
740.349	12425.1577
740.542	12599.49374
740.735	12433.26741
740.927	12676.51122
741.12	12350.1377
741.313	12461.65059
741.505	12692.72432
741.698	12425.1577
741.891	12165.58832
742.083	12342.02687
742.276	12565.0357
742.468	12581.25147
742.661	12222.37909
742.854	12163.55997
743.046	12098.64884
743.239	12173.70164
743.431	12206.15375
743.624	12084.44849
743.816	12232.5197
744.009	11889.66197
744.201	11804.4192
744.393	12125.01992
744.586	12189.92793
744.778	12047.93158
744.971	11891.69138
745.163	12064.16163
745.355	12291.33167
745.548	11966.77379
745.74	11989.09345
745.932	12131.10537
746.125	12141.24764
746.317	12143.27607
746.509	11875.45587
746.702	12078.36251
746.894	11993.15146
747.086	12317.69372
747.278	12196.01267
747.471	11755.7023
747.663	11796.30006
747.855	12047.93158
748.047	12086.47713
748.239	12289.30377
748.431	11893.72078
748.623	11899.80894
748.815	11940.39476
749.008	12410.96543
749.2	12074.30515
749.392	12220.35095
749.584	12045.90279
749.776	12116.90588
749.968	12279.16417
750.16	12141.24764
750.352	11968.80289
750.544	11832.83511
750.736	12116.90588
750.928	12051.98914
751.12	11723.22159
751.311	12005.32532
751.503	12074.30515
751.695	12074.30515
751.887	11877.48534
752.079	11715.10106
752.271	11883.57369
752.463	12098.64884
752.654	11995.18046
752.846	12092.56302
753.038	11816.59765
753.23	11946.48235
753.421	11826.74612
753.613	11930.24861
753.805	12060.10416
753.997	11865.3084
754.188	11881.54425
754.38	11820.65706
754.572	11879.5148
754.763	11899.80894
754.955	11704.9502
755.146	11741.49226
755.338	11581.09166
755.53	11688.70837
755.721	11773.97172
755.913	11690.73863
756.104	11323.11016
756.296	11546.56763
756.487	11215.40135
756.679	11418.60185
756.87	11105.6302
757.062	11136.12529
757.253	11213.36883
757.445	11186.94512
757.636	10987.69287
757.827	11249.9526
758.019	11323.11016
758.21	11191.01042
758.401	11046.66614
758.593	11398.2863
758.784	11028.36509
758.975	11367.81112
759.167	11107.66328
759.358	11205.23864
759.549	11113.76246
759.74	11182.87977
759.932	10965.32125
760.123	11010.06314
760.314	10869.71804
760.505	10851.40815
760.696	10855.4771
760.888	10867.68365
761.079	10660.11457
761.27	10904.30083
761.461	11172.71623
761.652	11191.01042
761.843	10733.38839
762.034	11075.13269
762.225	10743.56408
762.416	10741.52897
762.607	10393.34334
762.798	10767.98451
762.989	10997.86134
763.18	10829.02813
763.371	11056.83301
763.562	11040.56589
763.753	10914.47161
763.944	10947.01619
764.135	10535.91984
764.326	11003.96229
764.517	10776.12427
764.708	10719.14193
764.899	10493.15349
765.089	10824.95888
765.28	10230.32009
765.471	10470.74982
765.662	10352.59552
765.853	10686.57637
766.043	10317.95571
766.234	10688.61181
766.425	10393.34334
766.615	10633.6507
766.806	10493.15349
766.997	10480.9335
767.187	10434.08593
767.378	10607.18476
767.569	10142.65929
767.759	10269.04588
767.95	10411.67815
768.141	10285.35002
768.331	10222.16667
768.522	10356.67053
768.712	10464.63947
768.903	10421.8637
769.093	10032.53714
769.284	10118.19124
769.474	10020.29879
769.665	9938.69659
769.855	10012.13961
770.046	10052.93324
770.236	9773.38027
770.426	10008.05993
770.617	10083.52472
770.807	9944.81756
770.998	9850.94821
771.188	9967.25999
771.378	9934.61588
771.569	9944.81756
771.759	9922.37337
771.949	9781.54634
772.139	9885.64269
772.33	9748.88062
772.52	9714.16903
772.71	9952.97865
772.9	9848.90722
773.09	10028.45774
773.281	10018.25902
773.471	10032.53714
773.661	9855.03014
773.851	9779.50485
774.041	9278.86788
774.231	9742.75536
774.421	9565.0627
774.611	9630.43458
774.802	9718.25297
774.992	9701.91682
775.182	9675.36848
775.372	9695.79051
775.562	9544.63068
775.752	9491.5
775.942	9413.82797
776.131	9646.77505
776.321	9720.29492
776.511	9667.19924
776.701	9374.98317
776.891	9507.84905
777.081	9119.27574
777.271	9258.41309
777.461	9211.3607
777.651	9201.13074
777.84	8932.95257
778.03	8967.77122
778.22	9025.10849
778.41	9010.77546
778.599	9119.27574
778.789	9464.93061
778.979	9391.33959
779.169	9440.40261
779.358	9262.50418
779.548	9313.63721
779.738	9364.75987
779.927	9448.57887
780.117	9597.75064
780.307	9397.47298
780.496	9336.13245
780.686	9280.91327
780.875	9276.82248
781.065	9143.83511
781.254	9113.13552
781.444	9061.96091
781.633	9186.80808
781.823	9219.54436
782.012	9072.1967
782.202	9055.81923
782.391	9025.10849
782.581	9131.55574
782.77	8865.34875
782.96	9031.25095
783.149	8816.17007
783.338	8980.05894
783.528	8920.66241
783.717	9096.76082
783.906	8736.23243
784.096	8955.48287
784.285	8916.56555
784.474	8978.01103
784.663	8752.63216
784.853	8697.27837
785.042	8748.53233
785.231	8791.57682
785.42	8689.07667
785.61	8844.8589
785.799	8590.63307
785.988	8481.88469
786.177	8410.0404
786.366	8496.25073
786.555	8502.40732
786.744	8533.18772
786.933	8490.09397
787.122	8553.70561
787.312	8276.55246
787.501	8371.02934
787.69	8231.35321
787.879	8590.63307
788.068	8446.99182
788.257	8578.32459
788.445	8346.38717
788.634	8479.83232
788.823	8524.98003
789.012	8490.09397
789.201	8233.40793
789.39	8323.79606
789.579	8073.08012
789.768	8350.4944
789.957	8165.59176
790.145	8256.00853
790.334	8266.28074
790.523	8329.95751
790.712	7988.75618
790.9	8397.72187
791.089	8112.14555
791.278	8315.58053
791.467	7873.52655
791.655	8288.87788
791.844	8258.06301
792.033	8214.91475
792.221	8192.3098
792.41	8260.11747
792.599	7789.12093
792.787	7877.64301
792.976	7789.12093
793.164	7937.32234
793.353	7657.2955
793.541	7752.05373
793.73	7863.23505
793.918	8036.06405
794.107	7651.11406
794.295	7698.50021
794.484	7727.33849
794.672	7840.59193
794.861	7595.47252
795.049	7766.46956
795.238	7519.19772
795.426	7719.0994
795.614	7896.16604
795.803	7813.82863
795.991	7603.71669
796.179	7541.87708
796.368	7401.63562
796.556	7698.50021
796.744	7428.45422
796.932	7852.94303
797.121	7442.89349
797.309	7486.20492
797.497	7286.0672
797.685	7640.81124
797.874	7552.18502
798.062	7480.01816
798.25	7215.86706
798.438	7517.13583
798.626	7362.43259
798.814	7762.35085
799.002	7500.63995
799.19	7236.51681
799.378	7205.54136
799.566	7354.17831
799.755	7302.58118
799.943	7519.19772
800.131	7376.87673
800.318	7502.70201
800.506	7186.9537
800.694	7067.12337
800.882	6963.76093
801.07	7471.76884
801.258	7335.60492
801.446	7609.89959
801.634	7391.31979
801.822	7184.8883
802.01	7240.64649
802.197	7574.8606
802.385	7110.51888
802.573	7228.25718
802.761	7244.77609
802.949	7244.77609
803.136	7162.16737
803.324	7331.47726
803.512	7232.38704
803.699	7467.64405
803.887	7085.72265
804.075	7525.38326
804.262	7286.0672
804.45	7368.62306
804.638	7519.19772
804.825	7368.62306
805.013	7145.64136
805.201	7253.03502
805.388	7031.98644
805.576	7401.63562
805.763	7147.70719
805.951	7442.89349
806.138	7275.74525
806.326	7418.13981
806.513	7515.07392
806.701	7155.97028
806.888	7114.65127
807.075	7383.06674
807.263	7261.29359
807.45	7350.05105
807.638	7240.64649
807.825	7232.38704
808.012	7149.773
808.2	7475.89354
808.387	7238.58166
808.574	7228.25718
808.761	7261.29359
808.949	7317.02975
809.136	7186.9537
809.323	7453.2066
809.51	7347.98738
809.698	7368.62306
809.885	6996.84303
810.072	7178.69195
810.259	6955.48951
810.446	7060.92321
810.633	7021.65082
810.82	7459.39421
811.008	7261.29359
811.195	7257.16435
811.382	7277.80968
811.569	7482.08043
811.756	7263.35818
811.943	7203.47616
812.13	7089.85558
812.317	7292.2601
812.504	7219.99719
812.691	7451.14402
812.878	7191.08445
813.064	7550.12347
813.251	7248.9056
813.438	7145.64136
813.625	7114.65127
813.812	7475.89354
813.999	7329.4134
814.186	7240.64649
814.372	7077.45653
814.559	7298.45281
814.746	7096.0548
814.933	7215.86706
815.12	7149.773
815.306	7277.80968
815.493	7100.18751
815.68	7294.32436
815.866	7067.12337
816.053	7271.61631
816.24	7040.25454
816.426	7191.08445
816.613	7170.42983
816.799	7343.85998
816.986	7228.25718
817.173	7347.98738
817.359	6978.23506
817.546	7085.72265
817.732	7172.49539
817.919	7211.73685
818.105	6941.01364
818.292	7236.51681
818.478	7081.58963
818.665	7409.88789
818.851	7191.08445
819.037	7255.09969
819.224	6974.09971
819.41	7253.03502
819.597	6903.7849
819.783	6868.61768
819.969	7102.25382
820.156	7116.71743
820.342	7060.92321
820.528	7333.5411
820.714	6893.44228
820.901	7199.34568
821.087	6949.2857
821.273	7317.02975
821.459	6837.58234
821.646	6891.37369
821.832	6676.11574
822.018	6916.1953
822.204	6711.31905
822.39	7083.65615
822.576	7108.45265
822.762	7052.65601
822.948	7079.52309
823.134	6914.12695
823.32	6748.58592
823.507	7029.91936
823.693	6909.9902
823.879	7015.44918
824.065	6626.40564
824.25	6928.60488
824.436	6587.04239
824.622	6647.11979
824.808	6734.09413
824.994	6806.54186
825.18	6408.7674
825.366	6682.32857
825.552	6464.75594
825.738	6924.46844
825.923	6396.3232
826.109	6400.47136
826.295	6466.82927
826.481	6377.65533
826.667	6255.2302
826.852	6529.0182
827.038	6402.54541
827.224	6458.53583
827.409	6361.06007
827.595	6470.97585
827.781	6238.62391
827.966	6597.40195
828.152	6458.53583
828.338	6634.69158
828.523	6309.19028
828.709	6429.50588
828.894	6344.46333
829.08	6595.33009
829.266	6321.64036
829.451	6479.26873
829.637	6136.87766
829.822	6267.68393
830.008	6174.26038
830.193	6607.76093
830.378	6400.47136
830.564	6765.14659
830.749	6392.17495
830.935	6419.13693
831.12	5872.90511
831.305	6344.46333
831.491	5885.38481
831.676	6265.60836
831.861	6222.01612
832.047	6228.24422
832.232	5976.87667
832.417	6170.10712
832.602	5964.40319
832.788	6151.41629
832.973	5814.65528
833.158	6014.292
833.343	5885.38481
833.528	6116.10619
833.714	5904.10277
833.899	6234.4721
834.084	5860.42457
834.269	6151.41629
834.454	5741.81698
834.639	6155.56997
834.824	5854.18397
835.009	6226.16821
835.194	5954.00798
835.379	5987.27058
835.564	5885.38481
835.749	6136.87766
835.934	5951.92887
836.119	5768.87458
836.304	5593.97046
836.489	5648.12524
836.674	5727.24584
836.859	5554.38574
837.044	5627.29837
837.228	5575.22086
837.413	5368.84942
837.598	5423.07029
837.783	5364.67792
837.968	5633.54668
838.152	5260.36011
838.337	5483.52869
838.522	5602.303
838.707	5818.8166
838.891	5483.52869
839.076	5529.38048
839.261	5429.32553
839.445	5527.29655
839.63	5427.24047
839.815	5535.63211
839.999	5412.64444
840.184	5783.44241
840.368	5614.80111
840.553	5731.40914
840.737	5318.7853
840.922	5681.44333
841.106	5443.92025
841.291	5493.95055
841.475	5385.53445
841.66	5712.67356
841.844	5377.19212
842.029	5414.72965
842.213	5412.64444
842.397	5535.63211
842.582	5256.18618
842.766	5235.31513
842.951	5120.48267
843.135	5537.71594
843.319	5199.82898
843.504	5368.84942
843.688	5243.66383
843.872	5097.50774
844.056	5055.72794
844.241	5277.05489
844.425	4995.13079
844.609	5210.26678
844.793	5126.74807
844.977	5343.81904
845.161	4934.51426
845.346	5064.08464
845.53	4930.33309
845.714	4942.87631
845.898	4905.24418
846.082	4892.69849
846.266	4794.39543
846.45	4840.4159
846.634	4635.33128
846.818	4794.39543
847.002	4685.57613
847.186	4884.33424
847.37	4700.22844
847.554	4685.57613
847.738	4668.82929
847.922	4507.5677
848.106	4591.35645
848.29	4951.23799
848.473	4727.43694
848.657	4888.51641
848.841	4802.76361
849.025	4947.0572
849.209	4574.60154
849.392	4599.73336
849.576	4564.129
849.76	4683.48286
849.944	4467.75565
850.127	4721.1584
850.311	4444.70293
850.495	4448.89453
850.678	4518.04323
850.862	4582.97917
851.046	4442.6071
851.229	4541.08746
851.413	4155.27336
851.596	4559.93983
851.78	4323.10856
851.964	4601.82754
852.147	4083.90241
852.331	4411.16698
852.514	4228.71804
852.698	4444.70293
852.881	4096.49904
853.065	4515.94817
853.248	4331.49673
853.431	4557.84521
853.615	4404.87836
853.798	4524.32829
853.982	4188.85128
854.165	4474.04229
854.348	4268.57711
854.532	4295.84465
854.715	4123.78916
854.898	4339.88454
855.081	4186.75282
855.265	4146.87803
855.448	3955.79451
855.631	4146.87803
855.814	3966.29803
855.997	4044.00817
856.181	3945.29049
856.364	4138.48237
856.547	4249.69746
856.73	4083.90241
856.913	3951.59297
857.096	3871.74821
857.279	3899.06679
857.462	4096.49904
857.645	3825.50909
857.828	3825.50909
858.011	3745.61905
858.194	4046.10805
858.377	3840.22258
858.56	4023.0082
858.743	4046.10805
858.926	4190.94973
859.109	4092.30025
859.292	4058.70692
859.475	3934.78596
859.658	3974.70048
859.841	3579.44279
860.023	3798.18148
860.206	3711.97273
860.389	3823.40709
860.572	3608.90036
860.755	3688.83801
860.937	3831.81499
861.12	3964.19737
861.303	3688.83801
861.486	3785.56761
861.668	3697.25091
861.851	3726.6936
862.034	3448.94437
862.216	3600.48428
862.399	3326.80277
862.581	3507.88783
862.764	3263.60317
862.947	3461.5763
863.129	3383.66915
863.312	3467.89203
863.494	3347.86587
863.677	3415.25606
863.859	3288.88485
864.042	3373.1393
864.224	3234.10481
864.406	3314.16408
864.589	3069.6979
864.771	3213.03254
864.954	3128.72705
865.136	3231.99765
865.318	3305.73794
865.501	3187.74364
865.683	3141.37453
865.865	3366.82118
866.048	3303.63137
866.23	3349.97208
866.412	3274.1375
866.594	3339.44084
866.777	3006.43878
866.959	3343.65339
867.141	2991.67633
867.323	3124.5111
867.505	3208.81789
867.687	3151.91365
867.869	2981.13127
868.052	3238.31906
868.234	3076.02304
868.416	3234.10481
868.598	3145.59023
868.78	3204.60317
868.962	2953.71237
869.144	3177.2059
869.326	2827.13157
869.508	2949.49385
869.69	2968.47671
869.872	3120.29508
870.054	2808.14004
870.236	3113.97093
870.417	2951.60312
870.599	3099.21403
870.781	2907.30544
870.963	3162.45237
871.145	2951.60312
871.327	3196.17354
871.508	2799.699
871.69	3143.48239
871.872	3025.41797
872.054	3196.17354
872.235	2746.93758
872.417	3101.3222
872.599	2793.36808
872.78	2947.38457
872.962	3010.65648
873.144	3010.65648
873.325	2960.04003
873.507	2854.56178
873.689	2850.3419
873.87	3010.65648
874.052	2968.47671
874.233	2960.04003
874.415	2816.58086
874.596	3107.64664
874.778	2795.4784
874.959	2907.30544
875.141	2687.83492
875.322	2951.60312
875.503	2546.3705
875.685	3010.65648
875.866	2413.30378
876.048	3042.28732
876.229	2605.49664
876.41	2835.57188
876.592	2639.27875
876.773	3054.93868
876.954	2751.1588
877.136	2926.29095
877.317	2744.82695
877.498	2749.0482
877.679	2630.83352
877.86	2943.16596
878.042	2751.1588
878.223	2936.83794
878.404	2896.75743
878.585	2981.13127
878.766	2835.57188
878.947	2869.3309
879.128	2816.58086
879.309	3014.87413
879.49	2761.71163
879.672	3103.43037
879.853	2789.14739
880.034	2803.91955
880.215	2694.16783
880.396	3097.10584
880.576	2599.16215
880.757	2960.04003
880.938	2649.83501
881.119	2854.56178
881.3	2679.39085
881.481	3135.05086
881.662	2888.31875
881.843	2749.0482
882.023	2782.81627
882.204	2886.20905
882.385	2793.36808
882.566	2860.89149
882.747	2685.72392
882.927	2825.02145
883.108	2852.45185
883.289	3004.3299
883.469	2852.45185
883.65	3048.61307
883.831	2808.14004
884.011	2837.68193
884.192	2753.26939
884.373	2867.22107
884.553	2702.61154
884.734	2976.91314
884.914	2808.14004
885.095	2799.699
885.275	2664.61324
885.456	2702.61154
885.636	2656.16861
885.817	2757.49054
885.997	2578.04638
886.178	2892.53812
886.358	2656.16861
886.538	2903.08628
886.719	2727.94142
886.899	2960.04003
887.08	2763.82215
887.26	2761.71163
887.44	2554.81766
887.621	2943.16596
887.801	2540.035
887.981	2900.97668
888.161	2816.58086
888.342	2742.7163
888.522	2875.66032
888.702	3069.6979
888.882	2888.31875
889.062	3002.22101
889.242	2818.69103
889.423	2960.04003
889.603	2808.14004
889.783	3004.3299
889.963	2749.0482
890.143	2976.91314
890.323	2651.94622
890.503	3082.34805
890.683	2799.699
890.863	2803.91955
891.043	2556.92942
891.223	2993.7853
891.403	2651.94622
891.583	2936.83794
891.763	2584.38124
891.943	2791.25774
892.122	2683.61291
892.302	2759.60109
892.482	2787.03703
892.662	2837.68193
892.842	2590.71599
893.022	2820.80118
893.201	2421.75375
893.381	2713.16588
893.561	2588.60442
893.741	2808.14004
893.92	2396.40333
894.1	2755.37997
894.28	2586.49283
894.459	2639.27875
894.639	2552.70589
894.819	2681.50189
894.998	2639.27875
895.178	2759.60109
895.357	2546.3705
895.537	2694.16783
895.716	2624.49947
895.896	2643.50129
896.075	2561.15291
896.255	2675.16874
896.434	2294.98706
896.614	2573.82309
896.793	2440.76557
896.973	2529.47561
897.152	2335.13372
897.331	2588.60442
897.511	2225.25063
897.69	2409.07873
897.87	2299.21318
898.049	2487.23519
898.228	2326.68208
898.407	2246.38392
898.587	2208.34336
898.766	2442.87794
898.945	2394.29073
899.124	2267.51632
899.304	2140.70891
899.483	2225.25063
899.662	1984.27433
899.841	2168.18642
900.02	2144.93631
900.199	2170.30002
900.378	2140.70891
900.557	2330.90792
900.737	2066.72445
900.916	2231.59071
901.095	1990.61701
901.274	2282.30845
901.453	1950.44579
901.632	2111.11624
901.811	1929.30218
901.989	2157.61831
902.168	1946.21712
902.347	2286.53469
902.526	1914.50131
902.705	2089.9777
902.884	1781.28222
903.063	1982.1601
903.242	1768.59375
903.42	1851.06603
903.599	1789.74111
903.778	1815.1174
903.957	1827.8053
904.135	1996.95962
904.314	1631.12754
904.493	1872.21164
904.672	1829.91994
904.85	1941.98842
905.029	1679.77088
905.207	1878.55522
905.386	1741.10161
905.565	1675.54108
905.743	1637.4724
905.922	1609.97787
906.1	1493.65183
906.279	1557.10288
906.457	1385.78433
906.636	1569.79297
906.814	1464.04112
906.993	1493.65183
907.171	1535.95263
907.35	1578.253
907.528	1303.29877
907.707	1404.81971
907.885	1375.20915
908.063	1626.89762
908.242	1206.01215
908.42	1415.39495
908.598	1244.08014
908.777	1362.51897
908.955	1220.81625
909.133	1269.45932
909.311	1254.65476
909.49	1438.6605
909.668	1060.09644
909.846	1339.25374
910.024	1186.97855
910.202	1432.31534
910.38	1142.56799
910.559	1326.5637
910.737	1193.32305
910.915	1303.29877
911.093	1155.25654
911.271	1254.65476
911.449	1195.43789
911.627	1322.33369
911.805	1184.86372
911.983	1339.25374
912.161	1193.32305
912.339	1294.83886
912.517	1161.60087
912.695	1415.39495
912.872	1218.70137
913.05	1311.75872
913.228	1231.3907
913.406	1277.91913
913.584	1227.16091
913.762	1413.2799
913.939	1273.68922
914.117	1227.16091
914.295	1227.16091
914.473	1214.47162
914.65	1068.55471
914.828	1155.25654
915.006	1051.63825
915.184	1218.70137
915.361	983.97619
915.539	1343.48377
915.716	1068.55471
915.894	1091.81538
916.072	1100.27396
916.249	1288.49394
916.427	1277.91913
916.604	1265.22943
916.782	1057.98188
916.959	1356.17389
917.137	1184.86372
917.314	1210.24188
917.492	1049.52372
917.669	1216.58649
917.847	1096.04466
918.024	1210.24188
918.201	1091.81538
918.379	1176.40445
918.556	933.23403
918.733	1206.01215
918.911	1053.75279
919.088	1246.19506
919.265	943.80498
919.442	1159.48609
919.62	933.23403
919.797	1102.38862
919.974	874.04026
920.151	1066.44013
920.328	926.89155
920.506	1003.00551
920.683	1003.00551
920.86	1011.46315
921.037	950.14763
921.214	1007.23431
921.391	952.26187
921.568	1142.56799
921.745	973.40458
921.922	956.49035
922.099	745.10599
922.276	967.06169
922.453	831.76294
922.63	1017.80644
922.807	882.49613
922.984	899.40826
923.161	770.4673
923.338	884.61012
923.514	931.11986
923.691	952.26187
923.868	810.62562
924.045	778.92139
924.222	791.60282
924.399	804.2846
924.575	825.42165
924.752	871.92631
924.929	755.67302
925.105	787.37564
925.282	730.31258
925.459	762.01336
925.635	641.5635
925.812	717.63293
925.989	635.22506
926.165	679.59635
926.342	576.0718
926.518	656.3536
926.695	569.73455
926.871	660.57945
927.048	702.8405
927.224	730.31258
927.401	702.8405
927.577	694.38792
927.754	476.80258
927.93	745.10599
928.107	620.43582
928.283	597.19681
928.459	493.69724
928.636	652.12779
928.812	580.2967
928.988	542.27454
929.165	449.35082
929.341	588.74665
929.517	580.2967
929.693	576.0718
929.87	424.01305
930.046	582.40916
930.222	457.79724
930.398	592.97171
930.574	432.45872
930.751	487.36163
930.927	415.56764
931.103	508.48083
931.279	310.02248
931.455	428.23586
931.631	474.69081
931.807	440.90465
931.983	411.34503
932.159	405.01123
932.335	407.12248
932.511	367.01157
932.687	417.67897
932.863	470.46733
933.039	360.67883
933.215	421.90167
933.391	381.78858
933.566	326.9068
933.742	419.79031
933.918	356.45708
934.094	301.58075
934.27	297.36
934.445	286.80843
934.621	329.01742
934.797	288.91871
934.973	318.4645
935.148	282.58793
935.324	177.10045
935.5	153.89993
935.675	291.029
935.851	215.07028
936.027	265.70668
936.202	187.64696
936.378	250.93658
936.553	122.26697
936.729	162.33619
936.904	151.79091
937.08	217.1799
937.255	94.85568
937.431	82.20557
937.606	139.13728
937.782	153.89993
937.957	96.96411
938.133	139.13728
938.308	118.04961
938.483	141.24617
938.659	56.90779
938.834	107.50658
939.009	56.90779
939.185	120.15828
939.36	80.0973
939.535	153.89993
939.71	44.26014
939.886	80.0973
940.061	71.66443
940.236	124.37568
940.411	18.96735
940.586	63.23193
940.761	162.33619
940.937	156.00896
941.112	69.55627
941.287	31.61332
941.462	99.07256
941.637	59.01582
941.812	71.66443
941.987	18.96735
942.162	14.75222
942.337	-21.07254
942.512	141.24617
942.687	103.28953
942.862	96.96411
943.037	31.61332
943.212	44.26014
943.386	44.26014
943.561	37.93663
943.736	-10.53658
943.911	86.42218
944.086	37.93663
944.26	82.20557
944.435	4.2148
944.61	69.55627
944.785	50.58386
944.959	2.10739
945.134	52.69182
945.309	18.96735
945.483	61.12386
945.658	99.07256
945.833	29.5056
946.007	69.55627
946.182	63.23193
946.357	27.39791
946.531	14.75222
946.706	31.61332
946.88	71.66443
947.055	27.39791
947.229	96.96411
947.404	46.36803
947.578	71.66443
947.752	16.85977
947.927	33.72107
948.101	54.79979
948.276	103.28953
948.45	31.61332
948.624	23.18258
948.799	103.28953
948.973	-14.75104
949.147	88.53052
949.321	90.63889
949.496	-10.53658
949.67	105.39804
949.844	10.53718
950.018	63.23193
950.193	69.55627
950.367	48.47593
950.541	111.72373
950.715	10.53718
950.889	12.64469
951.063	52.69182
951.237	12.64469
951.411	27.39791
951.585	77.98905
951.759	61.12386
951.933	44.26014
952.107	-10.53658
952.281	77.98905
952.455	-21.07254
952.629	42.15228
952.803	27.39791
952.977	44.26014
953.151	71.66443
953.325	113.83233
953.499	86.42218
953.672	52.69182
953.846	96.96411
954.02	61.12386
954.194	99.07256
954.368	23.18258
954.541	61.12386
954.715	63.23193
954.889	44.26014
955.062	124.37568
955.236	2.10739
955.41	46.36803
955.583	103.28953
955.757	73.77262
955.93	27.39791
956.104	94.85568
956.278	88.53052
956.451	59.01582
956.625	99.07256
956.798	96.96411
956.972	-14.75104
957.145	23.18258
957.319	65.34002
957.492	82.20557
957.665	59.01582
957.839	80.0973
958.012	113.83233
958.185	80.0973
958.359	88.53052
958.532	6.32224
958.705	156.00896
958.879	90.63889
959.052	120.15828
959.225	-2.10736
959.398	61.12386
959.572	12.64469
959.745	54.79979
959.918	94.85568
960.091	4.2148
960.264	82.20557
960.438	67.44814
960.611	52.69182
960.784	18.96735
960.957	27.39791
961.13	73.77262
961.303	42.15228
961.476	-21.07254
961.649	82.20557
961.822	25.29023
961.995	16.85977
962.168	-8.42931
962.341	107.50658
962.514	96.96411
962.686	75.88082
962.859	111.72373
963.032	46.36803
963.205	120.15828
963.378	71.66443
963.551	90.63889
963.723	96.96411
963.896	-18.9654
964.069	44.26014
964.242	63.23193
964.414	67.44814
964.587	35.82884
964.76	6.32224
964.932	77.98905
965.105	40.04444
965.278	48.47593
965.45	65.34002
965.623	67.44814
965.795	-37.92881
965.968	6.32224
966.14	111.72373
966.313	27.39791
966.485	84.31387
966.658	61.12386
966.83	50.58386
967.003	86.42218
967.175	31.61332
967.348	-6.32202
967.52	27.39791
967.692	61.12386
967.865	69.55627
968.037	35.82884
968.209	48.47593
968.382	96.96411
968.554	6.32224
968.726	130.70195
968.898	88.53052
969.071	40.04444
969.243	73.77262
969.415	4.2148
969.587	130.70195
969.759	156.00896
969.932	12.64469
970.104	35.82884
970.276	-6.32202
970.448	52.69182
970.62	69.55627
970.792	-18.9654
970.964	56.90779
971.136	139.13728
971.308	63.23193
971.48	14.75222
971.652	-14.75104
971.824	56.90779
971.996	37.93663
972.168	52.69182
972.339	46.36803
972.511	21.07496
972.683	52.69182
972.855	-35.82187
973.027	0
973.199	-46.35635
973.37	8.4297
973.542	44.26014
973.714	115.94096
973.886	61.12386
974.057	77.98905
974.229	-12.64382
974.401	88.53052
974.572	27.39791
974.744	46.36803
974.915	44.26014
975.087	73.77262
975.259	69.55627
975.43	-29.50088
975.602	0
975.773	56.90779
975.945	44.26014
976.116	94.85568
976.288	77.98905
976.459	-14.75104
976.63	2.10739
976.802	27.39791
976.973	-4.2147
977.145	2.10739
977.316	2.10739
977.487	77.98905
977.659	44.26014
977.83	27.39791
978.001	92.74727
978.172	99.07256
978.344	35.82884
978.515	10.53718
978.686	82.20557
978.857	69.55627
979.028	-40.03573
979.2	94.85568
979.371	69.55627
979.542	-40.03573
979.713	52.69182
979.884	2.10739
980.055	40.04444
980.226	-54.78349
980.397	44.26014
980.568	90.63889
980.739	33.72107
980.91	18.96735
981.081	50.58386
981.252	61.12386
981.423	-2.10736
981.594	61.12386
981.765	-37.92881
981.936	21.07496
982.106	-21.07254
982.277	18.96735
982.448	75.88082
982.619	35.82884
982.79	-35.82187
982.96	10.53718
983.131	-4.2147
983.302	6.32224
983.472	35.82884
983.643	42.15228
983.814	126.48442
983.984	14.75222
984.155	-18.9654
984.326	-18.9654
984.496	-14.75104
984.667	21.07496
984.837	35.82884
985.008	35.82884
985.178	2.10739
985.349	27.39791
985.519	37.93663
985.69	4.2148
985.86	-8.42931
986.031	-16.85823
986.201	6.32224
986.371	63.23193
986.542	44.26014
986.712	23.18258
986.882	40.04444
987.053	-16.85823
987.223	27.39791
987.393	27.39791
987.563	25.29023
987.734	-14.75104
987.904	-29.50088
988.074	59.01582
988.244	14.75222
988.414	37.93663
988.585	63.23193
988.755	31.61332
988.925	-25.28676
989.095	-37.92881
989.265	-4.2147
989.435	18.96735
989.605	0
989.775	14.75222
989.945	-4.2147
990.115	35.82884
990.285	0
990.455	6.32224
990.625	-14.75104
990.795	37.93663
990.965	25.29023
991.134	2.10739
991.304	71.66443
991.474	31.61332
991.644	44.26014
991.814	31.61332
991.984	-6.32202
992.153	27.39791
992.323	21.07496
992.493	61.12386
992.662	6.32224
992.832	10.53718
993.002	-10.53658
993.171	-18.9654
993.341	-37.92881
993.511	6.32224
993.68	18.96735
993.85	31.61332
994.019	-10.53658
994.189	-14.75104
994.358	-6.32202
994.528	27.39791
994.697	-40.03573
994.867	44.26014
995.036	-33.71489
995.206	-27.39383
995.375	-40.03573
995.544	4.2148
995.714	-48.46317
995.883	-29.50088
996.052	18.96735
996.222	-77.95602
996.391	10.53718
996.56	69.55627
996.73	29.5056
996.899	0
997.068	-18.9654
997.237	-27.39383
997.406	-2.10736
997.576	40.04444
997.745	35.82884
997.914	-14.75104
998.083	63.23193
998.252	35.82884
998.421	2.10739
998.59	18.96735
998.759	105.39804
998.928	-14.75104
999.097	2.10739
999.266	75.88082
999.435	-14.75104
999.604	-44.2495
999.773	65.34002
999.942	8.4297
1000.111	8.4297
1000.28	46.36803
1000.448	-10.53658
1000.617	-29.50088
1000.786	31.61332
1000.955	80.0973
1001.124	4.2148
1001.292	-40.03573
1001.461	33.72107
1001.63	-23.17966
1001.798	-90.59428
1001.967	-65.31684
1002.136	-37.92881
1002.304	10.53718
1002.473	35.82884
1002.642	-29.50088
1002.81	61.12386
1002.979	4.2148
1003.147	-6.32202
1003.316	21.07496
1003.484	6.32224
1003.653	-23.17966
1003.821	-10.53658
1003.99	-4.2147
1004.158	14.75222
1004.327	59.01582
1004.495	-14.75104
1004.663	52.69182
1004.832	10.53718
1005	-33.71489
1005.168	6.32224
1005.337	-10.53658
1005.505	-18.9654
1005.673	23.18258
1005.842	52.69182
1006.01	61.12386
1006.178	-4.2147
1006.346	-6.32202
1006.514	-6.32202
1006.683	25.29023
1006.851	10.53718
1007.019	35.82884
1007.187	35.82884
1007.355	12.64469
1007.523	-65.31684
1007.691	27.39791
1007.859	-40.03573
1008.027	103.28953
1008.195	18.96735
1008.363	14.75222
1008.531	-86.38163
1008.699	14.75222
1008.867	-14.75104
1009.035	-25.28676
1009.203	65.34002
1009.37	-2.10736
1009.538	2.10739
1009.706	77.98905
1009.874	-10.53658
1010.042	27.39791
1010.209	2.10739
1010.377	8.4297
1010.545	59.01582
1010.713	35.82884
1010.88	23.18258
1011.048	56.90779
1011.216	-18.9654
1011.383	29.5056
1011.551	2.10739
1011.718	71.66443
1011.886	14.75222
1012.054	-23.17966
1012.221	35.82884
1012.389	46.36803
1012.556	-46.35635
1012.724	2.10739
1012.891	-31.6079
1013.058	71.66443
1013.226	-6.32202
1013.393	2.10739
1013.561	2.10739
1013.728	40.04444
1013.895	-33.71489
1014.063	-48.46317
1014.23	16.85977
1014.397	-42.14263
1014.565	23.18258
1014.732	37.93663
1014.899	61.12386
1015.066	52.69182
1015.233	-6.32202
1015.401	-31.6079
1015.568	10.53718
1015.735	23.18258
1015.902	4.2148
1016.069	10.53718
1016.236	90.63889
1016.403	-48.46317
1016.57	0
1016.737	8.4297
1016.904	44.26014
1017.071	-6.32202
1017.238	-35.82187
1017.405	-42.14263
1017.572	61.12386
1017.739	18.96735
1017.906	16.85977
1018.073	54.79979
1018.24	-27.39383
1018.407	0
1018.573	-23.17966
1018.74	-6.32202
1018.907	29.5056
1019.074	96.96411
1019.241	21.07496
1019.407	10.53718
1019.574	18.96735
1019.741	44.26014
1019.907	31.61332
1020.074	29.5056
1020.241	12.64469
1020.407	35.82884
1020.574	12.64469
1020.74	37.93663
1020.907	35.82884
1021.073	-21.07254
1021.24	-2.10736
1021.406	-35.82187
1021.573	10.53718
1021.739	35.82884
1021.906	-14.75104
1022.072	21.07496
1022.239	21.07496
1022.405	-14.75104
1022.571	-8.42931
1022.738	77.98905
1022.904	2.10739
1023.07	8.4297
1023.237	12.64469
1023.403	21.07496
1023.569	-56.89021
1023.735	-4.2147
1023.902	0
1024.068	-14.75104
1024.234	-40.03573
1024.4	-14.75104
1024.566	-48.46317
1024.732	-33.71489
1024.898	-29.50088
1025.065	61.12386
1025.231	-18.9654
1025.397	6.32224
1025.563	-63.21022
1025.729	35.82884
1025.895	33.72107
1026.061	14.75222
1026.227	-12.64382
1026.392	16.85977
1026.558	-23.17966
1026.724	-29.50088
1026.89	-48.46317
1027.056	-4.2147
1027.222	-56.89021
1027.388	-21.07254
1027.553	18.96735
1027.719	-29.50088
1027.885	-29.50088
1028.051	-40.03573
1028.216	10.53718
1028.382	59.01582
1028.548	-40.03573
1028.713	-16.85823
1028.879	46.36803
1029.045	-40.03573
1029.21	2.10739
1029.376	-25.28676
1029.541	44.26014
1029.707	18.96735
1029.873	-23.17966
1030.038	69.55627
1030.204	-10.53658
1030.369	-10.53658
1030.534	-16.85823
1030.7	-12.64382
1030.865	33.72107
1031.031	2.10739
1031.196	23.18258
1031.361	48.47593
1031.527	31.61332
1031.692	-40.03573
1031.857	-46.35635
1032.023	21.07496
1032.188	-23.17966
1032.353	-42.14263
1032.518	82.20557
1032.684	-23.17966
1032.849	-21.07254
1033.014	23.18258
1033.179	25.29023
1033.344	21.07496
1033.509	-29.50088
1033.674	18.96735
1033.839	-37.92881
1034.004	40.04444
1034.17	-6.32202
1034.335	-23.17966
1034.5	-31.6079
1034.664	-46.35635
1034.829	2.10739
1034.994	-21.07254
1035.159	12.64469
1035.324	-29.50088
1035.489	-25.28676
1035.654	-18.9654
1035.819	-48.46317
1035.984	-14.75104
1036.148	-12.64382
1036.313	18.96735
1036.478	-2.10736
1036.643	-14.75104
1036.807	-23.17966
1036.972	-18.9654
1037.137	-14.75104
1037.301	23.18258
1037.466	-44.2495
1037.631	77.98905
1037.795	-56.89021
1037.96	-42.14263
1038.124	6.32224
1038.289	-8.42931
1038.454	-40.03573
1038.618	2.10739
1038.783	14.75222
1038.947	48.47593
1039.111	31.61332
1039.276	2.10739
1039.44	8.4297
1039.605	-92.70056
1039.769	44.26014
1039.933	61.12386
1040.098	-50.56997
1040.262	40.04444
1040.426	0
1040.591	69.55627
1040.755	-63.21022
1040.919	88.53052
1041.083	-25.28676
1041.248	10.53718
1041.412	48.47593
1041.576	18.96735
1041.74	-6.32202
1041.904	-25.28676
1042.068	-6.32202
1042.232	-27.39383
1042.397	-23.17966
1042.561	52.69182
1042.725	-10.53658
1042.889	-23.17966
1043.053	37.93663
1043.217	-23.17966
1043.381	-23.17966
1043.544	-12.64382
1043.708	2.10739
1043.872	-2.10736
1044.036	37.93663
1044.2	46.36803
1044.364	8.4297
1044.528	-18.9654
1044.691	-92.70056
1044.855	54.79979
1045.019	-82.16888
1045.183	-35.82187
1045.346	-69.53
1045.51	40.04444
1045.674	-77.95602
1045.837	40.04444
1046.001	-56.89021
1046.165	-48.46317
1046.328	18.96735
1046.492	29.5056
1046.655	14.75222
1046.819	-128.50339
1046.983	-46.35635
1047.146	12.64469
1047.31	18.96735
1047.473	18.96735
1047.636	-14.75104
1047.8	82.20557
1047.963	-37.92881
1048.127	-31.6079
1048.29	-44.2495
