Data from absorb_only_2.23.25_USB4F045381__75__0180.txt Node

Date: Sun Feb 23 19:27:45 EST 2025
User: ssocol
Spectrometer: USB4F04538
Trigger mode: 4
Integration Time (sec): 2.600000E-3
Scans to average: 1
Electric dark correction enabled: true
Nonlinearity correction enabled: true
Boxcar width: 0
XAxis mode: Wavelengths
Number of Pixels in Spectrum: 3648
>>>>>Begin Spectral Data<<<<<
345.52	48.30027
345.736	48.30027
345.952	48.30027
346.168	10.36155
346.384	67.27246
346.6	-25.46235
346.816	-46.53192
347.032	-29.67646
347.248	46.19237
347.464	-31.78348
347.68	25.11459
347.896	-12.81942
348.112	33.54542
348.328	-21.24814
348.544	39.86879
348.76	18.79172
348.975	4.03918
349.191	-17.03383
349.407	-2.28298
349.623	18.79172
349.839	-0.17561
350.055	50.4082
350.27	25.11459
350.486	-63.38577
350.702	79.92161
350.918	4.03918
351.133	48.30027
351.349	46.19237
351.565	16.68414
351.781	-10.71218
351.996	18.79172
352.212	41.97663
352.428	25.11459
352.644	-8.60492
352.859	4.03918
353.075	12.46906
353.291	-63.38577
353.506	50.4082
353.722	-17.03383
353.938	58.84015
354.153	-17.03383
354.369	-23.35526
354.584	20.89932
354.8	-35.99745
355.016	-14.92664
355.231	25.11459
355.447	29.32996
355.662	20.89932
355.878	16.68414
356.093	-4.39031
356.309	1.93177
356.524	29.32996
356.74	-33.89048
356.955	20.89932
357.171	16.68414
357.386	12.46906
357.602	25.11459
357.817	16.68414
358.033	12.46906
358.248	54.62413
358.464	-25.46235
358.679	33.54542
358.895	-76.0251
359.11	44.08449
359.325	60.94819
359.541	-27.56942
359.756	-21.24814
359.972	39.86879
360.187	10.36155
360.402	12.46906
360.618	-31.78348
360.833	29.32996
361.048	46.19237
361.264	12.46906
361.479	4.03918
361.694	-8.60492
361.909	12.46906
362.125	18.79172
362.34	37.76098
362.555	-40.21131
362.77	20.89932
362.986	88.35483
363.201	67.27246
363.416	-59.17246
363.631	-40.21131
363.847	84.13817
364.062	41.97663
364.277	20.89932
364.492	18.79172
364.707	-50.74553
364.922	-6.49763
365.138	-42.31821
365.353	46.19237
365.568	-0.17561
365.783	31.43768
365.998	-14.92664
366.213	-0.17561
366.428	-17.03383
366.643	52.51615
366.858	1.93177
367.073	39.86879
367.288	31.43768
367.503	16.68414
367.718	-50.74553
367.933	20.89932
368.148	8.25407
368.363	65.16435
368.578	-73.91861
368.793	-27.56942
369.008	12.46906
369.223	-38.10439
369.438	20.89932
369.653	12.46906
369.868	-25.46235
370.083	-25.46235
370.298	-19.141
370.513	20.89932
370.728	39.86879
370.943	31.43768
371.157	46.19237
371.372	29.32996
371.587	-50.74553
371.802	67.27246
372.017	-29.67646
372.232	-31.78348
372.446	29.32996
372.661	-10.71218
372.876	67.27246
373.091	16.68414
373.306	-14.92664
373.52	56.73213
373.735	41.97663
373.95	-25.46235
374.165	54.62413
374.379	4.03918
374.594	10.36155
374.809	-10.71218
375.023	-25.46235
375.238	86.24649
375.453	84.13817
375.667	65.16435
375.882	27.22227
376.097	25.11459
376.311	35.65319
376.526	-0.17561
376.741	77.81336
376.955	46.19237
377.17	46.19237
377.384	-19.141
377.599	-25.46235
377.813	4.03918
378.028	48.30027
378.242	41.97663
378.457	-4.39031
378.672	16.68414
378.886	-54.95905
379.101	8.25407
379.315	52.51615
379.53	50.4082
379.744	-40.21131
379.958	-0.17561
380.173	29.32996
380.387	27.22227
380.602	-6.49763
380.816	8.25407
381.031	-0.17561
381.245	18.79172
381.459	-4.39031
381.674	44.08449
381.888	18.79172
382.103	16.68414
382.317	33.54542
382.531	46.19237
382.746	-6.49763
382.96	-14.92664
383.174	16.68414
383.388	27.22227
383.603	-17.03383
383.817	-10.71218
384.031	29.32996
384.246	-12.81942
384.46	-44.42508
384.674	27.22227
384.888	-2.28298
385.103	46.19237
385.317	14.57659
385.531	31.43768
385.745	44.08449
385.959	4.03918
386.174	-21.24814
386.388	-42.31821
386.602	27.22227
386.816	37.76098
387.03	-17.03383
387.244	77.81336
387.458	23.00695
387.672	-42.31821
387.887	16.68414
388.101	8.25407
388.315	-4.39031
388.529	-17.03383
388.743	29.32996
388.957	6.14661
389.171	10.36155
389.385	35.65319
389.599	-19.141
389.813	10.36155
390.027	56.73213
390.241	41.97663
390.455	94.67998
390.669	33.54542
390.883	-50.74553
391.097	-44.42508
391.311	16.68414
391.525	29.32996
391.738	41.97663
391.952	16.68414
392.166	-80.238
392.38	44.08449
392.594	-4.39031
392.808	-33.89048
393.022	-25.46235
393.236	35.65319
393.449	-4.39031
393.663	8.25407
393.877	-19.141
394.091	27.22227
394.305	33.54542
394.518	-19.141
394.732	-12.81942
394.946	-35.99745
395.16	4.03918
395.373	67.27246
395.587	41.97663
395.801	35.65319
396.015	54.62413
396.228	41.97663
396.442	-63.38577
396.656	1.93177
396.869	69.38059
397.083	-6.49763
397.297	-14.92664
397.51	16.68414
397.724	-33.89048
397.938	31.43768
398.151	12.46906
398.365	67.27246
398.578	23.00695
398.792	-23.35526
399.005	-23.35526
399.219	58.84015
399.433	25.11459
399.646	65.16435
399.86	-59.17246
400.073	10.36155
400.287	-6.49763
400.5	37.76098
400.714	33.54542
400.927	-76.0251
401.141	-4.39031
401.354	-38.10439
401.567	75.70514
401.781	-12.81942
401.994	-17.03383
402.208	-33.89048
402.421	-50.74553
402.635	58.84015
402.848	25.11459
403.061	107.33087
403.275	92.57157
403.488	-2.28298
403.701	-19.141
403.915	-17.03383
404.128	16.68414
404.341	41.97663
404.555	69.38059
404.768	-65.49239
404.981	58.84015
405.195	33.54542
405.408	12.46906
405.621	60.94819
405.834	-19.141
406.048	75.70514
406.261	33.54542
406.474	-57.06577
406.687	25.11459
406.9	6.14661
407.114	1.93177
407.327	-0.17561
407.54	-17.03383
407.753	1.93177
407.966	-29.67646
408.179	29.32996
408.392	-50.74553
408.605	92.57157
408.819	-10.71218
409.032	4.03918
409.245	-17.03383
409.458	41.97663
409.671	48.30027
409.884	35.65319
410.097	46.19237
410.31	-10.71218
410.523	-0.17561
410.736	10.36155
410.949	18.79172
411.162	33.54542
411.375	58.84015
411.588	50.4082
411.801	41.97663
412.014	18.79172
412.227	71.48875
412.44	1.93177
412.653	12.46906
412.865	18.79172
413.078	33.54542
413.291	8.25407
413.504	35.65319
413.717	6.14661
413.93	18.79172
414.143	-35.99745
414.356	60.94819
414.568	-46.53192
414.781	-0.17561
414.994	-4.39031
415.207	-46.53192
415.42	56.73213
415.632	39.86879
415.845	-42.31821
416.058	-17.03383
416.271	-17.03383
416.483	-4.39031
416.696	65.16435
416.909	84.13817
417.121	-0.17561
417.334	25.11459
417.547	20.89932
417.759	92.57157
417.972	12.46906
418.185	50.4082
418.397	27.22227
418.61	12.46906
418.823	52.51615
419.035	77.81336
419.248	105.22233
419.46	8.25407
419.673	-25.46235
419.885	-6.49763
420.098	27.22227
420.311	18.79172
420.523	31.43768
420.736	18.79172
420.948	16.68414
421.161	-21.24814
421.373	25.11459
421.586	-6.49763
421.798	65.16435
422.01	14.57659
422.223	-48.63874
422.435	41.97663
422.648	16.68414
422.86	58.84015
423.073	84.13817
423.285	-57.06577
423.497	44.08449
423.71	-59.17246
423.922	-38.10439
424.134	1.93177
424.347	-14.92664
424.559	-4.39031
424.771	-8.60492
424.984	84.13817
425.196	41.97663
425.408	6.14661
425.621	-63.38577
425.833	-10.71218
426.045	-17.03383
426.257	-4.39031
426.47	50.4082
426.682	-6.49763
426.894	8.25407
427.106	12.46906
427.318	58.84015
427.531	25.11459
427.743	-27.56942
427.955	-4.39031
428.167	-14.92664
428.379	75.70514
428.591	60.94819
428.804	33.54542
429.016	86.24649
429.228	35.65319
429.44	27.22227
429.652	-17.03383
429.864	20.89932
430.076	35.65319
430.288	27.22227
430.5	-25.46235
430.712	77.81336
430.924	29.32996
431.136	48.30027
431.348	-23.35526
431.56	79.92161
431.772	96.7884
431.984	41.97663
432.196	6.14661
432.408	46.19237
432.62	-25.46235
432.832	10.36155
433.044	27.22227
433.256	29.32996
433.468	58.84015
433.679	1.93177
433.891	41.97663
434.103	138.96154
434.315	33.54542
434.527	-29.67646
434.739	29.32996
434.95	41.97663
435.162	29.32996
435.374	84.13817
435.586	-6.49763
435.798	79.92161
436.009	18.79172
436.221	79.92161
436.433	-54.95905
436.645	67.27246
436.856	63.05626
437.068	41.97663
437.28	92.57157
437.491	25.11459
437.703	-25.46235
437.915	4.03918
438.126	18.79172
438.338	94.67998
438.55	31.43768
438.761	-6.49763
438.973	-29.67646
439.184	44.08449
439.396	14.57659
439.608	52.51615
439.819	-33.89048
440.031	-40.21131
440.242	54.62413
440.454	-67.59898
440.665	41.97663
440.877	16.68414
441.088	18.79172
441.3	16.68414
441.511	4.03918
441.723	-8.60492
441.934	63.05626
442.146	20.89932
442.357	10.36155
442.569	-29.67646
442.78	18.79172
442.991	-4.39031
443.203	75.70514
443.414	20.89932
443.626	111.54801
443.837	58.84015
444.048	-14.92664
444.26	86.24649
444.471	46.19237
444.682	52.51615
444.894	-42.31821
445.105	58.84015
445.316	-31.78348
445.528	111.54801
445.739	29.32996
445.95	60.94819
446.161	31.43768
446.373	10.36155
446.584	113.65661
446.795	33.54542
447.006	58.84015
447.217	71.48875
447.429	84.13817
447.64	16.68414
447.851	6.14661
448.062	96.7884
448.273	86.24649
448.484	39.86879
448.695	88.35483
448.907	109.43943
449.118	-2.28298
449.329	84.13817
449.54	111.54801
449.751	69.38059
449.962	79.92161
450.173	69.38059
450.384	6.14661
450.595	-17.03383
450.806	67.27246
451.017	92.57157
451.228	67.27246
451.439	75.70514
451.65	67.27246
451.861	84.13817
452.072	126.30869
452.283	50.4082
452.494	58.84015
452.705	101.00532
452.915	37.76098
453.126	50.4082
453.337	77.81336
453.548	8.25407
453.759	88.35483
453.97	50.4082
454.181	-12.81942
454.391	69.38059
454.602	50.4082
454.813	12.46906
455.024	37.76098
455.235	67.27246
455.445	54.62413
455.656	37.76098
455.867	92.57157
456.078	67.27246
456.288	84.13817
456.499	58.84015
456.71	12.46906
456.921	23.00695
457.131	8.25407
457.342	84.13817
457.553	25.11459
457.763	63.05626
457.974	69.38059
458.184	107.33087
458.395	58.84015
458.606	41.97663
458.816	79.92161
459.027	88.35483
459.237	84.13817
459.448	46.19237
459.659	79.92161
459.869	77.81336
460.08	-25.46235
460.29	41.97663
460.501	98.89685
460.711	166.37868
460.922	37.76098
461.132	90.46319
461.343	103.11382
461.553	52.51615
461.764	69.38059
461.974	67.27246
462.184	20.89932
462.395	50.4082
462.605	143.17933
462.816	12.46906
463.026	37.76098
463.236	92.57157
463.447	103.11382
463.657	60.94819
463.867	79.92161
464.078	117.87389
464.288	50.4082
464.498	101.00532
464.709	143.17933
464.919	130.52622
465.129	109.43943
465.339	164.26954
465.55	101.00532
465.76	151.61516
465.97	151.61516
466.18	98.89685
466.391	128.41744
466.601	98.89685
466.811	101.00532
467.021	79.92161
467.231	164.26954
467.441	219.11374
467.651	111.54801
467.862	113.65661
468.072	153.72418
468.282	88.35483
468.492	136.85268
468.702	153.72418
468.912	193.79933
469.122	134.74384
469.332	198.0182
469.542	96.7884
469.752	162.16043
469.962	219.11374
470.172	136.85268
470.382	174.81543
470.592	223.33309
470.802	219.11374
471.012	242.32113
471.222	254.98069
471.432	229.66226
471.642	202.23715
471.852	252.87071
472.062	219.11374
472.272	246.5409
472.482	248.65082
472.691	269.75104
472.901	229.66226
473.111	311.95708
473.321	235.99161
473.531	358.39204
473.741	343.61636
473.95	301.40489
474.16	244.431
474.37	330.95217
474.58	314.06758
474.79	322.50973
474.999	305.62571
475.209	415.39169
475.419	421.72573
475.628	375.27956
475.838	349.94869
476.048	430.17133
476.258	466.06793
476.467	480.85017
476.677	360.50292
476.886	430.17133
477.096	531.53761
477.306	539.98631
477.515	430.17133
477.725	565.33375
477.935	508.30483
478.144	569.55852
478.354	552.65979
478.563	649.83884
478.773	546.32299
478.982	666.74223
479.192	645.61311
479.401	692.09872
479.611	609.69639
479.82	656.17752
480.03	728.02317
480.239	810.44948
480.449	713.23036
480.658	837.92817
480.868	827.35926
481.077	856.95276
481.287	837.92817
481.496	837.92817
481.705	844.26962
481.915	909.80243
482.124	776.63172
482.333	958.42842
482.543	966.8855
482.752	1055.69112
482.961	994.37177
483.171	1117.01513
483.38	996.48615
483.589	1072.60766
483.799	1043.00395
484.008	1182.57266
484.217	1106.44172
484.426	1309.46748
484.636	1252.36358
484.845	1273.51298
485.054	1241.78899
485.263	1396.18328
485.472	1336.96248
485.682	1487.13043
485.891	1372.91786
486.1	1417.33374
486.309	1330.61746
486.518	1427.90899
486.727	1497.70566
486.936	1647.87087
487.146	1368.6878
487.355	1624.60641
487.564	1630.95129
487.773	1802.25311
487.982	1552.69659
488.191	1656.3306
488.4	1743.04018
488.609	1546.35152
488.818	1749.38456
489.027	1893.18053
489.236	1910.09624
489.445	2011.58266
489.654	1817.05584
489.863	1946.04092
490.072	1825.51444
490.281	2087.68765
490.49	2113.0539
490.698	2121.50908
490.907	1981.98391
491.116	2250.43437
491.325	2125.73662
491.534	2263.11381
491.743	2098.25705
491.952	2275.79292
492.16	2085.57374
492.369	2294.81097
492.578	2349.74764
492.787	2438.47715
492.996	2189.14591
493.204	2527.18771
493.413	2334.95764
493.622	2484.94704
493.831	2415.24025
494.039	2698.2138
494.248	2552.52991
494.457	2746.76169
494.665	2527.18771
494.874	2679.21493
495.083	2563.08866
495.291	2772.08824
495.5	2552.52991
495.709	2774.1987
495.917	2626.43488
496.126	2763.64628
496.335	2501.84385
496.543	3086.38895
496.752	2848.05611
496.96	3080.06403
497.169	2983.06456
497.377	2934.55279
497.586	2862.82554
497.794	3075.84735
498.003	2930.33401
498.211	3120.11941
498.42	2917.6773
498.628	3219.17879
498.837	3227.6077
499.045	3280.28233
499.254	3210.74961
499.462	3295.02933
499.671	3092.71372
499.879	3383.49366
500.087	3320.30796
500.296	3530.86491
500.504	3162.27673
500.713	3208.64228
500.921	3170.70742
501.129	3174.92267
501.338	3288.70929
501.546	3539.28344
501.754	3372.9638
501.962	3438.24181
502.171	3585.58008
502.379	3598.20488
502.587	3480.34756
502.795	3737.0327
503.004	3474.03216
503.212	3982.92755
503.42	3564.53727
503.628	3819.02784
503.837	3545.59714
504.045	3728.62127
504.253	3728.62127
504.461	3766.47027
504.669	3854.75995
504.877	3953.51869
505.085	3642.38635
505.294	3825.33393
505.502	3532.96957
505.71	3989.22894
505.918	3947.21627
506.126	4041.73327
506.334	3951.4179
506.542	4220.15083
506.75	3877.87767
506.958	4016.53279
507.166	3976.62599
507.374	4092.1253
507.582	4152.99966
507.79	4260.01155
507.998	4083.72745
508.206	4257.91381
508.414	4146.70313
508.622	4247.42479
508.83	4104.72143
509.037	4146.70313
509.245	4075.32928
509.453	4373.25763
509.661	4176.08531
509.869	4343.90358
510.077	4096.32409
510.285	4406.7999
510.492	4211.75812
510.7	4549.29195
510.908	4262.10927
511.116	4218.05268
511.324	4390.02946
511.531	4628.87527
511.739	4480.15411
511.947	4597.46465
512.155	4517.86865
512.362	4528.34364
512.57	4488.53574
512.778	4492.72642
512.985	4666.56137
513.193	4635.15679
513.401	4540.91289
513.608	4647.71923
513.816	4515.77358
514.024	4624.68748
514.231	4563.95446
514.439	4683.30841
514.646	4651.90653
514.854	4710.51929
515.061	4582.80464
515.269	4879.97771
515.477	4614.21761
515.684	4831.87506
515.892	4882.06885
516.099	4708.42628
516.307	4823.50815
516.514	5166.25011
516.722	4779.57589
516.929	5174.60189
517.136	4948.97341
517.344	5053.4646
517.551	4997.04652
517.759	5049.28606
517.966	5001.22621
518.173	4898.79719
518.381	5055.55384
518.588	5024.21288
518.796	5124.48559
519.003	5341.55919
519.21	5080.62285
519.418	5299.8339
519.625	5329.04259
519.832	5253.92526
520.039	5214.26779
520.247	5349.90313
520.454	5304.00685
520.661	5320.69772
520.868	5107.77718
521.076	5541.70988
521.283	5416.64108
521.49	5424.98164
521.697	5308.17971
521.904	5591.71367
522.112	5349.90313
522.319	5600.04631
522.526	5447.91622
522.733	5758.29484
522.94	5766.61993
523.147	5541.70988
523.354	5491.69253
523.561	5568.79695
523.768	5475.01706
523.975	5860.25122
524.183	5681.26982
524.39	5829.0461
524.597	5735.39888
524.804	5957.99288
525.011	5741.64352
525.218	6126.31912
525.425	5745.80649
525.632	5895.6106
525.838	5824.88502
526.045	6099.3142
526.252	5762.45743
526.459	6159.55049
526.666	6003.7264
526.873	6151.24321
527.08	5912.24795
527.287	6176.16392
527.494	5903.92947
527.701	6088.92664
527.907	6047.37049
528.114	6294.49118
528.321	6223.91917
528.528	6252.98152
528.735	6178.2405
528.941	6036.97998
529.148	6026.58889
529.355	6163.70399
529.562	6165.78071
529.768	6138.78159
529.975	6118.01034
530.182	6161.62725
530.388	6128.39626
530.595	6472.87633
530.802	6199.00494
531.008	6524.7002
531.215	6340.14101
531.422	6584.79775
531.628	6456.28963
531.835	6539.20829
532.042	6506.04528
532.248	6777.39364
532.455	6574.43749
532.661	6601.37296
532.868	6638.66179
533.074	6711.1465
533.281	6655.23221
533.487	6965.65642
533.694	6630.37603
533.9	7031.81419
534.107	6613.8034
534.313	6893.2699
534.52	7013.20964
534.726	6785.67289
534.933	6719.42868
535.139	6657.30341
535.345	6895.33847
535.552	6690.43946
535.758	6996.67074
535.965	6837.4099
536.171	6796.02143
536.377	7128.94177
536.584	6853.96274
536.79	7073.15111
536.996	6849.82467
537.203	7124.80968
537.409	6975.99509
537.615	7143.40336
537.821	7035.94828
538.028	7285.89517
538.234	7176.45433
538.44	7275.57321
538.646	7230.15004
538.853	7147.53504
539.059	7275.57321
539.265	7432.40794
539.471	7228.0851
539.677	7269.37977
539.883	7085.55044
540.09	7298.2808
540.296	7131.00778
540.502	7564.38205
540.708	7267.31524
540.914	7795.12655
541.12	7506.65423
541.326	7650.94235
541.532	7428.28232
541.738	7607.6669
541.944	7413.84198
542.15	7877.47149
542.356	7597.36184
542.562	7834.24454
542.768	7479.8463
542.974	7760.11985
543.18	7753.94157
543.386	7879.52969
543.592	7671.54642
543.798	7869.23849
544.004	7698.32854
544.21	7980.35619
544.415	7632.39688
544.621	7943.32362
544.827	7900.11054
545.033	8048.2321
545.239	7918.63154
545.445	8225.01771
545.651	7922.74709
545.856	8087.30215
546.062	8021.49575
546.268	8109.91833
546.474	7947.43867
546.679	7898.05255
546.885	7655.06333
547.091	8179.80754
547.297	7910.40019
547.502	7951.55365
547.708	8074.96503
547.914	8225.01771
548.119	8165.42047
548.325	8190.08342
548.531	8109.91833
548.736	8416.02832
548.942	8107.86241
549.147	8140.75465
549.353	8280.48983
549.559	8459.13653
549.764	8329.78636
549.97	8140.75465
550.175	8257.89181
550.381	8432.4515
550.586	8116.08595
550.792	8627.38353
550.997	8374.96498
551.203	8428.34582
551.408	8358.53748
551.614	8405.76321
551.819	8315.40937
552.025	8578.15364
552.23	8452.97874
552.435	8758.61093
552.641	8734.01154
552.846	8686.85532
553.052	8830.34416
553.257	8545.3277
553.462	8561.74127
553.668	8699.15788
553.873	8576.10216
554.078	8813.94995
554.283	8547.37946
554.489	8770.90964
554.694	8666.34957
554.899	8826.24571
555.105	8764.76037
555.31	9043.36479
555.515	8961.45645
555.72	9143.66457
555.925	8674.55209
556.131	9133.43179
556.336	8850.83529
556.541	9078.16737
556.746	9121.15189
556.951	8881.56861
557.156	8832.39335
557.361	9178.45281
557.567	9272.56117
557.772	9104.77773
557.977	8811.90059
558.182	9162.08249
558.387	8910.24942
558.592	9207.09827
558.797	9010.60482
559.002	9215.28207
559.207	9186.63757
559.412	9282.7882
559.617	9053.60137
559.822	9456.58454
560.027	9069.97898
560.232	9317.55698
560.437	9088.40247
560.642	9454.54056
560.847	9450.45256
561.051	9376.85739
561.256	9241.87758
561.461	9403.43586
561.666	9252.10586
561.871	9241.87758
562.076	9219.37387
562.281	9235.7404
562.485	9415.70191
562.69	9524.02679
562.895	9350.27616
563.1	9575.10786
563.305	9615.96562
563.509	9681.32507
563.714	9358.4553
563.919	9393.2137
564.123	9376.85739
564.328	9611.88013
564.533	9477.02343
564.737	9489.28599
564.942	9417.7462
565.147	9611.88013
565.351	9544.46041
565.556	9538.33049
565.761	9622.09375
565.965	9860.98284
566.17	9607.79457
566.374	9438.18816
566.579	9362.54477
566.784	9481.11101
566.988	9577.1509
567.193	9854.86006
567.397	9695.62034
567.602	9767.08543
567.806	9667.02905
568.011	9889.55405
568.215	9805.87299
568.42	9903.83857
568.624	9546.50368
568.828	9824.24415
569.033	9452.49657
569.237	9779.33472
569.442	9787.50061
569.646	9848.73714
569.85	9807.91429
570.055	9805.87299
570.259	9711.95686
570.463	9852.8191
570.668	9636.39216
570.872	9901.79797
571.076	9765.04383
571.281	9928.32465
571.485	10113.94311
571.689	10115.98222
571.893	10162.8779
572.098	10191.41951
572.302	9824.24415
572.506	10226.07355
572.71	9832.40872
572.914	10011.96962
573.119	9895.67608
573.323	10199.57375
573.527	10205.6893
573.731	10399.28529
573.935	10264.79987
574.139	10401.32251
574.343	10009.92979
574.547	10325.93679
574.751	10332.04982
574.955	10423.73101
575.159	10262.76177
575.364	10240.34171
575.568	10168.99419
575.772	10281.10423
575.976	10195.49666
576.18	10224.03518
576.383	10313.71037
576.587	10374.83769
576.791	10285.18019
576.995	10556.11313
577.199	10464.46973
577.403	10374.83769
577.607	10413.54552
577.811	10517.42238
578.015	10327.97448
578.219	10429.84215
578.422	10450.21177
578.626	10629.40951
578.83	10382.9871
579.034	10525.56818
579.238	10497.057
579.442	10792.23366
579.645	10739.32425
579.849	10814.61601
580.053	10670.1228
580.257	10643.65972
580.46	10602.94323
580.664	10973.28706
580.868	10910.23382
581.071	10777.98961
581.275	10643.65972
581.479	10708.79592
581.682	10613.12281
581.886	10619.23042
582.09	10444.10102
582.293	10885.82318
582.497	10582.58312
582.7	11314.81286
582.904	10836.99694
583.107	11046.49669
583.311	10602.94323
583.515	10930.57476
583.718	10733.2188
583.922	10792.23366
584.125	11020.06153
584.329	11020.06153
584.532	10802.40763
584.735	11060.73024
584.939	10802.40763
585.142	11205.06926
585.346	11113.59304
585.549	11284.33152
585.753	11099.36147
585.956	10810.54659
586.159	10971.25325
586.363	11406.24334
586.566	11286.36368
586.769	11345.29193
586.973	11121.72513
587.176	11140.02171
587.379	11219.29698
587.582	11150.18611
587.786	11140.02171
587.989	11469.21719
588.192	11343.26006
588.395	11383.89552
588.599	11144.0875
588.802	11424.52703
589.005	11046.49669
589.208	11383.89552
589.411	11237.58901
589.615	11304.65267
589.818	11266.04162
590.021	11347.32378
590.224	11223.36195
590.427	11558.58365
590.63	11292.4601
590.833	11363.57829
591.036	11454.9981
591.239	11698.6904
591.442	11595.13743
591.645	11570.76858
591.848	11676.35742
592.051	11802.22028
592.254	11515.93376
592.457	11796.13091
592.66	11698.6904
592.863	11639.81022
593.066	11846.87331
593.269	11660.11458
593.472	11454.9981
593.675	11984.86631
593.878	11674.3271
594.081	11930.0795
594.284	11678.38774
594.486	11992.98238
594.689	11800.19049
594.892	11723.05241
595.095	11698.6904
595.298	11686.50891
595.5	11863.10976
595.703	11854.9916
595.906	11690.56944
596.109	12122.82238
596.311	11889.49285
596.514	11824.5473
596.717	11952.40077
596.92	11718.99216
597.122	11928.05025
597.325	11921.96244
597.528	12155.27747
597.73	12311.44129
597.933	11897.61045
598.136	12183.6741
598.338	11962.54647
598.541	12122.82238
598.743	12187.73065
598.946	12043.70492
599.148	11883.40457
599.351	12086.30808
599.554	12412.82396
599.756	12149.19228
599.959	12467.56359
600.161	12210.04111
600.363	12019.35872
600.566	11995.01138
600.768	11990.95338
600.971	12341.8579
601.173	11932.10875
601.376	12722.95399
601.578	12126.87937
601.78	12587.16337
601.983	12159.33422
602.185	12532.43402
602.388	12268.85539
602.59	12228.29447
602.792	12351.99642
602.995	12390.52124
603.197	12516.21703
603.399	12317.52474
603.601	12382.41095
603.804	12325.6359
604.006	12278.99517
604.208	12457.42698
604.41	12224.23822
604.613	12587.16337
604.815	11974.72105
605.017	12404.71398
605.219	12147.16388
605.421	12581.08256
605.623	12218.15379
605.826	12771.58898
606.028	12497.97243
606.23	12797.93156
606.432	12214.09746
606.634	12601.35172
606.836	12380.38337
607.038	12595.27104
607.24	12412.82396
607.442	12570.94774
607.644	12548.6506
607.846	12664.18225
608.048	12593.24413
608.25	12658.10213
608.452	12297.24634
608.654	12779.69449
608.856	12291.16268
609.058	12581.08256
609.26	12412.82396
609.462	12645.94173
609.664	12398.63141
609.866	12487.83631
610.067	12554.73172
610.269	12652.02196
610.471	12349.96873
610.673	12351.99642
610.875	12477.70003
611.077	12779.69449
611.278	12479.7273
611.48	12554.73172
611.682	12473.64547
611.884	12903.29257
612.085	12416.87892
612.287	12619.59345
612.489	12649.99522
612.69	12889.11021
612.892	12694.58205
613.094	12980.27805
613.295	12311.44129
613.497	12791.85259
613.699	12777.66812
613.9	12467.56359
614.102	12643.91497
614.304	12688.50219
614.505	12534.46111
614.707	12581.08256
614.908	12412.82396
615.11	12459.45432
615.311	12481.75456
615.513	12562.83978
615.714	12422.9613
615.916	12530.40692
616.117	12461.48165
616.319	12698.63525
616.52	12627.70072
616.722	12943.81218
616.923	12773.61537
617.124	12777.66812
617.326	12412.82396
617.527	12992.43297
617.729	12846.56155
617.93	13239.54531
618.131	12611.48607
618.333	12718.90093
618.534	12816.16818
618.735	13105.87032
618.937	12897.21445
619.138	12625.67391
619.339	12554.73172
619.54	12625.67391
619.742	12566.89377
619.943	12757.40412
620.144	12704.71502
620.345	12970.14881
620.546	12897.21445
620.748	13032.94808
620.949	12652.02196
621.15	12988.38135
621.351	12637.83467
621.552	12986.35553
621.753	12688.50219
621.954	12917.47467
622.155	12447.29022
622.356	12844.53537
622.558	12836.43057
622.759	12838.45677
622.96	12649.99522
623.161	12832.37813
623.362	12670.26232
623.563	12943.81218
623.764	12824.2732
623.965	12708.76816
624.166	12682.42229
624.366	12789.82626
624.567	12775.64175
624.768	12872.90148
624.969	12548.6506
625.17	12919.50067
625.371	13010.66502
625.572	12870.87536
625.773	12544.59649
625.973	12881.00589
626.174	12735.11305
626.375	12595.27104
626.576	12925.57861
626.777	13231.44436
626.977	12759.43054
627.178	13097.76815
627.379	12844.53537
627.58	13126.12539
627.78	12951.91585
627.981	13126.12539
628.182	13055.23054
628.382	12990.40717
628.583	12868.84924
628.784	12866.82312
628.984	12799.95788
629.185	13176.76104
629.386	12909.37065
629.586	13000.53615
629.787	12919.50067
629.987	13010.66502
630.188	12704.71502
630.388	12698.63525
630.589	12739.16602
630.79	13028.89666
630.99	12828.32568
631.191	13136.25275
631.391	12860.7447
631.591	12749.29836
631.792	12836.43057
631.992	13170.68492
632.193	13099.7937
632.393	13197.0145
632.594	13101.81924
632.794	12722.95399
632.994	12895.1884
633.195	12844.53537
633.395	12878.97979
633.595	13164.60875
633.796	12933.68247
633.996	13488.61716
634.196	13016.74228
634.397	13357.00148
634.597	13142.32912
634.797	13446.09696
634.997	12712.82129
635.198	13502.7902
635.398	13036.99948
635.598	13138.27821
635.798	13178.78641
635.998	12848.58773
636.199	13008.63926
636.399	13041.05086
636.599	13045.10222
636.799	13213.21695
636.999	12891.13628
637.199	12984.32971
637.399	12994.45878
637.599	12899.2405
637.799	12814.14191
637.999	13395.47547
638.199	12976.22637
638.399	13338.77645
638.599	12895.1884
638.799	13342.82648
638.999	13030.92237
639.199	13373.20123
639.399	13267.89811
639.599	13294.22495
639.799	13018.76802
639.999	13130.17635
640.199	12925.57861
640.399	13334.72639
640.599	12564.86678
640.799	13354.97649
640.998	13158.53254
641.198	13201.06514
641.398	13142.32912
641.598	13446.09696
641.798	13462.29533
641.997	13128.15087
642.197	13160.55795
642.397	13545.30821
642.597	13241.57054
642.796	13612.11906
642.996	13391.42564
643.196	13417.74923
643.395	13223.34333
643.595	13502.7902
643.795	13091.69148
643.994	13330.67632
644.194	13172.7103
644.394	13458.24576
644.593	13427.87351
644.793	13367.12635
644.992	13379.27607
645.192	13421.79895
645.392	13156.50713
645.591	13437.99769
645.791	13405.59996
645.99	13642.48639
646.19	13425.84866
646.389	13391.42564
646.589	13188.91317
646.788	13462.29533
646.987	13310.42573
647.187	13539.23431
647.386	13344.85149
647.586	13543.28358
647.785	13371.17628
647.984	13488.61716
648.184	13367.12635
648.383	13421.79895
648.582	13371.17628
648.782	13709.2919
648.981	13440.02251
649.18	13626.29058
649.38	13751.80268
649.579	13565.55433
649.778	13389.40072
649.977	13978.50516
650.177	13577.70183
650.376	13725.48665
650.575	13249.67141
650.774	13401.55018
650.973	13462.29533
651.173	13537.20967
651.372	13668.80414
651.571	13751.80268
651.77	13622.24159
651.969	13579.7264
652.168	13399.52528
652.367	13767.99691
652.566	13269.92328
652.765	13670.82856
652.964	13743.7055
653.163	13595.92284
653.362	13695.12133
653.561	13626.29058
653.76	13510.88899
653.959	13883.37532
654.158	13638.43746
654.357	13363.07642
654.556	13411.67461
654.755	13832.77191
654.954	13498.74078
655.153	13725.48665
655.352	13579.7264
655.551	13761.9241
655.749	13551.38208
655.948	13682.975
656.147	13711.31625
656.346	13901.59213
656.545	13508.8643
656.743	13452.17138
656.942	13444.07215
657.141	13790.26366
657.34	13948.1452
657.538	13604.02098
657.737	14031.12775
657.936	13982.55311
658.135	13707.26754
658.333	13721.43798
658.532	13545.30821
658.731	13725.48665
658.929	13512.91368
659.128	13593.8983
659.326	13697.14571
659.525	13933.97702
659.724	13770.02118
659.922	13824.6752
660.121	13776.09395
660.319	13715.36495
660.518	13763.94837
660.716	13836.82025
660.915	13865.15829
661.113	13899.56805
661.312	13772.04544
661.51	13755.85126
661.709	13711.31625
661.907	13747.7541
662.105	13435.97286
662.304	13925.88086
662.502	13830.74773
662.701	13946.12118
662.899	13506.8396
663.097	13899.56805
663.296	13523.03707
663.494	13998.74481
663.692	13707.26754
663.891	14063.51008
664.089	13739.65689
664.287	13954.21724
664.485	13857.06176
664.684	14012.91243
664.882	13478.49346
665.08	13622.24159
665.278	13553.4067
665.476	13626.29058
665.675	13502.7902
665.873	13622.24159
666.071	13373.20123
666.269	13549.35746
666.467	13577.70183
666.665	13863.13417
666.863	13630.33955
667.061	14128.27297
667.259	13915.7606
667.457	14116.1301
667.655	13703.21882
667.853	13853.01348
668.051	13751.80268
668.249	13853.01348
668.447	13818.60263
668.645	13784.19094
668.843	13832.77191
669.041	13929.92895
669.239	13500.76549
669.437	13595.92284
669.635	13684.9994
669.833	13875.27889
670.031	13709.2919
670.229	13707.26754
670.426	13672.85297
670.624	13802.409
670.822	13437.99769
671.02	13601.99645
671.218	13243.59577
671.415	13529.11106
671.613	13328.65128
671.811	13640.46193
672.009	13500.76549
672.206	13571.62809
672.404	13460.27055
672.602	13561.50513
672.799	13656.65756
672.997	13699.17008
673.195	13662.73086
673.392	13610.09455
673.59	13614.14358
673.788	13844.91689
673.985	13359.02646
674.183	13563.52973
674.38	13320.55108
674.578	13549.35746
674.775	13261.82258
674.973	13484.56769
675.17	13512.91368
675.368	13535.18502
675.565	13168.65953
675.763	13555.43131
675.96	13261.82258
676.158	13525.06174
676.355	13437.99769
676.553	13861.11003
676.75	13162.58335
676.947	13251.69662
677.145	13286.12446
677.342	13498.74078
677.539	13462.29533
677.737	13687.02379
677.934	13395.47547
678.131	13549.35746
678.329	13427.87351
678.526	13294.22495
678.723	13201.06514
678.92	13719.41364
679.118	13201.06514
679.315	13298.27517
679.512	12974.20052
679.709	13314.47588
679.906	13150.43087
680.104	13411.67461
680.301	13429.89835
680.498	13296.25007
680.695	13354.97649
680.892	13559.48053
681.089	13585.80009
681.286	13328.65128
681.483	13267.89811
681.68	13144.35456
681.877	13192.96385
682.075	13095.7426
682.272	13030.92237
682.469	13361.05144
682.665	13233.4696
682.862	13182.83713
683.059	12964.0712
683.256	13146.38
683.453	12915.44867
683.65	13209.16636
683.847	13209.16636
684.044	13063.33311
684.241	13273.9736
684.438	13314.47588
684.635	12903.29257
684.831	12891.13628
685.028	12487.83631
685.225	13245.62099
685.422	12682.42229
685.619	12702.68843
685.815	12834.40435
686.012	12686.47556
686.209	12909.37065
686.405	12878.97979
686.602	12862.77085
686.799	12722.95399
686.996	12785.77357
687.192	13115.99791
687.389	12714.84784
687.586	13053.20489
687.782	13124.09991
687.979	12901.26654
688.175	12522.29845
688.372	13032.94808
688.568	12733.08656
688.765	12862.77085
688.962	12870.87536
689.158	12824.2732
689.355	13184.86248
689.551	12960.01944
689.748	12727.00704
689.944	12710.79473
690.14	12724.98052
690.337	12826.29944
690.533	12668.23563
690.73	12836.43057
690.926	12949.88994
691.123	12909.37065
691.319	12765.50979
691.515	12708.76816
691.712	12532.43402
691.908	12607.43235
692.104	12504.05402
692.301	12698.63525
692.497	12481.75456
692.693	12842.50917
692.889	12627.70072
693.086	12759.43054
693.282	12589.1903
693.478	12854.66624
693.674	12662.15555
693.87	12812.11564
694.067	12637.83467
694.263	12536.4882
694.459	12264.79943
694.655	12674.31566
694.851	12463.50897
695.047	12435.12588
695.243	12487.83631
695.439	12504.05402
695.635	12354.0241
695.831	12702.68843
696.027	12260.74344
696.224	12343.88561
696.42	12230.32258
696.615	12491.89077
696.811	12266.82741
697.007	12465.53628
697.203	12264.79943
697.399	12295.21846
697.595	12546.62355
697.791	12548.6506
697.987	12313.46911
698.183	12852.64008
698.379	12268.85539
698.575	12605.40548
698.77	12252.63137
698.966	12455.39964
699.162	11956.45907
699.358	12086.30808
699.554	12053.84884
699.749	12066.02129
699.945	12027.47424
700.141	12029.50311
700.337	11932.10875
700.532	12382.41095
700.728	12222.21008
700.924	12564.86678
701.119	12185.70238
701.315	12187.73065
701.511	12025.44537
701.706	12579.05561
701.902	12147.16388
702.097	12396.60388
702.293	12122.82238
702.489	12175.56093
702.684	12110.65122
702.88	12098.47979
703.075	11836.72525
703.271	12102.53696
703.466	11919.93315
703.662	12195.84365
703.857	11988.92436
704.053	12088.33672
704.248	12132.9648
704.443	12293.19057
704.639	11781.92208
704.834	12179.61753
705.03	12106.59411
705.225	12155.27747
705.42	11930.0795
705.616	12066.02129
705.811	11686.50891
706.006	11871.22779
706.202	12053.84884
706.397	11940.22565
706.592	11919.93315
706.787	12066.02129
706.983	11781.92208
707.178	12252.63137
707.373	12098.47979
707.568	12070.07871
707.763	11826.57698
707.959	11824.5473
708.154	11873.25727
708.349	11854.9916
708.544	11798.1607
708.739	11599.19877
708.934	11587.01463
709.129	11846.87331
709.324	11674.3271
709.519	12181.64582
709.714	11599.19877
709.909	12185.70238
710.104	11769.74275
710.299	11702.75082
710.494	11751.47317
710.689	11781.92208
710.884	11913.84524
711.079	11895.58106
711.274	11700.72061
711.469	12017.32982
711.664	11964.57559
711.859	11749.44317
712.054	11783.95194
712.249	11404.21177
712.443	11619.50495
712.638	11814.39878
712.833	11392.02214
713.028	11633.71874
713.223	11473.27971
713.417	11792.07128
713.612	11570.76858
713.807	11619.50495
714.002	11459.06075
714.196	11818.45822
714.391	11641.8407
714.586	11607.32136
714.78	11406.24334
714.975	11674.3271
715.17	11619.50495
715.364	11781.92208
715.559	11692.59969
715.754	11631.68822
715.948	11107.49386
716.143	11448.90406
716.337	11337.1644
716.532	11564.67616
716.726	11710.87156
716.921	11637.77974
717.115	11432.65286
717.31	11662.14497
717.504	11664.17535
717.699	11497.65397
717.893	11327.00476
718.088	11355.45112
718.282	11172.54684
718.476	11176.61229
718.671	11235.55661
718.865	11310.74881
719.059	11125.79111
719.254	11392.02214
719.448	11103.42769
719.642	11404.21177
719.837	11091.2289
720.031	11396.08539
720.225	11125.79111
720.419	11416.40104
720.614	11377.80045
720.808	11517.9648
721.002	11247.75089
721.196	11152.21895
721.39	11040.39644
721.585	11316.84487
721.779	10961.08405
721.973	11601.22943
722.167	10944.81274
722.361	11066.83017
722.555	11150.18611
722.749	11009.89367
722.943	11119.69213
723.137	10871.58288
723.331	10552.04063
723.525	10773.91977
723.719	10739.32425
723.913	10944.81274
724.107	10710.83122
724.301	11123.75813
724.495	10814.61601
724.689	10999.72553
724.883	10879.72026
725.077	10875.65159
725.271	10782.05939
725.465	10879.72026
725.659	10674.19386
725.853	11182.71038
726.046	10985.48966
726.24	10965.15177
726.434	10830.89319
726.628	11142.05461
726.822	10704.72527
727.015	11089.19573
727.209	10741.35937
727.403	10688.44219
727.596	10708.79592
727.79	10782.05939
727.984	10965.15177
728.177	10957.01629
728.371	10521.49531
728.565	11093.26206
728.758	10765.77996
728.952	10647.7311
729.146	10570.36646
729.339	10845.13511
729.533	11005.82645
729.726	11068.86346
729.92	10847.16962
730.113	11072.93
730.307	11003.79282
730.5	11137.9888
730.694	10834.96236
730.887	11018.02798
731.081	10761.70998
731.274	11054.63021
731.468	10865.47972
731.661	11007.86006
731.854	10796.30328
732.048	10843.10058
732.241	10613.12281
732.435	11042.42987
732.628	11070.89673
732.821	10794.26848
733.014	10859.37646
733.208	10714.9018
733.401	10725.07803
733.594	10655.8737
733.788	10822.75469
733.981	10586.65524
734.174	10676.22937
734.367	10358.53823
734.56	10444.10102
734.754	10545.93179
734.947	10497.057
735.14	10637.55256
735.333	10472.61686
735.526	10873.61724
735.719	10440.02712
735.912	10755.60492
736.105	10688.44219
736.298	10456.3224
736.491	10596.83533
736.684	10440.02712
736.877	10647.7311
737.07	10623.30209
737.263	10694.54844
737.456	10718.97233
737.649	10806.47714
737.842	10739.32425
738.035	10918.37033
738.228	10586.65524
738.421	10771.88483
738.614	10566.29415
738.807	10552.04063
739	10387.06173
739.192	10442.06408
739.385	10403.35971
739.578	10509.27638
739.771	10281.10423
739.964	10195.49666
740.156	10179.18772
740.349	9791.58347
740.542	10266.83796
740.735	10138.41151
740.927	10177.14904
741.12	10482.80047
741.313	10460.39609
741.505	10334.08747
741.698	10150.64496
741.891	10207.72778
742.083	10181.22639
742.276	10399.28529
742.468	10472.61686
742.661	10376.87506
742.854	10393.17357
743.046	10321.86137
743.239	10185.30368
743.431	9975.25044
743.624	10252.57104
743.816	10048.68417
744.009	10040.52578
744.201	9977.29051
744.393	10089.4727
744.586	9850.77813
744.778	9934.44584
744.971	10050.72373
745.163	10187.3423
745.355	10036.4465
745.548	10036.4465
745.74	10179.18772
745.932	10130.2556
746.125	9960.96949
746.317	10258.68551
746.509	10020.12881
746.702	10252.57104
746.894	9750.7522
747.086	10089.4727
747.278	10140.45045
747.471	10065.00026
747.663	9914.04136
747.855	9842.61409
748.047	10050.72373
748.239	9954.84887
748.431	10028.28777
748.623	10148.60608
748.815	10056.84233
749.008	10130.2556
749.2	10085.3941
749.392	10171.03292
749.584	10036.4465
749.776	10252.57104
749.968	9971.17024
750.16	10173.07164
750.352	9999.73041
750.544	9940.5669
750.736	9979.33058
750.928	9842.61409
751.12	9722.1667
751.311	9628.22173
751.503	9952.80863
751.695	9881.39114
751.887	9838.53199
752.079	9787.50061
752.271	9615.96562
752.463	9834.44982
752.654	9765.04383
752.846	9826.28531
753.038	9656.81714
753.23	9538.33049
753.421	9624.13642
753.613	9562.84931
753.805	9769.12702
753.997	9758.91894
754.188	9452.49657
754.38	9648.64733
754.572	9763.00221
754.763	10056.84233
754.955	9834.44982
755.146	9952.80863
755.338	9599.62327
755.53	9560.80616
755.721	9470.89193
755.913	9505.63518
756.104	9636.39216
756.296	9636.39216
756.487	9374.81278
756.679	9681.32507
756.87	9344.14164
757.062	9313.46678
757.253	9519.93988
757.445	9560.80616
757.636	9446.36449
757.827	9481.11101
758.019	9456.58454
758.21	9168.22149
758.401	9174.36033
758.593	9415.70191
758.784	9272.56117
758.975	9360.50004
759.167	9250.06024
759.358	9297.10533
759.549	9004.46183
759.74	9362.54477
759.932	8850.83529
760.123	9112.96495
760.314	8990.12757
760.505	9207.09827
760.696	8928.68523
760.888	9207.09827
761.079	8977.84037
761.27	9051.55409
761.461	9380.94657
761.652	9166.17517
761.843	9055.64863
762.034	9321.64711
762.225	8889.76349
762.416	8768.8599
762.607	8834.44253
762.798	8815.99929
762.989	8815.99929
763.18	8961.45645
763.371	8789.35647
763.562	8838.54083
763.753	8758.61093
763.944	8608.92358
764.135	8631.48554
764.326	8758.61093
764.517	8736.06159
764.708	8758.61093
764.899	8891.81216
765.089	8873.37346
765.28	8736.06159
765.471	8695.0571
765.662	8559.68964
765.853	8947.1196
766.043	8649.94364
766.234	8701.20825
766.425	8461.1891
766.615	8551.48293
766.806	8387.2848
766.997	8576.10216
767.187	8364.69794
767.378	8695.0571
767.569	8477.6089
767.759	8561.74127
767.95	8366.75139
768.141	8411.92233
768.331	8416.02832
768.522	8298.97735
768.712	8239.40075
768.903	8411.92233
769.093	8192.13854
769.284	8420.13423
769.474	8448.87344
769.665	8342.10874
769.855	8161.3097
770.046	8239.40075
770.236	8132.53207
770.426	7980.35619
770.617	8052.34508
770.807	8401.65703
770.998	8280.48983
771.188	8120.1976
771.378	8009.15474
771.569	8348.26966
771.759	8000.92699
771.949	8428.34582
772.139	8344.1624
772.33	7807.48041
772.52	8175.69705
772.71	8494.02748
772.9	8280.48983
773.09	8403.71013
773.281	8245.56461
773.471	8362.64447
773.661	8013.26849
773.851	8095.5265
774.041	7723.04734
774.231	7996.81299
774.421	7778.65356
774.611	7766.29794
774.802	8107.86241
774.992	8202.41382
775.182	7963.89809
775.372	7963.89809
775.562	7854.82994
775.752	7698.32854
775.942	7846.59603
776.131	7916.57373
776.321	7607.6669
776.511	7669.48611
776.701	7733.34594
776.891	8056.45798
777.081	7677.72723
777.271	7692.14837
777.461	7502.53017
777.651	7692.14837
777.84	7391.14786
778.03	7871.29677
778.22	7514.9021
778.41	7879.52969
778.599	7729.22656
778.789	7675.66698
778.979	7613.84968
779.169	7688.02815
779.358	7642.70013
779.548	8089.35827
779.738	7729.22656
779.927	7667.42577
780.117	7640.63952
780.307	7318.92175
780.496	7494.28179
780.686	7420.03082
780.875	7366.38764
781.065	7337.49674
781.254	7091.74981
781.444	7498.40603
781.633	7424.15662
781.823	7432.40794
782.012	7244.60402
782.202	7461.28482
782.391	7178.51982
782.581	7246.66879
782.77	7366.38764
782.96	7292.08808
783.149	6953.24927
783.338	7294.15234
783.528	7062.81772
783.717	7347.81541
783.906	7261.12154
784.096	7430.34514
784.285	7296.21658
784.474	7081.41742
784.663	6982.19802
784.853	6897.40702
785.042	6942.90935
785.231	7004.94037
785.42	6895.33847
785.61	7159.92955
785.799	6663.51686
785.988	6895.33847
786.177	6539.20829
786.366	6785.67289
786.555	6829.13294
786.744	6816.71681
786.933	6690.43946
787.122	7011.14236
787.312	6897.40702
787.501	6980.1304
787.69	6752.55371
787.879	6988.40075
788.068	6911.88622
788.257	6812.57791
788.445	6638.66179
788.634	7013.20964
788.823	6839.47909
789.012	7019.41136
789.201	6721.49916
789.39	6835.34069
789.579	6640.73317
789.768	6829.13294
789.957	6622.0899
790.145	6992.53579
790.334	6483.24226
790.523	6557.85987
790.712	6692.51026
790.9	6837.4099
791.089	6748.4134
791.278	6748.4134
791.467	6682.156
791.655	6789.81237
791.844	6489.46155
792.033	6626.23301
792.221	6219.76704
792.41	6688.36863
792.599	6265.4354
792.787	6483.24226
792.976	6051.52653
793.164	6306.94226
793.353	6267.51096
793.541	6555.78757
793.73	6410.66853
793.918	6431.40679
794.107	6134.62753
794.295	6354.66359
794.484	6335.9915
794.672	6329.76704
794.861	6352.589
795.049	6564.07665
795.238	6298.64163
795.426	6250.90579
795.614	6367.1106
795.803	6381.63105
795.991	6406.5206
796.179	6472.87633
796.368	6142.93556
796.556	6356.73815
796.744	6099.3142
796.932	6194.85224
797.121	6211.46248
797.309	6091.0042
797.497	5924.72497
797.685	6126.31912
797.874	6132.55046
798.062	6232.22317
798.25	5883.1316
798.438	6043.21436
798.626	5843.60915
798.814	5854.01062
799.002	5943.43892
799.19	5976.70343
799.378	5881.05168
799.566	6045.29244
799.755	5901.84978
799.943	5933.04252
800.131	5960.07193
800.318	5910.16837
800.506	5570.88041
800.694	5858.17104
800.882	5575.04725
801.07	5962.15095
801.258	5941.35968
801.446	6007.88343
801.634	5552.12846
801.822	5997.49069
802.01	5758.29484
802.197	6072.30531
802.385	5731.23567
802.573	5881.05168
802.761	5629.20759
802.949	5993.33342
803.136	5550.04479
803.324	5874.81179
803.512	5883.1316
803.699	5891.45103
803.887	5641.70387
804.075	5866.4916
804.262	5824.88502
804.45	5893.53083
804.638	5841.52878
804.825	6045.29244
805.013	5829.0461
805.201	6165.78071
805.388	5953.83472
805.576	6140.85859
805.763	6009.96191
805.951	6234.29911
806.138	5768.70115
806.326	6128.39626
806.513	5970.46679
806.701	6099.3142
806.888	5914.32751
807.075	5947.59731
807.263	5737.48045
807.45	5797.83567
807.638	5668.77623
807.825	6257.1329
808.012	5874.81179
808.2	6078.53848
808.387	5899.77008
808.574	5962.15095
808.761	5612.54457
808.949	5841.52878
809.136	5508.36649
809.323	5787.43101
809.51	5464.59413
809.698	5618.79338
809.885	5450.00104
810.072	5579.21399
810.259	5754.13215
810.446	5870.65174
810.633	5824.88502
810.82	5866.4916
811.008	5724.99069
811.195	5935.12184
811.382	5868.57169
811.569	6003.7264
811.756	5864.4115
811.943	6041.13626
812.13	5783.26899
812.317	5801.99737
812.504	5731.23567
812.691	6024.5106
812.878	5754.13215
813.064	5860.25122
813.251	5930.96317
813.438	5991.25476
813.625	5901.84978
813.812	5918.48657
813.999	5641.70387
814.186	5799.91653
814.372	5801.99737
814.559	5999.56928
814.746	5720.82724
814.933	5881.05168
815.12	5764.53869
815.306	5993.33342
815.493	5872.73178
815.68	5989.17607
815.866	5704.17252
816.053	5808.23974
816.24	5483.35498
816.426	5843.60915
816.613	5458.34009
816.799	5851.93037
816.986	5625.04198
817.173	5912.24795
817.359	5358.24668
817.546	5700.00861
817.732	5600.04631
817.919	6003.7264
818.105	5766.61993
818.292	6003.7264
818.478	5731.23567
818.665	5670.85855
818.851	5670.85855
819.037	5647.95169
819.224	5464.59413
819.41	5668.77623
819.597	5518.78695
819.783	5564.62997
819.969	5462.50948
820.156	5560.46289
820.342	5627.1248
820.528	5668.77623
820.714	5377.01832
820.901	5824.88502
821.087	5702.09058
821.273	5749.96937
821.459	5485.43941
821.646	5600.04631
821.832	5433.32182
822.018	5704.17252
822.204	5500.0297
822.39	5587.5472
822.576	5543.79364
822.762	5608.37858
822.948	5681.26982
823.134	5814.48189
823.32	5416.64108
823.507	5647.95169
823.693	5745.80649
823.879	5747.88794
824.065	5387.44618
824.25	5345.73121
824.436	5510.45063
824.622	5450.00104
824.808	5585.46394
824.994	5560.46289
825.18	5260.18619
825.366	5441.66162
825.552	5281.05446
825.738	5379.10394
825.923	5095.2449
826.109	5329.04259
826.295	5111.95442
826.481	5253.92526
826.667	5045.10743
826.852	5134.92759
827.038	5013.76474
827.224	5199.65501
827.409	5201.74262
827.595	5241.40276
827.781	5038.83931
827.966	5268.53378
828.152	4697.9609
828.338	5520.87097
828.523	4999.13638
828.709	5189.21662
828.894	5116.13157
829.08	5166.25011
829.266	5076.44491
829.451	5101.51115
829.637	5043.01808
829.822	5256.01226
830.008	5040.9287
830.193	5128.66246
830.378	5101.51115
830.564	5239.31559
830.749	4810.9571
830.935	4997.04652
831.12	4848.60778
831.305	4976.14666
831.491	4919.70555
831.676	4969.87626
831.861	4651.90653
832.047	5149.54542
832.232	4756.55976
832.417	4875.79535
832.602	4704.24019
832.788	4852.79074
832.973	4597.46465
833.158	4660.28086
833.343	4635.15679
833.528	4859.065
833.714	4607.93542
833.899	4739.81904
834.084	4563.95446
834.269	4829.78336
834.454	4674.93507
834.639	4898.79719
834.824	4783.76035
835.009	5036.74989
835.194	4622.59355
835.379	5128.66246
835.564	4649.81289
835.749	4836.05838
835.934	4647.71923
836.119	4672.84168
836.304	4532.53348
836.489	4413.08846
836.674	4513.6785
836.859	4614.21761
837.044	4427.76099
837.228	4582.80464
837.413	4390.02946
837.598	4708.42628
837.783	4100.5228
837.968	4511.58339
838.152	4396.31854
838.337	4553.48135
838.522	4358.58114
838.707	4758.65225
838.891	4335.51593
839.076	4276.79271
839.261	4364.87119
839.445	4356.48441
839.63	4262.10927
839.815	4538.81807
839.999	4295.66987
840.184	4398.41486
840.368	4312.44811
840.553	4455.00712
840.737	4316.64245
840.922	4475.96317
841.106	4337.61288
841.291	4278.89026
841.475	4268.4023
841.66	4446.62409
841.844	4152.99966
842.029	4278.89026
842.213	4140.40641
842.397	4205.46336
842.582	4056.43218
842.766	4322.93381
842.951	4186.57795
843.135	4222.24895
843.319	4060.63168
843.504	3936.71183
843.688	3854.75995
843.872	4144.60424
844.056	4052.23259
844.241	4255.81605
844.425	3955.61945
844.609	4148.80199
844.793	4043.83317
844.977	4081.62794
845.161	3911.49912
845.346	4203.36507
845.53	4155.09846
845.714	4127.8124
845.898	3779.08521
846.082	3909.39793
846.266	3816.92578
846.45	4020.73308
846.634	3758.05993
846.818	3795.90402
847.002	3749.64927
847.186	3863.16668
847.37	3697.07564
847.554	3819.02784
847.738	3572.95462
847.922	3768.57281
848.106	3774.88031
848.29	3919.90368
848.473	3478.24245
848.657	3551.91068
848.841	3514.02696
849.025	3747.54656
849.209	3564.53727
849.392	3833.74176
849.576	3623.45245
849.76	3781.18763
849.944	3615.03689
850.127	3627.66011
850.311	3396.12891
850.495	3532.96957
850.678	3442.45271
850.862	3537.17883
851.046	3480.34756
851.229	3558.22406
851.413	3455.08498
851.596	3484.55774
851.78	3497.18784
851.964	3640.28266
852.147	3347.69035
852.331	3501.39773
852.514	3482.45266
852.698	3511.92213
852.881	3139.091
853.065	3383.49366
853.248	3240.25057
853.431	3389.81136
853.615	3113.79526
853.798	3387.70548
853.982	3143.30673
854.165	3311.88203
854.348	3389.81136
854.532	3606.62104
854.715	3168.59977
854.898	3370.85777
855.081	3181.24541
855.265	3415.08059
855.448	3124.33543
855.631	3339.26531
855.814	3031.56837
855.997	3090.60548
856.181	3099.03835
856.364	3227.6077
856.547	3141.19888
856.73	3320.30796
856.913	3052.65445
857.096	3227.6077
857.279	3063.19691
857.462	3147.5224
857.645	2890.25264
857.828	3063.19691
858.011	3033.67705
858.194	3132.76728
858.377	3029.45967
858.56	3056.87148
858.743	2807.96419
858.926	3217.07152
859.109	2959.86426
859.292	3075.84735
859.475	2966.1918
859.658	3010.48075
859.841	2961.97346
860.023	3063.19691
860.206	2645.4366
860.389	2883.92352
860.572	2704.54653
860.755	2835.39605
860.937	2611.65507
861.12	2727.76552
861.303	2782.6404
861.486	2886.03324
861.668	2560.97693
861.851	2712.98998
862.034	2622.21214
862.216	2841.72614
862.399	2493.39553
862.581	2446.92661
862.764	2596.87467
862.947	2662.32617
863.129	2527.18771
863.312	2769.97777
863.494	2537.74716
863.677	2636.99152
863.859	2649.65907
864.042	2742.54041
864.224	2518.73994
864.406	2658.10385
864.589	2220.84775
864.771	2626.43488
864.954	2267.34022
865.136	2693.99192
865.318	2501.84385
865.501	2417.35274
865.683	2244.09452
865.865	2442.70191
866.048	2347.63481
866.23	2394.11468
866.412	2326.506
866.594	2514.51598
866.777	2227.18788
866.959	2315.94123
867.141	2225.07451
867.323	2430.02752
867.505	2379.32616
867.687	2438.47715
867.869	2375.10078
868.052	2375.10078
868.234	2305.37622
868.416	2527.18771
868.598	2301.15014
868.78	2476.49836
868.962	2402.56503
869.144	2510.29198
869.326	2117.2815
869.508	2324.39307
869.69	2290.5848
869.872	2309.60225
870.054	2184.91885
870.236	2163.78307
870.417	2341.29627
870.599	2484.94704
870.781	2254.66088
870.963	2343.40913
871.145	2079.23199
871.327	2201.82687
871.508	1950.2696
871.69	2286.35859
871.872	2083.45983
872.054	2140.53276
872.235	1943.92658
872.417	2039.06605
872.599	1977.75541
872.78	2286.35859
872.962	2058.09234
873.144	2157.44217
873.325	2053.86433
873.507	2248.32109
873.689	2032.72383
873.87	2256.77413
874.052	2043.29417
874.233	2324.39307
874.415	2237.7546
874.596	2248.32109
874.778	2108.82627
874.959	2341.29627
875.141	2058.09234
875.322	2227.18788
875.503	2091.91543
875.685	2427.91508
875.866	2193.37293
876.048	2341.29627
876.229	1943.92658
876.41	2007.35434
876.592	1863.57724
876.773	1979.86966
876.954	1838.20221
877.136	2129.96413
877.317	1855.11898
877.498	2163.78307
877.679	1996.78344
877.86	2138.41905
878.042	1929.12598
878.223	2250.43437
878.404	2106.71244
878.585	2191.25942
878.766	1895.29501
878.947	2210.28068
879.128	1990.44082
879.309	2119.39529
879.49	1884.72255
879.672	2206.0538
879.853	2091.91543
880.034	2267.34022
880.215	1967.18407
880.396	2072.89017
880.576	1855.11898
880.757	2049.63629
880.938	1946.04092
881.119	2180.69176
881.3	2011.58266
881.481	2282.13235
881.662	2091.91543
881.843	2064.43431
882.023	2020.03921
882.204	2140.53276
882.385	1895.29501
882.566	2036.95199
882.747	2039.06605
882.927	2265.22702
883.108	2026.38155
883.289	2100.37091
883.469	2024.26744
883.65	2165.89668
883.831	2034.83791
884.011	2227.18788
884.192	2034.83791
884.373	2197.59992
884.553	1878.37901
884.734	2070.77622
884.914	2043.29417
885.095	2180.69176
885.275	1838.20221
885.456	2284.24548
885.636	1793.79431
885.817	2079.23199
885.997	1867.80634
886.178	2172.23748
886.358	1882.60804
886.538	1916.43953
886.719	1774.76177
886.899	2062.32033
887.08	1897.40949
887.26	2142.64647
887.44	2020.03921
887.621	2058.09234
887.801	1927.01159
887.981	2115.16771
888.161	1943.92658
888.342	2172.23748
888.522	2083.45983
888.702	2216.62095
888.882	2028.49565
889.062	2151.1012
889.242	2015.81095
889.423	2206.0538
889.603	2075.00412
889.783	2239.86792
889.963	2005.24018
890.143	2129.96413
890.323	1888.95155
890.503	1952.38393
890.683	2045.40821
890.863	2096.14319
891.043	1863.57724
891.223	2151.1012
891.403	1776.87652
891.583	2003.126
891.763	1601.3417
891.943	2068.66226
892.122	1905.86734
892.302	2032.72383
892.482	1946.04092
892.662	1863.57724
892.842	1872.03543
893.022	2138.41905
893.201	1931.24037
893.381	2066.54829
893.561	1967.18407
893.741	1946.04092
893.92	1920.66837
894.1	2053.86433
894.28	1927.01159
894.459	2108.82627
894.639	1914.32511
894.819	2020.03921
894.998	1787.45017
895.178	2011.58266
895.357	1874.14996
895.537	1981.98391
895.716	1795.90902
895.896	2098.25705
896.075	1865.69179
896.255	1990.44082
896.434	1749.38456
896.614	1946.04092
896.793	1704.9732
896.973	1973.52689
897.152	1656.3306
897.331	1800.13841
897.511	1580.19175
897.69	1791.6796
897.87	1669.02012
898.049	1709.20292
898.228	1546.35152
898.407	1717.66231
898.587	1580.19175
898.766	1850.88981
898.945	1497.70566
899.124	1833.97297
899.304	1537.8914
899.483	1766.30277
899.662	1573.84674
899.841	1848.77522
900.02	1673.24993
900.199	1783.22072
900.378	1732.46613
900.557	1753.61414
900.737	1540.00643
900.916	1740.92537
901.095	1514.62601
901.274	1533.66134
901.453	1370.80283
901.632	1385.60808
901.811	1360.22769
901.989	1474.44013
902.168	1398.29832
902.347	1362.34271
902.526	1216.41025
902.705	1334.84747
902.884	1296.77759
903.063	1421.56384
903.242	1358.11266
903.42	1296.77759
903.599	1186.80231
903.778	1252.36358
903.957	1136.04754
904.135	1207.95077
904.314	1186.80231
904.493	1330.61746
904.672	1131.81809
904.85	1303.12252
905.029	1062.03478
905.207	1254.47851
905.386	1127.58865
905.565	1157.19508
905.743	966.8855
905.922	1224.86978
906.1	994.37177
906.279	1142.39176
906.457	968.99979
906.636	1045.11847
906.814	928.82952
906.993	1019.74468
907.171	924.60123
907.35	979.57133
907.528	956.31416
907.707	1009.17253
907.885	899.23209
908.063	823.13176
908.242	882.31996
908.42	895.00401
908.598	776.63172
908.777	761.83724
908.955	835.81437
909.133	930.94368
909.311	829.47302
909.49	810.44948
909.668	715.34359
909.846	880.20598
910.024	751.27006
910.202	789.31309
910.38	823.13176
910.559	909.80243
910.737	768.17767
910.915	949.97145
911.093	920.37296
911.271	1002.82931
911.449	945.743
911.627	947.85722
911.805	916.14472
911.983	869.63621
912.161	892.88998
912.339	996.48615
912.517	827.35926
912.695	1007.05811
912.872	835.81437
913.05	1009.17253
913.228	844.26962
913.406	886.54795
913.584	787.19951
913.762	975.34269
913.939	780.85881
914.117	835.81437
914.295	742.8165
914.473	844.26962
914.65	759.72379
914.828	852.72501
915.006	780.85881
915.184	789.31309
915.361	755.4969
915.539	728.02317
915.716	835.81437
915.894	837.92817
916.072	704.77757
916.249	852.72501
916.427	801.99481
916.604	744.92987
916.782	660.40337
916.959	882.31996
917.137	590.68313
917.314	882.31996
917.492	696.32496
917.669	846.38345
917.847	668.85521
918.024	776.63172
918.201	649.83884
918.379	607.58375
918.556	597.02077
918.733	660.40337
918.911	717.45683
919.088	660.40337
919.265	694.21183
919.442	736.47644
919.62	575.89576
919.797	787.19951
919.974	651.95172
920.151	732.24978
920.328	635.049
920.506	730.13647
920.683	666.74223
920.86	717.45683
921.037	527.31334
921.214	721.68333
921.391	599.13334
921.568	679.42027
921.745	721.68333
921.922	751.27006
922.099	609.69639
922.276	738.58978
922.453	641.38743
922.63	624.48519
922.807	580.12066
922.984	630.82344
923.161	499.85698
923.338	702.6644
923.514	447.06329
923.691	457.62127
923.868	563.22139
924.045	597.02077
924.222	516.75291
924.399	571.67092
924.575	582.23313
924.752	447.06329
924.929	436.5057
925.105	546.32299
925.282	510.41683
925.459	556.88439
925.635	387.9459
925.812	400.61285
925.989	396.39047
926.165	455.50964
926.342	413.28038
926.518	518.86497
926.695	404.83529
926.871	451.28643
927.048	404.83529
927.224	421.72573
927.401	328.84154
927.577	438.61718
927.754	354.17033
927.93	436.5057
928.107	328.84154
928.283	421.72573
928.459	449.17485
928.636	413.28038
928.812	406.94654
928.988	362.61382
929.165	423.8371
929.341	337.28419
929.517	381.61266
929.693	362.61382
929.87	223.33309
930.046	358.39204
930.222	303.51529
930.398	364.72473
930.574	335.1735
930.751	337.28419
930.927	303.51529
931.103	360.50292
931.279	297.18413
931.455	324.62032
931.631	295.07378
931.807	284.52232
931.983	246.5409
932.159	320.39917
932.335	320.39917
932.511	305.62571
932.687	337.28419
932.863	252.87071
933.039	328.84154
933.215	322.50973
933.391	248.65082
933.566	282.41208
933.742	240.21127
933.918	214.89448
934.094	246.5409
934.27	170.59702
934.445	221.22341
934.621	225.4428
934.797	227.55252
934.973	176.92467
935.148	160.05133
935.324	117.87389
935.5	88.35483
935.675	214.89448
935.851	179.03394
936.027	189.58055
936.202	179.03394
936.378	168.48784
936.553	147.39721
936.729	132.63502
936.904	75.70514
937.08	138.96154
937.255	134.74384
937.431	117.87389
937.606	181.14322
937.782	119.98255
937.957	75.70514
938.133	86.24649
938.308	75.70514
938.483	101.00532
938.659	128.41744
938.834	23.00695
939.009	117.87389
939.185	113.65661
939.36	134.74384
939.535	115.76524
939.71	60.94819
939.886	41.97663
940.061	109.43943
940.236	63.05626
940.411	25.11459
940.586	75.70514
940.761	25.11459
940.937	63.05626
941.112	113.65661
941.287	86.24649
941.462	82.02988
941.637	92.57157
941.812	58.84015
941.987	63.05626
942.162	60.94819
942.337	-17.03383
942.512	98.89685
942.687	170.59702
942.862	16.68414
943.037	67.27246
943.212	94.67998
943.386	58.84015
943.561	75.70514
943.736	88.35483
943.911	48.30027
944.086	46.19237
944.26	41.97663
944.435	12.46906
944.61	60.94819
944.785	10.36155
944.959	107.33087
945.134	12.46906
945.309	75.70514
945.483	-8.60492
945.658	48.30027
945.833	75.70514
946.007	8.25407
946.182	-17.03383
946.357	86.24649
946.531	58.84015
946.706	58.84015
946.88	63.05626
947.055	58.84015
947.229	14.57659
947.404	65.16435
947.578	39.86879
947.752	37.76098
947.927	8.25407
948.101	52.51615
948.276	67.27246
948.45	77.81336
948.624	63.05626
948.799	67.27246
948.973	33.54542
949.147	94.67998
949.321	84.13817
949.496	117.87389
949.67	54.62413
949.844	41.97663
950.018	79.92161
950.193	71.48875
950.367	-0.17561
950.541	41.97663
950.715	82.02988
950.889	117.87389
951.063	16.68414
951.237	101.00532
951.411	6.14661
951.585	29.32996
951.759	96.7884
951.933	63.05626
952.107	23.00695
952.281	67.27246
952.455	-8.60492
952.629	134.74384
952.803	54.62413
952.977	67.27246
953.151	-14.92664
953.325	-29.67646
953.499	25.11459
953.672	134.74384
953.846	107.33087
954.02	92.57157
954.194	75.70514
954.368	18.79172
954.541	101.00532
954.715	77.81336
954.889	41.97663
955.062	98.89685
955.236	88.35483
955.41	130.52622
955.583	29.32996
955.757	44.08449
955.93	37.76098
956.104	1.93177
956.278	10.36155
956.451	-12.81942
956.625	33.54542
956.798	69.38059
956.972	101.00532
957.145	101.00532
957.319	52.51615
957.492	86.24649
957.665	63.05626
957.839	75.70514
958.012	33.54542
958.185	67.27246
958.359	63.05626
958.532	18.79172
958.705	143.17933
958.879	18.79172
959.052	52.51615
959.225	33.54542
959.398	16.68414
959.572	92.57157
959.745	86.24649
959.918	16.68414
960.091	71.48875
960.264	37.76098
960.438	46.19237
960.611	86.24649
960.784	33.54542
960.957	88.35483
961.13	126.30869
961.303	-2.28298
961.476	105.22233
961.649	-8.60492
961.822	44.08449
961.995	46.19237
962.168	-48.63874
962.341	-0.17561
962.514	54.62413
962.686	27.22227
962.859	71.48875
963.032	8.25407
963.205	37.76098
963.378	27.22227
963.551	52.51615
963.723	113.65661
963.896	67.27246
964.069	69.38059
964.242	126.30869
964.414	69.38059
964.587	84.13817
964.76	77.81336
964.932	109.43943
965.105	82.02988
965.278	37.76098
965.45	29.32996
965.623	35.65319
965.795	92.57157
965.968	25.11459
966.14	73.59693
966.313	25.11459
966.485	77.81336
966.658	119.98255
966.83	10.36155
967.003	18.79172
967.175	-21.24814
967.348	52.51615
967.52	56.73213
967.692	29.32996
967.865	27.22227
968.037	50.4082
968.209	-10.71218
968.382	75.70514
968.554	71.48875
968.726	-50.74553
968.898	33.54542
969.071	56.73213
969.243	50.4082
969.415	-6.49763
969.587	67.27246
969.759	35.65319
969.932	115.76524
970.104	88.35483
970.276	88.35483
970.448	4.03918
970.62	63.05626
970.792	113.65661
970.964	67.27246
971.136	126.30869
971.308	-21.24814
971.48	-19.141
971.652	67.27246
971.824	1.93177
971.996	12.46906
972.168	31.43768
972.339	92.57157
972.511	-14.92664
972.683	16.68414
972.855	73.59693
973.027	41.97663
973.199	8.25407
973.37	88.35483
973.542	60.94819
973.714	52.51615
973.886	75.70514
974.057	60.94819
974.229	33.54542
974.401	63.05626
974.572	-0.17561
974.744	29.32996
974.915	8.25407
975.087	115.76524
975.259	33.54542
975.43	56.73213
975.602	27.22227
975.773	-35.99745
975.945	27.22227
976.116	8.25407
976.288	46.19237
976.459	16.68414
976.63	10.36155
976.802	20.89932
976.973	41.97663
977.145	29.32996
977.316	-19.141
977.487	33.54542
977.659	115.76524
977.83	50.4082
978.001	-8.60492
978.172	-46.53192
978.344	44.08449
978.515	27.22227
978.686	-8.60492
978.857	31.43768
979.028	-10.71218
979.2	-4.39031
979.371	117.87389
979.542	75.70514
979.713	37.76098
979.884	46.19237
980.055	50.4082
980.226	60.94819
980.397	-29.67646
980.568	27.22227
980.739	37.76098
980.91	-6.49763
981.081	33.54542
981.252	25.11459
981.423	92.57157
981.594	71.48875
981.765	-17.03383
981.936	33.54542
982.106	58.84015
982.277	92.57157
982.448	-6.49763
982.619	-17.03383
982.79	8.25407
982.96	33.54542
983.131	-14.92664
983.302	69.38059
983.472	31.43768
983.643	50.4082
983.814	33.54542
983.984	105.22233
984.155	48.30027
984.326	71.48875
984.496	50.4082
984.667	69.38059
984.837	84.13817
985.008	-17.03383
985.178	10.36155
985.349	58.84015
985.519	25.11459
985.69	23.00695
985.86	12.46906
986.031	20.89932
986.201	56.73213
986.371	41.97663
986.542	86.24649
986.712	-38.10439
986.882	31.43768
987.053	-38.10439
987.223	-12.81942
987.393	-12.81942
987.563	56.73213
987.734	54.62413
987.904	35.65319
988.074	60.94819
988.244	35.65319
988.414	4.03918
988.585	18.79172
988.755	71.48875
988.925	-29.67646
989.095	58.84015
989.265	-8.60492
989.435	-19.141
989.605	44.08449
989.775	48.30027
989.945	75.70514
990.115	58.84015
990.285	84.13817
990.455	50.4082
990.625	-0.17561
990.795	4.03918
990.965	33.54542
991.134	29.32996
991.304	33.54542
991.474	37.76098
991.644	-17.03383
991.814	44.08449
991.984	27.22227
992.153	-17.03383
992.323	33.54542
992.493	77.81336
992.662	50.4082
992.832	33.54542
993.002	-88.66349
993.171	48.30027
993.341	-31.78348
993.511	29.32996
993.68	27.22227
993.85	-19.141
994.019	27.22227
994.189	73.59693
994.358	-50.74553
994.528	75.70514
994.697	56.73213
994.867	23.00695
995.036	39.86879
995.206	63.05626
995.375	-23.35526
995.544	52.51615
995.714	-4.39031
995.883	16.68414
996.052	-8.60492
996.222	41.97663
996.391	88.35483
996.56	4.03918
996.73	73.59693
996.899	41.97663
997.068	82.02988
997.237	96.7884
997.406	-14.92664
997.576	58.84015
997.745	-17.03383
997.914	33.54542
998.083	27.22227
998.252	-33.89048
998.421	54.62413
998.59	-8.60492
998.759	6.14661
998.928	14.57659
999.097	63.05626
999.266	67.27246
999.435	-4.39031
999.604	29.32996
999.773	16.68414
999.942	8.25407
1000.111	-0.17561
1000.28	39.86879
1000.448	25.11459
1000.617	27.22227
1000.786	-59.17246
1000.955	-57.06577
1001.124	56.73213
1001.292	-33.89048
1001.461	60.94819
1001.63	79.92161
1001.798	25.11459
1001.967	-14.92664
1002.136	73.59693
1002.304	8.25407
1002.473	-57.06577
1002.642	-57.06577
1002.81	-2.28298
1002.979	-27.56942
1003.147	41.97663
1003.316	41.97663
1003.484	41.97663
1003.653	44.08449
1003.821	94.67998
1003.99	67.27246
1004.158	-25.46235
1004.327	23.00695
1004.495	33.54542
1004.663	-10.71218
1004.832	16.68414
1005	16.68414
1005.168	-35.99745
1005.337	33.54542
1005.505	37.76098
1005.673	37.76098
1005.842	-6.49763
1006.01	20.89932
1006.178	-67.59898
1006.346	-12.81942
1006.514	-42.31821
1006.683	-33.89048
1006.851	-2.28298
1007.019	44.08449
1007.187	63.05626
1007.355	16.68414
1007.523	44.08449
1007.691	-33.89048
1007.859	23.00695
1008.027	33.54542
1008.195	60.94819
1008.363	20.89932
1008.531	88.35483
1008.699	-0.17561
1008.867	-31.78348
1009.035	1.93177
1009.203	8.25407
1009.37	54.62413
1009.538	-35.99745
1009.706	52.51615
1009.874	-33.89048
1010.042	41.97663
1010.209	1.93177
1010.377	-2.28298
1010.545	60.94819
1010.713	73.59693
1010.88	4.03918
1011.048	41.97663
1011.216	-8.60492
1011.383	63.05626
1011.551	-14.92664
1011.718	44.08449
1011.886	27.22227
1012.054	1.93177
1012.221	41.97663
1012.389	44.08449
1012.556	77.81336
1012.724	33.54542
1012.891	16.68414
1013.058	-12.81942
1013.226	71.48875
1013.393	-35.99745
1013.561	-25.46235
1013.728	-31.78348
1013.895	23.00695
1014.063	94.67998
1014.23	23.00695
1014.397	41.97663
1014.565	8.25407
1014.732	-23.35526
1014.899	-17.03383
1015.066	-17.03383
1015.233	29.32996
1015.401	-14.92664
1015.568	-4.39031
1015.735	44.08449
1015.902	-67.59898
1016.069	84.13817
1016.236	8.25407
1016.403	77.81336
1016.57	-8.60492
1016.737	-25.46235
1016.904	-23.35526
1017.071	41.97663
1017.238	-0.17561
1017.405	27.22227
1017.572	-38.10439
1017.739	46.19237
1017.906	20.89932
1018.073	25.11459
1018.24	-19.141
1018.407	1.93177
1018.573	33.54542
1018.74	-6.49763
1018.907	77.81336
1019.074	-31.78348
1019.241	-12.81942
1019.407	75.70514
1019.574	48.30027
1019.741	33.54542
1019.907	1.93177
1020.074	23.00695
1020.241	63.05626
1020.407	1.93177
1020.574	41.97663
1020.74	8.25407
1020.907	8.25407
1021.073	-54.95905
1021.24	-29.67646
1021.406	29.32996
1021.573	-17.03383
1021.739	71.48875
1021.906	-4.39031
1022.072	33.54542
1022.239	79.92161
1022.405	-0.17561
1022.571	29.32996
1022.738	60.94819
1022.904	-42.31821
1023.07	41.97663
1023.237	46.19237
1023.403	96.7884
1023.569	29.32996
1023.735	71.48875
1023.902	29.32996
1024.068	18.79172
1024.234	-14.92664
1024.4	-0.17561
1024.566	-25.46235
1024.732	-31.78348
1024.898	16.68414
1025.065	33.54542
1025.231	75.70514
1025.397	16.68414
1025.563	-4.39031
1025.729	20.89932
1025.895	-14.92664
1026.061	12.46906
1026.227	18.79172
1026.392	73.59693
1026.558	33.54542
1026.724	-80.238
1026.89	-21.24814
1027.056	-14.92664
1027.222	-40.21131
1027.388	8.25407
1027.553	18.79172
1027.719	-8.60492
1027.885	-14.92664
1028.051	16.68414
1028.216	58.84015
1028.382	18.79172
1028.548	-23.35526
1028.713	-33.89048
1028.879	-10.71218
1029.045	33.54542
1029.21	14.57659
1029.376	33.54542
1029.541	-14.92664
1029.707	-50.74553
1029.873	-17.03383
1030.038	1.93177
1030.204	103.11382
1030.369	29.32996
1030.534	60.94819
1030.7	54.62413
1030.865	-0.17561
1031.031	27.22227
1031.196	-14.92664
1031.361	48.30027
1031.527	50.4082
1031.692	-29.67646
1031.857	8.25407
1032.023	58.84015
1032.188	6.14661
1032.353	-63.38577
1032.518	-4.39031
1032.684	60.94819
1032.849	25.11459
1033.014	1.93177
1033.179	92.57157
1033.344	18.79172
1033.509	37.76098
1033.674	84.13817
1033.839	54.62413
1034.004	-14.92664
1034.17	23.00695
1034.335	10.36155
1034.5	18.79172
1034.664	-10.71218
1034.829	-42.31821
1034.994	8.25407
1035.159	-40.21131
1035.324	88.35483
1035.489	4.03918
1035.654	-6.49763
1035.819	-0.17561
1035.984	92.57157
1036.148	-17.03383
1036.313	50.4082
1036.478	96.7884
1036.643	29.32996
1036.807	37.76098
1036.972	-14.92664
1037.137	8.25407
1037.301	-73.91861
1037.466	54.62413
1037.631	75.70514
1037.795	-8.60492
1037.96	12.46906
1038.124	-25.46235
1038.289	25.11459
1038.454	-6.49763
1038.618	-23.35526
1038.783	25.11459
1038.947	25.11459
1039.111	44.08449
1039.276	10.36155
1039.44	58.84015
1039.605	84.13817
1039.769	-17.03383
1039.933	-25.46235
1040.098	-4.39031
1040.262	-33.89048
1040.426	-38.10439
1040.591	58.84015
1040.755	-17.03383
1040.919	-57.06577
1041.083	-33.89048
1041.248	37.76098
1041.412	-25.46235
1041.576	-8.60492
1041.74	-0.17561
1041.904	37.76098
1042.068	35.65319
1042.232	33.54542
1042.397	-42.31821
1042.561	-42.31821
1042.725	67.27246
1042.889	-59.17246
1043.053	92.57157
1043.217	58.84015
1043.381	-4.39031
1043.544	-12.81942
1043.708	-0.17561
1043.872	-33.89048
1044.036	-2.28298
1044.2	50.4082
1044.364	-33.89048
1044.528	12.46906
1044.691	18.79172
1044.855	-6.49763
1045.019	-0.17561
1045.183	-12.81942
1045.346	46.19237
1045.51	-0.17561
1045.674	20.89932
1045.837	-23.35526
1046.001	-23.35526
1046.165	-8.60492
1046.328	37.76098
1046.492	-25.46235
1046.655	23.00695
1046.819	-23.35526
1046.983	-71.81209
1047.146	-42.31821
1047.31	-42.31821
1047.473	16.68414
1047.636	-12.81942
1047.8	41.97663
1047.963	-27.56942
1048.127	8.25407
1048.29	-31.78348
