Data from absorb_only_2.23.25_USB4F045381__84__0189.txt Node

Date: Sun Feb 23 19:30:15 EST 2025
User: ssocol
Spectrometer: USB4F04538
Trigger mode: 4
Integration Time (sec): 2.600000E-3
Scans to average: 1
Electric dark correction enabled: true
Nonlinearity correction enabled: true
Boxcar width: 0
XAxis mode: Wavelengths
Number of Pixels in Spectrum: 3648
>>>>>Begin Spectral Data<<<<<
345.52	-25.28676
345.736	-25.28676
345.952	-25.28676
346.168	-10.53658
346.384	-6.32202
346.6	48.47593
346.816	40.04444
347.032	18.96735
347.248	-33.71489
347.464	-8.42931
347.68	27.39791
347.896	-23.17966
348.112	31.61332
348.328	-21.07254
348.544	-40.03573
348.76	2.10739
348.975	-42.14263
349.191	-14.75104
349.407	16.85977
349.623	48.47593
349.839	-29.50088
350.055	16.85977
350.27	23.18258
350.486	-42.14263
350.702	4.2148
350.918	42.15228
351.133	59.01582
351.349	42.15228
351.565	-31.6079
351.781	2.10739
351.996	16.85977
352.212	-25.28676
352.428	56.90779
352.644	8.4297
352.859	-12.64382
353.075	-6.32202
353.291	-0
353.506	-16.85823
353.722	-42.14263
353.938	-4.2147
354.153	25.29023
354.369	-48.46317
354.584	40.04444
354.8	54.79979
355.016	-33.71489
355.231	65.34002
355.447	-2.10736
355.662	29.5056
355.878	88.53052
356.093	-48.46317
356.309	-40.03573
356.524	2.10739
356.74	-33.71489
356.955	-48.46317
357.171	82.20557
357.386	27.39791
357.602	84.31387
357.817	-84.27527
358.033	71.66443
358.248	50.58386
358.464	33.72107
358.679	-18.9654
358.895	56.90779
359.11	-73.74306
359.325	42.15228
359.541	-33.71489
359.756	-4.2147
359.972	8.4297
360.187	14.75222
360.402	8.4297
360.618	33.72107
360.833	-8.42931
361.048	61.12386
361.264	12.64469
361.479	-56.89021
361.694	10.53718
361.909	14.75222
362.125	-58.9969
362.34	16.85977
362.555	-42.14263
362.77	67.44814
362.986	37.93663
363.201	-0
363.416	44.26014
363.631	59.01582
363.847	-23.17966
364.062	-4.2147
364.277	-50.56997
364.492	16.85977
364.707	-21.07254
364.922	-29.50088
365.138	27.39791
365.353	23.18258
365.568	-27.39383
365.783	69.55627
365.998	-8.42931
366.213	-33.71489
366.428	-48.46317
366.643	-71.63655
366.858	-50.56997
367.073	10.53718
367.288	50.58386
367.503	33.72107
367.718	-48.46317
367.933	-10.53658
368.148	-10.53658
368.363	52.69182
368.578	-6.32202
368.793	27.39791
369.008	-27.39383
369.223	27.39791
369.438	37.93663
369.653	48.47593
369.868	14.75222
370.083	-0
370.298	16.85977
370.513	54.79979
370.728	-8.42931
370.943	80.0973
371.157	12.64469
371.372	-75.84956
371.587	33.72107
371.802	-25.28676
372.017	-33.71489
372.232	-48.46317
372.446	31.61332
372.661	-0
372.876	33.72107
373.091	63.23193
373.306	8.4297
373.52	46.36803
373.735	-52.67674
373.95	29.5056
374.165	-8.42931
374.379	40.04444
374.594	-23.17966
374.809	-27.39383
375.023	21.07496
375.238	-4.2147
375.453	-58.9969
375.667	16.85977
375.882	33.72107
376.097	25.29023
376.311	-12.64382
376.526	-4.2147
376.741	-67.42343
376.955	-14.75104
377.17	-14.75104
377.384	12.64469
377.599	-8.42931
377.813	18.96735
378.028	10.53718
378.242	21.07496
378.457	-6.32202
378.672	-54.78349
378.886	25.29023
379.101	59.01582
379.315	25.29023
379.53	16.85977
379.744	10.53718
379.958	16.85977
380.173	-65.31684
380.387	-25.28676
380.602	-31.6079
380.816	33.72107
381.031	-14.75104
381.245	-69.53
381.459	16.85977
381.674	52.69182
381.888	48.47593
382.103	-40.03573
382.317	-33.71489
382.531	-101.12544
382.746	-6.32202
382.96	21.07496
383.174	-8.42931
383.388	-35.82187
383.603	54.79979
383.817	31.61332
384.031	94.85568
384.246	-29.50088
384.46	48.47593
384.674	8.4297
384.888	-16.85823
385.103	29.5056
385.317	25.29023
385.531	21.07496
385.745	23.18258
385.959	2.10739
386.174	-0
386.388	6.32224
386.602	-42.14263
386.816	16.85977
387.03	-80.06246
387.244	84.31387
387.458	33.72107
387.672	37.93663
387.887	33.72107
388.101	-23.17966
388.315	-8.42931
388.529	-29.50088
388.743	25.29023
388.957	-16.85823
389.171	35.82884
389.385	84.31387
389.599	21.07496
389.813	-23.17966
390.027	33.72107
390.241	42.15228
390.455	-54.78349
390.669	-42.14263
390.883	-61.10358
391.097	75.88082
391.311	-42.14263
391.525	33.72107
391.738	-35.82187
391.952	-33.71489
392.166	12.64469
392.38	-25.28676
392.594	21.07496
392.808	-73.74306
393.022	-77.95602
393.236	37.93663
393.449	14.75222
393.663	-6.32202
393.877	-48.46317
394.091	16.85977
394.305	-50.56997
394.518	48.47593
394.732	27.39791
394.946	14.75222
395.16	2.10739
395.373	8.4297
395.587	-25.28676
395.801	-21.07254
396.015	-6.32202
396.228	16.85977
396.442	-33.71489
396.656	59.01582
396.869	-40.03573
397.083	8.4297
397.297	-25.28676
397.51	-0
397.724	59.01582
397.938	-6.32202
398.151	16.85977
398.365	-27.39383
398.578	-42.14263
398.792	-50.56997
399.005	-10.53658
399.219	35.82884
399.433	54.79979
399.646	77.98905
399.86	122.26697
400.073	25.29023
400.287	59.01582
400.5	33.72107
400.714	44.26014
400.927	-48.46317
401.141	29.5056
401.354	40.04444
401.567	50.58386
401.781	101.18103
401.994	46.36803
402.208	42.15228
402.421	33.72107
402.635	50.58386
402.848	75.88082
403.061	4.2148
403.275	-8.42931
403.488	-56.89021
403.701	8.4297
403.915	50.58386
404.128	71.66443
404.341	-63.21022
404.555	16.85977
404.768	46.36803
404.981	-88.48797
405.195	8.4297
405.408	21.07496
405.621	-4.2147
405.834	-54.78349
406.048	-0
406.261	4.2148
406.474	-10.53658
406.687	46.36803
406.9	2.10739
407.114	4.2148
407.327	10.53718
407.54	94.85568
407.753	-16.85823
407.966	8.4297
408.179	46.36803
408.392	-37.92881
408.605	46.36803
408.819	-37.92881
409.032	-4.2147
409.245	29.5056
409.458	-50.56997
409.671	-0
409.884	-0
410.097	8.4297
410.31	-8.42931
410.523	-96.91306
410.736	99.07256
410.949	-40.03573
411.162	33.72107
411.375	-0
411.588	-0
411.801	-6.32202
412.014	40.04444
412.227	-40.03573
412.44	63.23193
412.653	-8.42931
412.865	-16.85823
413.078	35.82884
413.291	-33.71489
413.504	2.10739
413.717	12.64469
413.93	18.96735
414.143	84.31387
414.356	-21.07254
414.568	-25.28676
414.781	-25.28676
414.994	33.72107
415.207	77.98905
415.42	52.69182
415.632	-21.07254
415.845	29.5056
416.058	-44.2495
416.271	35.82884
416.483	50.58386
416.696	50.58386
416.909	29.5056
417.121	-25.28676
417.334	27.39791
417.547	-46.35635
417.759	25.29023
417.972	-16.85823
418.185	52.69182
418.397	16.85977
418.61	27.39791
418.823	50.58386
419.035	50.58386
419.248	-0
419.46	31.61332
419.673	-48.46317
419.885	12.64469
420.098	67.44814
420.311	-69.53
420.523	18.96735
420.736	-46.35635
420.948	84.31387
421.161	-25.28676
421.373	10.53718
421.586	-14.75104
421.798	12.64469
422.01	-0
422.223	46.36803
422.435	77.98905
422.648	-25.28676
422.86	-0
423.073	8.4297
423.285	-0
423.497	40.04444
423.71	16.85977
423.922	21.07496
424.134	63.23193
424.347	23.18258
424.559	40.04444
424.771	63.23193
424.984	8.4297
425.196	-42.14263
425.408	2.10739
425.621	-42.14263
425.833	-31.6079
426.045	21.07496
426.257	-50.56997
426.47	37.93663
426.682	50.58386
426.894	14.75222
427.106	-14.75104
427.318	4.2148
427.531	29.5056
427.743	-33.71489
427.955	23.18258
428.167	44.26014
428.379	2.10739
428.591	-4.2147
428.804	-10.53658
429.016	101.18103
429.228	42.15228
429.44	-25.28676
429.652	-21.07254
429.864	8.4297
430.076	44.26014
430.288	61.12386
430.5	25.29023
430.712	-21.07254
430.924	16.85977
431.136	-48.46317
431.348	50.58386
431.56	21.07496
431.772	-10.53658
431.984	-58.9969
432.196	59.01582
432.408	10.53718
432.62	111.72373
432.832	27.39791
433.044	16.85977
433.256	-21.07254
433.468	2.10739
433.679	4.2148
433.891	-14.75104
434.103	33.72107
434.315	23.18258
434.527	73.77262
434.739	35.82884
434.95	12.64469
435.162	35.82884
435.374	-29.50088
435.586	-4.2147
435.798	-27.39383
436.009	56.90779
436.221	27.39791
436.433	12.64469
436.645	50.58386
436.856	29.5056
437.068	-0
437.28	-31.6079
437.491	63.23193
437.703	25.29023
437.915	29.5056
438.126	-27.39383
438.338	59.01582
438.55	-14.75104
438.761	-35.82187
438.973	56.90779
439.184	-21.07254
439.396	16.85977
439.608	35.82884
439.819	16.85977
440.031	101.18103
440.242	84.31387
440.454	12.64469
440.665	21.07496
440.877	16.85977
441.088	16.85977
441.3	-44.2495
441.511	16.85977
441.723	67.44814
441.934	-21.07254
442.146	14.75222
442.357	-4.2147
442.569	44.26014
442.78	61.12386
442.991	23.18258
443.203	-10.53658
443.414	37.93663
443.626	27.39791
443.837	6.32224
444.048	44.26014
444.26	50.58386
444.471	40.04444
444.682	2.10739
444.894	-18.9654
445.105	-4.2147
445.316	16.85977
445.528	16.85977
445.739	16.85977
445.95	25.29023
446.161	63.23193
446.373	75.88082
446.584	75.88082
446.795	-50.56997
447.006	-8.42931
447.217	67.44814
447.429	-6.32202
447.64	10.53718
447.851	16.85977
448.062	52.69182
448.273	16.85977
448.484	33.72107
448.695	25.29023
448.907	44.26014
449.118	4.2148
449.329	25.29023
449.54	-0
449.751	29.5056
449.962	-33.71489
450.173	29.5056
450.384	77.98905
450.595	-6.32202
450.806	69.55627
451.017	105.39804
451.228	-40.03573
451.439	40.04444
451.65	-4.2147
451.861	33.72107
452.072	50.58386
452.283	-0
452.494	61.12386
452.705	-29.50088
452.915	33.72107
453.126	-73.74306
453.337	40.04444
453.548	-21.07254
453.759	35.82884
453.97	44.26014
454.181	-37.92881
454.391	42.15228
454.602	-25.28676
454.813	56.90779
455.024	63.23193
455.235	69.55627
455.445	86.42218
455.656	16.85977
455.867	-25.28676
456.078	8.4297
456.288	10.53718
456.499	92.74727
456.71	-14.75104
456.921	80.0973
457.131	50.58386
457.342	107.50658
457.553	56.90779
457.763	61.12386
457.974	65.34002
458.184	69.55627
458.395	14.75222
458.606	10.53718
458.816	73.77262
459.027	50.58386
459.237	42.15228
459.448	21.07496
459.659	37.93663
459.869	61.12386
460.08	-0
460.29	-31.6079
460.501	42.15228
460.711	44.26014
460.922	-8.42931
461.132	8.4297
461.343	67.44814
461.553	84.31387
461.764	137.02842
461.974	42.15228
462.184	10.53718
462.395	120.15828
462.605	48.47593
462.816	52.69182
463.026	37.93663
463.236	44.26014
463.447	29.5056
463.657	61.12386
463.867	101.18103
464.078	84.31387
464.288	31.61332
464.498	67.44814
464.709	111.72373
464.919	67.44814
465.129	4.2148
465.339	56.90779
465.55	105.39804
465.76	147.57295
465.97	6.32224
466.18	59.01582
466.391	88.53052
466.601	65.34002
466.811	75.88082
467.021	75.88082
467.231	86.42218
467.441	65.34002
467.651	84.31387
467.862	130.70195
468.072	75.88082
468.282	130.70195
468.492	71.66443
468.702	139.13728
468.912	65.34002
469.122	92.74727
469.332	156.00896
469.542	80.0973
469.752	88.53052
469.962	122.26697
470.172	52.69182
470.382	134.91958
470.592	88.53052
470.802	92.74727
471.012	134.91958
471.222	67.44814
471.432	143.35507
471.642	151.79091
471.852	77.98905
472.062	145.464
472.272	172.88198
472.482	145.464
472.691	109.61514
472.901	33.72107
473.111	90.63889
473.321	48.47593
473.531	145.464
473.741	118.04961
473.95	158.11802
474.16	109.61514
474.37	187.64696
474.58	130.70195
474.79	105.39804
474.999	134.91958
475.209	105.39804
475.419	145.464
475.628	181.31899
475.838	219.28955
476.048	219.28955
476.258	153.89993
476.467	274.14716
476.677	204.52245
476.886	189.75633
477.096	227.72833
477.306	212.96067
477.515	286.80843
477.725	177.10045
477.935	202.41294
478.144	244.60683
478.354	227.72833
478.563	337.46008
478.773	339.57079
478.982	257.26651
479.192	320.57505
479.401	318.4645
479.611	261.48656
479.82	345.90302
480.03	352.2354
480.239	375.45547
480.449	354.34623
480.658	375.45547
480.868	329.01742
481.077	455.68561
481.287	358.56795
481.496	472.57906
481.705	312.13296
481.915	440.90465
482.124	371.23349
482.333	430.34728
482.543	426.12445
482.752	510.59283
482.961	495.80913
483.171	523.26513
483.38	495.80913
483.589	557.06041
483.799	405.01123
484.008	565.50978
484.217	586.63414
484.426	567.62216
484.636	582.40916
484.845	654.24069
485.054	658.46652
485.263	717.63293
485.472	531.71362
485.682	772.5808
485.891	696.50105
486.1	694.38792
486.309	728.19928
486.518	742.99261
486.727	740.87925
486.936	738.76589
487.146	762.01336
487.355	768.3538
487.564	749.33277
487.773	878.26818
487.982	802.17095
488.191	791.60282
488.4	835.99052
488.609	924.77741
488.818	846.55961
489.027	1024.14979
489.236	954.37611
489.445	1047.4092
489.654	931.11986
489.863	926.89155
490.072	924.77741
490.281	1136.22377
490.49	1030.4932
490.698	1108.73262
490.907	1085.4715
491.116	1064.32556
491.325	1115.07666
491.534	1301.18379
491.743	1125.65016
491.952	1195.43789
492.16	1208.12701
492.369	1328.6787
492.578	1237.73541
492.787	1275.80418
492.996	1233.5056
493.204	1461.92607
493.413	1421.74009
493.622	1428.08524
493.831	1326.5637
494.039	1447.12071
494.248	1330.79371
494.457	1411.16485
494.665	1493.65183
494.874	1464.04112
495.083	1438.6605
495.291	1531.72256
495.5	1394.24449
495.709	1563.44793
495.917	1552.87284
496.126	1609.97787
496.335	1557.10288
496.543	1652.27698
496.752	1766.479
496.96	1652.27698
497.169	1650.16205
497.377	1766.479
497.586	1673.42618
497.794	1715.72371
498.003	1597.28797
498.211	1631.12754
498.42	1728.41272
498.628	1842.60765
498.837	1774.938
499.045	1986.38856
499.254	1944.10277
499.462	2106.88859
499.671	1867.98256
499.879	2104.77476
500.087	1834.14919
500.296	2024.44362
500.504	1880.66974
500.713	2030.78592
500.921	2011.75884
501.129	2079.40815
501.338	2013.87298
501.546	1963.13168
501.754	1897.5857
501.962	2106.88859
502.171	1977.9316
502.379	2045.58438
502.587	2030.78592
502.795	2290.76089
503.004	2092.09159
503.212	2273.85586
503.42	2020.21539
503.628	2438.65318
503.837	2275.96902
504.045	2349.92371
504.253	2282.30845
504.461	2459.77651
504.669	2218.91047
504.877	2457.66422
505.085	2383.72756
505.294	2402.74108
505.502	2197.77604
505.71	2510.46799
505.918	2248.4972
506.126	2510.46799
506.334	2191.43555
506.542	2603.38516
506.75	2442.87794
506.958	2637.16746
507.166	2375.27684
507.374	2594.93909
507.582	2444.99029
507.79	2689.9459
507.998	2651.94622
508.206	2732.16288
508.414	2442.87794
508.622	2654.05742
508.83	2430.20355
509.037	2759.60109
509.245	2529.47561
509.453	2613.94246
509.661	2696.27878
509.869	2658.27978
510.077	2812.36047
510.285	2698.38971
510.492	2603.38516
510.7	2594.93909
510.908	2673.05766
511.116	2860.89149
511.324	2704.72244
511.531	2755.37997
511.739	2825.02145
511.947	2829.24167
512.155	2797.58871
512.362	2943.16596
512.57	2898.86706
512.778	2928.40038
512.985	2957.93082
513.193	3048.61307
513.401	2881.9896
513.608	2888.31875
513.816	2865.11122
514.024	3000.11211
514.231	2957.93082
514.439	2976.91314
514.646	2936.83794
514.854	3116.079
515.061	2941.05664
515.269	3143.48239
515.477	3164.56007
515.684	3269.92382
515.892	2979.02222
516.099	3105.53851
516.307	3069.6979
516.514	3305.73794
516.722	3272.03067
516.929	3196.17354
517.136	3113.97093
517.344	3255.1754
517.551	3111.86285
517.759	3375.2453
517.966	3305.73794
518.173	3398.4102
518.381	3290.99155
518.588	3497.36326
518.796	3356.29062
519.003	3484.73317
519.21	3408.939
519.418	3560.50385
519.625	3358.39677
519.832	3463.68156
520.039	3446.83899
520.247	3482.62809
520.454	3518.41195
520.661	3724.59068
520.868	3583.65124
521.076	3583.65124
521.283	3383.66915
521.49	3606.79637
521.697	3505.78296
521.904	3661.49401
522.112	3491.04829
522.319	3836.01883
522.526	3634.14678
522.733	3949.49216
522.94	3541.56341
523.147	3854.9351
523.354	3632.04302
523.561	3749.82449
523.768	3821.30506
523.975	3775.05551
524.183	3821.30506
524.39	4010.40723
524.597	3867.54505
524.804	3842.32443
525.011	4056.60716
525.218	4033.50844
525.425	3896.96548
525.632	3962.09668
525.838	3909.57303
526.045	4224.5219
526.252	3783.46523
526.459	4077.60382
526.666	3920.07877
526.873	4020.90809
527.08	3968.39867
527.287	4134.28441
527.494	3999.90585
527.701	4371.33577
527.907	3981.0021
528.114	4235.01209
528.321	4052.40758
528.528	4297.942
528.735	4186.75282
528.941	4321.01147
529.148	4174.16161
529.355	4245.50174
529.562	4037.70839
529.768	4524.32829
529.975	4058.70692
530.182	4199.34328
530.388	4054.50738
530.595	4211.93297
530.802	4153.17456
531.008	4534.80294
531.215	4341.98144
531.422	4474.04229
531.628	4509.66285
531.835	4350.36883
532.042	4218.22753
532.248	4649.98736
532.455	4396.49324
532.661	4570.41259
532.868	4446.79874
533.074	4585.07352
533.281	4526.42326
533.487	4595.54495
533.694	4547.37178
533.9	4641.61259
534.107	4706.50767
534.313	4606.01582
534.52	4450.9903
534.726	4534.80294
534.933	4417.45539
535.139	4804.8556
535.345	4618.58012
535.552	4832.04936
535.758	4846.69057
535.965	4978.41092
536.171	4693.94902
536.377	4913.60752
536.584	4675.10952
536.79	4859.23928
536.996	4836.23268
537.203	4940.78583
537.409	4790.21121
537.615	4892.69849
537.821	4942.87631
538.028	5053.6387
538.234	5057.81715
538.44	5166.42411
538.646	4781.84248
538.853	5107.95124
539.059	4903.15329
539.265	5101.68521
539.471	4842.50748
539.677	5176.86377
539.883	4961.68958
540.09	5166.42411
540.296	4999.31053
540.502	5297.92126
540.708	5147.63124
540.914	5268.70768
541.12	5375.10648
541.326	5402.21799
541.532	5316.699
541.738	5333.38873
541.944	5137.18995
542.15	5500.20338
542.356	5366.76368
542.562	5485.61311
542.768	5339.64699
542.974	5548.13474
543.18	5666.86741
543.386	5571.05403
543.592	5666.86741
543.798	5464.76785
544.004	5500.20338
544.21	5577.30425
544.415	5393.87641
544.621	5754.3056
544.827	5358.4205
545.033	5916.58035
545.239	5506.45601
545.445	5899.94339
545.651	5491.86622
545.856	5618.96696
546.062	5410.55919
546.268	5870.82508
546.474	5608.55216
546.679	5583.55425
546.885	5435.58055
547.091	5779.28029
547.297	5331.30259
547.502	5814.65528
547.708	5654.37284
547.914	5926.97768
548.119	5743.89847
548.325	5716.83719
548.531	5552.3021
548.736	6001.82107
548.942	5937.37442
549.147	5633.54668
549.353	5874.98512
549.559	6124.41506
549.764	6051.69969
549.97	5887.46468
550.175	5935.29512
550.381	6232.39616
550.586	5914.50081
550.792	5991.42798
550.997	5902.02309
551.203	6043.38753
551.408	5916.58035
551.614	6153.49314
551.819	6041.30943
552.025	6030.91858
552.23	6026.76208
552.435	6388.0266
552.641	6381.80391
552.846	6290.51358
553.052	6091.17732
553.257	6448.16851
553.462	6095.33237
553.668	6269.75947
553.873	6097.40986
554.078	6269.75947
554.283	6244.85144
554.489	6329.93995
554.694	6190.87248
554.899	6394.24909
555.105	6342.38863
555.31	6547.67081
555.515	6493.78037
555.72	6257.30588
555.925	6249.00301
556.131	6547.67081
556.336	6417.06307
556.541	6356.91103
556.746	6435.72697
556.951	6298.81457
557.156	6273.91048
557.361	6518.65483
557.567	6381.80391
557.772	6491.70735
557.977	6282.21221
558.182	6566.32155
558.387	6406.69343
558.592	6560.10485
558.797	6601.54561
559.002	6758.93651
559.207	6520.72755
559.412	6589.11435
559.617	6620.19094
559.822	6763.07658
560.027	6645.04848
560.232	6837.58234
560.437	6642.97715
560.642	6837.58234
560.847	6738.23475
561.051	6767.21657
561.256	6620.19094
561.461	6887.23644
561.666	6655.40481
561.871	6808.61139
562.076	6574.61016
562.281	6870.68653
562.485	6642.97715
562.69	6756.86644
562.895	6723.74216
563.1	6994.77557
563.305	6580.82638
563.509	6866.54882
563.714	6965.82873
563.919	6763.07658
564.123	6653.33359
564.328	6692.68283
564.533	6804.47232
564.737	6992.70808
564.942	6912.05859
565.147	7011.31463
565.351	6972.032
565.556	7073.32333
565.761	6868.61768
565.965	7042.32151
566.17	6924.46844
566.374	7093.98842
566.579	6978.23506
566.784	7114.65127
566.988	6874.82414
567.193	7300.517
567.397	7075.38994
567.602	7201.41093
567.806	6843.78981
568.011	7333.5411
568.215	7087.78913
568.42	7193.14979
568.624	7195.21511
568.828	7292.2601
569.033	6986.50549
569.237	7376.87673
569.442	7104.32012
569.646	7042.32151
569.85	7114.65127
570.055	7290.19582
570.259	7065.05667
570.463	7116.71743
570.668	7034.0535
570.872	7077.45653
571.076	7449.08142
571.281	7296.3886
571.485	7409.88789
571.689	7541.87708
571.893	7263.35818
572.098	7521.25959
572.302	7176.62645
572.506	7449.08142
572.71	7096.0548
572.914	7337.66872
573.119	7302.58118
573.323	7477.95586
573.527	7459.39421
573.731	7583.10562
573.935	7548.06191
574.139	7469.70645
574.343	7335.60492
574.547	7490.32932
574.751	7498.57787
574.955	7473.8312
575.159	7457.33169
575.364	7698.50021
575.568	7655.23504
575.772	7449.08142
575.976	7385.13004
576.18	7486.20492
576.383	7519.19772
576.587	7541.87708
576.791	7529.50684
576.995	7797.35716
577.199	7566.61523
577.403	7455.26916
577.607	7548.06191
577.811	7644.93243
578.015	7358.30549
578.219	7861.17669
578.422	7558.36952
578.626	7679.95914
578.83	7614.02142
579.034	7832.35744
579.238	7581.0444
579.442	7657.2955
579.645	7785.00268
579.849	8229.29847
580.053	7762.35085
580.257	7879.70121
580.46	7894.108
580.664	8064.8549
580.868	7679.95914
581.071	8025.78065
581.275	8011.38303
581.479	7986.69907
581.682	7729.39821
581.886	7968.18418
582.09	7887.93379
582.293	8130.64769
582.497	8009.32614
582.7	8140.92595
582.904	7955.84
583.107	8101.86588
583.311	7959.95481
583.515	8103.92185
583.718	7900.28204
583.922	8243.68123
584.125	8132.70338
584.329	8245.73583
584.532	7986.69907
584.735	8266.28074
584.939	8190.25468
585.142	8391.56234
585.346	7986.69907
585.549	8216.96963
585.753	8003.15537
585.956	8196.41997
586.159	8025.78065
586.363	8292.98619
586.566	8116.25727
586.769	8282.71526
586.973	8229.29847
587.176	8377.18944
587.379	8108.03374
587.582	8364.86906
587.786	8130.64769
587.989	8208.75
588.192	8206.69505
588.395	8559.86061
588.599	8058.68576
588.802	8506.51162
589.005	8329.95751
589.208	8366.92251
589.411	8381.29608
589.615	8391.56234
589.818	8253.95403
590.021	8440.83368
590.224	8319.68833
590.427	8600.88962
590.63	8555.7573
590.833	8674.72298
591.036	8734.18238
591.239	8715.73112
591.442	8535.23959
591.645	8529.08391
591.848	8625.50342
592.051	8576.27312
592.254	8504.45948
592.457	8602.94087
592.66	8358.70861
592.863	8633.70742
593.066	8652.16534
593.269	8961.62713
593.472	8621.40131
593.675	8795.67588
593.878	8570.11857
594.081	8935.00087
594.284	8531.13582
594.486	8693.17756
594.689	8662.41909
594.892	8855.10405
595.095	8572.1701
595.298	8728.03213
595.5	8545.49868
595.703	9045.58275
595.906	8662.41909
596.109	8973.91516
596.311	8871.49536
596.514	8896.08017
596.717	8713.68089
596.92	8975.9631
597.122	8617.29912
597.325	8916.56555
597.528	8691.12712
597.73	8783.37849
597.933	8600.88962
598.136	9004.63247
598.338	8832.56412
598.541	9152.02102
598.743	8980.05894
598.946	9061.96091
599.148	8810.022
599.351	9186.80808
599.554	8924.7592
599.756	9176.5771
599.959	9111.08874
600.161	8988.2504
600.363	8912.46862
600.566	9039.44066
600.768	8912.46862
600.971	9192.94646
601.173	9047.63008
601.376	9389.29509
601.578	9135.64893
601.78	9031.25095
601.983	9100.8546
602.185	9053.77197
602.388	9244.09374
602.59	9231.81935
602.792	9029.20348
602.995	9074.2438
603.197	8947.29028
603.399	9268.6407
603.601	8861.25092
603.804	9051.72469
604.006	8945.24209
604.208	8967.77122
604.41	8910.42012
604.613	8963.67518
604.815	9094.7139
605.017	9272.73162
605.219	8918.61399
605.421	9280.91327
605.623	9154.06745
605.826	9603.87919
606.028	9154.06745
606.23	9379.07237
606.432	9121.32245
606.634	9370.8939
606.836	9115.18228
607.038	9233.86513
607.24	9321.81753
607.442	9366.80456
607.644	9242.04805
607.846	9583.45016
608.048	9215.45257
608.25	9293.18525
608.452	9061.96091
608.654	9460.84277
608.856	9023.06096
609.058	9323.86257
609.26	9192.94646
609.462	9350.44656
609.664	9217.49847
609.866	9464.93061
610.067	9282.95864
610.269	9479.23754
610.471	9293.18525
610.673	9240.00235
610.875	9317.7274
611.077	9293.18525
611.278	8908.37161
611.48	9401.56182
611.682	9240.00235
611.884	9442.44669
612.085	9452.6669
612.287	9452.6669
612.489	9354.53616
612.69	9495.58736
612.892	9164.29937
613.094	9473.1061
613.295	9426.09353
613.497	9652.90247
613.699	9656.98734
613.9	9307.50179
614.102	9264.54971
614.304	9346.3569
614.505	9117.22902
614.707	9473.1061
614.908	9301.36623
615.11	9575.27811
615.311	9303.41143
615.513	9385.20605
615.714	9368.84924
615.916	9377.02778
616.117	9184.76192
616.319	9573.23506
616.52	9354.53616
616.722	9579.36417
616.923	9632.47719
617.124	9607.9648
617.326	9430.18192
617.527	9534.41408
617.729	9599.79351
617.93	9489.4563
618.131	9293.18525
618.333	9266.59521
618.534	9411.78365
618.735	9567.10581
618.937	9332.04255
619.138	9397.47298
619.339	9383.16151
619.54	9548.71721
619.742	9336.13245
619.943	9395.42853
620.144	9636.56237
620.345	9579.36417
620.546	9397.47298
620.748	9485.36885
620.949	9325.90759
621.15	9620.22128
621.351	9395.42853
621.552	9583.45016
621.753	9242.04805
621.954	9865.23469
622.155	9354.53616
622.356	9636.56237
622.558	9603.87919
622.759	9601.83636
622.96	9334.08751
623.161	9395.42853
623.362	9374.98317
623.563	9718.25297
623.764	9387.25058
623.965	9656.98734
624.166	9746.83888
624.366	9693.74838
624.567	9399.51741
624.768	9552.80368
624.969	9522.15363
625.17	9493.54369
625.371	9710.08502
625.572	9509.89261
625.773	9630.43458
625.973	9785.62928
626.174	9334.08751
626.375	9567.10581
626.576	9350.44656
626.777	9857.07108
626.977	9538.50077
627.178	9730.50444
627.379	9454.71089
627.58	9507.84905
627.78	9426.09353
627.981	9579.36417
628.182	9479.23754
628.382	9787.67073
628.583	9571.19199
628.784	9728.46257
628.984	9325.90759
629.185	9950.9384
629.386	9597.75064
629.586	9897.88678
629.787	9661.07215
629.987	9585.49314
630.188	9593.66487
630.388	9889.72411
630.589	9452.6669
630.79	9773.38027
630.99	9505.80548
631.191	9730.50444
631.391	9581.40717
631.591	9526.24051
631.792	9552.80368
631.992	9730.50444
632.193	9518.06669
632.393	9607.9648
632.594	9571.19199
632.794	9863.19381
632.994	9642.69002
633.195	9706.00095
633.395	9599.79351
633.595	9795.83638
633.796	9738.67178
633.996	10061.09128
634.196	9740.71358
634.397	9942.77725
634.597	9722.33686
634.797	10187.51218
634.997	9585.49314
635.198	9924.41382
635.398	9791.75358
635.598	9889.72411
635.798	9575.27811
635.998	9661.07215
636.199	9891.7648
636.399	9824.41424
636.599	9889.72411
636.799	10040.69575
636.999	9507.84905
637.199	9942.77725
637.399	9779.50485
637.599	9848.90722
637.799	9450.62289
637.999	9961.13951
638.199	9852.98918
638.399	10267.0078
638.599	9793.79499
638.799	10054.97277
638.999	9918.29242
639.199	9904.00862
639.399	9701.91682
639.599	9963.17968
639.799	9855.03014
639.999	10050.89369
640.199	9861.15291
640.399	9942.77725
640.599	9293.18525
640.799	10034.57681
640.998	9742.75536
641.198	9969.30013
641.398	9934.61588
641.598	10273.122
641.798	9955.01889
641.997	10010.09978
642.197	9789.71217
642.397	9934.61588
642.597	10059.05179
642.796	10189.55079
642.996	9893.80547
643.196	10110.03478
643.395	9738.67178
643.595	10126.34748
643.795	9936.65624
643.994	9955.01889
644.194	10236.43502
644.394	10248.6645
644.593	9967.25999
644.793	9961.13951
644.992	10012.13961
645.192	9999.90041
645.392	9840.74314
645.591	10220.12828
645.791	9883.60195
645.99	10260.89349
646.19	10048.85413
646.389	9967.25999
646.589	10067.20966
646.788	10138.58142
646.987	9979.50058
647.187	10307.7668
647.386	10089.64264
647.586	10187.51218
647.785	9838.70208
647.984	10069.24909
648.184	9995.82056
648.383	10042.73536
648.582	9830.53769
648.782	10366.85785
648.981	10071.28851
649.18	10079.44604
649.38	10193.62797
649.579	10476.86007
649.778	10189.55079
649.977	10460.56583
650.177	10338.33253
650.376	10407.60384
650.575	10165.08657
650.774	10130.42552
650.973	10244.58806
651.173	10177.31893
651.372	10073.32792
651.571	10297.57755
651.77	10169.16408
651.969	10458.52899
652.168	10114.11304
652.367	10085.56404
652.566	10130.42552
652.765	9959.09931
652.964	10250.7027
653.163	10248.6645
653.362	10338.33253
653.561	10425.93783
653.76	10146.7371
653.959	10134.5035
654.158	10385.1942
654.357	10099.83889
654.556	10046.81456
654.755	10570.53614
654.954	10358.70802
655.153	10275.16003
655.352	10244.58806
655.551	10358.70802
655.749	10175.28024
655.948	10462.60265
656.147	10427.97487
656.346	10305.72898
656.545	10024.3783
656.743	10260.89349
656.942	10044.77497
657.141	10281.27406
657.34	10091.68192
657.538	10383.15688
657.737	9959.09931
657.936	10672.32796
658.135	9877.47966
658.333	10120.23032
658.532	10209.93613
658.731	10089.64264
658.929	10016.21923
659.128	10236.43502
659.326	10071.28851
659.525	10562.39146
659.724	10038.65612
659.922	10523.70146
660.121	10411.67815
660.319	10301.65329
660.518	10130.42552
660.716	10393.34334
660.915	10138.58142
661.113	10468.71305
661.312	10305.72898
661.51	10480.9335
661.709	10116.15215
661.907	10415.75241
662.105	10161.00901
662.304	10330.18196
662.502	10309.80461
662.701	10395.38059
662.899	10132.46452
663.097	10442.23382
663.296	10024.3783
663.494	10448.34461
663.692	10150.81486
663.891	10287.38797
664.089	10130.42552
664.287	10301.65329
664.485	10185.47356
664.684	10393.34334
664.882	10269.04588
665.08	10409.641
665.278	10148.77599
665.476	10167.12534
665.675	10305.72898
665.873	10158.97021
666.071	10313.88018
666.269	10224.20505
666.467	9736.62997
666.665	10167.12534
666.863	10181.39627
667.061	10340.37014
667.259	10273.122
667.457	10401.49227
667.655	10032.53714
667.853	10293.50176
668.051	10236.43502
668.249	10230.32009
668.447	10165.08657
668.645	10216.05146
668.843	10348.52044
669.041	10366.85785
669.239	9950.9384
669.437	10476.86007
669.635	10260.89349
669.833	10364.82042
670.031	10093.72118
670.229	10546.10148
670.426	10395.38059
670.624	10362.78297
670.822	10191.58939
671.02	10220.12828
671.218	10252.74088
671.415	10370.93269
671.613	10126.34748
671.811	10089.64264
672.009	10008.05993
672.206	10050.89369
672.404	10032.53714
672.602	10059.05179
672.799	10014.17943
672.997	10069.24909
673.195	9855.03014
673.392	10450.38151
673.59	10069.24909
673.788	10209.93613
673.985	10091.68192
674.183	10134.5035
674.38	10110.03478
674.578	10061.09128
674.775	10130.42552
674.973	10116.15215
675.17	10093.72118
675.368	10057.01228
675.565	9987.66068
675.763	9814.2082
675.96	9781.54634
676.158	9959.09931
676.355	9740.71358
676.553	10309.80461
676.75	9977.46052
676.947	10138.58142
677.145	9826.45541
677.342	10487.04355
677.539	10124.30844
677.737	10395.38059
677.934	9983.58066
678.131	10322.03118
678.329	9806.0431
678.526	9987.66068
678.723	10054.97277
678.92	10218.08988
679.118	9701.91682
679.315	9952.97865
679.512	9938.69659
679.709	10244.58806
679.906	10003.9802
680.104	10010.09978
680.301	9863.19381
680.498	9869.31641
680.695	9869.31641
680.892	9989.70067
681.089	9816.24944
681.286	10181.39627
681.483	9952.97865
681.68	9836.661
681.877	9505.80548
682.075	9773.38027
682.272	9595.70777
682.469	10146.7371
682.665	9626.34931
682.862	9763.17235
683.059	9663.11453
683.256	9991.74065
683.453	9516.02319
683.65	9724.37878
683.847	9654.94491
684.044	9771.33872
684.241	9563.01957
684.438	9934.61588
684.635	9693.74838
684.831	9738.67178
685.028	9462.8867
685.225	9597.75064
685.422	9681.49525
685.619	9691.70623
685.815	9656.98734
686.012	9846.86623
686.209	9513.97968
686.405	9989.70067
686.602	9569.14891
686.799	9464.93061
686.996	9732.5463
687.192	9755.00574
687.389	9652.90247
687.586	9808.08439
687.782	9734.58814
687.979	9797.87775
688.175	9616.13585
688.372	9765.21396
688.568	9446.53482
688.765	9469.01839
688.962	9567.10581
689.158	9501.71828
689.355	9223.63609
689.551	9624.30665
689.748	9242.04805
689.944	9481.28133
690.14	9415.87227
690.337	9569.14891
690.533	9616.13585
690.73	9583.45016
690.926	9624.30665
691.123	9659.02975
691.319	9293.18525
691.515	9407.69497
691.712	9395.42853
691.908	9438.3585
692.104	9317.7274
692.301	9610.00759
692.497	9405.6506
692.693	9297.27577
692.889	9419.96082
693.086	9307.50179
693.282	9248.18507
693.478	9728.46257
693.674	9430.18192
693.87	9558.93326
694.067	9469.01839
694.263	9477.19375
694.459	9180.66954
694.655	9501.71828
694.851	9199.08469
695.047	9374.98317
695.243	9311.59209
695.439	9368.84924
695.635	9113.13552
695.831	9280.91327
696.027	9370.8939
696.224	9297.27577
696.42	9211.3607
696.615	9321.81753
696.811	9147.9281
697.007	9336.13245
697.203	9039.44066
697.399	9244.09374
697.595	9182.71574
697.791	9393.38407
697.987	9471.06225
698.183	9362.71516
698.379	9240.00235
698.575	9607.9648
698.77	9174.53086
698.966	9233.86513
699.162	9061.96091
699.358	9064.0081
699.554	8906.32308
699.749	9047.63008
699.945	8699.32875
700.141	9162.25302
700.337	8814.12073
700.532	9184.76192
700.728	8797.72538
700.924	9194.99256
701.119	9289.09466
701.315	9295.23052
701.511	9100.8546
701.706	9127.46247
701.902	8971.8672
702.097	9385.20605
702.293	9274.77706
702.489	9223.63609
702.684	8773.13017
702.88	8865.34875
703.075	9041.48804
703.271	8805.9232
703.466	8959.57906
703.662	8986.20256
703.857	8838.71159
704.053	9043.53541
704.248	8986.20256
704.443	9387.25058
704.639	8930.90426
704.834	9149.97457
705.03	9084.47907
705.225	8855.10405
705.42	8721.88171
705.616	9109.04194
705.811	8973.91516
706.006	8910.42012
706.202	8764.93118
706.397	8766.98096
706.592	8814.12073
706.787	9068.10244
706.983	8822.31797
707.178	9104.9483
707.373	8996.44158
707.568	9018.96587
707.763	9145.88161
707.959	8957.53097
708.154	8777.22955
708.349	8752.63216
708.544	8687.0262
708.739	8898.12879
708.934	8633.70742
709.129	8947.29028
709.324	8654.21613
709.519	9004.63247
709.714	8650.11454
709.909	9043.53541
710.104	8670.62176
710.299	8701.37911
710.494	8572.1701
710.689	8859.20198
710.884	8604.9921
711.079	8937.04915
711.274	8598.83834
711.469	8889.93421
711.664	8775.17987
711.859	9018.96587
712.054	8879.69058
712.249	8717.78133
712.443	8397.72187
712.638	8520.87607
712.833	8282.71526
713.028	8668.57112
713.223	8329.95751
713.417	8520.87607
713.612	8543.4469
713.807	8709.58037
714.002	8662.41909
714.196	8945.24209
714.391	8738.28246
714.586	8652.16534
714.78	8535.23959
714.975	8596.78705
715.17	8518.82406
715.364	8805.9232
715.559	8654.21613
715.754	8563.96385
715.948	8038.12068
716.143	8455.2024
716.337	8251.89951
716.532	8758.78175
716.726	8563.96385
716.921	8762.88139
717.115	8379.24277
717.31	8639.86023
717.504	8539.34328
717.699	8693.17756
717.893	8169.70244
718.088	8522.92806
718.282	8428.51689
718.476	8615.248
718.671	8387.4559
718.865	8449.0445
719.059	8299.14852
719.254	8539.34328
719.448	8175.86832
719.642	8368.97593
719.837	8399.77501
720.031	8563.96385
720.225	8177.92358
720.419	8301.20259
720.614	8192.3098
720.808	8362.8156
721.002	8134.75905
721.196	8342.27987
721.39	8212.85986
721.585	8340.2262
721.779	8249.84497
721.973	8276.55246
722.167	8198.47502
722.361	8235.46263
722.555	8001.0984
722.749	8262.17192
722.943	8157.37014
723.137	8280.66101
723.331	7758.23206
723.525	8132.70338
723.719	7828.24007
723.913	8313.5266
724.107	8003.15537
724.301	8465.4652
724.495	7966.12687
724.689	8223.13414
724.883	7828.24007
725.077	7914.68739
725.271	7589.28917
725.465	8017.55356
725.659	7712.91987
725.853	8198.47502
726.046	7966.12687
726.24	8103.92185
726.434	7951.72511
726.628	8103.92185
726.822	7651.11406
727.015	8258.06301
727.209	7721.1592
727.403	7996.98441
727.596	7607.83865
727.79	7622.26483
727.984	7914.68739
728.177	8027.83737
728.371	7745.8752
728.565	8075.13638
728.758	7929.09174
728.952	8017.55356
729.146	7791.18002
729.339	8029.89407
729.533	7855.00148
729.726	8190.25468
729.92	8149.14821
730.113	8251.89951
730.307	8315.58053
730.5	7865.29339
730.694	7887.93379
730.887	8124.48049
731.081	7762.35085
731.274	8099.80988
731.468	7883.81754
731.661	8157.37014
731.854	7912.62955
732.048	7984.64194
732.241	7844.70905
732.435	8029.89407
732.628	8179.97881
732.821	8046.34695
733.014	7889.99188
733.208	8081.30503
733.401	7828.24007
733.594	7704.68019
733.788	7778.82516
733.981	7799.41617
734.174	7877.64301
734.367	7700.56023
734.56	7667.59747
734.754	7813.82863
734.947	7572.79929
735.14	7807.65199
735.333	7820.00509
735.526	7902.34001
735.719	7943.49508
735.912	8036.06405
736.105	7801.47515
736.298	7795.29813
736.491	7787.06182
736.684	7813.82863
736.877	7762.35085
737.07	7770.58817
737.263	7795.29813
737.456	7865.29339
737.649	7741.75608
737.842	7865.29339
738.035	7778.82516
738.228	7883.81754
738.421	7778.82516
738.614	7832.35744
738.807	7669.6578
739	7508.88806
739.192	7393.383
739.385	7510.95004
739.578	7605.77768
739.771	7813.82863
739.964	7576.92189
740.156	7488.26713
740.349	7292.2601
740.542	7605.77768
740.735	7467.64405
740.927	7729.39821
741.12	7378.94009
741.313	7473.8312
741.505	7296.3886
741.698	7385.13004
741.891	7341.79625
742.083	7527.44506
742.276	7572.79929
742.468	7517.13583
742.661	7632.5686
742.854	7414.01389
743.046	7659.35593
743.239	7766.46956
743.431	7525.38326
743.624	7339.73249
743.816	7469.70645
744.009	7469.70645
744.201	7387.19331
744.393	7149.773
744.586	7378.94009
744.778	7343.85998
744.971	7352.11469
745.163	7543.93871
745.355	7463.51917
745.548	7329.4134
745.74	7308.77356
745.932	7273.68079
746.125	7552.18502
746.317	7539.81542
746.509	7352.11469
746.702	7568.67661
746.894	7286.0672
747.086	7706.74014
747.278	7393.383
747.471	7294.32436
747.663	7284.00285
747.855	7096.0548
748.047	7191.08445
748.239	7219.99719
748.431	7151.83878
748.623	7490.32932
748.815	7385.13004
749.008	7292.2601
749.2	7469.70645
749.392	7374.81334
749.584	7135.31189
749.776	7453.2066
749.968	7191.08445
750.16	7560.43098
750.352	7151.83878
750.544	7201.41093
750.736	7182.82287
750.928	7364.4961
751.12	7180.75742
751.311	7048.52227
751.503	7203.47616
751.695	7112.58508
751.887	6885.16778
752.079	7236.51681
752.271	6965.82873
752.463	7335.60492
752.654	7168.36425
752.846	7062.98995
753.038	7149.773
753.23	7401.63562
753.421	7025.78514
753.613	6934.80936
753.805	7102.25382
753.997	6845.85893
754.188	7110.51888
754.38	7048.52227
754.572	7133.24593
754.763	7093.98842
754.955	6928.60488
755.146	7056.78965
755.338	6974.09971
755.53	7151.83878
755.721	6978.23506
755.913	7137.37783
756.104	7112.58508
756.296	7029.91936
756.487	7019.58363
756.679	7085.72265
756.87	6700.96582
757.062	6560.10485
757.253	6825.16676
757.445	6767.21657
757.636	6707.17783
757.827	6833.4439
758.019	6680.25765
758.21	6584.97041
758.401	6481.34189
758.593	6549.74321
758.784	6734.09413
758.975	6930.67306
759.167	6655.40481
759.358	6775.49626
759.549	6549.74321
759.74	6514.50932
759.932	6597.40195
760.123	6574.61016
760.314	6787.91512
760.505	6535.23595
760.696	6307.11518
760.888	6787.91512
761.079	6381.80391
761.27	6823.09742
761.461	6616.0477
761.652	6657.47601
761.843	6589.11435
762.034	6502.07223
762.225	6356.91103
762.416	6433.65329
762.607	6124.41506
762.798	6388.0266
762.989	6273.91048
763.18	6516.58208
763.371	6219.94004
763.562	6213.71167
763.753	6325.7902
763.944	6419.13693
764.135	6340.31391
764.326	6261.45717
764.517	6456.46242
764.708	6271.83498
764.899	6116.10619
765.089	6240.69978
765.28	6259.38153
765.471	6381.80391
765.662	6070.40068
765.853	6157.64677
766.043	5941.53295
766.234	6161.80032
766.425	6136.87766
766.615	6236.54802
766.806	5999.7425
766.997	6101.56476
767.187	5951.92887
767.378	6323.71529
767.569	5949.84973
767.759	6126.49222
767.95	5858.34439
768.141	6005.97814
768.331	5939.4537
768.522	5983.11308
768.712	6099.48732
768.903	6051.69969
769.093	5964.40319
769.284	5860.42457
769.474	5989.34929
769.665	5949.84973
769.855	5818.8166
770.046	5931.13645
770.236	5866.66495
770.426	5902.02309
770.617	6060.01148
770.807	5970.64003
770.998	5899.94339
771.188	5912.42125
771.378	5920.73935
771.569	5845.86285
771.759	5829.21948
771.949	5829.21948
772.139	6101.56476
772.33	5891.62435
772.52	5666.86741
772.71	5816.73595
772.9	5941.53295
773.09	5966.48216
773.281	5835.46092
773.471	5872.90511
773.661	5941.53295
773.851	5725.16416
774.041	5666.86741
774.231	5735.57235
774.421	5560.63652
774.611	5712.67356
774.802	5637.7121
774.992	5858.34439
775.182	5591.88727
775.372	5641.87743
775.562	5583.55425
775.752	5575.22086
775.942	5571.05403
776.131	5475.19077
776.321	5485.61311
776.511	5533.54825
776.701	5510.6243
776.891	5671.03208
777.081	5262.44704
777.271	5575.22086
777.461	5233.22789
777.651	5537.71594
777.84	5274.96812
778.03	5485.61311
778.22	5612.71815
778.41	5304.18072
778.599	5295.83473
778.789	5521.04463
778.979	5362.59214
779.169	5391.79096
779.358	5391.79096
779.548	5504.37182
779.738	5295.83473
779.927	5368.84942
780.117	5160.16003
780.307	5226.96605
780.496	5141.36654
780.686	5285.40172
780.875	5191.47832
781.065	5110.03987
781.254	4940.78583
781.444	5003.49017
781.633	5026.47657
781.823	5181.03947
782.012	5024.38701
782.202	5009.75947
782.391	5110.03987
782.581	4932.42369
782.77	4869.69591
782.96	4930.33309
783.149	4867.60463
783.338	5066.17376
783.528	4857.14788
783.717	5133.01327
783.906	4859.23928
784.096	5059.90633
784.285	4773.4734
784.474	4882.24312
784.663	4639.51884
784.853	4957.50901
785.042	4626.95588
785.231	4924.06117
785.42	4633.23746
785.61	4865.51333
785.799	4622.76805
785.988	4610.20401
786.177	4643.70632
786.366	4574.60154
786.555	4689.76262
786.744	4765.10395
786.933	4344.07832
787.122	4637.42507
787.312	4543.18226
787.501	4708.6007
787.69	4538.99264
787.879	4783.9347
788.068	4547.37178
788.257	4752.5491
788.445	4591.35645
788.634	4798.57957
788.823	4689.76262
789.012	4716.97259
789.201	4641.61259
789.39	4580.8848
789.579	4507.5677
789.768	4752.5491
789.957	4427.93565
790.145	4727.43694
790.334	4597.63917
790.523	4716.97259
790.712	4515.94817
790.9	4622.76805
791.089	4568.31808
791.278	4618.58012
791.467	4582.97917
791.655	4637.42507
791.844	4562.03443
792.033	4526.42326
792.221	4222.4238
792.41	4413.26314
792.599	4241.30594
792.787	4453.08604
792.976	4279.06505
793.164	4295.84465
793.353	4211.93297
793.541	4482.42417
793.73	4230.81608
793.918	4291.64988
794.107	4090.20082
794.295	4228.71804
794.484	4312.62287
794.672	4258.08863
794.861	4205.63822
795.049	4276.96751
795.238	4165.76704
795.426	4417.45539
795.614	4362.94925
795.803	4509.66285
795.991	4423.74362
796.179	4484.51959
796.368	4144.77915
796.556	4253.89308
796.744	4121.69004
796.932	4186.75282
797.121	4010.40723
797.309	4188.85128
797.497	4027.20835
797.685	4033.50844
797.874	4012.50744
798.062	4365.04592
798.25	3888.56004
798.438	4266.47945
798.626	3861.24016
798.814	4144.77915
799.002	4058.70692
799.19	4004.10647
799.378	4014.60763
799.566	4176.26019
799.755	3930.58401
799.943	4052.40758
800.131	3867.54505
800.318	4077.60382
800.506	3737.20794
800.694	4018.80795
800.882	3833.91692
801.07	4062.90637
801.258	3924.28093
801.446	4161.56963
801.634	3733.00226
801.822	3806.59033
802.01	4012.50744
802.197	4195.14654
802.385	3655.18339
802.573	3772.95304
802.761	3693.0445
802.949	3997.80552
803.136	3850.73162
803.324	4123.78916
803.512	3880.15429
803.699	4186.75282
803.887	3793.97693
804.075	4018.80795
804.262	4094.39965
804.45	4115.39257
804.638	3749.82449
804.825	4203.53993
805.013	3999.90585
805.201	3976.80104
805.388	3951.59297
805.576	4098.59841
805.763	4245.50174
805.951	4153.17456
806.138	4071.30504
806.326	4222.4238
806.513	3930.58401
806.701	4104.89638
806.888	3985.20307
807.075	4224.5219
807.263	3859.1385
807.45	4264.38178
807.638	3901.16808
807.825	4203.53993
808.012	3936.88691
808.2	4020.90809
808.387	3810.79464
808.574	4073.40465
808.761	3857.03681
808.949	4025.10829
809.136	3829.71305
809.323	3934.78596
809.51	3789.77231
809.698	4025.10829
809.885	3768.74802
810.072	3920.07877
810.259	3676.2181
810.446	3894.86415
810.633	3808.69249
810.82	3943.18963
811.008	3951.59297
811.195	3993.60479
811.382	4062.90637
811.569	4127.98732
811.756	4020.90809
811.943	3743.5163
812.13	4056.60716
812.317	4199.34328
812.504	3970.49929
812.691	4086.0019
812.878	3905.3706
813.064	4144.77915
813.251	3989.40397
813.438	4222.4238
813.625	3943.18963
813.812	4127.98732
813.999	3888.56004
814.186	4102.79707
814.372	3920.07877
814.559	4127.98732
814.746	3705.66349
814.933	3947.39134
815.12	3842.32443
815.306	4010.40723
815.493	3943.18963
815.68	3852.83337
815.866	3804.48814
816.053	3934.78596
816.24	3882.25576
816.426	4006.20674
816.613	3768.74802
816.799	4102.79707
816.986	3785.56761
817.173	3842.32443
817.359	3568.92134
817.546	3861.24016
817.732	3850.73162
817.919	3997.80552
818.105	3686.73474
818.292	4096.49904
818.478	3800.28372
818.665	3978.90158
818.851	3812.89676
819.037	4016.7078
819.224	3613.10829
819.41	3827.61108
819.597	3684.63145
819.783	3867.54505
819.969	3638.35426
820.156	3785.56761
820.342	3728.79651
820.528	3737.20794
820.714	3575.23426
820.901	3667.80445
821.087	3726.6936
821.273	3688.83801
821.459	3678.32147
821.646	3733.00226
821.832	3724.59068
822.018	3825.50909
822.204	3566.81699
822.39	3922.17986
822.576	3611.00433
822.762	3714.07577
822.948	3634.14678
823.134	3930.58401
823.32	3594.17203
823.507	3751.92719
823.693	3594.17203
823.879	3804.48814
824.065	3429.99526
824.25	3524.72621
824.436	3682.52815
824.622	3661.49401
824.808	3568.92134
824.994	3833.91692
825.18	3476.31274
825.366	3775.05551
825.552	3535.24959
825.738	3680.42482
825.923	3432.10079
826.109	3541.56341
826.295	3331.01553
826.481	3566.81699
826.667	3221.46165
826.852	3318.37705
827.038	3257.28237
827.224	3564.71263
827.409	3280.45789
827.595	3396.30439
827.781	3320.4835
827.966	3366.82118
828.152	3135.05086
828.338	3615.21222
828.523	3539.45882
828.709	3575.23426
828.894	3520.51672
829.08	3476.31274
829.266	3177.2059
829.451	3396.30439
829.637	3223.56888
829.822	3339.44084
830.008	3303.63137
830.193	3343.65339
830.378	3196.17354
830.564	3400.516
830.749	3147.69805
830.935	3185.63612
831.12	3128.72705
831.305	3137.15877
831.491	2928.40038
831.676	3349.97208
831.861	3120.29508
832.047	3063.37261
832.232	2913.63408
832.417	3135.05086
832.602	3046.5045
832.788	3160.34466
832.973	3002.22101
833.158	3189.85114
833.343	2995.89425
833.528	3143.48239
833.714	3010.65648
833.899	3328.90916
834.084	3092.8894
834.269	3094.99763
834.454	3023.30923
834.639	3274.1375
834.824	3118.18705
835.009	3206.71054
835.194	3065.48106
835.379	3341.54712
835.564	2991.67633
835.749	3204.60317
835.934	3014.87413
836.119	3071.8063
836.304	2810.25026
836.489	3029.6354
836.674	2797.58871
836.859	3042.28732
837.044	2763.82215
837.228	2966.36756
837.413	2727.94142
837.598	2974.80406
837.783	2607.60812
837.968	2917.85309
838.152	2666.72436
838.337	2979.02222
838.522	2799.699
838.707	3103.43037
838.891	2696.27878
839.076	2713.16588
839.261	2763.82215
839.445	2922.07205
839.63	2689.9459
839.815	2806.0298
839.999	2704.72244
840.184	2797.58871
840.368	2698.38971
840.553	2704.72244
840.737	2658.27978
840.922	2793.36808
841.106	2459.77651
841.291	2628.72218
841.475	2535.81128
841.66	2639.27875
841.844	2597.05063
842.029	2831.35175
842.213	2552.70589
842.397	2774.37457
842.582	2491.45944
842.766	2708.94419
842.951	2478.78656
843.135	2594.93909
843.319	2563.26463
843.504	2628.72218
843.688	2345.69805
843.872	2468.22553
844.056	2487.23519
844.241	2683.61291
844.425	2552.70589
844.609	2548.48231
844.793	2311.89134
844.977	2406.96619
845.161	2335.13372
845.346	2476.67438
845.53	2358.37491
845.714	2362.60046
845.898	2221.02386
846.082	2316.11731
846.266	2347.81088
846.45	2512.57999
846.634	2259.06347
846.818	2402.74108
847.002	2256.95023
847.186	2409.07873
847.37	2218.91047
847.554	2286.53469
847.738	2172.41361
847.922	2425.97867
848.106	2244.27063
848.29	2362.60046
848.473	2115.34386
848.657	2273.85586
848.841	2113.23005
849.025	2254.83699
849.209	2113.23005
849.392	2360.48769
849.576	2202.003
849.76	2297.10012
849.944	2214.68365
850.127	2026.55773
850.311	1897.5857
850.495	2077.29422
850.678	2018.10126
850.862	2309.77833
851.046	1973.70308
851.229	2151.27734
851.413	1963.13168
851.596	2062.4965
851.78	1963.13168
851.964	2022.32951
852.147	1861.63889
852.331	2062.4965
852.514	1865.86801
852.698	2032.90001
852.881	1804.54402
853.065	2111.11624
853.248	1749.5608
853.431	1874.32617
853.615	1681.88578
853.798	1903.92909
853.982	1825.69066
854.165	1925.07339
854.348	2020.21539
854.532	2096.31934
854.715	1963.13168
854.898	1918.73016
855.081	1736.87199
855.265	1961.01738
855.448	1719.95339
855.631	1808.77338
855.814	1656.50684
855.997	1954.67445
856.181	1859.52433
856.364	1946.21712
856.547	1766.479
856.73	1815.1174
856.913	1791.85583
857.096	2104.77476
857.279	1855.29519
857.462	1836.26381
857.645	1834.14919
857.828	1876.4407
858.011	1664.96653
858.194	1878.55522
858.377	1724.18306
858.56	1774.938
858.743	1658.62177
858.926	1758.01993
859.109	1639.58735
859.292	1726.29789
859.475	1707.2643
859.658	1671.31127
859.841	1580.368
860.023	1703.03457
860.206	1504.22705
860.389	1798.19994
860.572	1565.56294
860.755	1495.76687
860.937	1546.52777
861.12	1529.60753
861.303	1449.23576
861.486	1529.60753
861.668	1434.43039
861.851	1540.18269
862.034	1256.76969
862.216	1684.00067
862.399	1267.34438
862.581	1457.69597
862.764	1286.37898
862.947	1533.83759
863.129	1275.80418
863.312	1351.94384
863.494	1394.24449
863.677	1565.56294
863.859	1390.01441
864.042	1554.98786
864.224	1381.55426
864.406	1514.80227
864.589	1273.68922
864.771	1459.81102
864.954	1292.72388
865.136	1419.62504
865.318	1320.2187
865.501	1574.02299
865.683	1286.37898
865.865	1404.81971
866.048	1206.01215
866.23	1275.80418
866.412	1227.16091
866.594	1343.48377
866.777	1347.71381
866.959	1387.89937
867.141	1265.22943
867.323	1284.26401
867.505	1125.65016
867.687	1318.1037
867.869	1269.45932
868.052	1309.64373
868.234	1159.48609
868.416	1474.61638
868.598	1161.60087
868.78	1497.88192
868.962	1258.88462
869.144	1430.20029
869.326	1093.93002
869.508	1345.59879
869.69	1153.14177
869.872	1288.49394
870.054	1244.08014
870.236	1138.33851
870.417	1335.02372
870.599	1210.24188
870.781	1241.96523
870.963	1193.32305
871.145	1144.68274
871.327	1138.33851
871.508	1091.81538
871.69	1108.73262
871.872	956.49035
872.054	1256.76969
872.235	967.06169
872.417	1186.97855
872.599	1024.14979
872.78	1184.86372
872.962	1072.78387
873.144	1085.4715
873.325	1131.99431
873.507	1178.51926
873.689	1074.89846
873.87	1098.15931
874.052	962.83314
874.233	1136.22377
874.415	1030.4932
874.596	1159.48609
874.778	933.23403
874.959	1157.37131
875.141	1045.29468
875.322	1277.91913
875.503	1127.76487
875.685	1326.5637
875.866	1117.19135
876.048	1199.66758
876.229	1117.19135
876.41	1013.57757
876.592	962.83314
876.773	954.37611
876.954	903.63637
877.136	1100.27396
877.317	1121.42075
877.498	1174.28964
877.679	1003.00551
877.86	1074.89846
878.042	1064.32556
878.223	1305.41376
878.404	1049.52372
878.585	1212.35674
878.766	1011.46315
878.947	1301.18379
879.128	950.14763
879.309	1045.29468
879.49	1007.23431
879.672	1180.63408
879.853	1005.11991
880.034	1157.37131
880.215	880.38215
880.396	1231.3907
880.576	945.91919
880.757	1229.27581
880.938	1064.32556
881.119	1195.43789
881.3	1079.12766
881.481	1102.38862
881.662	1115.07666
881.843	1068.55471
882.023	945.91919
882.204	1096.04466
882.385	964.94741
882.566	1235.6205
882.747	1112.96198
882.927	1163.71566
883.108	1131.99431
883.289	1066.44013
883.469	1062.211
883.65	1244.08014
883.831	1036.83665
884.011	1231.3907
884.192	1089.70075
884.373	1225.04602
884.553	1064.32556
884.734	1189.09338
884.914	945.91919
885.095	1089.70075
885.275	865.58452
885.456	1106.61795
885.636	1085.4715
885.817	1136.22377
885.997	1055.86733
886.178	1121.42075
886.358	956.49035
886.538	983.97619
886.719	1026.26425
886.899	935.34821
887.08	920.54914
887.26	1199.66758
887.44	983.97619
887.621	1157.37131
887.801	948.03341
887.981	1051.63825
888.161	945.91919
888.342	1089.70075
888.522	1098.15931
888.702	1208.12701
888.882	1022.03534
889.062	1003.00551
889.242	1055.86733
889.423	1235.6205
889.603	1057.98188
889.783	1195.43789
889.963	929.0057
890.143	1100.27396
890.323	920.54914
890.503	1129.87959
890.683	1079.12766
890.863	1146.79749
891.043	969.17598
891.223	1108.73262
891.403	1013.57757
891.583	1081.24227
891.763	1100.27396
891.943	1184.86372
892.122	1026.26425
892.302	1178.51926
892.482	850.78731
892.662	1138.33851
892.842	899.40826
893.022	859.24281
893.201	979.74753
893.381	1015.692
893.561	931.11986
893.741	1091.81538
893.92	855.01504
894.1	1157.37131
894.28	1047.4092
894.459	1038.95115
894.639	958.60461
894.819	1022.03534
894.998	926.89155
895.178	988.20488
895.357	918.43502
895.537	1070.66929
895.716	954.37611
895.896	1051.63825
896.075	852.90117
896.255	967.06169
896.434	844.44577
896.614	937.46239
896.793	852.90117
896.973	933.23403
897.152	871.92631
897.331	954.37611
897.511	916.3209
897.69	931.11986
897.87	802.17095
898.049	884.61012
898.228	852.90117
898.407	840.21813
898.587	755.67302
898.766	755.67302
898.945	696.50105
899.124	802.17095
899.304	677.48332
899.483	918.43502
899.662	806.39826
899.841	878.26818
900.02	734.53922
900.199	827.5354
900.378	827.5354
900.557	895.18018
900.737	852.90117
900.916	797.94367
901.095	692.27481
901.274	738.76589
901.453	704.95367
901.632	831.76294
901.811	563.39742
901.989	586.63414
902.168	660.57945
902.347	580.2967
902.526	624.66125
902.705	544.38677
902.884	476.80258
903.063	645.78918
903.242	548.61126
903.42	605.64718
903.599	557.06041
903.778	584.52165
903.957	506.36885
904.135	641.5635
904.314	500.03297
904.493	641.5635
904.672	508.48083
904.85	654.24069
905.029	557.06041
905.207	542.27454
905.386	476.80258
905.565	557.06041
905.743	415.56764
905.922	599.30939
906.1	474.69081
906.279	599.30939
906.457	413.45632
906.636	506.36885
906.814	375.45547
906.993	487.36163
907.171	445.1277
907.35	481.02615
907.528	392.34408
907.707	470.46733
907.885	388.12183
908.063	438.79314
908.242	333.23872
908.42	413.45632
908.598	331.12806
908.777	466.24391
908.955	369.12252
909.133	493.69724
909.311	381.78858
909.49	318.4645
909.668	286.80843
909.846	432.45872
910.024	367.01157
910.202	396.5664
910.38	390.23295
910.559	468.35561
910.737	455.68561
910.915	497.92105
911.093	531.71362
911.271	455.68561
911.449	396.5664
911.627	506.36885
911.805	449.35082
911.983	502.14492
912.161	506.36885
912.339	413.45632
912.517	381.78858
912.695	400.78878
912.872	438.79314
913.05	455.68561
913.228	379.67753
913.406	457.79724
913.584	421.90167
913.762	527.48935
913.939	383.89964
914.117	436.68165
914.295	337.46008
914.473	383.89964
914.65	407.12248
914.828	402.9
915.006	341.68151
915.184	409.23374
915.361	371.23349
915.539	369.12252
915.716	381.78858
915.894	405.01123
916.072	350.12459
916.249	421.90167
916.427	253.04654
916.604	388.12183
916.782	447.23925
916.959	489.47348
917.137	331.12806
917.314	447.23925
917.492	369.12252
917.669	367.01157
917.847	354.34623
918.024	371.23349
918.201	278.36751
918.379	343.79226
918.556	341.68151
918.733	320.57505
918.911	310.02248
919.088	415.56764
919.265	286.80843
919.442	337.46008
919.62	196.08454
919.797	307.91202
919.974	284.69817
920.151	274.14716
920.328	282.58793
920.506	364.90064
920.683	257.26651
920.86	269.92688
921.037	269.92688
921.214	274.14716
921.391	303.69116
921.568	299.47036
921.745	329.01742
921.922	246.71673
922.099	272.03701
922.276	293.13931
922.453	272.03701
922.63	259.37653
922.807	337.46008
922.984	297.36
923.161	198.19399
923.338	335.34939
923.514	202.41294
923.691	217.1799
923.868	202.41294
924.045	301.58075
924.222	193.97512
924.399	324.7962
924.575	221.39921
924.752	288.91871
924.929	236.16742
925.105	210.85109
925.282	238.27725
925.459	269.92688
925.635	261.48656
925.812	227.72833
925.989	189.75633
926.165	160.22709
926.342	236.16742
926.518	244.60683
926.695	160.22709
926.871	221.39921
927.048	193.97512
927.224	236.16742
927.401	189.75633
927.577	202.41294
927.754	92.74727
927.93	162.33619
928.107	177.10045
928.283	126.48442
928.459	128.59318
928.636	191.86571
928.812	210.85109
928.988	219.28955
929.165	219.28955
929.341	137.02842
929.517	40.04444
929.693	137.02842
929.87	210.85109
930.046	196.08454
930.222	181.31899
930.398	189.75633
930.574	158.11802
930.751	227.72833
930.927	193.97512
931.103	109.61514
931.279	170.77278
931.455	92.74727
931.631	183.42829
931.807	151.79091
931.983	109.61514
932.159	80.0973
932.335	128.59318
932.511	103.28953
932.687	191.86571
932.863	65.34002
933.039	168.6636
933.215	71.66443
933.391	162.33619
933.566	206.63197
933.742	156.00896
933.918	63.23193
934.094	44.26014
934.27	90.63889
934.445	103.28953
934.621	137.02842
934.797	61.12386
934.973	139.13728
935.148	65.34002
935.324	61.12386
935.5	59.01582
935.675	80.0973
935.851	80.0973
936.027	23.18258
936.202	134.91958
936.378	109.61514
936.553	143.35507
936.729	50.58386
936.904	10.53718
937.08	84.31387
937.255	25.29023
937.431	25.29023
937.606	86.42218
937.782	134.91958
937.957	107.50658
938.133	105.39804
938.308	94.85568
938.483	50.58386
938.659	61.12386
938.834	10.53718
939.009	88.53052
939.185	44.26014
939.36	-12.64382
939.535	67.44814
939.71	42.15228
939.886	40.04444
940.061	-0
940.236	-10.53658
940.411	67.44814
940.586	63.23193
940.761	18.96735
940.937	-2.10736
941.112	12.64469
941.287	-58.9969
941.462	25.29023
941.637	-4.2147
941.812	42.15228
941.987	-16.85823
942.162	90.63889
942.337	71.66443
942.512	-48.46317
942.687	25.29023
942.862	103.28953
943.037	67.44814
943.212	80.0973
943.386	12.64469
943.561	-0
943.736	-54.78349
943.911	16.85977
944.086	-4.2147
944.26	35.82884
944.435	63.23193
944.61	69.55627
944.785	4.2148
944.959	25.29023
945.134	77.98905
945.309	52.69182
945.483	37.93663
945.658	52.69182
945.833	23.18258
946.007	-12.64382
946.182	31.61332
946.357	18.96735
946.531	16.85977
946.706	46.36803
946.88	-61.10358
947.055	50.58386
947.229	56.90779
947.404	10.53718
947.578	37.93663
947.752	42.15228
947.927	75.88082
948.101	6.32224
948.276	90.63889
948.45	52.69182
948.624	33.72107
948.799	44.26014
948.973	2.10739
949.147	69.55627
949.321	52.69182
949.496	77.98905
949.67	77.98905
949.844	-2.10736
950.018	29.5056
950.193	94.85568
950.367	29.5056
950.541	2.10739
950.715	96.96411
950.889	37.93663
951.063	27.39791
951.237	42.15228
951.411	-8.42931
951.585	29.5056
951.759	-21.07254
951.933	25.29023
952.107	-23.17966
952.281	-73.74306
952.455	25.29023
952.629	25.29023
952.803	59.01582
952.977	46.36803
953.151	69.55627
953.325	75.88082
953.499	12.64469
953.672	88.53052
953.846	37.93663
954.02	50.58386
954.194	111.72373
954.368	-8.42931
954.541	8.4297
954.715	42.15228
954.889	44.26014
955.062	-8.42931
955.236	77.98905
955.41	25.29023
955.583	2.10739
955.757	111.72373
955.93	10.53718
956.104	35.82884
956.278	-6.32202
956.451	-46.35635
956.625	50.58386
956.798	77.98905
956.972	71.66443
957.145	-0
957.319	21.07496
957.492	37.93663
957.665	-29.50088
957.839	33.72107
958.012	-12.64382
958.185	29.5056
958.359	21.07496
958.532	46.36803
958.705	29.5056
958.879	23.18258
959.052	-37.92881
959.225	77.98905
959.398	73.77262
959.572	16.85977
959.745	-29.50088
959.918	-8.42931
960.091	80.0973
960.264	33.72107
960.438	-23.17966
960.611	69.55627
960.784	42.15228
960.957	-16.85823
961.13	59.01582
961.303	18.96735
961.476	-12.64382
961.649	59.01582
961.822	52.69182
961.995	35.82884
962.168	-12.64382
962.341	12.64469
962.514	10.53718
962.686	37.93663
962.859	33.72107
963.032	50.58386
963.205	4.2148
963.378	-2.10736
963.551	-8.42931
963.723	67.44814
963.896	73.77262
964.069	44.26014
964.242	-37.92881
964.414	54.79979
964.587	67.44814
964.76	88.53052
964.932	63.23193
965.105	-14.75104
965.278	71.66443
965.45	113.83233
965.623	14.75222
965.795	33.72107
965.968	44.26014
966.14	56.90779
966.313	35.82884
966.485	54.79979
966.658	-8.42931
966.83	96.96411
967.003	40.04444
967.175	84.31387
967.348	33.72107
967.52	2.10739
967.692	105.39804
967.865	-6.32202
968.037	52.69182
968.209	-4.2147
968.382	2.10739
968.554	16.85977
968.726	29.5056
968.898	33.72107
969.071	33.72107
969.243	-4.2147
969.415	33.72107
969.587	23.18258
969.759	-29.50088
969.932	23.18258
970.104	88.53052
970.276	-25.28676
970.448	25.29023
970.62	37.93663
970.792	16.85977
970.964	65.34002
971.136	50.58386
971.308	8.4297
971.48	-29.50088
971.652	84.31387
971.824	25.29023
971.996	21.07496
972.168	46.36803
972.339	33.72107
972.511	25.29023
972.683	61.12386
972.855	56.90779
973.027	-35.82187
973.199	61.12386
973.37	33.72107
973.542	33.72107
973.714	46.36803
973.886	12.64469
974.057	86.42218
974.229	-0
974.401	-25.28676
974.572	-33.71489
974.744	50.58386
974.915	73.77262
975.087	2.10739
975.259	88.53052
975.43	77.98905
975.602	-8.42931
975.773	73.77262
975.945	-4.2147
976.116	29.5056
976.288	-12.64382
976.459	80.0973
976.63	-10.53658
976.802	16.85977
976.973	-0
977.145	59.01582
977.316	40.04444
977.487	101.18103
977.659	67.44814
977.83	29.5056
978.001	75.88082
978.172	-0
978.344	-23.17966
978.515	56.90779
978.686	25.29023
978.857	50.58386
979.028	-4.2147
979.2	-8.42931
979.371	-23.17966
979.542	35.82884
979.713	35.82884
979.884	86.42218
980.055	-21.07254
980.226	8.4297
980.397	8.4297
980.568	23.18258
980.739	44.26014
980.91	33.72107
981.081	25.29023
981.252	29.5056
981.423	16.85977
981.594	25.29023
981.765	16.85977
981.936	16.85977
982.106	37.93663
982.277	-33.71489
982.448	37.93663
982.619	10.53718
982.79	44.26014
982.96	-65.31684
983.131	8.4297
983.302	8.4297
983.472	35.82884
983.643	59.01582
983.814	33.72107
983.984	71.66443
984.155	37.93663
984.326	46.36803
984.496	16.85977
984.667	8.4297
984.837	-8.42931
985.008	-10.53658
985.178	-4.2147
985.349	86.42218
985.519	35.82884
985.69	-101.12544
985.86	-16.85823
986.031	-101.12544
986.201	23.18258
986.371	21.07496
986.542	27.39791
986.712	-50.56997
986.882	16.85977
987.053	-52.67674
987.223	52.69182
987.393	10.53718
987.563	14.75222
987.734	33.72107
987.904	-14.75104
988.074	-50.56997
988.244	4.2148
988.414	10.53718
988.585	69.55627
988.755	71.66443
988.925	-0
989.095	69.55627
989.265	-75.84956
989.435	-58.9969
989.605	50.58386
989.775	84.31387
989.945	77.98905
990.115	4.2148
990.285	-2.10736
990.455	50.58386
990.625	29.5056
990.795	-48.46317
990.965	2.10739
991.134	75.88082
991.304	80.0973
991.474	33.72107
991.644	46.36803
991.814	6.32224
991.984	-6.32202
992.153	-14.75104
992.323	23.18258
992.493	-6.32202
992.662	35.82884
992.832	16.85977
993.002	37.93663
993.171	-40.03573
993.341	71.66443
993.511	71.66443
993.68	27.39791
993.85	-31.6079
994.019	31.61332
994.189	8.4297
994.358	-50.56997
994.528	21.07496
994.697	-0
994.867	4.2148
995.036	37.93663
995.206	-8.42931
995.375	8.4297
995.544	12.64469
995.714	21.07496
995.883	50.58386
996.052	2.10739
996.222	27.39791
996.391	25.29023
996.56	-4.2147
996.73	-4.2147
996.899	63.23193
997.068	54.79979
997.237	4.2148
997.406	-37.92881
997.576	-16.85823
997.745	37.93663
997.914	33.72107
998.083	48.47593
998.252	18.96735
998.421	-35.82187
998.59	59.01582
998.759	71.66443
998.928	21.07496
999.097	-42.14263
999.266	2.10739
999.435	59.01582
999.604	61.12386
999.773	-6.32202
999.942	16.85977
1000.111	-16.85823
1000.28	4.2148
1000.448	54.79979
1000.617	-37.92881
1000.786	12.64469
1000.955	-14.75104
1001.124	29.5056
1001.292	4.2148
1001.461	-40.03573
1001.63	16.85977
1001.798	33.72107
1001.967	61.12386
1002.136	-80.06246
1002.304	2.10739
1002.473	12.64469
1002.642	33.72107
1002.81	-0
1002.979	-21.07254
1003.147	4.2148
1003.316	-29.50088
1003.484	44.26014
1003.653	16.85977
1003.821	67.44814
1003.99	-14.75104
1004.158	-27.39383
1004.327	-61.10358
1004.495	27.39791
1004.663	-2.10736
1004.832	-8.42931
1005	-0
1005.168	21.07496
1005.337	-14.75104
1005.505	-25.28676
1005.673	33.72107
1005.842	-10.53658
1006.01	-2.10736
1006.178	-37.92881
1006.346	10.53718
1006.514	35.82884
1006.683	-12.64382
1006.851	10.53718
1007.019	44.26014
1007.187	-4.2147
1007.355	50.58386
1007.523	4.2148
1007.691	42.15228
1007.859	-8.42931
1008.027	-27.39383
1008.195	-40.03573
1008.363	29.5056
1008.531	-25.28676
1008.699	12.64469
1008.867	73.77262
1009.035	4.2148
1009.203	-40.03573
1009.37	42.15228
1009.538	-25.28676
1009.706	-29.50088
1009.874	4.2148
1010.042	-42.14263
1010.209	2.10739
1010.377	16.85977
1010.545	84.31387
1010.713	59.01582
1010.88	25.29023
1011.048	18.96735
1011.216	-71.63655
1011.383	21.07496
1011.551	-56.89021
1011.718	12.64469
1011.886	50.58386
1012.054	-8.42931
1012.221	6.32224
1012.389	75.88082
1012.556	-8.42931
1012.724	21.07496
1012.891	4.2148
1013.058	2.10739
1013.226	8.4297
1013.393	50.58386
1013.561	-23.17966
1013.728	-8.42931
1013.895	-56.89021
1014.063	8.4297
1014.23	-25.28676
1014.397	-6.32202
1014.565	-33.71489
1014.732	-0
1014.899	4.2148
1015.066	-58.9969
1015.233	-29.50088
1015.401	29.5056
1015.568	71.66443
1015.735	52.69182
1015.902	16.85977
1016.069	10.53718
1016.236	-12.64382
1016.403	-12.64382
1016.57	12.64469
1016.737	-37.92881
1016.904	-44.2495
1017.071	-8.42931
1017.238	88.53052
1017.405	-14.75104
1017.572	2.10739
1017.739	42.15228
1017.906	-71.63655
1018.073	-42.14263
1018.24	27.39791
1018.407	-63.21022
1018.573	21.07496
1018.74	-31.6079
1018.907	63.23193
1019.074	50.58386
1019.241	-16.85823
1019.407	65.34002
1019.574	-4.2147
1019.741	25.29023
1019.907	-31.6079
1020.074	-8.42931
1020.241	-25.28676
1020.407	31.61332
1020.574	44.26014
1020.74	-29.50088
1020.907	21.07496
1021.073	-33.71489
1021.24	37.93663
1021.406	-33.71489
1021.573	-37.92881
1021.739	8.4297
1021.906	33.72107
1022.072	69.55627
1022.239	29.5056
1022.405	50.58386
1022.571	-80.06246
1022.738	10.53718
1022.904	2.10739
1023.07	16.85977
1023.237	16.85977
1023.403	84.31387
1023.569	18.96735
1023.735	63.23193
1023.902	50.58386
1024.068	-73.74306
1024.234	46.36803
1024.4	-42.14263
1024.566	4.2148
1024.732	-23.17966
1024.898	-8.42931
1025.065	-92.70056
1025.231	-61.10358
1025.397	-37.92881
1025.563	-54.78349
1025.729	-58.9969
1025.895	21.07496
1026.061	-18.9654
1026.227	-8.42931
1026.392	46.36803
1026.558	6.32224
1026.724	-27.39383
1026.89	10.53718
1027.056	33.72107
1027.222	33.72107
1027.388	8.4297
1027.553	21.07496
1027.719	-12.64382
1027.885	8.4297
1028.051	63.23193
1028.216	-16.85823
1028.382	8.4297
1028.548	-2.10736
1028.713	-31.6079
1028.879	-50.56997
1029.045	35.82884
1029.21	37.93663
1029.376	69.55627
1029.541	-33.71489
1029.707	-25.28676
1029.873	-33.71489
1030.038	25.29023
1030.204	-21.07254
1030.369	42.15228
1030.534	69.55627
1030.7	18.96735
1030.865	14.75222
1031.031	25.29023
1031.196	4.2148
1031.361	4.2148
1031.527	42.15228
1031.692	8.4297
1031.857	-37.92881
1032.023	-33.71489
1032.188	-31.6079
1032.353	33.72107
1032.518	-6.32202
1032.684	-31.6079
1032.849	8.4297
1033.014	42.15228
1033.179	23.18258
1033.344	63.23193
1033.509	25.29023
1033.674	-25.28676
1033.839	23.18258
1034.004	16.85977
1034.17	10.53718
1034.335	25.29023
1034.5	16.85977
1034.664	-21.07254
1034.829	-14.75104
1034.994	12.64469
1035.159	-0
1035.324	-18.9654
1035.489	16.85977
1035.654	56.90779
1035.819	-29.50088
1035.984	61.12386
1036.148	-4.2147
1036.313	44.26014
1036.478	2.10739
1036.643	33.72107
1036.807	75.88082
1036.972	59.01582
1037.137	-23.17966
1037.301	10.53718
1037.466	-6.32202
1037.631	-50.56997
1037.795	-4.2147
1037.96	92.74727
1038.124	6.32224
1038.289	-12.64382
1038.454	44.26014
1038.618	65.34002
1038.783	-31.6079
1038.947	14.75222
1039.111	-16.85823
1039.276	21.07496
1039.44	50.58386
1039.605	-25.28676
1039.769	-6.32202
1039.933	96.96411
1040.098	-8.42931
1040.262	-12.64382
1040.426	71.66443
1040.591	-63.21022
1040.755	25.29023
1040.919	-4.2147
1041.083	-46.35635
1041.248	42.15228
1041.412	-37.92881
1041.576	-8.42931
1041.74	10.53718
1041.904	42.15228
1042.068	-12.64382
1042.232	71.66443
1042.397	-10.53658
1042.561	14.75222
1042.725	75.88082
1042.889	6.32224
1043.053	42.15228
1043.217	25.29023
1043.381	12.64469
1043.544	-2.10736
1043.708	4.2148
1043.872	12.64469
1044.036	48.47593
1044.2	-8.42931
1044.364	-33.71489
1044.528	-58.9969
1044.691	8.4297
1044.855	-48.46317
1045.019	-0
1045.183	-14.75104
1045.346	16.85977
1045.51	-6.32202
1045.674	12.64469
1045.837	-25.28676
1046.001	4.2148
1046.165	-50.56997
1046.328	50.58386
1046.492	73.77262
1046.655	-29.50088
1046.819	-21.07254
1046.983	25.29023
1047.146	27.39791
1047.31	-6.32202
1047.473	-16.85823
1047.636	42.15228
1047.8	-16.85823
1047.963	67.44814
1048.127	42.15228
1048.29	-6.32202
