Data from absorb_only_2.23.25_USB4F045381__70__0175.txt Node

Date: Sun Feb 23 19:26:22 EST 2025
User: ssocol
Spectrometer: USB4F04538
Trigger mode: 4
Integration Time (sec): 2.600000E-3
Scans to average: 1
Electric dark correction enabled: true
Nonlinearity correction enabled: true
Boxcar width: 0
XAxis mode: Wavelengths
Number of Pixels in Spectrum: 3648
>>>>>Begin Spectral Data<<<<<
345.52	12.29343
345.736	12.29343
345.952	12.29343
346.168	-48.81431
346.384	22.83131
346.6	-27.74501
346.816	-31.95906
347.032	1.75615
347.248	14.40096
347.464	75.52945
347.68	-17.20943
347.896	-23.53085
348.112	33.36978
348.328	5.97099
348.544	46.01671
348.76	-10.88778
348.975	-65.66794
349.191	24.93896
349.407	31.26204
349.623	48.12461
349.839	-48.81431
350.055	8.07845
350.27	60.77252
350.486	-78.3071
350.702	-23.53085
350.918	-15.10224
351.133	43.90883
351.349	5.97099
351.565	-48.81431
351.781	22.83131
351.996	-4.56592
352.212	-19.31659
352.428	-12.99502
352.644	52.34049
352.859	-46.70749
353.075	-55.13461
353.291	79.74592
353.506	-12.99502
353.722	92.39587
353.938	1.75615
354.153	-36.17303
354.369	14.40096
354.584	-27.74501
354.8	-25.63794
355.016	-21.42373
355.231	16.50851
355.447	-2.45859
355.662	18.61609
355.878	67.09678
356.093	-63.56133
356.309	22.83131
356.524	-65.66794
356.74	-17.20943
356.955	27.04663
357.171	39.69314
357.386	1.75615
357.602	24.93896
357.817	41.80097
358.033	3.86356
358.248	31.26204
358.464	-38.27997
358.679	41.80097
358.895	-0.35123
359.11	8.07845
359.325	-55.13461
359.541	27.04663
359.756	-23.53085
359.972	-8.78052
360.187	41.80097
360.402	-36.17303
360.618	18.61609
360.833	22.83131
361.048	100.82962
361.264	31.26204
361.479	33.36978
361.694	-15.10224
361.909	39.69314
362.125	-0.35123
362.34	1.75615
362.555	-59.34802
362.77	-40.38689
362.986	-42.49378
363.201	-6.67324
363.416	14.40096
363.631	-48.81431
363.847	56.55646
364.062	-29.85205
364.277	-21.42373
364.492	29.15432
364.707	-36.17303
364.922	39.69314
365.138	5.97099
365.353	31.26204
365.568	-0.35123
365.783	29.15432
365.998	-2.45859
366.213	-6.67324
366.428	14.40096
366.643	56.55646
366.858	22.83131
367.073	-15.10224
367.288	39.69314
367.503	56.55646
367.718	12.29343
367.933	56.55646
368.148	-29.85205
368.363	-15.10224
368.578	3.86356
368.793	-19.31659
369.008	22.83131
369.223	-55.13461
369.438	-82.51994
369.653	140.89469
369.868	18.61609
370.083	22.83131
370.298	60.77252
370.513	-27.74501
370.728	18.61609
370.943	-36.17303
371.157	48.12461
371.372	-2.45859
371.587	100.82962
371.802	43.90883
372.017	58.66448
372.232	14.40096
372.446	14.40096
372.661	90.28749
372.876	22.83131
373.091	39.69314
373.306	8.07845
373.52	18.61609
373.735	-10.88778
373.95	-10.88778
374.165	39.69314
374.379	5.97099
374.594	-27.74501
374.809	-4.56592
375.023	-21.42373
375.238	81.85419
375.453	-8.78052
375.667	-76.20064
375.882	50.23254
376.097	-36.17303
376.311	73.42125
376.526	37.58533
376.741	18.61609
376.955	-53.02787
377.17	-15.10224
377.384	5.97099
377.599	33.36978
377.813	24.93896
378.028	12.29343
378.242	12.29343
378.457	33.36978
378.672	10.18593
378.886	-10.88778
379.101	22.83131
379.315	35.47754
379.53	-8.78052
379.744	-25.63794
379.958	31.26204
380.173	33.36978
380.387	46.01671
380.602	58.66448
380.816	-8.78052
381.031	-10.88778
381.245	-27.74501
381.459	5.97099
381.674	33.36978
381.888	-8.78052
382.103	16.50851
382.317	-71.98763
382.531	-25.63794
382.746	16.50851
382.96	102.93811
383.174	50.23254
383.388	-29.85205
383.603	56.55646
383.817	64.98867
384.031	-2.45859
384.246	54.44846
384.46	-53.02787
384.674	22.83131
384.888	18.61609
385.103	37.58533
385.317	64.98867
385.531	-21.42373
385.745	18.61609
385.959	64.98867
386.174	39.69314
386.388	-19.31659
386.602	22.83131
386.816	48.12461
387.03	-0.35123
387.244	50.23254
387.458	-93.05161
387.672	37.58533
387.887	-0.35123
388.101	-31.95906
388.315	-31.95906
388.529	-17.20943
388.743	22.83131
388.957	41.80097
389.171	39.69314
389.385	60.77252
389.599	98.72115
389.813	50.23254
390.027	69.20492
390.241	14.40096
390.455	73.42125
390.669	102.93811
390.883	16.50851
391.097	43.90883
391.311	14.40096
391.525	-8.78052
391.738	107.15516
391.952	39.69314
392.166	31.26204
392.38	35.47754
392.594	-10.88778
392.808	48.12461
393.022	24.93896
393.236	73.42125
393.449	64.98867
393.663	3.86356
393.877	-48.81431
394.091	-15.10224
394.305	-15.10224
394.518	56.55646
394.732	-36.17303
394.946	121.91552
395.16	-2.45859
395.373	-4.56592
395.587	27.04663
395.801	41.80097
396.015	-10.88778
396.228	-10.88778
396.442	33.36978
396.656	90.28749
396.869	5.97099
397.083	39.69314
397.297	50.23254
397.51	1.75615
397.724	-61.45468
397.938	-2.45859
398.151	81.85419
398.365	67.09678
398.578	27.04663
398.792	64.98867
399.005	-19.31659
399.219	10.18593
399.433	52.34049
399.646	64.98867
399.86	-67.77453
400.073	35.47754
400.287	69.20492
400.5	50.23254
400.714	75.52945
400.927	81.85419
401.141	14.40096
401.354	31.26204
401.567	39.69314
401.781	-48.81431
401.994	62.88058
402.208	8.07845
402.421	-12.99502
402.635	24.93896
402.848	41.80097
403.061	50.23254
403.275	31.26204
403.488	58.66448
403.701	31.26204
403.915	67.09678
404.128	39.69314
404.341	64.98867
404.555	5.97099
404.768	-17.20943
404.981	77.63768
405.195	-2.45859
405.408	-10.88778
405.621	-2.45859
405.834	8.07845
406.048	14.40096
406.261	1.75615
406.474	-2.45859
406.687	31.26204
406.9	-6.67324
407.114	-44.60065
407.327	-27.74501
407.54	1.75615
407.753	5.97099
407.966	41.80097
408.179	-15.10224
408.392	33.36978
408.605	41.80097
408.819	-27.74501
409.032	43.90883
409.245	-2.45859
409.458	39.69314
409.671	-36.17303
409.884	10.18593
410.097	-8.78052
410.31	52.34049
410.523	5.97099
410.736	77.63768
410.949	-44.60065
411.162	73.42125
411.375	-48.81431
411.588	54.44846
411.801	8.07845
412.014	27.04663
412.227	-2.45859
412.44	39.69314
412.653	75.52945
412.865	56.55646
413.078	27.04663
413.291	48.12461
413.504	-61.45468
413.717	52.34049
413.93	14.40096
414.143	-8.78052
414.356	20.72369
414.568	22.83131
414.781	8.07845
414.994	-36.17303
415.207	43.90883
415.42	39.69314
415.632	-0.35123
415.845	39.69314
416.058	48.12461
416.271	-10.88778
416.483	39.69314
416.696	31.26204
416.909	-10.88778
417.121	12.29343
417.334	1.75615
417.547	73.42125
417.759	41.80097
417.972	48.12461
418.185	1.75615
418.397	5.97099
418.61	-0.35123
418.823	10.18593
419.035	-46.70749
419.248	92.39587
419.46	52.34049
419.673	27.04663
419.885	31.26204
420.098	50.23254
420.311	62.88058
420.523	-2.45859
420.736	12.29343
420.948	16.50851
421.161	39.69314
421.373	-2.45859
421.586	-25.63794
421.798	10.18593
422.01	56.55646
422.223	67.09678
422.435	-42.49378
422.648	-2.45859
422.86	-19.31659
423.073	16.50851
423.285	64.98867
423.497	71.31307
423.71	43.90883
423.922	31.26204
424.134	-0.35123
424.347	62.88058
424.559	58.66448
424.771	77.63768
424.984	39.69314
425.196	81.85419
425.408	64.98867
425.621	39.69314
425.833	92.39587
426.045	39.69314
426.257	33.36978
426.47	48.12461
426.682	64.98867
426.894	39.69314
427.106	14.40096
427.318	64.98867
427.531	-23.53085
427.743	75.52945
427.955	62.88058
428.167	147.22146
428.379	60.77252
428.591	5.97099
428.804	54.44846
429.016	27.04663
429.228	-21.42373
429.44	5.97099
429.652	48.12461
429.864	124.02423
430.076	98.72115
430.288	33.36978
430.5	35.47754
430.712	54.44846
430.924	43.90883
431.136	109.26371
431.348	56.55646
431.56	115.58952
431.772	54.44846
431.984	-2.45859
432.196	39.69314
432.408	1.75615
432.62	1.75615
432.832	37.58533
433.044	39.69314
433.256	31.26204
433.468	-31.95906
433.679	81.85419
433.891	-65.66794
434.103	-25.63794
434.315	-38.27997
434.527	35.47754
434.739	48.12461
434.95	-55.13461
435.162	69.20492
435.374	27.04663
435.586	90.28749
435.798	149.33043
436.009	75.52945
436.221	-34.06606
436.433	33.36978
436.645	48.12461
436.856	-4.56592
437.068	48.12461
437.28	18.61609
437.491	128.24171
437.703	83.96248
437.915	62.88058
438.126	48.12461
438.338	-4.56592
438.55	22.83131
438.761	56.55646
438.973	83.96248
439.184	185.18606
439.396	73.42125
439.608	73.42125
439.819	43.90883
440.031	41.80097
440.242	48.12461
440.454	79.74592
440.665	-27.74501
440.877	16.50851
441.088	43.90883
441.3	88.17913
441.511	147.22146
441.723	100.82962
441.934	86.0708
442.146	50.23254
442.357	83.96248
442.569	31.26204
442.78	64.98867
442.991	86.0708
443.203	73.42125
443.414	35.47754
443.626	96.6127
443.837	102.93811
444.048	73.42125
444.26	79.74592
444.471	24.93896
444.682	58.66448
444.894	41.80097
445.105	48.12461
445.316	77.63768
445.528	88.17913
445.739	115.58952
445.95	124.02423
446.161	48.12461
446.373	48.12461
446.584	43.90883
446.795	-6.67324
447.006	60.77252
447.217	138.7858
447.429	39.69314
447.64	54.44846
447.851	98.72115
448.062	100.82962
448.273	90.28749
448.484	48.12461
448.695	109.26371
448.907	98.72115
449.118	33.36978
449.329	31.26204
449.54	69.20492
449.751	39.69314
449.962	92.39587
450.173	56.55646
450.384	69.20492
450.595	117.69816
450.806	98.72115
451.017	31.26204
451.228	88.17913
451.439	56.55646
451.65	109.26371
451.861	10.18593
452.072	56.55646
452.283	145.11251
452.494	100.82962
452.705	48.12461
452.915	75.52945
453.126	-8.78052
453.337	92.39587
453.548	64.98867
453.759	107.15516
453.97	107.15516
454.181	16.50851
454.391	199.95188
454.602	117.69816
454.813	124.02423
455.024	56.55646
455.235	107.15516
455.445	115.58952
455.656	107.15516
455.867	60.77252
456.078	94.50427
456.288	90.28749
456.499	69.20492
456.71	128.24171
456.921	83.96248
457.131	126.13296
457.342	124.02423
457.553	92.39587
457.763	126.13296
457.974	77.63768
458.184	115.58952
458.395	145.11251
458.606	94.50427
458.816	98.72115
459.027	124.02423
459.237	136.67694
459.448	92.39587
459.659	153.54842
459.869	157.7665
460.08	75.52945
460.29	164.09378
460.501	199.95188
460.711	126.13296
460.922	69.20492
461.132	136.67694
461.343	88.17913
461.553	115.58952
461.764	174.63967
461.974	183.07674
462.184	107.15516
462.395	149.33043
462.605	176.7489
462.816	98.72115
463.026	202.06136
463.236	149.33043
463.447	275.90563
463.657	174.63967
463.867	132.45929
464.078	140.89469
464.288	126.13296
464.498	164.09378
464.709	216.8283
464.919	193.62355
465.129	208.38993
465.339	149.33043
465.55	140.89469
465.76	252.69488
465.97	187.2954
466.18	233.70599
466.391	282.23623
466.601	259.02486
466.811	326.55503
467.021	237.92561
467.231	250.58493
467.441	225.26699
467.651	324.44443
467.862	292.78759
468.072	311.78121
468.282	229.48645
468.492	244.25518
468.702	294.89792
468.912	286.45672
469.122	353.99443
469.332	292.78759
469.542	337.1083
469.752	309.67074
469.962	351.8836
470.172	303.33942
470.382	366.65975
470.592	413.10444
470.802	410.99314
471.012	328.66565
471.222	465.89196
471.432	461.6686
471.642	495.45715
471.852	478.56239
472.062	470.11538
472.272	520.80104
472.482	556.70836
472.691	531.3616
472.901	571.49488
473.111	495.45715
473.321	563.04536
473.531	609.52034
473.741	563.04536
473.95	664.45318
474.16	677.13115
474.37	588.39456
474.58	639.09854
474.79	740.52702
474.999	713.05426
475.209	681.35723
475.419	768.00155
475.628	812.38703
475.838	909.62625
476.048	1030.14078
476.258	820.84188
476.467	920.19678
476.677	964.59503
476.886	977.28082
477.096	1032.25526
477.306	1000.53871
477.515	1063.97313
477.725	1049.1713
477.935	981.50947
478.144	1207.77453
478.354	992.08121
478.563	1216.23401
478.773	1182.39643
478.982	1336.78623
479.192	1277.56664
479.401	1222.57865
479.611	1370.62658
479.82	1233.15312
480.03	1436.19294
480.239	1417.15749
480.449	1539.83018
480.658	1649.80956
480.868	1620.20024
481.077	1577.9005
481.287	1546.17526
481.496	1713.25638
481.705	1654.03943
481.915	1785.15922
482.124	1689.99285
482.333	1810.53561
482.543	1901.46222
482.752	1914.1489
482.961	2161.49331
483.171	2106.53629
483.38	1909.92003
483.589	2028.31948
483.799	2146.69771
484.008	2146.69771
484.217	2207.99112
484.426	2275.61682
484.636	2119.21914
484.845	2360.13556
485.054	2193.1968
485.263	2419.28919
485.472	2277.72998
485.682	2516.45197
485.891	2508.00397
486.1	2634.70427
486.309	2474.21015
486.518	2594.58717
486.727	2592.47562
486.936	2765.58091
487.146	2600.92174
487.355	2968.12518
487.564	2704.37062
487.773	3022.95777
487.982	2803.56784
488.191	2885.85743
488.4	2786.6853
488.609	3010.30501
488.818	2999.76062
489.027	3225.3249
489.236	3132.59162
489.445	3296.96043
489.654	3166.31647
489.863	3244.28914
490.072	3149.45456
490.281	3225.3249
490.49	3480.17214
490.698	3410.69376
490.907	3339.08979
491.116	3600.13361
491.325	3549.63081
491.534	3646.41837
491.743	3537.00345
491.952	3642.21104
492.16	3722.13724
492.369	3816.7506
492.578	3665.35041
492.787	3831.46467
492.996	3783.11483
493.204	3986.95346
493.413	4058.35696
493.622	3940.73859
493.831	3982.75251
494.039	4058.35696
494.248	4108.74504
494.457	4148.62709
494.665	4169.61459
494.874	4276.61791
495.083	4163.31856
495.291	4167.51593
495.5	4320.66195
495.709	4211.58327
495.917	4108.74504
496.126	4389.85477
496.335	4609.855
496.543	4461.11953
496.752	4406.62522
496.96	4519.7891
497.169	4391.95115
497.377	4532.3589
497.586	4398.24017
497.794	4695.69332
498.003	4448.54524
498.211	4704.06577
498.42	4678.94734
498.628	4808.69085
498.837	4798.23089
499.045	4837.9757
499.254	4764.75521
499.462	5084.62662
499.671	4850.52498
499.879	5030.30736
500.087	4829.60906
500.296	4842.15889
500.504	5063.73645
500.713	4936.25638
500.921	5009.41118
501.129	5113.86896
501.338	4875.62108
501.546	5491.51883
501.754	5038.66519
501.962	5147.28321
502.171	5207.83135
502.379	5443.57277
502.587	5249.57726
502.795	5481.09684
503.004	5255.83834
503.212	5506.10864
503.42	5406.04109
503.628	5597.78959
503.837	5514.44516
504.045	5587.3736
504.253	5533.20094
504.461	5768.52771
504.669	5272.53353
504.877	5579.04038
505.085	5718.572
505.294	5964.05669
505.502	5866.31826
505.71	5864.23816
505.918	5676.93186
506.126	5895.43729
506.334	5641.53032
506.542	5843.43579
506.75	5841.35542
506.958	5964.05669
507.166	5860.07787
507.374	5847.59645
507.582	6028.49396
507.79	6163.53093
507.998	5889.19789
508.206	6067.97659
508.414	5882.95827
508.622	6182.22053
508.83	5920.39277
509.037	6441.60225
509.245	5916.23376
509.453	6317.1446
509.661	6013.94559
509.869	6283.9417
510.077	6132.37737
510.285	6391.82926
510.492	6269.41354
510.7	6196.75557
510.908	5949.50321
511.116	6360.71432
511.324	6234.12612
511.531	6458.19026
511.739	6163.53093
511.947	6729.60835
512.155	6431.23398
512.362	6429.16026
512.57	6298.4687
512.778	6472.70356
512.985	6524.52748
513.193	6773.08139
513.401	6586.69707
513.608	6445.74939
513.816	6472.70356
514.024	6702.6914
514.231	6414.64354
514.439	6721.32662
514.646	6806.19694
514.854	6855.85933
515.061	6487.21572
515.269	6928.26018
515.477	6845.51408
515.684	6864.13512
515.892	7027.50774
516.099	7041.97701
516.307	6979.9581
516.514	6903.44016
516.722	6650.91714
516.929	6998.5659
517.136	6988.22846
517.344	7225.84805
517.551	7153.56025
517.759	7023.37346
517.966	6959.28062
518.173	7248.56147
518.381	7269.20772
518.588	7110.17451
518.796	7411.60707
519.003	7219.65302
519.21	7221.71805
519.418	7434.29881
519.625	7174.21668
519.832	7242.36717
520.039	7405.41795
520.247	7514.73027
520.454	7551.84143
520.661	7591.00678
520.868	7386.84943
521.076	7485.86122
521.283	7584.82329
521.49	7562.14885
521.697	7603.37319
521.904	7813.48549
522.112	7560.08741
522.319	7623.98216
522.526	7520.91595
522.733	7805.24991
522.94	7562.14885
523.147	7626.04294
523.354	7574.51705
523.561	7813.48549
523.768	7832.01433
523.975	8021.32435
524.183	7706.39682
524.39	7860.83363
524.597	8087.13081
524.804	8208.40751
525.011	8099.46721
525.218	8107.69108
525.425	8046.0042
525.632	8011.04022
525.838	8105.63515
526.045	8068.62483
526.252	8202.24257
526.459	8006.92642
526.666	7943.15215
526.873	8019.26756
527.08	8226.90125
527.287	8302.9143
527.494	8173.4705
527.701	8296.75208
527.907	8185.80187
528.114	8436.38603
528.321	8278.26437
528.528	8272.10144
528.735	8446.64971
528.941	8541.05313
529.148	8074.79367
529.355	8536.94947
529.562	8417.9102
529.768	8733.8407
529.975	8284.42712
530.182	8733.8407
530.388	8541.05313
530.595	8946.94892
530.802	8614.90614
531.008	8793.28477
531.215	8684.63395
531.422	9000.19577
531.628	8748.19068
531.835	8752.29051
532.042	8567.72509
532.248	8930.56287
532.455	8817.87784
532.661	9141.4475
532.868	8959.23771
533.074	9016.57703
533.281	8961.28578
533.487	9067.76124
533.694	8836.32092
533.9	9421.66436
534.107	9090.27886
534.313	9069.80839
534.52	9018.6246
534.726	9247.84413
534.933	9429.84122
535.139	9309.20609
535.345	9168.05096
535.552	9564.72218
535.758	9341.92635
535.965	9444.15009
536.171	9333.74668
536.377	9460.50212
536.584	9305.11576
536.79	9325.56675
536.996	9550.41991
537.203	9495.24675
537.409	9617.83812
537.615	9395.08779
537.821	9399.17667
538.028	9666.85885
538.234	9699.53439
538.44	9493.20308
538.646	9454.37023
538.853	9746.49859
539.059	9646.43463
539.265	9666.85885
539.471	9654.60451
539.677	10013.83946
539.883	9748.54033
540.09	9879.18031
540.296	10066.86975
540.502	10148.43618
540.708	9879.18031
540.914	10421.52418
541.12	10234.05701
541.326	10152.51391
541.532	9958.75928
541.738	10038.31618
541.944	9811.82674
542.15	10395.04105
542.356	9932.23543
542.562	10244.24835
542.768	9805.70288
542.974	10142.31947
543.18	10164.74678
543.386	10468.37359
543.592	10411.33862
543.798	10694.37882
544.004	10374.66791
544.21	10635.34717
544.415	10211.63484
544.621	10539.65315
544.827	10557.97967
545.033	10816.48114
545.239	10342.06814
545.445	10869.37897
545.651	10661.8109
545.856	10765.61037
546.062	10967.01612
546.268	10555.94344
546.474	10594.62967
546.679	10486.70411
546.885	10445.9682
547.091	10716.76746
547.297	10598.70164
547.502	10619.06076
547.708	10747.29509
547.914	10639.41865
548.119	10877.51641
548.325	10733.0492
548.531	10667.91762
548.736	10698.44959
548.942	10710.66161
549.147	10537.6168
549.353	10804.27283
549.559	10857.17248
549.764	10767.64535
549.97	11115.45666
550.175	11048.36064
550.381	11339.02697
550.586	10849.03458
550.792	11237.41965
550.997	10871.41335
551.203	11351.21815
551.408	11223.19258
551.614	11131.72059
551.819	11332.93124
552.025	11139.8523
552.23	11131.72059
552.435	11170.3447
552.641	11353.24998
552.846	11558.41442
553.052	11204.89988
553.257	11276.03343
553.462	11237.41965
553.668	11416.23175
553.873	11442.64065
554.078	11582.78394
554.283	11487.32893
554.489	11603.09086
554.694	11424.35774
554.899	11601.06021
555.105	11491.39127
555.31	11783.78278
555.515	11700.55143
555.72	11751.304
555.925	11680.24885
556.131	11911.64681
556.336	11731.00363
556.541	11676.18823
556.746	11710.70238
556.951	11659.94538
557.156	11763.4838
557.361	11877.14709
557.567	11996.87128
557.772	12035.42058
557.977	11795.96176
558.182	11893.38255
558.387	11891.35315
558.592	12096.28214
558.797	11692.4305
559.002	11956.28998
559.207	11783.78278
559.412	11921.79333
559.617	11818.28907
559.822	12000.92924
560.027	11773.6334
560.232	12049.62223
560.437	11869.02917
560.642	12063.82351
560.847	12035.42058
561.051	12337.63346
561.256	12033.39174
561.461	12248.40629
561.666	12240.29404
561.871	12370.07636
562.076	12493.74906
562.281	12467.39465
562.485	12114.53926
562.69	12353.85513
562.895	11964.4065
563.1	12290.99369
563.305	12033.39174
563.509	12420.76489
563.714	12388.32471
563.919	12288.96579
564.123	12408.60002
564.328	12509.96662
564.533	12434.95692
564.737	12290.99369
564.942	12441.03913
565.147	12599.15593
565.351	12280.85412
565.556	12132.79576
565.761	12550.50872
565.965	12501.85789
566.17	12475.50382
566.374	12449.14864
566.579	12639.69255
566.784	12503.88508
566.988	12890.96744
567.193	12738.99715
567.397	12832.20928
567.602	12826.13059
567.806	12524.15665
568.011	12793.71006
568.215	12811.94678
568.42	12522.12952
568.624	12734.94418
568.828	12753.18238
569.033	12657.93324
569.237	13046.95909
569.442	12862.602
569.646	12582.94059
569.85	12753.18238
570.055	12976.05755
570.259	12589.02139
570.463	12998.34155
570.668	12840.31413
570.872	13079.36921
571.076	13093.54825
571.281	13202.92168
571.485	13051.01042
571.689	13077.34361
571.893	13154.31293
572.098	13271.77968
572.302	13038.85636
572.506	12925.40978
572.71	12728.86467
572.914	13255.57825
573.119	13166.46536
573.323	13340.63271
573.527	13006.44467
573.731	13281.90543
573.935	13423.65507
574.139	13320.38232
574.343	13312.28205
574.547	13565.38561
574.751	13393.28182
574.955	13277.85514
575.159	13557.28721
575.364	13316.3322
575.568	13190.76974
575.772	13287.98083
575.976	13300.13152
576.18	13318.35726
576.383	13454.02745
576.587	13537.04095
576.791	13522.86835
576.995	13413.53075
577.199	13085.44597
577.403	13640.29322
577.607	13362.90767
577.811	13516.79432
578.015	13362.90767
578.219	13458.07703
578.422	13496.54733
578.626	13757.70685
578.83	13421.63021
579.034	13526.91768
579.238	13694.95263
579.442	13769.85249
579.645	13676.73309
579.849	13474.27522
580.053	13569.43479
580.257	13773.90101
580.46	13834.6274
580.664	13875.11022
580.868	13767.82822
581.071	13846.77236
581.275	13812.36136
581.479	13798.19188
581.682	13725.31795
581.886	13814.38556
582.09	13982.38444
582.293	14320.3567
582.497	14081.55622
582.7	14128.10432
582.904	13976.31251
583.107	13960.12058
583.311	13603.85227
583.515	14166.55623
583.718	14014.7677
583.922	14083.58008
584.125	13996.5522
584.329	14164.53247
584.532	13838.67573
584.735	14075.48464
584.939	13806.28874
585.142	14308.21495
585.346	14207.03112
585.549	14332.49839
585.753	14008.69589
585.956	14322.38032
586.159	14587.46122
586.363	14496.40561
586.566	14142.27091
586.769	14326.42755
586.973	14073.46078
587.176	14492.35863
587.379	14366.89952
587.582	14233.33937
587.786	14372.97025
587.989	14613.76572
588.192	14427.60626
588.395	14652.21043
588.599	14457.95911
588.802	14518.66388
589.005	14292.02584
589.208	14769.56584
589.411	14455.9356
589.615	14654.23383
589.818	14757.42576
590.021	14538.89854
590.224	14470.10017
590.427	14625.9062
590.63	14372.97025
590.833	14735.16887
591.036	15012.3628
591.239	14844.42909
591.442	14591.50808
591.645	14901.08179
591.848	14660.30401
592.051	14915.2449
592.254	14747.309
592.457	15056.87493
592.66	15004.26968
592.863	14872.7555
593.066	14787.77591
593.269	15044.73527
593.472	14882.87204
593.675	15228.85303
593.878	15145.89892
594.081	14840.38245
594.284	15012.3628
594.486	15370.48261
594.689	15200.52723
594.892	15153.992
595.095	15346.20316
595.298	15257.17886
595.5	15139.82911
595.703	15441.29801
595.906	15226.82976
596.109	14876.80212
596.311	15117.57313
596.514	15127.68948
596.717	15105.4335
596.92	15659.81861
597.122	15392.73882
597.325	15396.78541
597.528	15370.48261
597.73	15564.72068
597.933	15247.06249
598.136	15489.85748
598.338	15455.46115
598.541	15477.71758
598.743	15520.20732
598.946	15176.24798
599.148	15473.67096
599.351	15384.64565
599.554	15410.94848
599.756	15568.76737
599.959	15621.37456
600.161	15904.65485
600.363	15732.66086
600.566	15591.02419
600.768	15805.50439
600.971	15673.98229
601.173	15475.69427
601.376	15680.05245
601.578	15607.21103
601.78	15734.68427
601.983	15512.11402
602.185	15943.10175
602.388	15564.72068
602.59	15888.46683
602.792	15645.65498
602.995	15785.26994
603.197	15817.64511
603.399	16068.56346
603.601	15702.30977
603.804	15530.32397
604.006	15346.20316
604.208	15455.46115
604.41	15467.60102
604.613	15738.7311
604.815	15839.90321
605.017	15959.29006
605.219	15649.70172
605.421	15793.3637
605.623	15783.2465
605.826	15971.43134
606.028	15821.69203
606.23	16011.90266
606.432	15910.72539
606.634	16109.03618
606.836	16147.48584
607.038	16194.03095
607.24	15773.12932
607.442	15912.7489
607.644	15961.3136
607.846	16048.32732
608.048	15977.502
608.25	16100.94158
608.452	16102.96523
608.654	16113.08348
608.856	15799.43404
609.058	15957.26651
609.26	15676.00567
609.462	15991.66693
609.664	15953.21943
609.866	16196.05467
610.067	15999.7612
610.269	16119.15445
610.471	15641.60823
610.673	15983.57268
610.875	15947.14882
611.077	16143.43848
611.278	15896.56083
611.48	15756.94188
611.682	15949.17235
611.884	16100.94158
612.085	16256.76709
612.287	16285.1001
612.489	15880.37284
612.69	16404.50747
612.892	15882.39634
613.094	16455.10585
613.295	15801.45749
613.497	16086.7761
613.699	15710.40338
613.9	15973.45489
614.102	15991.66693
614.304	15819.66857
614.505	15659.81861
614.707	16194.03095
614.908	16038.20931
615.11	15985.59624
615.311	16319.50494
615.513	16062.4926
615.714	16121.17811
615.916	16121.17811
616.117	15892.51383
616.319	16161.65165
616.52	15943.10175
616.722	16246.64825
616.923	16274.98113
617.124	16173.79384
617.326	16084.75247
617.527	16351.88645
617.729	15995.71406
617.93	15977.502
618.131	16254.74332
618.333	15959.29006
618.534	15924.89
618.735	16337.71948
618.937	15918.81945
619.138	15847.9971
619.339	16109.03618
619.54	16264.8622
619.742	16299.26673
619.943	16596.78824
620.144	16056.42176
620.345	15961.3136
620.546	16024.04416
620.748	16325.57643
620.949	16076.65795
621.15	16685.85126
621.351	16279.02871
621.552	16333.67179
621.753	16228.43444
621.954	16574.52317
622.155	16080.70521
622.356	16333.67179
622.558	16279.02871
622.759	16410.57921
622.96	16030.11493
623.161	16094.87065
623.362	15965.36069
623.563	16517.84962
623.764	16153.55689
623.965	16475.34556
624.166	15898.58433
624.366	16074.63432
624.567	16034.16212
624.768	16151.53321
624.969	15850.02057
625.17	16064.51622
625.371	16289.1477
625.572	16481.41751
625.773	16194.03095
625.973	16515.8256
626.174	16058.44537
626.375	16234.50569
626.576	16068.56346
626.777	16455.10585
626.977	16173.79384
627.178	16392.36404
627.379	15973.45489
627.58	16032.13852
627.78	15932.9841
627.981	16109.03618
628.182	16072.6107
628.382	16402.48356
628.583	16619.05359
628.784	16323.5526
628.984	16299.26673
629.185	16598.81235
629.386	16135.34378
629.586	16491.53747
629.787	16645.36753
629.987	16659.53673
630.188	16293.1953
630.388	16398.43574
630.589	16364.02965
630.79	16362.00578
630.99	16525.94574
631.191	16780.99175
631.391	16552.25836
631.591	16564.40277
631.792	16295.21911
631.992	16799.21075
632.193	16615.00532
632.393	16728.36019
632.594	16222.3632
632.794	16509.75354
632.994	16669.65766
633.195	16629.17429
633.395	16402.48356
633.595	16345.81488
633.796	16499.63348
633.996	16863.99104
634.196	16764.79725
634.397	16742.53007
634.597	16659.53673
634.797	16758.72435
634.997	16380.22068
635.198	16700.02079
635.398	16578.57134
635.598	16594.76413
635.798	16778.96743
635.998	16493.56147
636.199	16258.79087
636.399	16683.82705
636.599	16517.84962
636.799	16422.72274
636.999	16315.45728
637.199	16823.50306
637.399	16536.06594
637.599	16580.59544
637.799	16248.67201
637.999	16631.19843
638.199	16635.24673
638.399	16708.11771
638.599	16580.59544
638.799	16645.36753
638.999	16592.74003
639.199	16679.77864
639.399	16574.52317
639.599	16738.48152
639.799	16572.49908
639.999	16596.78824
640.199	16716.21468
640.399	16760.74865
640.599	16303.31436
640.799	16778.96743
640.998	16805.28379
641.198	16866.01546
641.398	16481.41751
641.598	17119.08937
641.798	16712.16619
641.997	16720.26317
642.197	16594.76413
642.397	16819.45431
642.597	16695.97234
642.796	17056.32311
642.996	16857.91778
643.196	17131.23799
643.395	16596.78824
643.595	16629.17429
643.795	16558.33055
643.994	16837.67373
644.194	16932.82294
644.394	17034.05185
644.593	16554.28242
644.793	17106.94085
644.992	16606.90882
645.192	17163.63481
645.392	17108.9656
645.591	17230.45556
645.791	17060.37246
645.99	17181.85834
646.19	16831.60057
646.389	16906.50451
646.589	16914.60244
646.788	17113.0151
646.987	16768.84586
647.187	16934.84746
647.386	16580.59544
647.586	16815.40558
647.785	17030.00256
647.984	17246.655
648.184	17119.08937
648.383	16961.16636
648.582	16920.67592
648.782	17368.15691
648.981	16973.3137
649.18	17503.84704
649.38	17339.8055
649.579	17501.82171
649.778	17566.63383
649.977	17388.40829
650.177	16985.46114
650.376	17001.65787
650.575	16987.48572
650.774	17206.15674
650.973	17023.92865
651.173	16946.99459
651.372	16892.33323
651.571	17052.27376
651.77	17214.2563
651.969	17133.26277
652.168	16661.56091
652.367	17181.85834
652.566	16993.55948
652.765	17044.17511
652.964	16813.38122
653.163	17025.95329
653.362	17179.83349
653.561	17044.17511
653.76	17108.9656
653.959	16997.60867
654.158	17412.71034
654.357	16898.40662
654.556	16847.79572
654.755	16904.48003
654.954	16574.52317
655.153	17309.42964
655.352	17159.58517
655.551	17060.37246
655.749	17463.34106
655.948	17509.92305
656.147	17321.5799
656.346	17437.01284
656.545	17062.39715
656.743	17165.65963
656.942	16882.21096
657.141	17489.6698
657.34	17432.9624
657.538	17432.9624
657.737	17481.56859
657.936	17643.60251
658.135	17272.97951
658.333	17441.0633
658.532	17021.90402
658.731	17345.88075
658.929	17333.73027
659.128	16999.63327
659.326	16744.55434
659.525	17299.30451
659.724	17066.44652
659.922	17349.93094
660.121	17295.25448
660.319	17449.16426
660.518	17319.55485
660.716	17220.331
660.915	17410.68515
661.113	17653.73032
661.312	17406.63479
661.51	17483.59389
661.709	17445.11378
661.907	17108.9656
662.105	17104.91611
662.304	17394.48376
662.502	17702.34496
662.701	17149.46111
662.899	17133.26277
663.097	17303.35455
663.296	17382.33284
663.494	17305.37958
663.692	17250.7049
663.891	17374.23229
664.089	17181.85834
664.287	17392.4586
664.485	17246.655
664.684	17295.25448
664.882	17127.18844
665.08	17307.40461
665.278	17305.37958
665.476	17327.65508
665.675	17040.12579
665.873	17068.47121
666.071	16621.07772
666.269	17068.47121
666.467	16801.23509
666.665	17712.47325
666.863	16951.04365
667.061	17396.50892
667.259	17007.73169
667.457	17477.51801
667.655	17129.21321
667.853	17339.8055
668.051	16892.33323
668.249	16876.13763
668.447	17230.45556
668.645	17264.87961
668.843	17501.82171
669.041	17447.13902
669.239	17262.85464
669.437	17177.80864
669.635	17113.0151
669.833	17165.65963
670.031	17161.60999
670.229	17052.27376
670.426	16977.36284
670.624	17297.27949
670.822	17062.39715
671.02	17224.38081
671.218	17147.43631
671.415	17165.65963
671.613	16839.69813
671.811	16736.45725
672.009	16926.74942
672.206	17499.79639
672.404	17080.61941
672.602	17066.44652
672.799	16940.92101
672.997	17356.00623
673.195	16953.06819
673.392	17700.31931
673.59	17159.58517
673.788	16740.50579
673.985	17001.65787
674.183	17068.47121
674.38	16807.30814
674.578	17189.95776
674.775	17044.17511
674.973	17005.70708
675.17	17074.5453
675.368	17121.11414
675.565	16959.14182
675.763	16902.45556
675.96	17044.17511
676.158	17228.43064
676.355	16817.42995
676.553	17102.89137
676.75	16746.57862
676.947	16550.2343
677.145	16432.84241
677.342	16940.92101
677.539	16746.57862
677.737	17297.27949
677.934	16803.25944
678.131	16995.58408
678.329	16736.45725
678.526	17208.18162
678.723	17072.5206
678.92	17131.23799
679.118	16740.50579
679.315	16633.22258
679.512	16449.03398
679.709	16918.65142
679.906	16590.71592
680.104	16880.18651
680.301	16704.06925
680.498	16831.60057
680.695	16534.04189
680.892	16762.77295
681.089	16566.42684
681.286	16353.91031
681.483	16125.22544
681.68	16736.45725
681.877	16663.58509
682.075	16534.04189
682.272	16222.3632
682.469	16625.126
682.665	16430.81847
682.862	16550.2343
683.059	16159.62796
683.256	16252.71955
683.453	16335.69564
683.65	16576.54726
683.847	16244.62448
684.044	16181.88867
684.241	16208.19703
684.438	16402.48356
684.635	16159.62796
684.831	16368.07739
685.028	16163.67535
685.225	16398.43574
685.422	16327.60027
685.619	16596.78824
685.815	16574.52317
686.012	16554.28242
686.209	15876.32586
686.405	16582.61953
686.602	16173.79384
686.799	16066.53984
686.996	16388.31624
687.192	16212.2445
687.389	16444.98607
687.586	16390.34014
687.782	16297.24292
687.979	16602.86058
688.175	16453.08189
688.372	16590.71592
688.568	16277.00492
688.765	16234.50569
688.962	16321.52877
689.158	16003.80835
689.355	16137.36745
689.551	16341.76718
689.748	15914.77241
689.944	16242.60072
690.14	16026.06775
690.337	16331.64795
690.533	15673.98229
690.73	15856.091
690.926	15965.36069
691.123	16009.87908
691.319	15819.66857
691.515	16042.25651
691.712	15447.36792
691.908	15862.16145
692.104	15837.87974
692.301	15967.38424
692.497	15307.76079
692.693	15870.25539
692.889	15811.57474
693.086	15878.34935
693.282	15870.25539
693.478	16305.33817
693.674	15728.61403
693.87	16230.45819
694.067	15858.11448
694.263	16082.72884
694.459	15932.9841
694.655	15850.02057
694.851	15819.66857
695.047	16028.09134
695.243	15955.24297
695.439	15700.28638
695.635	15850.02057
695.831	15789.31682
696.027	15546.51063
696.224	15756.94188
696.42	15493.90412
696.615	15926.91353
696.811	15597.09425
697.007	15230.87631
697.203	15362.38945
697.399	15497.95076
697.595	15544.4873
697.791	15374.52919
697.987	15406.90189
698.183	15989.64336
698.379	15495.92744
698.575	15811.57474
698.77	15402.85529
698.966	15020.45593
699.162	15119.5964
699.358	15313.83063
699.554	14921.3148
699.749	14979.99026
699.945	15317.87719
700.141	15257.17886
700.337	15394.76211
700.532	15287.528
700.728	15382.62235
700.924	15196.48069
701.119	15506.04405
701.315	15336.08673
701.511	15210.64359
701.706	15485.81085
701.902	15178.27125
702.097	15396.78541
702.293	15236.94612
702.489	15400.832
702.684	15087.22404
702.88	15232.89958
703.075	15004.26968
703.271	14959.75738
703.466	15058.8982
703.662	15212.66686
703.857	15325.97032
704.053	15275.38834
704.248	15089.24732
704.443	15255.15559
704.639	15081.15422
704.834	15421.06498
705.03	15008.31624
705.225	15332.04016
705.42	15198.50396
705.616	15479.7409
705.811	15020.45593
706.006	15390.71552
706.202	15020.45593
706.397	15062.94475
706.592	14935.47787
706.787	15166.13163
706.983	14844.42909
707.178	15133.7593
707.373	14951.66422
707.568	15273.36506
707.763	15103.41023
707.959	15103.41023
708.154	14704.8184
708.349	14725.05207
708.544	14504.49954
708.739	14607.69547
708.934	14368.9231
709.129	14858.59231
709.324	14765.51915
709.519	15145.89892
709.714	14822.17255
709.909	14911.1983
710.104	14470.10017
710.299	14591.50808
710.494	14555.08618
710.689	14878.82543
710.884	14890.96527
711.079	14808.00925
711.274	14599.60178
711.469	14897.03518
711.664	14542.94546
711.859	14769.56584
712.054	14660.30401
712.249	14488.31165
712.443	14364.87593
712.638	14510.56998
712.833	14257.62362
713.028	14459.98263
713.223	14093.69932
713.417	14575.32061
713.612	14336.54561
713.807	14708.86514
714.002	14397.25306
714.196	14690.65478
714.391	14490.33514
714.586	14799.91592
714.78	14502.47606
714.975	14706.84177
715.17	14348.68722
715.364	14708.86514
715.559	14211.07857
715.754	14028.93518
715.948	14057.26978
716.143	14115.96145
716.337	14296.07313
716.532	14484.26466
716.726	14455.9356
716.921	14658.28062
717.115	14150.36605
717.31	14385.11169
717.504	14372.97025
717.699	14775.63587
717.893	14492.35863
718.088	14700.77166
718.282	14627.92961
718.476	14453.91208
718.671	14101.79467
718.865	14435.70038
719.059	14166.55623
719.254	14093.69932
719.448	13978.33649
719.642	14004.648
719.837	13733.41525
720.031	13731.39093
720.225	13670.65986
720.419	14150.36605
720.614	13717.2206
720.808	14079.53236
721.002	13711.14756
721.196	14024.88734
721.39	13923.68814
721.585	13826.5307
721.779	13911.54381
721.973	14223.22085
722.167	13952.02456
722.361	13972.26455
722.555	13624.09738
722.749	13737.46388
722.943	13613.97487
723.137	13871.06198
723.331	13767.82822
723.525	13652.43997
723.719	13449.97785
723.913	13636.24428
724.107	13587.65594
724.301	13824.50651
724.495	13755.68257
724.689	13739.48819
724.883	13336.58267
725.077	13514.76964
725.271	13431.75445
725.465	13498.57205
725.659	13779.97377
725.853	13966.19258
726.046	13792.1192
726.24	13364.93264
726.434	13482.37422
726.628	13676.73309
726.822	13425.67992
727.015	13632.19533
727.209	13514.76964
727.403	13385.18213
727.596	13221.14929
727.79	13482.37422
727.984	13445.92823
728.177	13449.97785
728.371	13389.23198
728.565	13255.57825
728.758	13437.82895
728.952	13490.47317
729.146	13555.2626
729.339	13759.73113
729.533	13308.23189
729.726	13725.31795
729.92	13579.55769
730.113	13798.19188
730.307	13887.25484
730.5	13844.74821
730.694	13532.99165
730.887	13456.05224
731.081	13524.89302
731.274	13703.05012
731.468	13652.43997
731.661	13812.36136
731.854	13559.31181
732.048	13561.33642
732.241	13589.68049
732.435	13850.82066
732.628	13741.5125
732.821	13747.58541
733.014	13557.28721
733.208	13741.5125
733.401	13530.967
733.594	13808.31295
733.788	13652.43997
733.981	13605.8768
734.174	13585.63138
734.367	13219.12402
734.56	13314.30713
734.754	13160.38917
734.947	13208.99759
735.14	13233.30083
735.333	13415.55562
735.526	13273.80484
735.719	13215.07346
735.912	13172.54152
736.105	13215.07346
736.298	12972.00585
736.491	13152.28751
736.684	13204.94699
736.877	13097.59936
737.07	13125.9566
737.263	13176.59226
737.456	13587.65594
737.649	13247.47743
737.842	13575.50854
738.035	13462.1266
738.228	13026.70213
738.421	13348.73275
738.614	13510.72026
738.807	13618.02388
739	13263.679
739.192	12925.40978
739.385	13040.88205
739.578	13204.94699
739.771	13192.79507
739.964	13105.70152
740.156	13239.37655
740.349	12838.28792
740.542	13290.00596
740.735	13241.40177
740.927	13269.75452
741.12	13117.85463
741.313	12939.59148
741.505	13065.18993
741.698	12874.75875
741.891	12876.78485
742.083	12980.10923
742.276	13024.67641
742.468	12890.96744
742.661	12560.64386
742.854	12864.62814
743.046	12619.42454
743.239	12781.55199
743.431	12712.65241
743.624	12805.86793
743.816	12627.53182
744.009	12428.87466
744.201	12505.91227
744.393	12613.34402
744.586	12720.75859
744.778	12536.31928
744.971	12554.5628
745.163	12607.26345
745.355	12609.29031
745.548	12842.34032
745.74	12755.20882
745.932	12803.84163
746.125	12659.95995
746.317	12834.2355
746.509	12676.17344
746.702	12495.77628
746.894	12582.94059
747.086	12475.50382
747.278	12625.50501
747.471	12556.58982
747.663	12297.07735
747.855	12505.91227
748.047	12370.07636
748.239	12793.71006
748.431	12617.39771
748.623	12868.6804
748.815	12394.40738
749.008	12842.34032
749.2	12698.46637
749.392	13109.75258
749.584	12532.26509
749.776	12704.54613
749.968	12311.27231
750.16	12690.35993
750.352	12177.42021
750.544	12299.10522
750.736	12799.78902
750.928	12550.50872
751.12	12280.85412
751.311	12276.79824
751.503	12217.98478
751.695	12327.49469
751.887	12374.13159
752.079	12363.99345
752.271	12217.98478
752.463	12651.85306
752.654	12574.83277
752.846	12499.8307
753.038	12327.49469
753.23	12601.18282
753.421	12157.13682
753.613	12363.99345
753.805	12404.54502
753.997	12238.26596
754.188	12447.12127
754.38	12187.56163
754.572	12242.32211
754.763	12412.65501
754.955	12104.39649
755.146	12055.70854
755.338	12039.47823
755.53	12142.938
755.721	12142.938
755.913	12357.91048
756.104	11877.14709
756.296	11873.08815
756.487	12075.99572
756.679	11731.00363
756.87	11739.12388
757.062	11739.12388
757.253	11722.88324
757.445	11603.09086
757.636	11562.4761
757.827	11797.99156
758.019	11822.34848
758.21	11814.22964
758.401	11596.99888
758.593	11802.05113
758.784	11661.97577
758.975	11864.97015
759.167	11771.6035
759.358	11670.09723
759.549	11487.32893
759.74	11495.45357
759.932	11625.42742
760.123	11688.36999
760.314	11542.16732
760.505	11373.56772
760.696	11359.3454
760.888	11416.23175
761.079	11267.90452
761.27	11515.76451
761.461	11534.04355
761.652	11757.39394
761.843	11513.73346
762.034	11564.50692
762.225	11243.51681
762.416	11194.73691
762.607	10905.99598
762.798	11269.93676
762.989	11174.41017
763.18	11477.17291
763.371	11389.82119
763.562	11532.01258
763.753	11312.61151
763.944	11312.61151
764.135	11276.03343
764.326	11586.8454
764.517	11217.0951
764.708	11387.78954
764.899	11036.16009
765.089	11042.26041
765.28	10910.0643
765.471	10810.37703
765.662	10804.27283
765.853	11023.95914
766.043	10932.43929
766.234	11184.57367
766.425	10694.37882
766.615	11121.55572
766.806	10973.11758
766.997	10903.9618
767.187	10938.54132
767.378	11251.64621
767.569	10779.85493
767.759	11215.06259
767.95	11172.37744
768.141	10857.17248
768.331	10733.0492
768.522	10726.94364
768.712	10690.308
768.903	10726.94364
769.093	10612.95316
769.284	10376.70528
769.474	10441.89433
769.665	10702.52031
769.855	10486.70411
770.046	10287.04831
770.236	10079.10615
770.426	10291.12419
770.617	10502.99704
770.807	10462.26318
770.998	10211.63484
771.188	10117.8514
771.378	10117.8514
771.569	10505.03359
771.759	10724.90843
771.949	10562.05209
772.139	10551.87094
772.33	10384.85464
772.52	10242.21011
772.71	10260.5538
772.9	10305.38934
773.09	10592.59366
773.281	10390.96653
773.471	10462.26318
773.661	10482.63075
773.851	10413.37576
774.041	10081.1455
774.231	10105.6166
774.421	9732.20599
774.611	10123.9686
774.802	10215.71172
774.992	9756.70713
775.182	9826.11521
775.372	10185.13379
775.562	9785.28904
775.752	10152.51391
775.942	9858.77185
776.131	10258.51567
776.321	9901.62792
776.511	9938.35654
776.701	9546.33341
776.891	9860.81276
777.081	9881.22108
777.271	9589.23855
777.461	9801.62023
777.651	9971.00023
777.84	9611.7099
778.03	9689.3237
778.22	9591.28147
778.41	9513.63909
778.599	9636.22194
778.789	9911.83079
778.979	9836.32082
779.169	9826.11521
779.358	9922.03329
779.548	9875.09874
779.738	9836.32082
779.927	9705.66061
780.117	9868.97627
780.307	9781.20609
780.496	9713.8287
780.686	9817.95046
780.875	9681.15488
781.065	9703.61855
781.254	9442.10601
781.444	9593.32439
781.633	9366.46378
781.823	9656.64694
782.012	9401.22109
782.202	9607.62434
782.391	9550.41991
782.581	9456.41421
782.77	9188.5132
782.96	9360.32965
783.149	9208.97375
783.338	9446.19415
783.528	9323.52173
783.717	9280.57238
783.906	9294.88964
784.096	9002.24349
784.285	8926.46618
784.474	9043.19418
784.663	9067.76124
784.853	9041.14681
785.042	9039.09942
785.231	9080.04384
785.42	8914.17568
785.61	9233.52417
785.799	8895.73873
785.988	9143.49403
786.177	8766.63933
786.366	8961.28578
786.555	8651.82354
786.744	9080.04384
786.933	9026.81474
787.122	9010.43419
787.312	8553.36366
787.501	8783.03689
787.69	8879.34912
787.879	9098.46657
788.068	8942.85251
788.257	8766.63933
788.445	8709.23866
788.634	9192.60545
788.823	8819.92714
789.012	8920.32101
789.201	8850.66454
789.39	8910.07871
789.579	8553.36366
789.768	8819.92714
789.957	8557.46702
790.145	8664.128
790.334	8582.08559
790.523	8590.29118
790.712	8278.26437
790.9	8458.96549
791.089	8545.15672
791.278	8434.33324
791.467	8409.69823
791.655	8483.59498
791.844	8364.52682
792.033	8655.9251
792.221	8140.58335
792.41	8399.43282
792.599	8321.3999
792.787	8473.33302
792.976	8097.4112
793.164	8249.50254
793.353	7959.61191
793.541	8265.93834
793.73	8171.41521
793.918	8323.45375
794.107	8035.72128
794.295	8074.79367
794.484	8169.35989
794.672	8323.45375
794.861	8212.51737
795.049	8138.52774
795.238	8226.90125
795.426	8302.9143
795.614	8278.26437
795.803	8304.96833
795.991	7957.55451
796.179	8031.60797
796.368	7996.64157
796.556	7961.66929
796.744	8046.0042
796.932	8171.41521
797.121	7683.73616
797.309	7780.54116
797.497	7850.54149
797.685	7776.42274
797.874	7743.47239
798.062	7881.41635
798.25	7586.88448
798.438	7617.79969
798.626	7498.23419
798.814	7578.63961
799.002	7772.30424
799.19	7780.54116
799.378	7737.2936
799.566	7578.63961
799.755	7634.28585
799.943	7912.28657
800.131	8072.73741
800.318	8146.75008
800.506	7615.73883
800.694	7640.4678
800.882	7487.92343
801.07	7694.03678
801.258	7834.07299
801.446	7646.64957
801.634	7576.57834
801.822	7667.25408
802.01	7582.76209
802.197	7990.47042
802.385	7722.87569
802.573	7599.25114
802.761	7541.53347
802.949	7829.95565
803.136	7434.29881
803.324	7675.49529
803.512	7564.21027
803.699	7454.9254
803.887	7825.83824
804.075	7700.21689
804.262	7718.7561
804.45	7869.06697
804.638	7673.43502
804.825	7747.59148
805.013	7405.41795
805.201	7570.3944
805.388	7329.06942
805.576	7632.22515
805.763	7545.65672
805.951	7782.60034
806.138	7704.33686
806.326	7819.66196
806.513	7529.16321
806.701	7514.73027
806.888	7537.41014
807.075	7669.31441
807.263	7357.96157
807.45	7644.589
807.638	7380.65954
807.825	7792.89591
808.012	7739.35322
808.2	7661.07295
808.387	7724.93545
808.574	7446.67502
808.761	7465.23788
808.949	7607.49515
809.136	7250.6262
809.323	7661.07295
809.51	7547.71831
809.698	7549.77988
809.885	7347.64343
810.072	7694.03678
810.259	7382.72286
810.446	7415.73303
810.633	7545.65672
810.82	7770.24496
811.008	7541.53347
811.195	7895.82303
811.382	7759.94824
811.569	7871.12525
811.756	7522.97779
811.943	7537.41014
812.13	7277.46561
812.317	7809.36774
812.504	7479.67444
812.691	7768.18566
812.878	7533.28672
813.064	7566.27167
813.251	7492.0478
813.438	7617.79969
813.625	7331.13328
813.812	7572.45574
813.999	7640.4678
814.186	7883.47451
814.372	7601.31218
814.559	7850.54149
814.746	7380.65954
814.933	7648.71012
815.12	7347.64343
815.306	7578.63961
815.493	7314.62173
815.68	7638.40717
815.866	7306.36543
816.053	7829.95565
816.24	7496.17208
816.426	7739.35322
816.613	7551.84143
816.799	7403.35487
816.986	7708.45675
817.173	7731.11462
817.359	7413.67006
817.546	7448.73765
817.732	7355.89798
817.919	7428.11042
818.105	7522.97779
818.292	7652.83115
818.478	7329.06942
818.665	7764.06699
818.851	7638.40717
819.037	7702.27689
819.224	7349.7071
819.41	7582.76209
819.597	7182.47863
819.783	7165.95437
819.969	7269.20772
820.156	7669.31441
820.342	7452.86284
820.528	7694.03678
820.714	7399.22864
820.901	7527.10143
821.087	7260.94949
821.273	7357.96157
821.459	7265.07865
821.646	7390.97592
821.832	7440.48702
822.018	7461.11295
822.204	7159.75741
822.39	7535.34844
822.576	7182.47863
822.762	7628.1037
822.948	7269.20772
823.134	7364.15218
823.32	7236.17266
823.507	7380.65954
823.693	7186.60947
823.879	7467.30031
824.065	7118.43921
824.25	7320.81373
824.436	7322.87768
824.622	7263.01408
824.808	7054.37837
824.994	7170.08557
825.18	6831.02977
825.366	6959.28062
825.552	6793.77929
825.738	7176.2822
825.923	6787.57016
826.109	7013.03737
826.295	6872.41054
826.481	6924.12373
826.667	6580.48104
826.852	6919.9872
827.038	6640.56056
827.224	6905.50862
827.409	6574.26481
827.595	6893.09752
827.781	6713.04453
827.966	7021.30629
828.152	6802.05782
828.338	6878.61687
828.523	6694.40848
828.709	6793.77929
828.894	6684.05432
829.08	6893.09752
829.266	6737.88971
829.451	6880.68561
829.637	6644.70326
829.822	6762.73158
830.008	6702.6914
830.193	6812.40546
830.378	6588.76903
830.564	6804.12739
830.749	6512.09106
830.935	6445.74939
831.12	6121.99168
831.305	6710.97395
831.491	6358.63981
831.676	6835.16826
831.861	6439.52864
832.047	6667.48647
832.232	6454.0434
832.417	6503.79965
832.602	6400.12569
832.788	6642.63192
832.973	6267.338
833.158	6315.06959
833.343	6437.45501
833.528	6578.40899
833.714	6234.12612
833.899	6383.53245
834.084	6113.6827
834.269	6592.91288
834.454	6267.338
834.639	6304.69421
834.824	6190.52641
835.009	6528.67276
835.194	6275.64004
835.379	6425.01274
835.564	6200.90823
835.749	6512.09106
835.934	6223.74617
836.119	6142.76248
836.304	5880.87835
836.489	5922.47224
836.674	5951.58235
836.859	5920.39277
837.044	5720.65376
837.228	5943.26565
837.413	5501.94024
837.598	5760.20271
837.783	5460.25107
837.968	5920.39277
838.152	5731.06221
838.337	6250.73281
838.522	6038.88495
838.707	6283.9417
838.891	5691.50698
839.076	5835.11418
839.261	5781.01452
839.445	6092.9086
839.63	5735.22542
839.815	5947.42404
839.999	5783.09557
840.184	6022.25909
840.368	5770.60891
840.553	6055.50931
840.737	5835.11418
840.922	5722.7355
841.106	5957.81963
841.291	5595.70644
841.475	5674.84961
841.66	5997.31747
841.844	5633.19955
842.029	5783.09557
842.213	5601.95582
842.397	5708.16285
842.582	5372.6732
842.766	5774.77122
842.951	5566.53985
843.135	5689.42489
843.319	5341.38536
843.504	5618.61981
843.688	5501.94024
843.872	5385.18686
844.056	5389.3579
844.241	5474.84335
844.425	5138.9302
844.609	5510.27695
844.793	5209.91887
844.977	5449.82731
845.161	5170.25205
845.346	5126.4
845.53	5310.09223
845.714	5239.14166
845.898	5047.02265
846.082	5289.22722
846.266	5088.80438
846.45	5310.09223
846.634	5207.83135
846.818	5034.48632
847.002	5147.28321
847.186	5262.09922
847.37	5251.66431
847.554	5082.53771
847.738	5170.25205
847.922	5047.02265
848.106	5015.68028
848.29	5147.28321
848.473	5061.64731
848.657	5228.70547
848.841	5061.64731
849.025	5453.99689
849.209	4982.24269
849.392	5134.75356
849.576	4745.92259
849.76	5005.23167
849.944	4762.66279
850.127	4929.98466
850.311	4846.34198
850.495	4969.70207
850.678	4741.73732
850.862	4863.07344
851.046	4754.29287
851.229	5009.41118
851.413	4549.11739
851.596	4812.87467
851.78	4310.17614
851.964	4645.45107
852.147	4482.07493
852.331	4553.30679
852.514	4438.06605
852.698	4687.32051
852.881	4431.77828
853.065	4666.38692
853.248	4584.72447
853.431	4840.0673
853.615	4452.73676
853.798	4689.41375
853.982	4614.04311
854.165	4639.16988
854.348	4394.04751
854.532	4549.11739
854.715	4429.68231
854.898	4576.34691
855.081	4396.14385
855.265	4553.30679
855.448	4192.69841
855.631	4435.97015
855.814	4138.13254
855.997	4110.84429
856.181	4152.82475
856.364	4370.98634
856.547	4150.72593
856.73	4410.81761
856.913	4186.40308
857.096	4410.81761
857.279	4171.71323
857.462	4238.85836
857.645	4100.34786
857.828	4259.83674
858.011	4198.99355
858.194	4276.61791
858.377	4079.35345
858.56	4305.98166
858.743	4117.14189
858.926	4305.98166
859.109	4148.62709
859.292	4190.59999
859.475	4033.15844
859.658	4360.50312
859.841	3953.34362
860.023	4175.91043
860.206	3905.02039
860.389	3972.2498
860.572	3974.35038
860.755	3820.95472
860.937	3638.00364
861.12	4066.7558
861.303	3841.97412
861.486	3942.83948
861.668	3789.42192
861.851	3711.62222
862.034	3690.59073
862.216	3940.73859
862.399	3616.96548
862.581	3770.50012
862.764	3652.72922
862.947	3745.2686
863.129	3507.53702
863.312	3629.5886
863.494	3503.32724
863.677	3629.5886
863.859	3537.00345
864.042	3665.35041
864.224	3541.21264
864.406	3638.00364
864.589	3315.91949
864.771	3635.89991
864.954	3326.4517
865.136	3650.62562
865.318	3412.79945
865.501	3461.22543
865.683	3478.06702
865.865	3635.89991
866.048	3412.79945
866.23	3795.72883
866.412	3360.15188
866.594	3503.32724
866.777	3545.42177
866.959	3682.17759
867.141	3389.63587
867.323	3433.85538
867.505	3100.97084
867.687	3296.96043
867.869	3296.96043
868.052	3515.95637
868.234	3197.92973
868.416	3560.15311
868.598	3237.96787
868.78	3296.96043
868.962	2984.99784
869.144	3256.93121
869.326	3058.80427
869.508	3419.11641
869.69	3159.99338
869.872	3450.69884
870.054	3103.07901
870.236	3277.99998
870.417	3261.1451
870.599	3143.13108
870.781	3212.68132
870.963	3364.36409
871.145	3063.02121
871.327	3284.32028
871.508	2968.12518
871.69	3368.57623
871.872	3210.574
872.054	3372.7883
872.235	3060.91274
872.417	3208.46666
872.599	3016.63146
872.78	3326.4517
872.962	2989.21585
873.144	3345.4086
873.325	3039.82727
873.507	3395.95342
873.689	3157.88565
873.87	3486.48738
874.052	3012.41384
874.233	3452.8042
874.415	3313.813
874.596	3330.66447
874.778	2900.62507
874.959	3332.77082
875.141	3141.02322
875.322	3334.87716
875.503	3081.99666
875.685	3153.67014
875.866	2976.56163
876.048	3166.31647
876.229	2909.06341
876.41	2999.76062
876.592	2894.29617
876.773	3240.07498
876.954	2963.90687
877.136	3075.67165
877.317	2999.76062
877.498	2938.59574
877.679	2997.6517
877.86	3132.59162
878.042	2966.01603
878.223	3275.89318
878.404	3012.41384
878.585	3124.15976
878.766	2951.25157
878.947	3303.28027
879.128	2972.34344
879.309	3035.60999
879.49	2947.03302
879.672	3305.38685
879.853	3092.53803
880.034	3284.32028
880.215	2879.52823
880.396	3141.02322
880.576	3035.60999
880.757	3174.74703
880.938	2875.30869
881.119	3124.15976
881.3	2989.21585
881.481	3075.67165
881.662	2887.96714
881.843	3119.94374
882.023	2776.13328
882.204	3183.17733
882.385	3090.42979
882.566	3292.74711
882.747	2947.03302
882.927	3077.78
883.108	2803.56784
883.289	3058.80427
883.469	3056.69577
883.65	3065.12965
883.831	2909.06341
884.011	3212.68132
884.192	3098.86266
884.373	3143.13108
884.553	2896.40582
884.734	3233.75361
884.914	2955.47006
885.095	3185.28487
885.275	2936.48638
885.456	3185.28487
885.636	2778.24371
885.817	3058.80427
885.997	3048.26164
886.178	3143.13108
886.358	2875.30869
886.538	3008.19616
886.719	3162.10109
886.899	3027.17524
887.08	2906.95385
887.26	3039.82727
887.44	2915.39201
887.621	3174.74703
887.801	2890.07683
887.981	2955.47006
888.161	2896.40582
888.342	3056.69577
888.522	2930.15822
888.702	3170.53178
888.882	2890.07683
889.062	3111.5115
889.242	3141.02322
889.423	3233.75361
889.603	2957.57929
889.783	3248.50323
889.963	2689.59407
890.143	3092.53803
890.323	2803.56784
890.503	3168.42413
890.683	2778.24371
890.863	3035.60999
891.043	2805.67809
891.223	3090.42979
891.403	3069.3465
891.583	3075.67165
891.763	2959.6885
891.943	3166.31647
892.122	2957.57929
892.302	3092.53803
892.482	2947.03302
892.662	3151.56236
892.842	2999.76062
893.022	2904.84427
893.201	2746.58581
893.381	2826.77988
893.561	2721.25733
893.741	2942.81441
893.92	2676.92796
894.1	3046.15307
894.28	2841.55031
894.459	3050.3702
894.639	2909.06341
894.819	3153.67014
894.998	2860.53984
895.178	3035.60999
895.357	2558.68921
895.537	2894.29617
895.716	2664.26138
895.896	2824.66976
896.075	2714.92491
896.255	2837.33025
896.434	2641.03815
896.614	2784.57493
896.793	2522.78785
896.973	2837.33025
897.152	2474.21015
897.331	2577.69444
897.511	2332.66867
897.69	2461.53674
897.87	2347.45874
898.049	2592.47562
898.228	2495.33162
898.407	2537.57117
898.587	2317.87812
898.766	2516.45197
898.945	2279.84312
899.124	2537.57117
899.304	2205.87767
899.483	2459.42446
899.662	2191.0833
899.841	2368.58657
900.02	2239.69181
900.199	2442.52587
900.378	2271.39049
900.557	2476.32235
900.737	2169.94776
900.916	2444.63824
901.095	2229.12513
901.274	2343.23306
901.453	2180.51563
901.632	2398.16383
901.811	2205.87767
901.989	2292.5218
902.168	2051.57414
902.347	2275.61682
902.526	2034.66174
902.705	2216.44483
902.884	1850.7136
903.063	1983.92196
903.242	1865.51558
903.42	2210.10456
903.599	1861.28647
903.778	2081.16976
903.957	2047.34608
904.135	2178.40207
904.314	1967.00788
904.493	2144.58402
904.672	1806.30626
904.85	1967.00788
905.029	1816.87961
905.207	2002.94982
905.386	1764.01177
905.565	1916.26333
905.743	1778.81503
905.922	1920.49217
906.1	1467.91872
906.279	1654.03943
906.457	1493.29932
906.636	1677.3035
906.814	1575.78549
906.993	1738.63433
907.171	1550.40531
907.35	1713.25638
907.528	1501.7595
907.707	1624.43017
907.885	1450.9983
908.063	1563.09543
908.242	1317.7512
908.42	1586.3605
908.598	1427.73273
908.777	1478.49398
908.955	1349.47632
909.133	1525.02495
909.311	1391.77694
909.49	1436.19294
909.668	1455.22841
909.846	1569.44047
910.024	1362.16646
910.202	1448.88325
910.38	1379.08671
910.559	1474.26387
910.737	1256.4172
910.915	1503.87455
911.093	1319.8662
911.271	1499.64446
911.449	1332.55621
911.627	1450.9983
911.805	1370.62658
911.983	1546.17526
912.161	1315.63621
912.339	1402.35216
912.517	1391.77694
912.695	1706.91182
912.872	1404.4672
913.05	1497.52941
913.228	1381.20175
913.406	1560.98041
913.584	1446.7682
913.762	1571.55548
913.939	1349.47632
914.117	1341.01625
914.295	1343.13127
914.473	1328.3262
914.65	1243.72766
914.828	1560.98041
915.006	1212.00427
915.184	1315.63621
915.361	1313.52121
915.539	1520.79488
915.716	1239.49783
915.894	1501.7595
916.072	1315.63621
916.249	1315.63621
916.427	1231.03822
916.604	1531.37006
916.782	1345.24629
916.959	1421.38758
917.137	1286.02648
917.314	1417.15749
917.492	1154.90408
917.669	1341.01625
917.847	1273.33673
918.024	1269.10683
918.201	1163.36319
918.379	1396.00703
918.556	1243.72766
918.733	1364.28149
918.911	1218.34889
919.088	1415.04244
919.265	1167.59277
919.442	1184.51125
919.62	1061.85857
919.797	1353.70636
919.974	1163.36319
920.151	1212.00427
920.328	1099.92152
920.506	1063.97313
920.683	1085.11906
920.86	1146.44503
921.037	989.96684
921.214	1131.64186
921.391	926.53919
921.568	1063.97313
921.745	1070.31686
921.922	1163.36319
922.099	1044.94226
922.276	1228.92332
922.453	1011.11074
922.63	1163.36319
922.807	975.1665
922.984	981.50947
923.161	1006.88191
923.338	1004.76751
923.514	951.90949
923.691	1083.00445
923.868	941.33841
924.045	918.08266
924.222	987.85249
924.399	1036.48424
924.575	850.435
924.752	973.05219
924.929	782.79623
925.105	968.8236
925.282	734.18699
925.459	924.42505
925.635	723.62049
925.812	825.06936
925.989	687.69643
926.165	791.25055
926.342	706.71465
926.518	934.99584
926.695	746.86714
926.871	736.30033
927.048	799.70503
927.224	691.92262
927.401	636.98573
927.577	641.21136
927.754	548.25922
927.93	696.14886
928.107	664.45318
928.283	729.96036
928.459	715.16749
928.636	685.58335
928.812	554.59606
928.988	691.92262
929.165	653.88854
929.341	672.90511
929.517	565.15772
929.693	719.39397
929.87	554.59606
930.046	626.42187
930.222	579.94462
930.398	761.66112
930.574	465.89196
930.751	584.16957
930.927	544.03473
931.103	520.80104
931.279	525.02522
931.455	478.56239
931.631	529.24946
931.807	533.47375
931.983	419.43842
932.159	531.3616
932.335	406.7706
932.511	548.25922
932.687	451.11047
932.863	459.55694
933.039	404.65936
933.215	453.22206
933.391	427.88395
933.566	546.14697
933.742	389.88109
933.918	404.65936
934.094	351.8836
934.27	398.32572
934.445	360.32701
934.621	423.66115
934.797	311.78121
934.973	339.219
935.148	351.8836
935.324	334.99761
935.5	235.81579
935.675	360.32701
935.851	263.24494
936.027	360.32701
936.202	269.5752
936.378	267.46509
936.553	225.26699
936.729	322.33385
936.904	204.17086
937.08	265.355
937.255	210.49949
937.431	124.02423
937.606	132.45929
937.782	119.80683
937.957	216.8283
938.133	143.00359
938.308	208.38993
938.483	132.45929
938.659	109.26371
938.834	128.24171
939.009	140.89469
939.185	71.31307
939.36	140.89469
939.535	149.33043
939.71	130.35049
939.886	136.67694
940.061	153.54842
940.236	100.82962
940.411	121.91552
940.586	73.42125
940.761	126.13296
940.937	107.15516
941.112	107.15516
941.287	121.91552
941.462	138.7858
941.637	109.26371
941.812	43.90883
941.987	81.85419
942.162	75.52945
942.337	113.4809
942.512	48.12461
942.687	64.98867
942.862	12.29343
943.037	81.85419
943.212	149.33043
943.386	60.77252
943.561	115.58952
943.736	77.63768
943.911	73.42125
944.086	119.80683
944.26	73.42125
944.435	136.67694
944.61	94.50427
944.785	69.20492
944.959	48.12461
945.134	16.50851
945.309	134.5681
945.483	117.69816
945.658	-2.45859
945.833	102.93811
946.007	96.6127
946.182	67.09678
946.357	115.58952
946.531	119.80683
946.706	48.12461
946.88	117.69816
947.055	149.33043
947.229	102.93811
947.404	60.77252
947.578	132.45929
947.752	88.17913
947.927	109.26371
948.101	90.28749
948.276	81.85419
948.45	67.09678
948.624	92.39587
948.799	39.69314
948.973	71.31307
949.147	86.0708
949.321	115.58952
949.496	39.69314
949.67	39.69314
949.844	64.98867
950.018	109.26371
950.193	111.37229
950.367	69.20492
950.541	90.28749
950.715	33.36978
950.889	60.77252
951.063	107.15516
951.237	62.88058
951.411	64.98867
951.585	69.20492
951.759	10.18593
951.933	77.63768
952.107	43.90883
952.281	124.02423
952.455	98.72115
952.629	64.98867
952.803	117.69816
952.977	58.66448
953.151	64.98867
953.325	73.42125
953.499	73.42125
953.672	107.15516
953.846	81.85419
954.02	102.93811
954.194	46.01671
954.368	64.98867
954.541	58.66448
954.715	124.02423
954.889	48.12461
955.062	48.12461
955.236	147.22146
955.41	69.20492
955.583	83.96248
955.757	113.4809
955.93	90.28749
956.104	73.42125
956.278	100.82962
956.451	115.58952
956.625	107.15516
956.798	94.50427
956.972	54.44846
957.145	16.50851
957.319	128.24171
957.492	73.42125
957.665	102.93811
957.839	71.31307
958.012	14.40096
958.185	56.55646
958.359	111.37229
958.532	39.69314
958.705	151.43941
958.879	90.28749
959.052	22.83131
959.225	124.02423
959.398	67.09678
959.572	56.55646
959.745	107.15516
959.918	79.74592
960.091	86.0708
960.264	130.35049
960.438	121.91552
960.611	43.90883
960.784	58.66448
960.957	124.02423
961.13	69.20492
961.303	159.87558
961.476	77.63768
961.649	69.20492
961.822	149.33043
961.995	69.20492
962.168	115.58952
962.341	90.28749
962.514	109.26371
962.686	64.98867
962.859	73.42125
963.032	71.31307
963.205	98.72115
963.378	157.7665
963.551	56.55646
963.723	79.74592
963.896	43.90883
964.069	117.69816
964.242	119.80683
964.414	56.55646
964.587	130.35049
964.76	52.34049
964.932	73.42125
965.105	90.28749
965.278	35.47754
965.45	60.77252
965.623	54.44846
965.795	50.23254
965.968	56.55646
966.14	-10.88778
966.313	69.20492
966.485	92.39587
966.658	83.96248
966.83	117.69816
967.003	64.98867
967.175	90.28749
967.348	31.26204
967.52	77.63768
967.692	71.31307
967.865	77.63768
968.037	64.98867
968.209	143.00359
968.382	12.29343
968.554	48.12461
968.726	69.20492
968.898	48.12461
969.071	69.20492
969.243	69.20492
969.415	98.72115
969.587	98.72115
969.759	60.77252
969.932	5.97099
970.104	71.31307
970.276	33.36978
970.448	102.93811
970.62	109.26371
970.792	73.42125
970.964	145.11251
971.136	24.93896
971.308	56.55646
971.48	111.37229
971.652	151.43941
971.824	69.20492
971.996	94.50427
972.168	41.80097
972.339	56.55646
972.511	31.26204
972.683	109.26371
972.855	71.31307
973.027	140.89469
973.199	1.75615
973.37	-8.78052
973.542	81.85419
973.714	43.90883
973.886	58.66448
974.057	31.26204
974.229	81.85419
974.401	157.7665
974.572	138.7858
974.744	56.55646
974.915	109.26371
975.087	90.28749
975.259	79.74592
975.43	111.37229
975.602	64.98867
975.773	105.04662
975.945	-44.60065
976.116	86.0708
976.288	54.44846
976.459	90.28749
976.63	10.18593
976.802	8.07845
976.973	22.83131
977.145	-10.88778
977.316	86.0708
977.487	90.28749
977.659	52.34049
977.83	39.69314
978.001	43.90883
978.172	14.40096
978.344	-23.53085
978.515	124.02423
978.686	43.90883
978.857	1.75615
979.028	58.66448
979.2	10.18593
979.371	35.47754
979.542	107.15516
979.713	73.42125
979.884	81.85419
980.055	24.93896
980.226	92.39587
980.397	83.96248
980.568	31.26204
980.739	98.72115
980.91	31.26204
981.081	71.31307
981.252	107.15516
981.423	48.12461
981.594	14.40096
981.765	39.69314
981.936	73.42125
982.106	83.96248
982.277	48.12461
982.448	81.85419
982.619	60.77252
982.79	-4.56592
982.96	48.12461
983.131	20.72369
983.302	-2.45859
983.472	113.4809
983.643	37.58533
983.814	16.50851
983.984	52.34049
984.155	52.34049
984.326	-10.88778
984.496	27.04663
984.667	60.77252
984.837	56.55646
985.008	56.55646
985.178	69.20492
985.349	88.17913
985.519	43.90883
985.69	81.85419
985.86	39.69314
986.031	90.28749
986.201	24.93896
986.371	113.4809
986.542	-0.35123
986.712	52.34049
986.882	60.77252
987.053	8.07845
987.223	90.28749
987.393	39.69314
987.563	5.97099
987.734	92.39587
987.904	52.34049
988.074	31.26204
988.244	50.23254
988.414	-4.56592
988.585	22.83131
988.755	35.47754
988.925	1.75615
989.095	102.93811
989.265	41.80097
989.435	35.47754
989.605	83.96248
989.775	14.40096
989.945	115.58952
990.115	37.58533
990.285	90.28749
990.455	22.83131
990.625	-4.56592
990.795	22.83131
990.965	18.61609
991.134	98.72115
991.304	86.0708
991.474	83.96248
991.644	81.85419
991.814	67.09678
991.984	29.15432
992.153	90.28749
992.323	27.04663
992.493	-19.31659
992.662	43.90883
992.832	100.82962
993.002	94.50427
993.171	69.20492
993.341	39.69314
993.511	64.98867
993.68	90.28749
993.85	92.39587
994.019	41.80097
994.189	88.17913
994.358	24.93896
994.528	5.97099
994.697	41.80097
994.867	69.20492
995.036	48.12461
995.206	-21.42373
995.375	60.77252
995.544	73.42125
995.714	58.66448
995.883	-36.17303
996.052	39.69314
996.222	8.07845
996.391	-19.31659
996.56	18.61609
996.73	-17.20943
996.899	69.20492
997.068	39.69314
997.237	1.75615
997.406	18.61609
997.576	86.0708
997.745	-10.88778
997.914	-0.35123
998.083	-15.10224
998.252	-40.38689
998.421	3.86356
998.59	24.93896
998.759	-6.67324
998.928	39.69314
999.097	98.72115
999.266	-27.74501
999.435	-8.78052
999.604	22.83131
999.773	46.01671
999.942	-0.35123
1000.111	-4.56592
1000.28	64.98867
1000.448	39.69314
1000.617	-2.45859
1000.786	73.42125
1000.955	77.63768
1001.124	-19.31659
1001.292	-15.10224
1001.461	35.47754
1001.63	27.04663
1001.798	39.69314
1001.967	39.69314
1002.136	96.6127
1002.304	-19.31659
1002.473	-27.74501
1002.642	18.61609
1002.81	-0.35123
1002.979	-2.45859
1003.147	33.36978
1003.316	56.55646
1003.484	48.12461
1003.653	88.17913
1003.821	-17.20943
1003.99	48.12461
1004.158	16.50851
1004.327	107.15516
1004.495	90.28749
1004.663	5.97099
1004.832	-12.99502
1005	46.01671
1005.168	43.90883
1005.337	46.01671
1005.505	-0.35123
1005.673	-34.06606
1005.842	20.72369
1006.01	37.58533
1006.178	-8.78052
1006.346	52.34049
1006.514	5.97099
1006.683	18.61609
1006.851	31.26204
1007.019	-4.56592
1007.187	73.42125
1007.355	39.69314
1007.523	-19.31659
1007.691	-8.78052
1007.859	-69.8811
1008.027	54.44846
1008.195	-29.85205
1008.363	96.6127
1008.531	5.97099
1008.699	-6.67324
1008.867	37.58533
1009.035	14.40096
1009.203	-6.67324
1009.37	-31.95906
1009.538	81.85419
1009.706	73.42125
1009.874	-2.45859
1010.042	50.23254
1010.209	-59.34802
1010.377	-10.88778
1010.545	-2.45859
1010.713	73.42125
1010.88	24.93896
1011.048	77.63768
1011.216	5.97099
1011.383	50.23254
1011.551	-29.85205
1011.718	37.58533
1011.886	-10.88778
1012.054	64.98867
1012.221	56.55646
1012.389	-2.45859
1012.556	-19.31659
1012.724	-27.74501
1012.891	-19.31659
1013.058	56.55646
1013.226	48.12461
1013.393	75.52945
1013.561	-27.74501
1013.728	-27.74501
1013.895	33.36978
1014.063	105.04662
1014.23	22.83131
1014.397	48.12461
1014.565	58.66448
1014.732	48.12461
1014.899	-19.31659
1015.066	8.07845
1015.233	33.36978
1015.401	-31.95906
1015.568	39.69314
1015.735	31.26204
1015.902	-50.9211
1016.069	92.39587
1016.236	-44.60065
1016.403	-15.10224
1016.57	-40.38689
1016.737	-0.35123
1016.904	31.26204
1017.071	24.93896
1017.238	43.90883
1017.405	-2.45859
1017.572	73.42125
1017.739	62.88058
1017.906	-10.88778
1018.073	-31.95906
1018.24	29.15432
1018.407	27.04663
1018.573	56.55646
1018.74	10.18593
1018.907	48.12461
1019.074	1.75615
1019.241	14.40096
1019.407	-31.95906
1019.574	-6.67324
1019.741	1.75615
1019.907	-25.63794
1020.074	-27.74501
1020.241	33.36978
1020.407	37.58533
1020.574	-4.56592
1020.74	27.04663
1020.907	18.61609
1021.073	39.69314
1021.24	-25.63794
1021.406	12.29343
1021.573	-23.53085
1021.739	16.50851
1021.906	-27.74501
1022.072	58.66448
1022.239	-27.74501
1022.405	8.07845
1022.571	83.96248
1022.738	67.09678
1022.904	24.93896
1023.07	50.23254
1023.237	60.77252
1023.403	60.77252
1023.569	56.55646
1023.735	14.40096
1023.902	64.98867
1024.068	-25.63794
1024.234	39.69314
1024.4	31.26204
1024.566	86.0708
1024.732	-19.31659
1024.898	10.18593
1025.065	41.80097
1025.231	-2.45859
1025.397	56.55646
1025.563	27.04663
1025.729	52.34049
1025.895	50.23254
1026.061	22.83131
1026.227	18.61609
1026.392	-31.95906
1026.558	119.80683
1026.724	3.86356
1026.89	1.75615
1027.056	75.52945
1027.222	-10.88778
1027.388	5.97099
1027.553	64.98867
1027.719	-0.35123
1027.885	-36.17303
1028.051	73.42125
1028.216	10.18593
1028.382	69.20492
1028.548	119.80683
1028.713	37.58533
1028.879	14.40096
1029.045	12.29343
1029.21	52.34049
1029.376	37.58533
1029.541	35.47754
1029.707	18.61609
1029.873	64.98867
1030.038	39.69314
1030.204	-8.78052
1030.369	14.40096
1030.534	27.04663
1030.7	39.69314
1030.865	-25.63794
1031.031	73.42125
1031.196	-2.45859
1031.361	-15.10224
1031.527	48.12461
1031.692	20.72369
1031.857	-15.10224
1032.023	83.96248
1032.188	-31.95906
1032.353	69.20492
1032.518	86.0708
1032.684	52.34049
1032.849	-2.45859
1033.014	22.83131
1033.179	10.18593
1033.344	48.12461
1033.509	10.18593
1033.674	1.75615
1033.839	-17.20943
1034.004	-2.45859
1034.17	-31.95906
1034.335	29.15432
1034.5	24.93896
1034.664	-2.45859
1034.829	86.0708
1034.994	46.01671
1035.159	5.97099
1035.324	43.90883
1035.489	-23.53085
1035.654	43.90883
1035.819	69.20492
1035.984	73.42125
1036.148	24.93896
1036.313	115.58952
1036.478	-2.45859
1036.643	33.36978
1036.807	-61.45468
1036.972	-31.95906
1037.137	3.86356
1037.301	67.09678
1037.466	18.61609
1037.631	64.98867
1037.795	86.0708
1037.96	14.40096
1038.124	-10.88778
1038.289	3.86356
1038.454	41.80097
1038.618	22.83131
1038.783	-36.17303
1038.947	73.42125
1039.111	24.93896
1039.276	-42.49378
1039.44	-10.88778
1039.605	73.42125
1039.769	-23.53085
1039.933	33.36978
1040.098	31.26204
1040.262	73.42125
1040.426	52.34049
1040.591	81.85419
1040.755	107.15516
1040.919	27.04663
1041.083	10.18593
1041.248	31.26204
1041.412	27.04663
1041.576	58.66448
1041.74	18.61609
1041.904	22.83131
1042.068	33.36978
1042.232	81.85419
1042.397	43.90883
1042.561	14.40096
1042.725	14.40096
1042.889	-25.63794
1043.053	-8.78052
1043.217	16.50851
1043.381	1.75615
1043.544	-38.27997
1043.708	-21.42373
1043.872	5.97099
1044.036	22.83131
1044.2	31.26204
1044.364	43.90883
1044.528	-17.20943
1044.691	-15.10224
1044.855	50.23254
1045.019	58.66448
1045.183	14.40096
1045.346	-10.88778
1045.51	-12.99502
1045.674	39.69314
1045.837	24.93896
1046.001	41.80097
1046.165	-53.02787
1046.328	73.42125
1046.492	56.55646
1046.655	-2.45859
1046.819	22.83131
1046.983	-8.78052
1047.146	-27.74501
1047.31	-10.88778
1047.473	18.61609
1047.636	107.15516
1047.8	48.12461
1047.963	5.97099
1048.127	56.55646
1048.29	96.6127
