Data from absorb_only_2.23.25_USB4F045381__19__0124.txt Node

Date: Sun Feb 23 19:15:22 EST 2025
User: ssocol
Spectrometer: USB4F04538
Trigger mode: 4
Integration Time (sec): 2.600000E-3
Scans to average: 1
Electric dark correction enabled: true
Nonlinearity correction enabled: true
Boxcar width: 0
XAxis mode: Wavelengths
Number of Pixels in Spectrum: 3648
>>>>>Begin Spectral Data<<<<<
345.52	49.17857
345.736	49.17857
345.952	49.17857
346.168	17.5623
346.384	21.7775
346.6	-60.40135
346.816	-20.37016
347.032	40.74705
347.248	42.8549
347.464	21.7775
347.68	40.74705
347.896	-68.82782
348.112	-5.61958
348.328	0.70246
348.544	7.02472
348.76	-62.50801
348.975	63.93463
349.191	-45.65407
349.407	17.5623
349.623	47.07066
349.839	9.13219
350.055	-51.97449
350.27	66.04272
350.486	15.45473
350.702	-70.93437
350.918	15.45473
351.133	-37.2265
351.349	68.15085
351.565	38.63923
351.781	-28.79853
351.996	32.3159
352.212	7.02472
352.428	-60.40135
352.644	44.96277
352.859	21.7775
353.075	4.91728
353.291	-24.5844
353.506	19.66988
353.722	4.91728
353.938	-28.79853
354.153	-51.97449
354.369	13.34719
354.584	-1.40491
354.8	-18.26301
355.016	-18.26301
355.231	-18.26301
355.447	9.13219
355.662	32.3159
355.878	21.7775
356.093	-9.83416
356.309	25.99279
356.524	25.99279
356.74	-3.51226
356.955	-3.51226
357.171	51.28651
357.386	-24.5844
357.602	13.34719
357.817	144.05805
358.033	93.45007
358.248	-7.72688
358.464	42.8549
358.679	13.34719
358.895	36.53143
359.11	4.91728
359.325	-58.29468
359.541	-58.29468
359.756	25.99279
359.972	21.7775
360.187	-45.65407
360.402	-11.94141
360.618	72.36716
360.833	13.34719
361.048	-16.15583
361.264	-41.44034
361.479	21.7775
361.694	-24.5844
361.909	34.42366
362.125	13.34719
362.34	17.5623
362.555	-49.86771
362.77	-41.44034
362.986	78.6918
363.201	15.45473
363.416	-26.69148
363.631	4.91728
363.847	9.13219
364.062	34.42366
364.277	53.39447
364.492	89.23331
364.707	4.91728
364.922	38.63923
365.138	15.45473
365.353	-16.15583
365.568	38.63923
365.783	-62.50801
365.998	51.28651
366.213	0.70246
366.428	0.70246
366.643	47.07066
366.858	-37.2265
367.073	30.20817
367.288	13.34719
367.503	72.36716
367.718	17.5623
367.933	-45.65407
368.148	68.15085
368.363	-37.2265
368.578	-7.72688
368.793	-18.26301
369.008	-60.40135
369.223	28.10047
369.438	-11.94141
369.653	-18.26301
369.868	-58.29468
370.083	-11.94141
370.298	21.7775
370.513	19.66988
370.728	51.28651
370.943	36.53143
371.157	-24.5844
371.372	4.91728
371.587	-39.33343
371.802	-24.5844
372.017	59.7185
372.232	4.91728
372.446	17.5623
372.661	11.23968
372.876	40.74705
373.091	-3.51226
373.306	34.42366
373.52	-39.33343
373.735	-20.37016
373.95	7.02472
374.165	28.10047
374.379	9.13219
374.594	4.91728
374.809	47.07066
375.023	82.90833
375.238	-75.1474
375.453	9.13219
375.667	9.13219
375.882	36.53143
376.097	63.93463
376.311	-7.72688
376.526	25.99279
376.741	87.12496
376.955	-28.79853
377.17	4.91728
377.384	51.28651
377.599	19.66988
377.813	32.3159
378.028	30.20817
378.242	-58.29468
378.457	13.34719
378.672	0.70246
378.886	-37.2265
379.101	-45.65407
379.315	47.07066
379.53	9.13219
379.744	38.63923
379.958	30.20817
380.173	23.88513
380.387	21.7775
380.602	38.63923
380.816	76.58356
381.031	-11.94141
381.245	-24.5844
381.459	63.93463
381.674	21.7775
381.888	89.23331
382.103	-45.65407
382.317	72.36716
382.531	40.74705
382.746	47.07066
382.96	-20.37016
383.174	53.39447
383.388	-20.37016
383.603	0.70246
383.817	7.02472
384.031	66.04272
384.246	-1.40491
384.46	15.45473
384.674	11.23968
384.888	7.02472
385.103	-54.08124
385.317	4.91728
385.531	23.88513
385.745	66.04272
385.959	82.90833
386.174	38.63923
386.388	59.7185
386.602	-7.72688
386.816	-24.5844
387.03	53.39447
387.244	-20.37016
387.458	-20.37016
387.672	34.42366
387.887	59.7185
388.101	13.34719
388.315	80.80005
388.529	32.3159
388.743	57.61047
388.957	49.17857
389.171	-16.15583
389.385	23.88513
389.599	42.8549
389.813	-1.40491
390.027	57.61047
390.241	-14.04863
390.455	9.13219
390.669	4.91728
390.883	-11.94141
391.097	21.7775
391.311	-54.08124
391.525	63.93463
391.738	-26.69148
391.952	72.36716
392.166	57.61047
392.38	59.7185
392.594	70.25899
392.808	-11.94141
393.022	0.70246
393.236	-7.72688
393.449	13.34719
393.663	25.99279
393.877	0.70246
394.091	-3.51226
394.305	0.70246
394.518	2.80986
394.732	-16.15583
394.946	70.25899
395.16	66.04272
395.373	-41.44034
395.587	47.07066
395.801	-3.51226
396.015	13.34719
396.228	47.07066
396.442	40.74705
396.656	-47.7609
396.869	51.28651
397.083	-62.50801
397.297	-1.40491
397.51	-28.79853
397.724	-3.51226
397.938	51.28651
398.151	47.07066
398.365	15.45473
398.578	4.91728
398.792	0.70246
399.005	-91.99847
399.219	66.04272
399.433	23.88513
399.646	2.80986
399.86	21.7775
400.073	-70.93437
400.287	57.61047
400.5	15.45473
400.714	30.20817
400.927	-11.94141
401.141	55.50246
401.354	99.77538
401.567	-7.72688
401.781	-26.69148
401.994	133.51369
402.208	63.93463
402.421	4.91728
402.635	38.63923
402.848	23.88513
403.061	66.04272
403.275	7.02472
403.488	17.5623
403.701	63.93463
403.915	-9.83416
404.128	23.88513
404.341	30.20817
404.555	44.96277
404.768	25.99279
404.981	34.42366
405.195	7.02472
405.408	15.45473
405.621	-16.15583
405.834	38.63923
406.048	-1.40491
406.261	34.42366
406.474	112.42659
406.687	30.20817
406.9	4.91728
407.114	30.20817
407.327	80.80005
407.54	40.74705
407.753	-3.51226
407.966	55.50246
408.179	57.61047
408.392	7.02472
408.605	23.88513
408.819	47.07066
409.032	-18.26301
409.245	-14.04863
409.458	15.45473
409.671	120.86117
409.884	70.25899
410.097	19.66988
410.31	110.318
410.523	72.36716
410.736	76.58356
410.949	40.74705
411.162	13.34719
411.375	91.34168
411.588	28.10047
411.801	59.7185
412.014	4.91728
412.227	-37.2265
412.44	47.07066
412.653	57.61047
412.865	13.34719
413.078	-9.83416
413.291	38.63923
413.504	0.70246
413.717	13.34719
413.93	13.34719
414.143	4.91728
414.356	11.23968
414.568	55.50246
414.781	55.50246
414.994	95.55848
415.207	42.8549
415.42	76.58356
415.632	95.55848
415.845	114.5352
416.058	76.58356
416.271	72.36716
416.483	63.93463
416.696	87.12496
416.909	38.63923
417.121	-28.79853
417.334	101.88386
417.547	36.53143
417.759	36.53143
417.972	110.318
418.185	4.91728
418.397	91.34168
418.61	93.45007
418.823	80.80005
419.035	13.34719
419.248	21.7775
419.46	89.23331
419.673	30.20817
419.885	-20.37016
420.098	108.20943
420.311	15.45473
420.523	63.93463
420.736	68.15085
420.948	80.80005
421.161	53.39447
421.373	80.80005
421.586	38.63923
421.798	4.91728
422.01	66.04272
422.223	80.80005
422.435	72.36716
422.648	55.50246
422.86	93.45007
423.073	57.61047
423.285	51.28651
423.497	59.7185
423.71	30.20817
423.922	68.15085
424.134	53.39447
424.347	47.07066
424.559	139.84024
424.771	89.23331
424.984	91.34168
425.196	-1.40491
425.408	137.73137
425.621	70.25899
425.833	40.74705
426.045	78.6918
426.257	40.74705
426.47	7.02472
426.682	66.04272
426.894	97.66692
427.106	122.96987
427.318	80.80005
427.531	95.55848
427.743	32.3159
427.955	91.34168
428.167	55.50246
428.379	89.23331
428.591	13.34719
428.804	57.61047
429.016	66.04272
429.228	74.47535
429.44	72.36716
429.652	38.63923
429.864	57.61047
430.076	112.42659
430.288	97.66692
430.5	47.07066
430.712	127.18734
430.924	163.03922
431.136	99.77538
431.348	68.15085
431.56	114.5352
431.772	66.04272
431.984	85.01664
432.196	66.04272
432.408	106.10089
432.62	106.10089
432.832	101.88386
433.044	131.40488
433.256	57.61047
433.468	148.27594
433.679	112.42659
433.891	110.318
434.103	74.47535
434.315	101.88386
434.527	173.58505
434.739	97.66692
434.95	66.04272
435.162	101.88386
435.374	57.61047
435.586	85.01664
435.798	70.25899
436.009	87.12496
436.221	139.84024
436.433	133.51369
436.645	97.66692
436.856	150.38492
437.068	167.25749
437.28	114.5352
437.491	122.96987
437.703	160.93012
437.915	165.14835
438.126	175.69428
438.338	34.42366
438.55	129.2961
438.761	97.66692
438.973	129.2961
439.184	169.36666
439.396	213.66387
439.608	120.86117
439.819	101.88386
440.031	175.69428
440.242	144.05805
440.454	131.40488
440.665	198.89714
440.877	165.14835
441.088	131.40488
441.3	167.25749
441.511	99.77538
441.723	207.33515
441.934	184.1314
442.146	232.6511
442.357	150.38492
442.569	203.11611
442.78	188.35008
442.991	152.49392
443.203	198.89714
443.414	234.76089
443.626	190.45945
443.837	194.67826
444.048	192.56884
444.26	165.14835
444.471	232.6511
444.682	283.29134
444.894	215.77348
445.105	137.73137
445.316	222.10244
445.528	154.60294
445.739	205.22562
445.95	266.41005
446.161	173.58505
446.373	224.21213
446.584	321.27857
446.795	219.99277
447.006	236.87069
447.217	268.52014
447.429	192.56884
447.64	207.33515
447.851	228.43158
448.062	260.07987
448.273	279.07091
448.484	175.69428
448.695	188.35008
448.907	232.6511
449.118	215.77348
449.329	266.41005
449.54	230.54133
449.751	266.41005
449.962	245.31013
450.173	276.96072
450.384	291.73244
450.595	135.62252
450.806	310.72597
451.017	291.73244
451.228	300.17382
451.439	260.07987
451.65	306.50506
451.861	317.05747
452.072	314.94696
452.283	312.83645
452.494	319.16801
452.705	317.05747
452.915	348.71739
453.126	443.72001
453.337	327.61034
453.548	361.38246
453.759	428.93966
453.97	405.71498
454.181	443.72001
454.391	321.27857
454.602	399.38131
454.813	380.38121
455.024	441.60848
455.235	348.71739
455.445	418.38275
455.656	418.38275
455.867	428.93966
456.078	369.82618
456.288	452.16626
456.499	395.15895
456.71	545.09085
456.921	471.17124
457.131	435.274
457.342	447.94311
457.553	420.4941
457.763	452.16626
457.974	578.88839
458.184	564.10154
458.395	576.77594
458.606	490.17744
458.816	528.19339
459.027	574.66351
459.237	650.7192
459.448	536.64201
459.659	591.56335
459.869	553.53991
460.08	684.52681
460.29	707.77125
460.501	688.75297
460.711	718.33734
460.922	676.07463
461.132	796.53458
461.343	638.04213
461.553	614.80198
461.764	878.97283
461.974	758.49094
462.184	754.26407
462.395	834.58132
462.605	874.74491
462.816	917.0256
463.026	766.94481
463.236	942.39551
463.447	893.77083
463.657	921.25385
463.867	1060.80129
464.078	1001.59591
464.288	995.25276
464.498	1056.57218
464.709	1191.91316
464.919	1086.17637
465.129	1187.68349
465.339	1153.84669
465.55	1204.60224
465.76	1128.46978
465.97	1145.38765
466.18	1141.15816
466.391	1433.02036
466.601	1221.52121
466.811	1441.48057
467.021	1496.47189
467.231	1636.06243
467.441	1276.50916
467.651	1631.83252
467.862	1509.16216
468.072	1669.90133
468.282	1629.71757
468.492	1631.83252
468.702	1752.38051
468.912	1932.12136
469.122	1617.02778
469.332	1942.6932
469.542	1885.6036
469.752	2008.23524
469.962	1906.74836
470.172	2230.18181
470.382	2058.97318
470.592	2141.41348
470.802	2240.74846
471.012	2278.78655
471.222	2232.29516
471.432	2221.72833
471.642	2202.70749
471.852	2439.35731
472.062	2354.8536
472.272	2582.9735
472.482	2709.64781
472.691	2747.64112
472.901	2650.53874
473.111	2574.52697
473.321	2867.92435
473.531	2924.88466
473.741	2962.85228
473.95	3118.88972
474.16	2813.06388
474.37	3260.09163
474.58	3243.2356
474.79	3295.90711
474.999	3241.12852
475.209	3211.62766
475.419	3373.8413
475.628	3615.91353
475.838	3384.37112
476.048	3611.70565
476.258	3609.60169
476.467	3952.29323
476.677	3903.96977
476.886	3981.70226
477.096	4009.00707
477.306	4076.20411
477.515	4200.04272
477.725	4277.66669
477.935	4090.90063
478.144	4221.02505
478.354	4216.82876
478.563	4564.82719
478.773	4411.8657
478.982	4650.68524
479.192	4610.90203
479.401	4560.63803
479.611	4790.90858
479.82	4962.38633
480.03	4995.82742
480.239	5081.49324
480.449	4962.38633
480.658	5165.03211
480.868	5217.22499
481.077	5388.31515
481.287	5288.18391
481.496	5559.24748
481.705	5607.16348
481.915	5638.40633
482.124	5438.36049
482.333	5680.0552
482.543	5584.24869
482.752	5798.7027
482.961	5948.46363
483.171	6187.41175
483.38	5883.99822
483.589	6135.49297
483.799	6174.95258
484.008	6602.23621
484.217	6293.28062
484.426	6370.04935
484.636	6506.90897
484.845	6610.52323
485.054	6658.1664
485.263	6827.92585
485.472	6533.85424
485.682	6846.54863
485.891	6805.16217
486.1	7175.24944
486.309	6854.82483
486.518	7193.83823
486.727	7065.74557
486.936	7160.79025
487.146	7049.21124
487.355	7466.2691
487.564	7538.44098
487.773	7464.20665
487.982	7346.61159
488.191	7627.07332
488.4	7944.18093
488.609	7999.72708
488.818	7756.85912
489.027	8010.01177
489.236	8018.23916
489.445	8055.25839
489.654	8005.89796
489.863	8449.72872
490.072	8262.85673
490.281	8295.72503
490.49	8342.96443
490.698	8617.98282
490.907	8620.03392
491.116	8952.06933
491.325	8835.29635
491.534	8609.77825
491.743	8712.31406
491.952	8767.66421
492.16	8954.11746
492.369	9115.86453
492.578	9099.49001
492.787	9394.06556
492.996	9273.41344
493.204	9381.79847
493.413	9408.37642
493.622	9465.61191
493.831	9383.84303
494.039	9635.20065
494.248	9508.53024
494.457	9547.35504
494.665	9631.11545
494.874	9520.79132
495.083	9749.56119
495.291	9908.76997
495.5	9731.18506
495.709	10029.13765
495.917	9808.76482
496.126	9992.42064
496.335	9855.71045
496.543	10251.38209
496.752	9984.26067
496.96	10357.3497
497.169	10124.98812
497.377	10283.99137
497.586	9957.73918
497.794	10322.71042
498.003	10457.17109
498.211	10613.9711
498.42	10524.38027
498.628	10860.22414
498.837	10681.14848
499.045	10900.9105
499.254	10571.21486
499.462	10721.85559
499.671	10915.14965
499.879	10943.62627
500.087	10754.41781
500.296	10988.37078
500.504	11104.27481
500.713	11053.44409
500.921	11374.58358
501.129	11153.06597
501.338	11106.3079
501.546	11508.65579
501.754	11299.40314
501.962	11405.05825
502.171	11488.34452
502.379	11356.2977
502.587	11390.83701
502.795	11577.70707
503.004	11486.31334
503.212	11774.64835
503.42	11459.90713
503.628	11565.52233
503.837	11380.67869
504.045	11971.50834
504.253	11815.2445
504.461	12074.98138
504.669	12176.40606
504.877	12320.39745
505.085	12206.82981
505.294	12356.89664
505.502	12150.03745
505.71	12421.77862
505.918	12040.49264
506.126	12460.29904
506.334	12139.89535
506.542	12531.25154
506.75	12070.924
506.958	12634.6256
507.166	12496.78989
507.374	12531.25154
507.582	12525.17021
507.79	12697.45307
507.998	12656.91988
508.206	12766.35412
508.414	12679.21343
508.622	12681.24008
508.83	12841.32723
509.037	13037.84352
509.245	12764.32772
509.453	13098.61213
509.661	13037.84352
509.869	13112.79085
510.077	12936.55257
510.285	13199.88371
510.492	13410.49343
510.7	13455.03984
510.908	13205.95964
511.116	13361.89518
511.324	13173.5542
511.531	13461.11421
511.739	13343.67024
511.947	13592.71731
512.155	13001.38023
512.362	13444.91582
512.57	13268.74193
512.778	13295.06875
512.985	13442.89101
513.193	13525.90535
513.401	13843.73613
513.608	13641.30546
513.816	13596.7664
514.024	13744.54896
514.231	13639.28099
514.439	14003.63603
514.646	13819.44605
514.854	13841.71197
515.061	13598.79094
515.269	14121.02099
515.477	13906.48364
515.684	14171.61564
515.892	14114.94954
516.099	14440.7592
516.307	14333.51019
516.514	14248.51706
516.722	14167.56812
516.929	14155.4255
517.136	14108.87807
517.344	14335.5338
517.551	14242.446
517.759	14513.6052
517.966	14833.30083
518.173	14574.30889
518.381	14754.39074
518.588	14740.22726
518.796	14843.41743
519.003	14596.56664
519.21	14630.96472
519.418	14679.52619
519.625	14857.58065
519.832	15001.23475
520.039	14926.37304
520.247	15015.39772
520.454	15090.25895
520.661	15333.05181
520.868	15114.53822
521.076	15213.67849
521.283	15252.12067
521.49	15150.9571
521.697	15041.70035
521.904	15203.56214
522.112	15124.65458
522.319	15470.63599
522.526	15335.07509
522.733	15634.52644
522.94	15300.67931
523.147	15543.47563
523.354	15274.3767
523.561	15525.26564
523.768	15511.10236
523.975	15705.34487
524.183	15612.26943
524.39	15855.07927
524.597	16182.90052
524.804	15917.80769
525.011	15990.65515
525.218	15956.25474
525.425	16039.22111
525.632	16136.35561
525.838	15903.6431
526.045	16018.98519
526.252	15849.00883
526.459	16300.27864
526.666	16241.58884
526.873	16672.69395
527.08	16371.11321
527.287	16439.9262
527.494	16207.18517
527.701	16516.83761
527.907	16342.7791
528.114	16678.76654
528.321	16842.73472
528.528	16931.81069
528.735	16899.41885
528.941	17087.70591
529.148	16611.96913
529.355	16806.29597
529.562	16680.79075
529.768	17035.06417
529.975	16496.59748
530.182	16881.19873
530.388	16800.22292
530.595	17128.20083
530.802	17069.48356
531.008	17195.01992
531.215	16972.30142
531.422	17348.91839
531.628	17350.94348
531.835	17454.22739
532.042	17338.79296
532.248	17606.13033
532.455	17393.47118
532.661	17498.78372
532.868	17154.52313
533.074	17735.76864
533.281	17733.74293
533.487	17903.91388
533.694	17474.48008
533.9	18118.68862
534.107	17691.20393
534.313	17879.60226
534.52	17877.57632
534.726	17871.4985
534.933	17810.72204
535.139	18288.91634
535.345	17863.39479
535.552	18339.58441
535.758	18238.25061
535.965	18149.08453
536.171	18440.9276
536.377	18667.97113
536.584	18665.94374
536.79	18463.22438
536.996	18745.01486
537.203	18461.19738
537.409	18404.44296
537.615	18374.04003
537.821	18732.84968
538.028	18767.31805
538.234	18761.23532
538.44	18649.72476
538.646	18428.76592
538.853	19215.51232
539.059	18578.76967
539.265	18773.40082
539.471	18633.50603
539.677	18708.51975
539.883	18872.75784
540.09	18546.33464
540.296	19195.22775
540.502	19410.2651
540.708	18957.92863
540.914	19168.85843
541.12	19400.12079
541.326	19497.51048
541.532	19237.82582
541.738	19678.11261
541.944	19365.63089
542.15	19956.18296
542.356	19708.55443
542.562	20155.14299
542.768	19475.19117
542.974	19704.49546
543.18	19548.23808
543.386	19753.20414
543.592	20138.89984
543.798	20075.96018
544.004	19720.73142
544.21	20098.29314
544.415	20082.05093
544.621	20214.02666
544.827	20114.53562
545.033	20677.09709
545.239	20183.56915
545.445	20595.84093
545.651	20027.23547
545.856	20443.50365
546.062	19941.97307
546.268	20331.80462
546.474	20057.68813
546.679	19982.57329
546.885	20220.11828
547.091	20124.6873
547.297	19925.73345
547.502	20573.49666
547.708	20524.74728
547.914	20512.5603
548.119	20601.93491
548.325	20220.11828
548.531	20317.58929
548.736	20589.74699
548.942	20329.77384
549.147	20268.85257
549.353	20656.78242
549.559	20809.15253
549.764	20677.09709
549.97	20778.67664
550.175	21052.99306
550.381	20841.66117
550.586	20736.01196
550.792	21113.96242
550.997	20904.64967
551.203	21156.64316
551.408	21591.68155
551.614	21319.25283
551.819	21426.99594
552.025	21766.56123
552.23	21638.44886
552.435	21795.03275
552.641	21902.82461
552.846	21685.21825
553.052	21656.74968
553.257	21581.51502
553.462	21593.71487
553.668	21719.78826
553.873	21557.11575
554.078	21825.53878
554.283	21544.91633
554.489	21630.31527
554.694	21601.84818
554.899	21906.89244
555.105	21994.35446
555.31	21953.67358
555.515	21817.40375
555.72	22004.52492
555.925	22087.92625
556.131	22466.36199
556.336	22140.81817
556.541	22460.25718
556.746	22134.71513
556.951	22163.19629
557.156	22169.29949
557.361	22295.43977
557.567	22474.50178
557.772	22519.27165
557.977	21807.23505
558.182	22128.61212
558.387	22468.39693
558.592	22525.37677
558.797	22661.73272
559.002	22555.90284
559.207	22580.32427
559.412	22238.47143
559.617	22515.20159
559.822	22706.50976
560.027	22645.45058
560.232	22767.57208
560.437	23005.74463
560.642	22759.43026
560.847	23172.69635
561.051	23119.75804
561.256	22857.13578
561.461	23052.57031
561.666	23184.9132
561.871	23136.04651
562.076	22637.30959
562.281	23180.8409
562.485	22796.0689
562.69	23085.14573
562.895	22739.07594
563.1	22830.67308
563.305	23109.57785
563.509	23140.11867
563.714	22861.20701
563.919	23127.90225
564.123	22891.74171
564.328	23142.15475
564.533	23303.01538
564.737	22999.63706
564.942	23207.31105
565.147	23577.94963
565.351	23531.10498
565.556	23494.44508
565.761	23486.29858
565.965	23610.53816
566.17	23579.98639
566.374	23844.7908
566.579	23761.27015
566.784	23557.58219
566.988	23453.71304
567.193	23834.6051
567.397	23394.65379
567.602	23875.34837
567.806	23313.19711
568.011	23914.05554
568.215	23930.35361
568.42	23830.53083
568.624	23586.09669
568.828	24017.95886
569.033	23606.46455
569.237	24081.11935
569.442	23930.35361
569.646	23677.75446
569.85	24026.10845
570.055	24201.3354
570.259	23948.68916
570.463	24034.25808
570.668	23649.23805
570.872	23897.75766
571.076	24038.33292
571.281	24643.56546
571.485	24403.07495
571.689	24421.41619
571.893	24576.30609
572.098	24509.04946
572.302	24427.52999
572.506	24388.80969
572.71	23938.50271
572.914	24615.03085
573.119	24590.573
573.323	24486.63119
573.527	24362.31739
573.731	24688.40654
573.935	24643.56546
574.139	24339.90119
574.343	24138.16984
574.547	24527.3919
574.751	24680.25352
574.955	24527.3919
575.159	24490.70722
575.364	24531.46803
575.568	24621.14537
575.772	24926.8992
575.976	25106.29935
576.18	24602.80188
576.383	25065.52505
576.587	25253.09419
576.791	24855.55182
576.995	25147.07455
577.199	24939.13046
577.403	24869.82107
577.607	24992.13357
577.811	25067.56374
578.015	24798.47601
578.219	24884.09043
578.422	25114.45432
578.626	25420.29078
578.83	25222.511
579.034	25371.35372
579.238	25744.52823
579.442	25375.43176
579.645	25147.07455
579.849	25355.04164
580.053	25501.85518
580.257	25308.14515
580.46	25538.56022
580.664	25756.76457
580.868	25397.86114
581.071	25589.54053
581.275	25964.7928
581.479	25493.69859
581.682	25599.73674
581.886	26244.23273
582.09	25750.64639
582.293	25974.99076
582.497	25934.19921
582.7	25932.15965
582.904	26017.82266
583.107	26309.50801
583.311	25960.71363
583.515	25620.12931
583.718	25846.49987
583.922	26015.78303
584.125	25997.42642
584.329	26270.7506
584.532	26166.72057
584.735	26234.03362
584.939	26246.27255
585.142	26758.32007
585.346	26346.2261
585.549	26291.14916
585.753	26148.36279
585.956	26252.39204
586.159	26452.30356
586.363	26676.71231
586.566	26503.30389
586.769	26303.38838
586.973	26409.46406
587.176	26195.2774
587.379	26060.65535
587.582	26660.39104
587.786	26003.54527
587.989	26697.11402
588.192	26109.60794
588.395	26427.82376
588.599	27080.69345
588.802	26631.82906
589.005	26721.59628
589.208	27547.99081
589.411	26988.87465
589.615	26848.09135
589.818	26919.50232
590.021	26948.0672
590.224	27194.9607
590.427	27050.08687
590.63	27101.098
590.833	27121.5027
591.036	27299.02916
591.239	27635.744
591.442	27660.23367
591.645	27637.7848
591.848	27370.45065
592.051	27568.39833
592.254	27529.62415
592.457	27592.88751
592.66	27362.28812
592.863	27799.01168
593.066	27511.25759
593.269	27329.63818
593.472	27768.39842
593.675	28190.88432
593.878	27872.4846
594.081	27590.84674
594.284	28031.68103
594.486	27517.37976
594.689	27964.32785
594.892	27764.31667
595.095	27447.99576
595.298	27396.97903
595.5	27664.3153
595.703	28197.00766
595.906	28086.7891
596.109	27839.82978
596.311	28237.83016
596.514	27960.24588
596.717	28117.40504
596.92	28135.77472
597.122	27884.73023
597.325	27703.091
597.528	27988.81977
597.73	28766.52037
597.933	28060.25548
598.136	28456.23793
598.338	28170.47326
598.541	28654.24432
598.743	28744.06491
598.946	28243.95357
599.148	28384.79478
599.351	28450.11418
599.554	29066.6191
599.756	28554.21923
599.959	28715.48541
600.161	28744.06491
600.363	28588.92152
600.566	28478.69176
600.768	28421.53681
600.971	28897.17284
601.173	28872.67518
601.376	28392.95964
601.578	28431.74299
601.78	28527.68239
601.983	28942.08561
602.185	28686.90611
602.388	28415.41311
602.59	28662.40974
602.792	28746.10631
602.995	28586.8802
603.197	28258.24158
603.399	29025.78803
603.601	28658.32703
603.804	28260.28272
604.006	28425.61928
604.208	28688.94749
604.41	28825.72175
604.613	29162.57377
604.815	28964.54219
605.017	28917.58768
605.219	28209.25436
605.421	28366.4239
605.623	28497.06317
605.826	28966.5837
606.028	28946.16862
606.23	29142.15769
606.432	28964.54219
606.634	29381.03233
606.836	28723.65096
607.038	29280.98908
607.24	29146.2409
607.442	28978.8328
607.644	29211.57278
607.846	29313.65599
608.048	29346.32316
608.25	29236.07251
608.452	29027.82957
608.654	29164.61538
608.856	28611.37611
609.058	29336.11464
609.26	29325.90615
609.462	29064.57754
609.664	29246.28078
609.866	29540.29008
610.067	29213.61442
610.269	29170.74023
610.471	28925.75364
610.673	29227.90592
610.875	28815.51455
611.077	29360.61514
611.278	28686.90611
611.48	28707.31988
611.682	28929.83663
611.884	29630.13063
612.085	29144.19929
612.287	29703.63809
612.489	28997.20652
612.69	29613.79583
612.892	29542.33189
613.094	29775.10502
613.295	29383.07406
613.497	29211.57278
613.699	28729.77513
613.9	29621.96323
614.102	29399.4079
614.304	29023.74648
614.505	29082.95165
614.707	29254.44741
614.908	28554.21923
615.11	29021.70494
615.311	28997.20652
615.513	29389.19924
615.714	29419.8253
615.916	29489.24523
616.117	29172.78185
616.319	29391.24097
616.52	30083.44936
616.722	29852.69921
616.923	29646.4655
617.124	29421.86704
617.326	29054.36974
617.527	29409.61658
617.729	29589.29376
617.93	29436.15929
618.131	29313.65599
618.333	29307.53092
618.534	29548.45732
618.735	29642.38178
618.937	29554.58276
619.138	29728.14089
619.339	29381.03233
619.54	29519.87206
619.742	29138.07449
619.943	29256.48907
620.144	29168.69861
620.345	29472.91102
620.546	29368.782
620.748	29697.51242
620.949	29481.07811
621.15	29840.44739
621.351	29515.78847
621.552	29926.21097
621.753	29860.86711
621.954	30091.61777
622.155	29366.74029
622.356	29852.69921
622.558	29701.5962
622.759	29930.295
622.96	28880.84105
623.161	29405.53311
623.362	29452.49335
623.563	29521.91386
623.764	28968.62521
623.965	29119.70012
624.166	29150.32411
624.366	29305.48923
624.567	29564.79184
624.768	29638.29806
624.969	29305.48923
625.17	29405.53311
625.371	29509.66309
625.572	29630.13063
625.773	29705.67999
625.973	29434.11753
626.174	29670.96794
626.375	29487.20345
626.576	29777.14695
626.777	30099.7862
626.977	29981.34574
627.178	30073.23887
627.379	29536.20647
627.58	29193.19808
627.78	29191.15645
627.981	29405.53311
628.182	30107.95465
628.382	30289.70751
628.583	30338.72113
628.784	30011.97653
628.984	29458.61864
629.185	30226.39927
629.386	29515.78847
629.586	29783.27276
629.787	29329.98954
629.987	29722.01517
630.188	29795.52439
630.388	29697.51242
630.589	29472.91102
630.79	30167.17647
630.99	30547.03692
631.191	30375.48181
631.391	30438.79279
631.591	30257.03215
631.792	30003.80829
631.992	30216.18837
632.193	30154.9236
632.393	30022.18685
632.594	30152.88146
632.794	30065.0705
632.994	30007.89241
633.195	30003.80829
633.395	29834.3215
633.595	29881.28695
633.796	30130.41799
633.996	30420.41206
634.196	30257.03215
634.397	30493.93559
634.597	30442.87741
634.797	30361.18594
634.997	29595.41926
635.198	29877.20297
635.398	29787.35663
635.598	30667.53933
635.798	30473.51222
635.998	30138.58651
636.199	29995.64008
636.399	30534.78269
636.599	30483.72389
636.799	30257.03215
636.999	29781.23082
637.199	29795.52439
637.399	30056.90214
637.599	30142.67077
637.799	29960.92536
637.999	30493.93559
638.199	30026.27098
638.399	30236.6102
638.599	29805.73412
638.799	30469.42756
638.999	30500.06262
639.199	30455.1313
639.399	30483.72389
639.599	30277.45421
639.799	30283.58086
639.999	30367.31273
640.199	30365.27047
640.399	30935.11209
640.599	29452.49335
640.799	30643.03
640.998	30479.63922
641.198	30487.80856
641.398	29897.62289
641.598	31045.41622
641.798	30706.34615
641.997	30573.58791
642.197	30698.17626
642.397	31078.09973
642.597	30773.74863
642.796	31006.60503
642.996	30667.53933
643.196	31055.62977
643.395	30381.60862
643.595	30514.35908
643.795	30355.05916
643.994	30951.45318
644.194	30757.4085
644.394	30863.62088
644.593	31000.47699
644.793	31370.22579
644.992	30616.47844
645.192	30618.52086
645.392	30971.87967
645.591	31071.97154
645.791	30882.00417
645.99	30665.49688
646.19	30214.1462
646.389	30557.24882
646.589	30741.06846
646.788	30594.0119
646.987	30381.60862
647.187	30828.8972
647.386	30177.38723
647.586	30271.32758
647.785	30651.19975
647.984	31480.5475
648.184	30489.8509
648.383	30399.98914
648.582	30604.22394
648.782	30957.58111
648.981	31035.2027
649.18	30802.34406
649.38	31055.62977
649.579	30959.62376
649.778	31233.35163
649.977	31727.76767
650.177	31071.97154
650.376	31292.5948
650.575	31192.49502
650.774	31331.41001
650.973	31306.89507
651.173	30771.70611
651.372	31080.14246
651.571	31656.2551
651.77	31235.39447
651.969	31429.47204
652.168	31161.85296
652.367	30961.66641
652.566	31078.09973
652.765	31404.95619
652.964	30671.62423
653.163	30879.96158
653.362	31131.21125
653.561	31135.29679
653.76	31235.39447
653.959	31666.47105
654.158	31202.70911
654.357	30618.52086
654.556	30563.37597
654.755	30861.5783
654.954	30910.60063
655.153	30573.58791
655.352	31120.99741
655.551	31462.16022
655.749	31711.42175
655.948	30935.11209
656.147	31104.65536
656.346	31415.1711
656.545	31135.29679
656.743	31225.18026
656.942	31323.23834
657.141	31300.76638
657.34	31286.46614
657.538	31355.92517
657.737	30978.00764
657.936	31415.1711
658.135	31153.6818
658.333	31184.32377
658.532	31219.05174
658.731	30986.1783
658.929	30777.83367
659.128	31061.75793
659.326	31335.49585
659.525	31170.02414
659.724	31088.31341
659.922	30757.4085
660.121	30879.96158
660.319	30877.91899
660.518	31263.99448
660.716	31096.48437
660.915	31078.09973
661.113	30783.96125
661.312	31008.64771
661.51	30984.13563
661.709	31202.70911
661.907	31170.02414
662.105	30947.3679
662.304	31623.56435
662.502	31578.6153
662.701	31735.94067
662.899	31431.51504
663.097	31552.05489
663.296	31086.27067
663.494	31184.32377
663.692	30875.8764
663.891	31666.47105
664.089	31243.56587
664.287	31243.56587
664.485	31515.27941
664.684	31629.69383
664.882	31247.65158
665.08	31145.51067
665.278	30884.04677
665.476	31027.0319
665.675	31045.41622
665.873	30955.53847
666.071	31184.32377
666.269	31474.41839
666.467	30953.49582
666.665	31631.737
666.863	31351.83929
667.061	31793.15251
667.259	31523.45169
667.457	31805.41237
667.655	30953.49582
667.853	30982.09297
668.051	30890.17456
668.249	31249.69444
668.447	30945.32526
668.645	31067.88609
668.843	31351.83929
669.041	30845.23771
669.239	30965.75171
669.437	30984.13563
669.635	30767.62107
669.833	30961.66641
670.031	30661.41198
670.229	30908.55801
670.426	31159.81017
670.624	31263.99448
670.822	30982.09297
671.02	31163.89576
671.218	30835.02488
671.415	30299.91862
671.613	30381.60862
671.811	30436.75048
672.009	30093.65988
672.206	30442.87741
672.404	30510.27437
672.602	30630.7754
672.799	30859.53572
672.997	31104.65536
673.195	30757.4085
673.392	31276.25173
673.59	30994.34897
673.788	30295.83418
673.985	31016.81845
674.183	30683.87899
674.38	30706.34615
674.578	31400.87023
674.775	30835.02488
674.973	30941.23999
675.17	30908.55801
675.368	30810.51423
675.565	31053.58706
675.763	30520.48615
675.96	30179.42938
676.158	30242.73677
676.355	30101.82831
676.553	30622.6057
676.75	29924.16896
676.947	30240.69458
677.145	30042.60757
677.342	30489.8509
677.539	30218.23055
677.737	30931.02683
677.934	30226.39927
678.131	30502.10497
678.329	30269.28537
678.526	30283.58086
678.723	30350.97465
678.92	30451.04667
679.118	30099.7862
679.315	30040.56549
679.512	30293.79195
679.709	30542.95217
679.906	30369.355
680.104	30440.8351
680.301	30314.21423
680.498	30048.73381
680.695	29956.8413
680.892	30547.03692
681.089	30050.77589
681.286	29903.74889
681.483	29513.74667
681.68	29991.55598
681.877	29783.27276
682.075	29926.21097
682.272	29677.09357
682.469	30254.98995
682.665	30161.05003
682.862	30152.88146
683.059	30473.51222
683.256	30924.89896
683.453	30373.43954
683.65	30126.33373
683.847	30093.65988
684.044	29579.08461
684.241	29854.74119
684.438	30044.64965
684.635	29907.8329
684.831	30383.6509
685.028	30052.81797
685.225	29869.03503
685.422	29707.72188
685.619	29754.68576
685.815	29750.60192
686.012	29523.95565
686.209	29244.23912
686.405	29550.49913
686.602	29681.17733
686.799	29158.49055
686.996	29544.3737
687.192	29640.33992
687.389	29305.48923
687.586	29613.79583
687.782	29505.57951
687.979	29601.54478
688.175	29401.44963
688.372	29264.65572
688.568	29617.87953
688.765	29203.40624
688.962	29589.29376
689.158	29411.65832
689.355	29427.99228
689.551	29109.49218
689.748	28507.26955
689.944	29144.19929
690.14	28944.12712
690.337	28856.34349
690.533	29250.36409
690.73	28823.6803
690.926	29638.29806
691.123	29164.61538
691.319	29544.3737
691.515	29040.07886
691.712	28739.98211
691.908	28509.31083
692.104	28815.51455
692.301	28974.74976
692.497	28392.95964
692.693	28705.27849
692.889	28509.31083
693.086	28809.39024
693.282	28464.40294
693.478	28923.71215
693.674	28780.81028
693.87	28425.61928
694.067	28509.31083
694.263	28368.4651
694.459	28443.99044
694.655	28733.85792
694.851	28652.20296
695.047	28729.77513
695.243	28399.0833
695.439	28303.14708
695.635	28260.28272
695.831	28388.87721
696.027	28903.29728
696.224	28731.81653
696.42	28535.84755
696.615	28390.91843
696.811	28368.4651
697.007	28374.58872
697.203	27768.39842
697.399	27725.54029
697.595	28017.39389
697.791	28107.1997
697.987	27839.82978
698.183	28092.91227
698.379	27603.09139
698.575	28576.67362
698.77	28305.18825
698.966	28294.9824
699.162	28258.24158
699.358	28256.20043
699.554	27972.49181
699.749	28354.17669
699.945	27966.36884
700.141	27862.27994
700.337	27813.29797
700.532	28201.08989
700.728	28205.17212
700.924	28276.61195
701.119	27747.98972
701.315	27686.76433
701.511	27199.04175
701.706	27941.87706
701.902	28058.21444
702.097	28150.06232
702.293	27874.52554
702.489	27301.06975
702.684	27411.26364
702.88	27823.50249
703.075	27696.96849
703.271	27488.8097
703.466	27923.50834
703.662	27682.68268
703.857	27766.35754
704.053	27517.37976
704.248	27131.70509
704.443	27517.37976
704.639	27574.52061
704.834	27576.56137
705.03	27539.82783
705.225	27372.49129
705.42	27086.8148
705.616	26956.22865
705.811	26984.79388
706.006	27088.85525
706.202	26795.04434
706.397	27103.13847
706.592	27197.00123
706.787	27276.58273
706.983	27384.73514
707.178	27378.61321
707.373	27033.76349
707.568	27372.49129
707.763	27203.12281
707.959	27466.36197
708.154	27288.82622
708.349	27023.56142
708.544	27288.82622
708.739	27064.3699
708.934	26868.4943
709.129	26915.42165
709.324	26766.48098
709.519	26497.1838
709.714	26562.46551
709.909	27084.77435
710.104	26517.58416
710.299	26542.0648
710.494	26746.07876
710.689	27021.52101
710.884	26821.56772
711.079	27425.5483
711.274	27117.42175
711.469	27270.46101
711.664	26884.81677
711.859	27513.29831
712.054	27499.01327
712.249	27374.53193
712.443	27035.80391
712.638	26770.56144
712.833	26591.02675
713.028	27023.56142
713.223	26668.55166
713.417	26780.76263
713.612	26827.68854
713.807	26897.05868
714.002	26554.30521
714.196	27119.46222
714.391	26331.94678
714.586	27027.64225
714.78	27035.80391
714.975	26982.7535
715.17	26670.59182
715.364	26684.87298
715.559	26642.02974
715.754	26158.56154
715.948	26297.26876
716.143	26040.25873
716.337	25858.73678
716.532	26021.90193
716.726	26362.54542
716.921	26123.88597
717.115	26472.70358
717.31	26380.90479
717.504	26236.07344
717.699	26558.38535
717.893	26546.14493
718.088	26535.94462
718.282	26101.44911
718.476	25928.08054
718.671	25532.44267
718.865	25793.47402
719.059	25730.25257
719.254	25658.87574
719.448	25736.3707
719.642	25832.22355
719.837	25393.78306
720.031	25952.55532
720.225	25214.35556
720.419	25546.71699
720.614	25326.49582
720.808	25974.99076
721.002	26019.86229
721.196	25752.68578
721.39	25667.03297
721.585	25744.52823
721.779	25893.40839
721.973	25569.14825
722.167	25304.06725
722.361	26025.9812
722.555	25699.66221
722.749	25793.47402
722.943	25648.67924
723.137	25452.91614
723.331	24837.20582
723.525	25322.41788
723.719	25244.93862
723.913	25418.25171
724.107	25073.67984
724.301	25193.96712
724.495	25098.14442
724.689	24710.82752
724.883	24619.10719
725.077	24981.94055
725.271	24515.16358
725.465	24723.05727
725.659	24910.59097
725.853	25222.511
726.046	25089.98952
726.24	25016.59707
726.434	24804.59118
726.628	25071.64114
726.822	24372.50669
727.015	24853.51337
727.209	24429.56792
727.403	24698.59786
727.596	24737.32543
727.79	24898.3599
727.984	25036.98357
728.177	24875.93649
728.371	24835.16739
728.565	24484.59318
728.758	24543.69647
728.952	24900.39841
729.146	24890.2059
729.339	24947.28468
729.533	24358.2417
729.726	24451.9854
729.92	24769.9388
730.113	24998.24942
730.307	25059.40898
730.5	25202.12247
730.694	24865.74413
730.887	24910.59097
731.081	24829.05211
731.274	24702.6744
731.468	24494.78325
731.661	24527.3919
731.854	24093.34428
732.048	24716.94239
732.241	24582.42046
732.435	24888.16741
732.628	24486.63119
732.821	25004.36528
733.014	24665.98585
733.208	24806.62958
733.401	24346.01467
733.594	24315.4475
733.788	25049.21558
733.981	24983.97915
734.174	25149.11334
734.367	25041.0609
734.56	24578.34421
734.754	24456.06133
734.947	23977.21158
735.14	24064.81961
735.333	24317.4853
735.526	24692.48306
735.719	24185.03436
735.912	24346.01467
736.105	24178.92151
736.298	24337.86336
736.491	24376.58242
736.684	24684.33002
736.877	24531.46803
737.07	24356.20385
737.263	24339.90119
737.456	24574.26797
737.649	24341.93901
737.842	24708.78924
738.035	24733.2488
738.228	24168.73349
738.421	24710.82752
738.614	24827.01368
738.807	25010.48117
739	24515.16358
739.192	24246.16415
739.385	24231.90031
739.578	24288.95644
739.771	24309.33414
739.964	23518.8849
740.156	23956.83836
740.349	23787.75177
740.542	24323.59869
740.735	24219.67427
740.927	24250.23956
741.12	24498.8593
741.313	23740.90001
741.505	23643.12747
741.698	23673.68065
741.891	23309.12441
742.083	23300.97904
742.276	23307.08806
742.468	23435.38403
742.661	23134.01044
742.854	23239.89045
743.046	23412.98224
743.239	23604.42775
743.431	24409.18868
743.624	23298.94271
743.816	23160.47962
744.009	23463.89594
744.201	23225.63686
744.393	23184.9132
744.586	23125.86619
744.778	23186.94935
744.971	23245.99918
745.163	23317.26982
745.355	23423.16483
745.548	23447.60334
745.74	23252.10794
745.932	23188.9855
746.125	23237.85421
746.317	23219.52823
746.509	23060.71408
746.702	23455.74961
746.894	23349.85199
747.086	23174.73248
747.278	23007.78049
747.471	22824.56639
747.663	22918.20573
747.855	22680.05039
748.047	22861.20701
748.239	23013.8881
748.431	23003.70877
748.623	23140.11867
748.815	22671.90917
749.008	23046.46251
749.2	23402.79974
749.392	23138.08259
749.584	22962.9923
749.776	23531.10498
749.968	23115.68595
750.16	23174.73248
750.352	23001.67292
750.544	22954.84916
750.736	22997.60122
750.928	23415.01875
751.12	23015.92398
751.311	22706.50976
751.503	23048.49844
751.695	22824.56639
751.887	22755.35937
752.079	22743.14678
752.271	22602.71103
752.463	22692.26233
752.654	22240.50597
752.846	22572.18374
753.038	22936.52731
753.23	22859.17139
753.421	22623.063
753.613	22787.92688
753.805	23266.36182
753.997	23162.51573
754.188	22791.99788
754.38	23256.18046
754.572	23046.46251
754.763	22840.85097
754.955	22570.14861
755.146	22452.11749
755.338	22305.61299
755.53	22136.74948
755.721	22403.28057
755.913	22566.07837
756.104	22057.41283
756.296	22041.13936
756.487	22069.6181
756.679	22342.23735
756.87	21951.63957
757.062	22134.71513
757.253	22232.36785
757.445	22000.45673
757.636	21823.50502
757.827	21778.76322
758.019	21988.25223
758.21	21581.51502
758.401	21744.19129
758.593	21841.80902
758.784	21766.56123
758.975	21522.55109
759.167	21376.17231
759.358	21473.75587
759.549	21530.68385
759.74	21693.35227
759.932	21652.6828
760.123	21370.07365
760.314	21176.96795
760.505	21203.39079
760.696	20882.29846
760.888	21276.56529
761.079	21006.25237
761.27	21494.08693
761.461	21274.53259
761.652	21520.51791
761.843	21404.63323
762.034	21711.65404
762.225	21166.8055
762.416	21061.12209
762.607	20478.03137
762.798	20961.54591
762.989	21254.20586
763.18	21542.8831
763.371	21394.46853
763.562	21032.67075
763.753	21144.44848
763.944	21105.83296
764.135	20532.87201
764.326	20947.32155
764.517	20825.40672
764.708	20668.97117
764.899	20508.49801
765.089	20319.62003
765.28	20559.27784
765.471	20413.03902
765.662	20270.88322
765.853	20242.45453
766.043	20084.0812
766.234	20415.06997
766.425	20057.68813
766.615	20088.14173
766.806	20514.59146
766.997	20372.42098
767.187	20067.83922
767.378	20116.56595
767.569	20193.72155
767.759	20149.05178
767.95	20451.62771
768.141	20394.76069
768.331	20120.62662
768.522	19639.55432
768.712	19550.26724
768.903	20010.99444
769.093	19728.8495
769.284	19718.70191
769.474	19840.47988
769.665	19810.03397
769.855	19743.0563
770.046	19899.34465
770.236	19688.25978
770.426	19635.49564
770.617	19761.32248
770.807	19544.17978
770.998	19495.48143
771.188	19808.00428
771.378	19586.79279
771.569	19862.80748
771.759	19779.58901
771.949	19430.55404
772.139	19582.73433
772.33	19357.5158
772.52	19529.97584
772.71	19682.17146
772.9	19398.09193
773.09	19239.85434
773.281	19154.65985
773.471	19093.81106
773.661	19221.59777
773.851	19241.88287
774.041	19032.96593
774.231	18680.13555
774.421	18720.68464
774.611	18382.1474
774.802	18641.61537
774.992	18759.20774
775.182	18763.26289
775.372	18858.56339
775.562	18757.18018
775.752	18592.9603
775.942	18311.21
776.131	18651.75212
776.321	18400.38919
776.511	18872.75784
776.701	18834.23051
776.891	18797.73227
777.081	18696.355
777.271	18615.26026
777.461	18299.04977
777.651	18145.03169
777.84	18501.73809
778.03	18532.14462
778.22	18599.04206
778.41	18621.34215
778.599	18639.58803
778.789	18236.22403
778.979	18092.34616
779.169	18096.3988
779.358	18254.46339
779.548	18560.52484
779.738	18428.76592
779.927	18317.29017
780.117	18451.06245
780.307	18112.60953
780.496	17950.51256
780.686	18232.17088
780.875	18013.32243
781.065	18331.47736
781.254	18094.37248
781.444	17995.08695
781.633	17802.61874
781.823	17922.14793
782.012	18072.08314
782.202	17818.82539
782.391	17583.8501
782.581	17496.7584
782.77	17237.54279
782.96	17403.59702
783.149	17091.75535
783.338	17247.66748
783.528	17273.992
783.717	17172.74654
783.906	16970.27686
784.096	17184.89561
784.285	17602.07935
784.474	17357.01879
784.663	17320.56738
784.853	17523.08783
785.042	17596.0029
785.231	17747.92293
785.42	16860.9544
785.61	17063.40949
785.799	16806.29597
785.988	17087.70591
786.177	16937.88423
786.366	16903.46779
786.555	17067.45886
786.744	16964.20319
786.933	16492.54947
787.122	16547.19821
787.312	16798.19858
787.501	16484.45349
787.69	16865.00325
787.879	16865.00325
788.068	16662.573
788.257	16911.56571
788.445	16658.52464
788.634	17085.68119
788.823	16611.96913
789.012	16650.42794
789.201	16369.08933
789.39	16237.54132
789.579	16253.73143
789.768	16771.88232
789.957	16599.82441
790.145	16567.43888
790.334	16419.68685
790.523	16160.6398
790.712	16227.42256
790.9	16601.84853
791.089	16251.70766
791.278	16182.90052
791.467	16233.49381
791.655	16296.23102
791.844	16152.54505
792.033	16342.7791
792.221	16008.86729
792.41	16158.61611
792.599	15863.17319
792.787	16164.68719
792.976	15723.55551
793.164	15749.8599
793.353	15648.69004
793.541	16097.90612
793.73	15933.99586
793.918	15838.89147
794.107	15719.50869
794.295	15717.48529
794.484	15871.26713
794.672	15826.75068
794.861	15863.17319
795.049	15901.61959
795.238	15954.2312
795.426	15810.56302
795.614	15776.16447
795.803	15715.46188
795.991	15703.32147
796.179	15753.90675
796.368	15217.72504
796.556	15472.6593
796.744	15227.8414
796.932	15656.78354
797.121	15239.98103
797.309	15428.14653
797.497	15389.70388
797.685	15594.05922
797.874	15403.86694
798.062	15523.24231
798.25	15565.73235
798.438	15318.88883
798.626	15155.00364
798.814	15268.30687
799.002	15159.05018
799.19	15345.19151
799.378	15183.32943
799.566	15355.30794
799.755	15242.00431
799.943	15213.67849
800.131	15294.60947
800.318	15211.65522
800.506	14804.97425
800.694	15061.93312
800.882	15027.5374
801.07	15070.02622
801.258	15233.91121
801.446	15440.28635
801.634	15065.97967
801.822	15068.00294
802.01	14983.02519
802.197	15043.72363
802.385	14473.13542
802.573	14962.79232
802.761	15181.30616
802.949	15399.82035
803.136	14910.18665
803.324	14784.7409
803.512	14485.27641
803.699	14331.48658
803.887	14630.96472
804.075	14626.9179
804.262	14946.60599
804.45	14849.48739
804.638	15055.86329
804.825	15383.634
805.013	15013.37444
805.201	15047.77018
805.388	14948.62928
805.576	15199.51559
805.763	15061.93312
805.951	15025.51412
806.138	14997.18819
806.326	15256.16722
806.513	14972.90876
806.701	15007.3046
806.888	14865.67391
807.075	14788.78758
807.263	14663.3391
807.45	14774.6242
807.638	14857.58065
807.825	15138.81747
808.012	14966.83889
808.2	15140.84075
808.387	15090.25895
808.574	15152.98037
808.761	15088.23568
808.949	15187.37597
809.136	15039.67707
809.323	15033.60724
809.51	14845.44075
809.698	14651.19873
809.885	14497.41735
810.072	14657.26892
810.259	14359.81697
810.446	14715.94693
810.633	14711.9002
810.82	15031.58396
811.008	14924.34974
811.195	14802.95092
811.382	14632.98812
811.569	15047.77018
811.756	14268.75381
811.943	15076.09604
812.13	14495.39386
812.317	15282.46981
812.504	15355.30794
812.691	15395.77376
812.878	15343.16823
813.064	15152.98037
813.251	15157.02691
813.438	14922.32645
813.625	14491.34689
813.812	14444.80625
813.999	14608.70718
814.186	15148.93383
814.372	15001.23475
814.559	15345.19151
814.746	15144.88729
814.933	15134.77093
815.12	14802.95092
815.306	14713.92356
815.493	14392.19416
815.68	14900.07014
815.866	14768.55417
816.053	15082.16586
816.24	15100.37532
816.426	14671.43265
816.613	14774.6242
816.799	14639.05834
816.986	14926.37304
817.173	14966.83889
817.359	14493.37038
817.546	14940.53611
817.732	14618.82426
817.919	14590.49636
818.105	14752.36738
818.292	14902.09344
818.478	14458.97087
818.665	14594.54322
818.851	14483.25292
819.037	14813.06758
819.224	14560.1448
819.41	14867.69722
819.597	14669.40926
819.783	14661.31571
819.969	14612.75401
820.156	14489.3234
820.342	14274.8248
820.528	14266.73014
820.714	13957.08458
820.901	14084.592
821.087	14121.02099
821.273	14489.3234
821.459	14165.54435
821.646	14139.23522
821.832	13979.34848
822.018	14384.0999
822.204	13663.57437
822.39	14139.23522
822.576	14060.3056
822.762	14533.83989
822.948	14349.69901
823.134	14102.80659
823.32	14048.16228
823.507	13876.12227
823.693	13975.30052
823.879	13821.47024
824.065	14163.52058
824.25	14118.99718
824.436	14157.44927
824.622	14467.06491
824.808	14295.06131
824.994	14068.40111
825.18	13902.43549
825.366	13944.9405
825.552	13645.35438
825.738	14015.77967
825.923	13552.22568
826.109	13570.44709
826.295	13311.26951
826.481	13764.79182
826.667	13718.23277
826.852	14187.80565
827.038	13742.52465
827.224	14007.68392
827.409	13509.70792
827.595	13847.78444
827.781	13546.15181
827.966	13780.98589
828.152	13394.29427
828.338	13621.06064
828.523	13023.66354
828.709	13224.18719
828.894	12894.00653
829.08	13376.06991
829.266	13173.5542
829.451	13357.84522
829.637	13438.84137
829.822	13313.29459
830.008	13353.79525
830.193	13527.93001
830.378	13246.46483
830.564	13424.6675
830.749	12894.00653
830.935	12930.47471
831.12	12729.87793
831.305	13021.63781
831.491	12673.13344
831.676	12871.71958
831.861	12539.3599
832.047	12806.88107
832.232	12733.93093
832.417	12991.25125
832.602	12590.03485
832.788	12498.81709
832.973	12600.16937
833.158	12663.00001
833.343	12375.1454
833.528	12719.74532
833.714	12713.66569
833.899	12535.30573
834.084	12551.52225
834.269	12926.42277
834.454	12754.1956
834.639	12914.26684
834.824	12968.96706
835.009	12859.56278
835.194	12663.00001
835.379	13297.09386
835.564	12581.92712
835.749	13003.40601
835.934	12699.47967
836.119	12648.81295
836.304	12344.7305
836.489	12444.0802
836.674	12300.11915
836.859	12433.94322
837.044	12336.61959
837.228	12316.34185
837.413	12269.70038
837.598	12371.09017
837.783	12148.00905
837.968	12460.29904
838.152	12010.05952
838.337	12255.50441
838.522	12109.4679
838.707	12324.45303
838.891	11902.51476
839.076	12032.37731
839.261	12034.40616
839.445	12066.86659
839.63	11918.7494
839.815	12233.19573
839.999	11758.40892
840.184	11922.80797
840.368	11880.19128
840.553	11961.36282
840.737	11943.10036
840.922	11981.65367
841.106	11498.50027
841.291	11628.47323
841.475	11376.61529
841.66	11766.52871
841.844	11902.51476
842.029	11987.74077
842.213	11573.64553
842.397	11945.12955
842.582	11449.75046
842.766	11433.4993
842.951	11268.92064
843.135	11616.28987
843.319	11289.24256
843.504	11512.71793
843.688	11201.85102
843.872	11378.647
844.056	11557.39899
844.241	11441.62496
844.425	11281.11392
844.609	11374.58358
844.793	11317.69154
844.977	11195.75322
845.161	10911.08138
845.346	11018.8753
845.53	11242.50062
845.714	11303.4673
845.898	10845.98282
846.082	11132.73707
846.266	10990.40449
846.45	11027.00942
846.634	10982.26957
846.818	10652.65061
847.002	10642.47222
847.186	10601.75559
847.37	10477.53898
847.554	10691.32571
847.738	10428.65388
847.922	10860.22414
848.106	10648.57929
848.29	10691.32571
848.473	10748.31263
848.657	10483.64909
848.841	10595.64767
849.025	10467.35519
849.209	10326.78583
849.392	10611.93521
849.576	10245.26747
849.76	10412.3572
849.944	10347.16207
850.127	10707.60865
850.311	10438.83889
850.495	10756.45285
850.678	10375.68659
850.862	10530.4895
851.046	9955.69896
851.229	10322.71042
851.413	10361.42466
851.596	10385.8733
851.78	10277.8774
851.964	10410.32005
852.147	10122.94908
852.331	10151.49448
852.514	10165.76616
852.698	10080.12583
852.881	10102.55783
853.065	10218.76935
853.248	9867.95584
853.431	9949.57823
853.615	9780.18535
853.798	10137.22212
853.982	9967.94004
854.165	10122.94908
854.348	10057.69212
854.532	9947.53795
854.715	9869.99669
854.898	10106.63619
855.081	9765.8945
855.265	9931.21523
855.448	9557.57114
855.631	9629.07283
855.814	9342.94879
855.997	9551.44153
856.181	9330.67924
856.364	9481.96259
856.547	9555.52795
856.73	9612.73128
856.913	9212.04268
857.096	9471.74354
857.279	9214.08862
857.462	9293.86701
857.645	9160.88878
857.828	9214.08862
858.011	9406.33206
858.194	9344.99366
858.377	9171.12041
858.56	9473.78738
858.743	9451.30423
858.926	9222.27219
859.109	9359.30728
859.292	9083.11439
859.475	9083.11439
859.658	9122.00468
859.841	9056.50165
860.023	8929.5387
860.206	8886.51972
860.389	9269.32252
860.572	8837.3455
860.755	8872.1783
860.937	8876.27594
861.12	8978.69367
861.303	8855.78704
861.486	8831.19799
861.668	8583.1113
861.851	8784.0617
862.034	8597.47082
862.216	8597.47082
862.399	8314.21124
862.581	8457.9392
862.764	8404.56558
862.947	8757.41519
863.129	8468.20187
863.312	8720.51492
863.494	8351.17893
863.677	8365.55354
863.859	7997.67008
864.042	8441.51793
864.224	8271.07427
864.406	8550.28609
864.589	8166.27688
864.771	8425.09543
864.954	8081.99042
865.136	8092.27106
865.318	7989.44188
865.501	7948.29597
865.683	7972.9845
865.865	8190.93972
866.048	8075.82179
866.23	8071.70927
866.412	7736.26378
866.594	7981.21335
866.777	8061.42762
866.959	7851.57073
867.141	7513.6993
867.323	8063.48399
867.505	7944.18093
867.687	8273.12861
867.869	8190.93972
868.052	7977.09896
868.234	8040.8628
868.416	8098.43921
868.598	7870.09611
868.78	8143.66674
868.962	8256.69336
869.144	8213.54482
869.326	7686.8264
869.508	7845.39522
869.69	7363.12043
869.872	7760.97793
870.054	7660.04274
870.236	7802.16148
870.417	7800.1025
870.599	8049.08897
870.781	7668.28425
870.963	7651.8009
871.145	7340.42041
871.327	7649.74038
871.508	7466.2691
871.69	7563.17956
871.872	7676.52542
872.054	7723.90558
872.235	7530.1941
872.417	7676.52542
872.599	7542.56429
872.78	7575.5477
872.962	7472.45629
873.144	7507.5134
873.325	7408.51253
873.507	7610.58657
873.689	7270.23998
873.87	7853.62918
874.052	7396.13391
874.233	7453.89412
874.415	7402.32332
874.596	7548.7491
874.778	7224.81556
874.959	7620.89095
875.141	7435.33019
875.322	7406.44949
875.503	7369.31088
875.685	7396.13391
875.866	7231.01043
876.048	7484.8301
876.229	7383.75451
876.41	7379.62787
876.592	7303.26923
876.773	7173.18391
876.954	7020.27269
877.136	7437.39294
877.317	7425.01614
877.498	7672.40488
877.679	7389.94431
877.86	7363.12043
878.042	7301.20506
878.223	7672.40488
878.404	7392.00753
878.585	7431.20464
878.766	7057.47858
878.947	7299.14088
879.128	7255.78791
879.309	7303.26923
879.49	7344.54789
879.672	7524.00871
879.853	7148.39579
880.034	7383.75451
880.215	7288.81962
880.396	7534.31758
880.576	7385.8178
880.757	7596.15955
880.938	7486.89233
881.119	7550.81066
881.3	7447.70634
881.481	7851.57073
881.662	7416.76451
881.843	7538.44098
882.023	7245.46435
882.204	7402.32332
882.385	6978.92428
882.566	7261.98179
882.747	7237.2051
882.927	7505.45139
883.108	7204.16456
883.289	7488.95453
883.469	7672.40488
883.65	7338.35665
883.831	7581.73148
884.011	7680.64587
884.192	7383.75451
884.373	7723.90558
884.553	7350.73893
884.734	7470.39392
884.914	7292.94819
885.095	7507.5134
885.275	7096.74359
885.456	7278.49782
885.636	7098.80995
885.817	7575.5477
885.997	7425.01614
886.178	7540.50264
886.358	7241.33477
886.538	7381.6912
886.719	7286.75531
886.899	7581.73148
887.08	7406.44949
887.26	7491.01671
887.44	7416.76451
887.621	7637.37685
887.801	7466.2691
887.981	7668.28425
888.161	7713.60649
888.342	7598.22061
888.522	7559.05668
888.702	7579.67024
888.882	7389.94431
889.062	7602.34268
889.242	7241.33477
889.423	7301.20506
889.603	7292.94819
889.783	7802.16148
889.963	7431.20464
890.143	7719.786
890.323	7321.84571
890.503	7443.58104
890.683	6941.70299
890.863	7443.58104
891.043	7375.50114
891.223	7664.16354
891.403	7540.50264
891.583	7826.8676
891.763	7425.01614
891.943	7429.14183
892.122	7251.65855
892.302	7266.11093
892.482	7433.26743
892.662	7437.39294
892.842	7447.70634
893.022	7373.43774
893.201	7241.33477
893.381	7495.14102
893.561	7280.56222
893.741	7299.14088
893.92	7024.40704
894.1	7224.81556
894.28	6858.96279
894.459	7301.20506
894.639	6941.70299
894.819	7164.92156
894.998	6993.39725
895.178	7059.54536
895.357	6879.65124
895.537	7202.09934
895.716	6972.72124
895.896	7290.88392
896.075	6974.78894
896.255	7024.40704
896.434	6769.97651
896.614	6916.88474
896.793	6529.70907
896.973	6685.08976
897.152	6318.18209
897.331	6701.65606
897.511	6544.21677
897.69	6763.76659
897.87	6531.78167
898.049	6763.76659
898.228	6471.66693
898.407	6453.00667
898.587	6172.87597
898.766	6459.22697
898.945	6231.01219
899.124	6517.273
899.304	6276.67776
899.483	6635.38205
899.662	6249.69493
899.841	6552.50637
900.02	6332.70639
900.199	6502.7632
900.378	6513.12746
900.557	6295.35587
900.737	6133.41591
900.916	6407.38476
901.095	6262.14904
901.274	6297.4311
901.453	6075.24878
901.632	6212.32755
901.811	6083.5595
901.989	6453.00667
902.168	6199.87007
902.347	6218.55598
902.526	5948.46363
902.705	5971.333
902.884	5773.73065
903.063	6017.0632
903.242	5709.20379
903.42	5875.67845
903.599	5694.63007
903.778	5577.9987
903.957	5384.14409
904.135	5771.64949
904.314	5613.41247
904.493	5931.82957
904.672	5615.49542
904.85	5567.58159
905.029	5475.88562
905.207	5415.42472
905.386	4931.02996
905.565	4964.47657
905.743	5027.17308
905.922	5041.79928
906.1	4839.02151
906.279	5056.42434
906.457	4803.46094
906.636	5162.94409
906.814	4958.20578
906.993	5190.08651
907.171	4897.57747
907.35	4945.66358
907.528	4633.9354
907.707	4631.84157
907.885	4372.03463
908.063	4545.97528
908.242	4485.21805
908.42	4481.02722
908.598	4292.34902
908.777	4516.64653
908.955	4468.45417
909.133	4300.73844
909.311	4290.2516
909.49	4495.69476
909.668	4260.88561
909.846	4493.59947
910.024	4531.31145
910.202	4564.82719
910.38	4462.16735
910.559	4573.20523
910.737	4422.34625
910.915	4499.88529
911.093	4395.09568
911.271	4491.50415
911.449	4273.47155
911.627	4700.92614
911.805	4334.2927
911.983	4686.27389
912.161	4342.6804
912.339	4441.20986
912.517	4279.76423
912.695	4686.27389
912.872	4468.45417
913.05	4816.01248
913.228	4518.74158
913.406	4531.31145
913.584	4535.50123
913.762	4751.15406
913.939	4602.52559
914.117	4640.21676
914.295	4344.77728
914.473	4439.11399
914.65	4445.40154
914.828	4514.55145
915.006	4382.51725
915.184	4652.77887
915.361	4300.73844
915.539	4543.88052
915.716	4304.93303
915.894	4554.35413
916.072	4311.22474
916.249	4225.22126
916.427	4120.29062
916.604	4399.28832
916.782	4409.76952
916.959	4512.45635
917.137	4355.26131
917.314	4357.35805
917.492	4256.69012
917.669	4313.32194
917.847	4042.60823
918.024	4405.57711
918.201	4078.30367
918.379	4183.25534
918.556	3996.40528
918.733	4328.0017
918.911	3996.40528
919.088	4139.18202
919.265	3893.46325
919.442	4038.40837
919.62	3765.24378
919.797	3952.29323
919.974	3798.88223
920.151	4057.30708
920.328	3710.57069
920.506	3964.89759
920.683	3920.77914
920.86	3990.10411
921.037	3819.9037
921.214	4002.70627
921.391	3945.99078
921.568	3889.26051
921.745	3761.03863
921.922	3855.63567
922.099	3714.77678
922.276	3782.06363
922.453	3523.32305
922.63	3561.20532
922.807	3378.05328
922.984	3485.43485
923.161	3182.12356
923.338	3535.95114
923.514	3266.41236
923.691	3432.80263
923.868	3365.41713
924.045	3443.32997
924.222	3331.71765
924.399	3394.90051
924.575	3276.94658
924.752	3472.80415
924.929	3285.37365
925.105	3552.78755
925.282	3133.64559
925.459	3312.75974
925.635	3053.533
925.812	3344.35547
925.989	2836.27523
926.165	3021.9034
926.342	2836.27523
926.518	3017.68586
926.695	2832.05511
926.871	3093.59215
927.048	2912.22772
927.224	3203.19825
927.401	2891.13167
927.577	3139.96928
927.754	2973.39799
927.93	2920.66574
928.107	2601.97749
928.283	2701.20427
928.459	2612.53484
928.636	2878.47335
928.812	2616.75769
928.988	2692.76053
929.165	2561.85682
929.341	2922.7752
929.517	2629.42596
929.693	2692.76053
929.87	2392.88232
930.046	2734.97716
930.222	2367.5302
930.398	2559.74508
930.574	2293.57834
930.751	2711.75866
930.927	2460.4806
931.103	2623.09188
931.279	2445.69441
931.455	2667.42807
931.631	2388.65707
931.807	2568.19195
931.983	2113.93465
932.159	2456.25603
932.335	2054.74517
932.511	2263.99431
932.687	2194.25356
932.863	2367.5302
933.039	2097.02396
933.215	2270.3339
933.391	2008.23524
933.566	2156.20921
933.742	1851.77089
933.918	1982.86484
934.094	1754.4953
934.27	1801.01954
934.445	1621.25772
934.621	1727.00283
934.797	1578.958
934.973	1562.03792
935.148	1458.40099
935.324	1543.00272
935.5	1394.94951
935.675	1646.63715
935.851	1356.8789
936.027	1578.958
936.202	1280.73908
936.378	1392.83446
936.553	1122.12565
936.729	1090.40563
936.904	944.50971
937.08	1094.6349
937.255	961.42362
937.431	1153.84669
937.606	722.56386
937.782	857.83355
937.957	684.52681
938.133	781.73945
938.308	576.77594
938.483	695.0923
938.659	705.65806
938.834	654.94499
939.009	553.53991
939.185	570.43868
939.36	471.17124
939.535	553.53991
939.71	477.5065
939.886	545.09085
940.061	479.61829
940.236	388.82553
940.411	456.38949
940.586	359.27157
940.761	502.8489
940.937	485.95373
941.112	359.27157
941.287	426.82825
941.462	437.38548
941.637	407.82623
941.812	376.15915
941.987	420.4941
942.162	363.49336
942.337	359.27157
942.512	310.72597
942.687	338.16365
942.862	272.74039
943.037	285.40159
943.212	274.85054
943.386	274.85054
943.561	234.76089
943.736	219.99277
943.911	295.95309
944.086	276.96072
944.26	253.74986
944.435	317.05747
944.61	236.87069
944.785	298.06345
944.959	198.89714
945.134	260.07987
945.309	207.33515
945.483	359.27157
945.658	279.07091
945.833	384.60334
946.007	287.51185
946.182	234.76089
946.357	243.20024
946.531	308.61551
946.706	329.72097
946.88	224.21213
947.055	260.07987
947.229	251.6399
947.404	333.94227
947.578	251.6399
947.752	238.98052
947.927	344.49584
948.101	251.6399
948.276	283.29134
948.45	260.07987
948.624	342.38509
948.799	255.85985
948.973	310.72597
949.147	350.82819
949.321	247.42003
949.496	209.44471
949.67	329.72097
949.844	279.07091
950.018	310.72597
950.193	241.09037
950.367	291.73244
950.541	270.63026
950.715	224.21213
950.889	236.87069
951.063	317.05747
951.237	338.16365
951.411	367.71522
951.585	346.60661
951.759	333.94227
951.933	245.31013
952.107	355.04985
952.281	249.52996
952.455	380.38121
952.629	401.49252
952.803	268.52014
952.977	321.27857
953.151	393.0478
953.325	403.60374
953.499	481.73009
953.672	272.74039
953.846	346.60661
954.02	257.96985
954.194	232.6511
954.368	262.18991
954.541	327.61034
954.715	241.09037
954.889	359.27157
955.062	283.29134
955.236	298.06345
955.41	371.93715
955.583	376.15915
955.757	243.20024
955.93	342.38509
956.104	325.49973
956.278	306.50506
956.451	285.40159
956.625	283.29134
956.798	367.71522
956.972	310.72597
957.145	325.49973
957.319	344.49584
957.492	329.72097
957.665	304.39463
957.839	325.49973
958.012	327.61034
958.185	355.04985
958.359	376.15915
958.532	249.52996
958.705	342.38509
958.879	319.16801
959.052	445.83155
959.225	291.73244
959.398	371.93715
959.572	357.1607
959.745	327.61034
959.918	355.04985
960.091	331.83161
960.264	289.62213
960.438	361.38246
960.611	255.85985
960.784	302.28422
960.957	226.32184
961.13	264.29997
961.303	270.63026
961.476	253.74986
961.649	274.85054
961.822	310.72597
961.995	312.83645
962.168	443.72001
962.341	331.83161
962.514	374.04814
962.686	289.62213
962.859	276.96072
963.032	279.07091
963.205	376.15915
963.378	268.52014
963.551	293.84276
963.723	251.6399
963.896	295.95309
964.069	192.56884
964.242	241.09037
964.414	333.94227
964.587	304.39463
964.76	317.05747
964.932	234.76089
965.105	302.28422
965.278	317.05747
965.45	279.07091
965.623	270.63026
965.795	262.18991
965.968	268.52014
966.14	266.41005
966.313	251.6399
966.485	253.74986
966.658	224.21213
966.83	283.29134
967.003	283.29134
967.175	241.09037
967.348	182.02209
967.52	146.16698
967.692	287.51185
967.865	264.29997
968.037	173.58505
968.209	255.85985
968.382	283.29134
968.554	226.32184
968.726	295.95309
968.898	232.6511
969.071	279.07091
969.243	241.09037
969.415	186.24073
969.587	281.18111
969.759	207.33515
969.932	110.318
970.104	325.49973
970.276	167.25749
970.448	262.18991
970.62	192.56884
970.792	190.45945
970.964	165.14835
971.136	276.96072
971.308	188.35008
971.48	230.54133
971.652	224.21213
971.824	215.77348
971.996	182.02209
972.168	243.20024
972.339	188.35008
972.511	276.96072
972.683	217.88312
972.855	139.84024
973.027	63.93463
973.199	167.25749
973.37	108.20943
973.542	224.21213
973.714	203.11611
973.886	198.89714
974.057	165.14835
974.229	192.56884
974.401	152.49392
974.572	228.43158
974.744	228.43158
974.915	156.71198
975.087	146.16698
975.259	179.9128
975.43	222.10244
975.602	82.90833
975.773	150.38492
975.945	201.00661
976.116	148.27594
976.288	118.75249
976.459	192.56884
976.63	186.24073
976.802	169.36666
976.973	139.84024
977.145	167.25749
977.316	190.45945
977.487	135.62252
977.659	165.14835
977.83	97.66692
978.001	141.94913
978.172	108.20943
978.344	146.16698
978.515	133.51369
978.686	232.6511
978.857	131.40488
979.028	158.82104
979.2	72.36716
979.371	114.5352
979.542	118.75249
979.713	133.51369
979.884	131.40488
980.055	99.77538
980.226	125.07859
980.397	114.5352
980.568	144.05805
980.739	148.27594
980.91	122.96987
981.081	182.02209
981.252	152.49392
981.423	57.61047
981.594	72.36716
981.765	59.7185
981.936	116.64384
982.106	165.14835
982.277	110.318
982.448	85.01664
982.619	158.82104
982.79	80.80005
982.96	106.10089
983.131	122.96987
983.302	68.15085
983.472	118.75249
983.643	122.96987
983.814	40.74705
983.984	108.20943
984.155	122.96987
984.326	97.66692
984.496	135.62252
984.667	89.23331
984.837	95.55848
985.008	93.45007
985.178	106.10089
985.349	101.88386
985.519	89.23331
985.69	82.90833
985.86	49.17857
986.031	49.17857
986.201	118.75249
986.371	160.93012
986.542	116.64384
986.712	110.318
986.882	70.25899
987.053	116.64384
987.223	122.96987
987.393	47.07066
987.563	106.10089
987.734	127.18734
987.904	93.45007
988.074	169.36666
988.244	144.05805
988.414	114.5352
988.585	32.3159
988.755	57.61047
988.925	74.47535
989.095	129.2961
989.265	114.5352
989.435	34.42366
989.605	63.93463
989.775	47.07066
989.945	38.63923
990.115	156.71198
990.285	55.50246
990.455	68.15085
990.625	-11.94141
990.795	38.63923
990.965	91.34168
991.134	74.47535
991.304	47.07066
991.474	103.99236
991.644	23.88513
991.814	133.51369
991.984	66.04272
992.153	99.77538
992.323	30.20817
992.493	63.93463
992.662	91.34168
992.832	68.15085
993.002	85.01664
993.171	97.66692
993.341	57.61047
993.511	99.77538
993.68	87.12496
993.85	53.39447
994.019	61.82655
994.189	25.99279
994.358	85.01664
994.528	74.47535
994.697	32.3159
994.867	30.20817
995.036	51.28651
995.206	74.47535
995.375	82.90833
995.544	72.36716
995.714	34.42366
995.883	78.6918
996.052	63.93463
996.222	122.96987
996.391	76.58356
996.56	116.64384
996.73	135.62252
996.899	7.02472
997.068	93.45007
997.237	15.45473
997.406	21.7775
997.576	59.7185
997.745	34.42366
997.914	57.61047
998.083	2.80986
998.252	55.50246
998.421	23.88513
998.59	91.34168
998.759	-1.40491
998.928	23.88513
999.097	68.15085
999.266	36.53143
999.435	91.34168
999.604	42.8549
999.773	122.96987
999.942	108.20943
1000.111	-3.51226
1000.28	15.45473
1000.448	53.39447
1000.617	-16.15583
1000.786	17.5623
1000.955	-33.01256
1001.124	97.66692
1001.292	17.5623
1001.461	55.50246
1001.63	72.36716
1001.798	36.53143
1001.967	30.20817
1002.136	-18.26301
1002.304	95.55848
1002.473	89.23331
1002.642	23.88513
1002.81	19.66988
1002.979	-3.51226
1003.147	21.7775
1003.316	-20.37016
1003.484	13.34719
1003.653	47.07066
1003.821	55.50246
1003.99	106.10089
1004.158	30.20817
1004.327	34.42366
1004.495	23.88513
1004.663	9.13219
1004.832	-3.51226
1005	-1.40491
1005.168	66.04272
1005.337	82.90833
1005.505	-1.40491
1005.673	55.50246
1005.842	38.63923
1006.01	-26.69148
1006.178	42.8549
1006.346	-11.94141
1006.514	-3.51226
1006.683	-20.37016
1006.851	19.66988
1007.019	51.28651
1007.187	40.74705
1007.355	17.5623
1007.523	-11.94141
1007.691	87.12496
1007.859	32.3159
1008.027	72.36716
1008.195	17.5623
1008.363	61.82655
1008.531	40.74705
1008.699	85.01664
1008.867	11.23968
1009.035	47.07066
1009.203	38.63923
1009.37	17.5623
1009.538	55.50246
1009.706	36.53143
1009.874	53.39447
1010.042	-20.37016
1010.209	2.80986
1010.377	7.02472
1010.545	47.07066
1010.713	13.34719
1010.88	-3.51226
1011.048	9.13219
1011.216	38.63923
1011.383	19.66988
1011.551	82.90833
1011.718	-24.5844
1011.886	74.47535
1012.054	51.28651
1012.221	85.01664
1012.389	13.34719
1012.556	66.04272
1012.724	42.8549
1012.891	57.61047
1013.058	0.70246
1013.226	19.66988
1013.393	4.91728
1013.561	-1.40491
1013.728	-20.37016
1013.895	63.93463
1014.063	2.80986
1014.23	89.23331
1014.397	47.07066
1014.565	-33.01256
1014.732	63.93463
1014.899	-41.44034
1015.066	-9.83416
1015.233	95.55848
1015.401	-16.15583
1015.568	-28.79853
1015.735	-28.79853
1015.902	82.90833
1016.069	42.8549
1016.236	7.02472
1016.403	32.3159
1016.57	30.20817
1016.737	59.7185
1016.904	-7.72688
1017.071	51.28651
1017.238	55.50246
1017.405	13.34719
1017.572	108.20943
1017.739	85.01664
1017.906	21.7775
1018.073	57.61047
1018.24	23.88513
1018.407	38.63923
1018.573	32.3159
1018.74	-1.40491
1018.907	59.7185
1019.074	17.5623
1019.241	82.90833
1019.407	-1.40491
1019.574	15.45473
1019.741	-11.94141
1019.907	-7.72688
1020.074	17.5623
1020.241	19.66988
1020.407	82.90833
1020.574	7.02472
1020.74	51.28651
1020.907	21.7775
1021.073	59.7185
1021.24	-20.37016
1021.406	-20.37016
1021.573	-16.15583
1021.739	38.63923
1021.906	47.07066
1022.072	70.25899
1022.239	55.50246
1022.405	76.58356
1022.571	13.34719
1022.738	-3.51226
1022.904	59.7185
1023.07	9.13219
1023.237	-35.11954
1023.403	-20.37016
1023.569	55.50246
1023.735	34.42366
1023.902	82.90833
1024.068	19.66988
1024.234	44.96277
1024.4	-28.79853
1024.566	42.8549
1024.732	25.99279
1024.898	-3.51226
1025.065	34.42366
1025.231	-47.7609
1025.397	38.63923
1025.563	-18.26301
1025.729	17.5623
1025.895	-7.72688
1026.061	-28.79853
1026.227	47.07066
1026.392	57.61047
1026.558	13.34719
1026.724	7.02472
1026.89	68.15085
1027.056	-28.79853
1027.222	-16.15583
1027.388	47.07066
1027.553	30.20817
1027.719	-18.26301
1027.885	53.39447
1028.051	-16.15583
1028.216	-16.15583
1028.382	32.3159
1028.548	0.70246
1028.713	38.63923
1028.879	85.01664
1029.045	36.53143
1029.21	7.02472
1029.376	0.70246
1029.541	-22.47729
1029.707	9.13219
1029.873	23.88513
1030.038	34.42366
1030.204	-16.15583
1030.369	38.63923
1030.534	-9.83416
1030.7	-1.40491
1030.865	13.34719
1031.031	15.45473
1031.196	2.80986
1031.361	9.13219
1031.527	-1.40491
1031.692	47.07066
1031.857	28.10047
1032.023	-3.51226
1032.188	51.28651
1032.353	-9.83416
1032.518	61.82655
1032.684	11.23968
1032.849	-51.97449
1033.014	32.3159
1033.179	-28.79853
1033.344	51.28651
1033.509	38.63923
1033.674	38.63923
1033.839	-24.5844
1034.004	47.07066
1034.17	9.13219
1034.335	-11.94141
1034.5	49.17857
1034.664	89.23331
1034.829	-62.50801
1034.994	32.3159
1035.159	21.7775
1035.324	15.45473
1035.489	23.88513
1035.654	15.45473
1035.819	4.91728
1035.984	-60.40135
1036.148	-18.26301
1036.313	51.28651
1036.478	-7.72688
1036.643	0.70246
1036.807	17.5623
1036.972	38.63923
1037.137	76.58356
1037.301	-28.79853
1037.466	44.96277
1037.631	30.20817
1037.795	51.28651
1037.96	30.20817
1038.124	63.93463
1038.289	21.7775
1038.454	23.88513
1038.618	89.23331
1038.783	-39.33343
1038.947	-26.69148
1039.111	85.01664
1039.276	-30.90556
1039.44	30.20817
1039.605	-18.26301
1039.769	47.07066
1039.933	118.75249
1040.098	42.8549
1040.262	-43.54722
1040.426	-41.44034
1040.591	72.36716
1040.755	40.74705
1040.919	17.5623
1041.083	-1.40491
1041.248	9.13219
1041.412	2.80986
1041.576	38.63923
1041.74	19.66988
1041.904	7.02472
1042.068	15.45473
1042.232	51.28651
1042.397	-26.69148
1042.561	-3.51226
1042.725	-14.04863
1042.889	106.10089
1043.053	110.318
1043.217	4.91728
1043.381	-60.40135
1043.544	19.66988
1043.708	-83.57314
1043.872	-33.01256
1044.036	13.34719
1044.2	7.02472
1044.364	-22.47729
1044.528	-35.11954
1044.691	23.88513
1044.855	42.8549
1045.019	42.8549
1045.183	23.88513
1045.346	30.20817
1045.51	137.73137
1045.674	2.80986
1045.837	-11.94141
1046.001	-5.61958
1046.165	-9.83416
1046.328	-11.94141
1046.492	63.93463
1046.655	-14.04863
1046.819	76.58356
1046.983	-3.51226
1047.146	-45.65407
1047.31	38.63923
1047.473	-22.47729
1047.636	-11.94141
1047.8	47.07066
1047.963	-1.40491
1048.127	13.34719
1048.29	23.88513
