Data from absorb_only_2.23.25_USB4F045381__85__0190.txt Node

Date: Sun Feb 23 19:30:20 EST 2025
User: ssocol
Spectrometer: USB4F04538
Trigger mode: 4
Integration Time (sec): 2.600000E-3
Scans to average: 1
Electric dark correction enabled: true
Nonlinearity correction enabled: true
Boxcar width: 0
XAxis mode: Wavelengths
Number of Pixels in Spectrum: 3648
>>>>>Begin Spectral Data<<<<<
345.52	-27.74501
345.736	-27.74501
345.952	-27.74501
346.168	10.18593
346.384	-4.56592
346.6	18.61609
346.816	18.61609
347.032	-19.31659
347.248	-8.78052
347.464	-4.56592
347.68	35.47754
347.896	1.75615
348.112	-88.83902
348.328	1.75615
348.544	64.98867
348.76	-38.27997
348.975	18.61609
349.191	-63.56133
349.407	22.83131
349.623	-31.95906
349.839	-38.27997
350.055	-6.67324
350.27	10.18593
350.486	-31.95906
350.702	43.90883
350.918	18.61609
351.133	3.86356
351.349	3.86356
351.565	43.90883
351.781	12.29343
351.996	-15.10224
352.212	56.55646
352.428	-6.67324
352.644	39.69314
352.859	12.29343
353.075	-23.53085
353.291	22.83131
353.506	8.07845
353.722	20.72369
353.938	-6.67324
354.153	-15.10224
354.369	-15.10224
354.584	3.86356
354.8	-27.74501
355.016	-23.53085
355.231	-69.8811
355.447	-2.45859
355.662	-0.35123
355.878	33.36978
356.093	31.26204
356.309	-57.24133
356.524	-6.67324
356.74	8.07845
356.955	3.86356
357.171	75.52945
357.386	-10.88778
357.602	5.97099
357.817	-10.88778
358.033	16.50851
358.248	-59.34802
358.464	54.44846
358.679	-10.88778
358.895	60.77252
359.11	52.34049
359.325	54.44846
359.541	-0.35123
359.756	29.15432
359.972	10.18593
360.187	-65.66794
360.402	-4.56592
360.618	-6.67324
360.833	-29.85205
361.048	22.83131
361.264	56.55646
361.479	94.50427
361.694	35.47754
361.909	18.61609
362.125	5.97099
362.34	-2.45859
362.555	-6.67324
362.77	18.61609
362.986	39.69314
363.201	-6.67324
363.416	-23.53085
363.631	5.97099
363.847	-0.35123
364.062	24.93896
364.277	77.63768
364.492	-15.10224
364.707	48.12461
364.922	20.72369
365.138	5.97099
365.353	-17.20943
365.568	-40.38689
365.783	35.47754
365.998	-27.74501
366.213	-42.49378
366.428	27.04663
366.643	-31.95906
366.858	-0.35123
367.073	12.29343
367.288	67.09678
367.503	-31.95906
367.718	3.86356
367.933	-23.53085
368.148	3.86356
368.363	-69.8811
368.578	8.07845
368.793	46.01671
369.008	-6.67324
369.223	43.90883
369.438	39.69314
369.653	22.83131
369.868	-4.56592
370.083	35.47754
370.298	-19.31659
370.513	-17.20943
370.728	-4.56592
370.943	62.88058
371.157	-21.42373
371.372	-19.31659
371.587	43.90883
371.802	35.47754
372.017	14.40096
372.232	1.75615
372.446	24.93896
372.661	-23.53085
372.876	5.97099
373.091	24.93896
373.306	-8.78052
373.52	35.47754
373.735	-19.31659
373.95	10.18593
374.165	-2.45859
374.379	-40.38689
374.594	10.18593
374.809	79.74592
375.023	54.44846
375.238	18.61609
375.453	64.98867
375.667	8.07845
375.882	-4.56592
376.097	-42.49378
376.311	3.86356
376.526	27.04663
376.741	-59.34802
376.955	-27.74501
377.17	5.97099
377.384	77.63768
377.599	10.18593
377.813	5.97099
378.028	-10.88778
378.242	24.93896
378.457	71.31307
378.672	-46.70749
378.886	1.75615
379.101	48.12461
379.315	-6.67324
379.53	-19.31659
379.744	50.23254
379.958	-23.53085
380.173	46.01671
380.387	-48.81431
380.602	-2.45859
380.816	20.72369
381.031	-0.35123
381.245	-82.51994
381.459	10.18593
381.674	22.83131
381.888	-53.02787
382.103	-27.74501
382.317	-6.67324
382.531	-12.99502
382.746	-19.31659
382.96	10.18593
383.174	37.58533
383.388	-4.56592
383.603	27.04663
383.817	10.18593
384.031	-74.09415
384.246	18.61609
384.46	48.12461
384.674	69.20492
384.888	71.31307
385.103	-31.95906
385.317	-36.17303
385.531	-48.81431
385.745	-38.27997
385.959	-2.45859
386.174	-25.63794
386.388	10.18593
386.602	37.58533
386.816	10.18593
387.03	-42.49378
387.244	-0.35123
387.458	-17.20943
387.672	-124.64267
387.887	-10.88778
388.101	-40.38689
388.315	18.61609
388.529	-10.88778
388.743	-6.67324
388.957	29.15432
389.171	-46.70749
389.385	-6.67324
389.599	64.98867
389.813	-6.67324
390.027	24.93896
390.241	43.90883
390.455	-19.31659
390.669	-40.38689
390.883	-6.67324
391.097	-25.63794
391.311	37.58533
391.525	41.80097
391.738	22.83131
391.952	-4.56592
392.166	-2.45859
392.38	52.34049
392.594	-21.42373
392.808	-57.24133
393.022	52.34049
393.236	-27.74501
393.449	35.47754
393.663	60.77252
393.877	-63.56133
394.091	52.34049
394.305	22.83131
394.518	107.15516
394.732	48.12461
394.946	12.29343
395.16	-27.74501
395.373	46.01671
395.587	-78.3071
395.801	24.93896
396.015	-48.81431
396.228	86.0708
396.442	52.34049
396.656	67.09678
396.869	43.90883
397.083	18.61609
397.297	-40.38689
397.51	24.93896
397.724	52.34049
397.938	54.44846
398.151	-74.09415
398.365	43.90883
398.578	1.75615
398.792	1.75615
399.005	-0.35123
399.219	8.07845
399.433	-55.13461
399.646	5.97099
399.86	52.34049
400.073	-48.81431
400.287	-23.53085
400.5	-17.20943
400.714	39.69314
400.927	56.55646
401.141	-19.31659
401.354	-10.88778
401.567	-10.88778
401.781	10.18593
401.994	3.86356
402.208	-10.88778
402.421	18.61609
402.635	-2.45859
402.848	-21.42373
403.061	10.18593
403.275	16.50851
403.488	27.04663
403.701	39.69314
403.915	67.09678
404.128	39.69314
404.341	39.69314
404.555	-15.10224
404.768	-65.66794
404.981	79.74592
405.195	-10.88778
405.408	-6.67324
405.621	18.61609
405.834	18.61609
406.048	60.77252
406.261	-107.79484
406.474	-40.38689
406.687	52.34049
406.9	-15.10224
407.114	5.97099
407.327	-19.31659
407.54	39.69314
407.753	-55.13461
407.966	24.93896
408.179	-4.56592
408.392	-10.88778
408.605	-36.17303
408.819	48.12461
409.032	24.93896
409.245	14.40096
409.458	-53.02787
409.671	1.75615
409.884	81.85419
410.097	-27.74501
410.31	14.40096
410.523	22.83131
410.736	60.77252
410.949	-19.31659
411.162	-36.17303
411.375	-12.99502
411.588	22.83131
411.801	-15.10224
412.014	33.36978
412.227	48.12461
412.44	-40.38689
412.653	-23.53085
412.865	12.29343
413.078	14.40096
413.291	-23.53085
413.504	22.83131
413.717	1.75615
413.93	-0.35123
414.143	-44.60065
414.356	-21.42373
414.568	3.86356
414.781	-10.88778
414.994	-29.85205
415.207	22.83131
415.42	10.18593
415.632	-44.60065
415.845	41.80097
416.058	52.34049
416.271	-29.85205
416.483	46.01671
416.696	46.01671
416.909	35.47754
417.121	24.93896
417.334	33.36978
417.547	48.12461
417.759	12.29343
417.972	64.98867
418.185	5.97099
418.397	1.75615
418.61	69.20492
418.823	5.97099
419.035	35.47754
419.248	-23.53085
419.46	-48.81431
419.673	39.69314
419.885	-21.42373
420.098	35.47754
420.311	-69.8811
420.523	1.75615
420.736	43.90883
420.948	3.86356
421.161	-23.53085
421.373	52.34049
421.586	54.44846
421.798	31.26204
422.01	-40.38689
422.223	86.0708
422.435	-55.13461
422.648	60.77252
422.86	60.77252
423.073	8.07845
423.285	69.20492
423.497	1.75615
423.71	1.75615
423.922	29.15432
424.134	-6.67324
424.347	60.77252
424.559	79.74592
424.771	37.58533
424.984	-6.67324
425.196	60.77252
425.408	79.74592
425.621	46.01671
425.833	58.66448
426.045	-21.42373
426.257	35.47754
426.47	69.20492
426.682	1.75615
426.894	-61.45468
427.106	-10.88778
427.318	14.40096
427.531	24.93896
427.743	22.83131
427.955	-12.99502
428.167	29.15432
428.379	124.02423
428.591	27.04663
428.804	-12.99502
429.016	62.88058
429.228	46.01671
429.44	-19.31659
429.652	-6.67324
429.864	-15.10224
430.076	-15.10224
430.288	56.55646
430.5	-31.95906
430.712	-31.95906
430.924	62.88058
431.136	88.17913
431.348	1.75615
431.56	35.47754
431.772	-4.56592
431.984	22.83131
432.196	-2.45859
432.408	41.80097
432.62	-6.67324
432.832	58.66448
433.044	29.15432
433.256	20.72369
433.468	-31.95906
433.679	43.90883
433.891	20.72369
434.103	69.20492
434.315	22.83131
434.527	48.12461
434.739	37.58533
434.95	18.61609
435.162	94.50427
435.374	10.18593
435.586	46.01671
435.798	14.40096
436.009	-2.45859
436.221	69.20492
436.433	12.29343
436.645	77.63768
436.856	35.47754
437.068	43.90883
437.28	39.69314
437.491	20.72369
437.703	73.42125
437.915	58.66448
438.126	60.77252
438.338	-80.41353
438.55	77.63768
438.761	96.6127
438.973	-78.3071
439.184	52.34049
439.396	27.04663
439.608	10.18593
439.819	77.63768
440.031	-6.67324
440.242	56.55646
440.454	3.86356
440.665	-31.95906
440.877	43.90883
441.088	35.47754
441.3	-55.13461
441.511	33.36978
441.723	3.86356
441.934	20.72369
442.146	-12.99502
442.357	111.37229
442.569	48.12461
442.78	115.58952
442.991	27.04663
443.203	77.63768
443.414	-15.10224
443.626	-23.53085
443.837	-48.81431
444.048	79.74592
444.26	81.85419
444.471	18.61609
444.682	35.47754
444.894	67.09678
445.105	31.26204
445.316	3.86356
445.528	10.18593
445.739	12.29343
445.95	14.40096
446.161	-15.10224
446.373	64.98867
446.584	24.93896
446.795	48.12461
447.006	43.90883
447.217	-0.35123
447.429	52.34049
447.64	-50.9211
447.851	27.04663
448.062	56.55646
448.273	20.72369
448.484	24.93896
448.695	-8.78052
448.907	35.47754
449.118	-29.85205
449.329	12.29343
449.54	-0.35123
449.751	94.50427
449.962	43.90883
450.173	1.75615
450.384	77.63768
450.595	43.90883
450.806	111.37229
451.017	27.04663
451.228	107.15516
451.439	-31.95906
451.65	18.61609
451.861	71.31307
452.072	90.28749
452.283	48.12461
452.494	1.75615
452.705	43.90883
452.915	43.90883
453.126	60.77252
453.337	20.72369
453.548	98.72115
453.759	102.93811
453.97	52.34049
454.181	1.75615
454.391	31.26204
454.602	35.47754
454.813	90.28749
455.024	24.93896
455.235	73.42125
455.445	69.20492
455.656	14.40096
455.867	46.01671
456.078	-48.81431
456.288	-8.78052
456.499	79.74592
456.71	43.90883
456.921	81.85419
457.131	22.83131
457.342	58.66448
457.553	39.69314
457.763	56.55646
457.974	52.34049
458.184	102.93811
458.395	18.61609
458.606	29.15432
458.816	39.69314
459.027	90.28749
459.237	12.29343
459.448	54.44846
459.659	54.44846
459.869	16.50851
460.08	100.82962
460.29	62.88058
460.501	35.47754
460.711	43.90883
460.922	-15.10224
461.132	18.61609
461.343	10.18593
461.553	64.98867
461.764	77.63768
461.974	54.44846
462.184	27.04663
462.395	121.91552
462.605	92.39587
462.816	83.96248
463.026	69.20492
463.236	50.23254
463.447	18.61609
463.657	39.69314
463.867	86.0708
464.078	31.26204
464.288	60.77252
464.498	100.82962
464.709	75.52945
464.919	119.80683
465.129	22.83131
465.339	27.04663
465.55	96.6127
465.76	50.23254
465.97	46.01671
466.18	-2.45859
466.391	62.88058
466.601	1.75615
466.811	60.77252
467.021	136.67694
467.231	79.74592
467.441	48.12461
467.651	98.72115
467.862	43.90883
468.072	107.15516
468.282	111.37229
468.492	153.54842
468.702	58.66448
468.912	73.42125
469.122	56.55646
469.332	48.12461
469.542	27.04663
469.752	113.4809
469.962	73.42125
470.172	88.17913
470.382	54.44846
470.592	170.42125
470.802	149.33043
471.012	90.28749
471.222	161.98467
471.432	79.74592
471.642	132.45929
471.852	157.7665
472.062	81.85419
472.272	124.02423
472.482	242.1453
472.691	92.39587
472.901	170.42125
473.111	149.33043
473.321	180.96744
473.531	187.2954
473.741	60.77252
473.95	197.84241
474.16	166.20292
474.37	206.28038
474.58	212.60907
474.79	195.73297
474.999	240.03545
475.209	132.45929
475.419	157.7665
475.628	197.84241
475.838	231.59621
476.048	168.31207
476.258	121.91552
476.467	233.70599
476.677	250.58493
476.886	237.92561
477.096	265.355
477.306	286.45672
477.515	164.09378
477.725	235.81579
477.935	290.67728
478.144	271.68532
478.354	330.77629
478.563	288.56699
478.773	345.55122
478.982	290.67728
479.192	292.78759
479.401	299.11864
479.611	316.00221
479.82	400.43691
480.03	305.44984
480.239	370.88166
480.449	389.88109
480.658	425.77255
480.868	383.5478
481.077	423.66115
481.287	318.11274
481.496	356.10527
481.705	440.55273
481.915	383.5478
482.124	436.32974
482.333	463.78027
482.543	499.68099
482.752	478.56239
482.961	533.47375
483.171	541.92251
483.38	537.6981
483.589	491.23337
483.799	493.34525
484.008	501.79293
484.217	567.2701
484.426	677.13115
484.636	592.61962
484.845	708.82785
485.054	668.67912
485.263	660.22729
485.472	622.19641
485.682	770.11505
485.891	634.87293
486.1	719.39397
486.309	668.67912
486.518	696.14886
486.727	778.56913
486.936	746.86714
487.146	672.90511
487.355	763.77459
487.564	846.2073
487.773	856.7766
487.982	814.50072
488.191	829.29687
488.4	854.66273
488.609	856.7766
488.818	960.36649
489.027	977.28082
489.236	981.50947
489.445	1015.3396
489.654	1070.31686
489.863	1032.25526
490.072	1076.66063
490.281	1078.77523
490.49	1070.31686
490.698	1087.23368
490.907	1099.92152
491.116	1247.95749
491.325	1116.8389
491.534	1116.8389
491.743	1173.93717
491.952	1247.95749
492.16	1110.49485
492.369	1305.06126
492.578	1218.34889
492.787	1269.10683
492.996	1321.98119
493.204	1192.97058
493.413	1271.22178
493.622	1400.23711
493.831	1324.09619
494.039	1446.7682
494.248	1351.59134
494.457	1381.20175
494.665	1396.00703
494.874	1516.5648
495.083	1586.3605
495.291	1406.58225
495.5	1531.37006
495.709	1626.54513
495.917	1573.67049
496.126	1590.5905
496.335	1484.83912
496.543	1719.60092
496.752	1679.4184
496.96	1751.32312
497.169	1548.29029
497.377	1679.4184
497.586	1590.5905
497.794	1759.78224
498.003	1753.43791
498.211	1893.00432
498.42	1683.64819
498.628	1802.07688
498.837	1916.26333
499.045	1797.84749
499.254	1810.53561
499.462	1981.80772
499.671	1873.97375
499.879	1920.49217
500.087	1854.94276
500.296	1899.34776
500.504	1958.55069
500.713	1973.35071
500.921	1943.75038
501.129	2125.56047
501.338	1990.26464
501.546	2123.4467
501.754	2121.33293
501.962	2140.35662
502.171	2100.19475
502.379	2222.78502
502.587	2098.0809
502.795	2279.84312
503.004	2083.28367
503.212	2258.71126
503.42	2167.83416
503.628	2355.90999
503.837	2233.35183
504.045	2345.34591
504.253	2148.81139
504.461	2229.12513
504.669	2127.67423
504.877	2474.21015
505.085	2343.23306
505.294	2309.42617
505.502	2157.26603
505.71	2607.25621
505.918	2353.7972
506.126	2434.07632
506.334	2480.54671
506.542	2681.15005
506.75	2351.68439
506.958	2541.79487
507.166	2453.08757
507.374	2463.649
507.582	2398.16383
507.79	2522.78785
507.998	2700.14882
508.206	2710.70323
508.414	2345.34591
508.622	2554.4657
508.83	2717.03573
509.037	2774.02283
509.245	2512.22799
509.453	2759.24933
509.661	2689.59407
509.869	2854.21012
510.077	2744.47517
510.285	2579.80608
510.492	2809.89856
510.7	2866.86943
510.908	2797.23699
511.116	2691.70505
511.324	2539.68303
511.531	2795.12668
511.739	2706.48151
511.947	2947.03302
512.155	2795.12668
512.362	2849.99024
512.57	2904.84427
512.778	2993.4338
512.985	2883.74771
513.193	3006.0873
513.401	2822.55963
513.608	3001.86953
513.816	3010.30501
514.024	3018.74025
514.231	2995.54276
514.439	3204.25194
514.646	2883.74771
514.854	3185.28487
515.061	2877.41846
515.269	3216.89591
515.477	3001.86953
515.684	3181.06978
515.892	3052.47874
516.099	3162.10109
516.307	3145.23892
516.514	3237.96787
516.722	3014.52266
516.929	3178.96222
517.136	3261.1451
517.344	3343.30235
517.551	3044.04449
517.759	3328.55809
517.966	3233.75361
518.173	3353.83343
518.381	3098.86266
518.588	3600.13361
518.796	3408.58805
519.003	3404.37658
519.21	3311.70649
519.418	3543.31721
519.625	3170.53178
519.832	3372.7883
520.039	3558.04869
520.247	3602.23766
520.454	3265.35892
520.661	3619.06938
520.868	3616.96548
521.076	3802.03557
521.283	3509.64189
521.49	3656.93636
521.697	3518.06116
521.904	3652.72922
522.112	3677.97091
522.319	3806.23997
522.526	3663.24692
522.733	3705.31297
522.94	3570.67495
523.147	3802.03557
523.354	3810.44428
523.561	3831.46467
523.768	3722.13724
523.975	3877.70255
524.183	3667.45387
524.39	3915.52635
524.597	4005.8567
524.804	3947.0412
525.011	3902.91914
525.218	4012.15741
525.425	3953.34362
525.632	3898.71657
525.838	3905.02039
526.045	4205.28851
526.252	3953.34362
526.459	4098.24851
526.666	3902.91914
526.873	4186.40308
527.08	4039.45835
527.287	4028.9584
527.494	3839.87227
527.701	4213.68148
527.907	3944.94035
528.114	4146.52822
528.321	4301.7871
528.528	4167.51593
528.735	4289.20289
528.941	3974.35038
529.148	4131.83557
529.355	4366.79312
529.562	4089.85091
529.768	4316.46769
529.975	4106.64578
530.182	4217.87784
530.388	3938.63768
530.595	4333.24422
530.802	4261.93446
531.008	4530.26399
531.215	4381.46902
531.422	4532.3589
531.628	4133.93458
531.835	4408.72143
532.042	4383.56549
532.248	4783.586
532.455	4595.19591
532.661	4888.1679
532.868	4385.66193
533.074	4567.969
533.281	4666.38692
533.487	4867.25608
533.694	4523.97912
533.9	4748.0152
534.107	4683.13397
534.313	4722.90246
534.52	4402.43274
534.726	4729.18095
534.933	4618.23113
535.139	4833.79242
535.345	4559.59073
535.552	4856.79932
535.758	4630.79465
535.965	4775.21699
536.171	4800.32293
536.377	4942.5279
536.584	4942.5279
536.79	4946.70879
536.996	5028.21785
537.203	4900.71389
537.409	4898.62295
537.615	4913.25905
537.821	4779.40154
538.028	5184.86712
538.234	4821.24205
538.44	4986.42271
538.646	4927.89404
538.853	5118.04607
539.059	4844.25044
539.265	5176.51579
539.471	5276.7071
539.677	5251.66431
539.883	5118.04607
540.09	5028.21785
540.296	5080.44877
540.502	5293.40041
540.708	5126.4
540.914	5378.93014
541.12	5272.53353
541.326	5439.40296
541.532	5268.35988
541.738	5376.84452
541.944	5243.31597
542.15	5441.48788
542.356	5301.74651
542.562	5537.36864
542.768	5339.29931
542.974	5610.288
543.18	5416.46732
543.386	5606.12196
543.592	5520.6973
543.798	5741.47006
544.004	5518.61328
544.21	5537.36864
544.415	5468.58966
544.621	5679.01409
544.827	5554.03847
545.033	5703.99903
545.239	5543.62
545.445	5656.10825
545.651	5468.58966
545.856	5706.08095
546.062	5541.53623
546.268	5708.16285
546.474	5808.06634
546.679	5608.20499
546.885	5643.61295
547.091	5643.61295
547.297	5618.61981
547.502	5549.87115
547.708	5733.14382
547.914	5853.83727
548.119	5943.26565
548.325	5864.23816
548.531	5424.80788
548.736	5868.39835
548.942	5689.42489
549.147	5797.66227
549.353	5810.14709
549.559	6065.89877
549.764	5893.35751
549.97	5862.15803
550.175	5887.11804
550.381	6126.14603
550.586	5912.07465
550.792	6252.80854
550.997	6005.63172
551.203	6070.05439
551.408	6076.28764
551.614	6113.6827
551.819	6061.74305
552.025	6252.80854
552.23	6009.7887
552.435	6161.45419
552.641	6184.29704
552.846	6377.30961
553.052	6259.03559
553.257	6200.90823
553.462	6418.79129
553.668	6333.7438
553.873	6308.84443
554.078	6269.41354
554.283	6366.93773
554.489	6576.33691
554.694	6240.3538
554.899	6383.53245
555.105	6252.80854
555.31	6414.64354
555.515	6373.16093
555.72	6460.26366
555.925	6310.91951
556.131	6487.21572
556.336	6254.88425
556.541	6472.70356
556.746	6385.60669
556.951	6551.47019
557.156	6275.64004
557.361	6530.74537
557.567	6499.65381
557.772	6626.06038
557.977	6516.23662
558.182	6681.98342
558.387	6534.89052
558.592	6576.33691
558.797	6437.45501
559.002	6669.55753
559.207	6499.65381
559.412	6648.84587
559.617	6744.10048
559.822	6922.05548
560.027	6725.46753
560.232	6824.82187
560.437	6731.67872
560.642	6742.03025
560.847	6768.94153
561.051	6700.62071
561.256	6781.36083
561.461	6853.79032
561.666	6582.55307
561.871	6884.823
562.076	6576.33691
562.281	6866.20401
562.485	6607.41564
562.69	7046.11089
562.895	6847.58317
563.1	6922.05548
563.305	6626.06038
563.509	7013.03737
563.714	6874.47934
563.919	7010.97008
564.123	6590.84097
564.328	7097.77677
564.533	6814.47492
564.737	7075.04551
564.942	6891.02892
565.147	7039.91004
565.351	6824.82187
565.556	6876.54812
565.761	6657.13081
565.965	6996.49845
566.17	6750.31105
566.374	7087.44471
566.579	6888.96031
566.784	6932.39653
566.988	7023.37346
567.193	7246.49673
567.397	6901.37168
567.602	7211.39266
567.806	6878.61687
568.011	7170.08557
568.215	7081.24521
568.42	7130.83561
568.624	7145.29706
568.828	7269.20772
569.033	7062.64549
569.237	7293.98032
569.442	7168.01998
569.646	7126.70357
569.85	7002.70072
570.055	7405.41795
570.259	7044.04396
570.463	7246.49673
570.668	6979.9581
570.872	7201.06672
571.076	7029.57485
571.281	7215.52288
571.485	7390.97592
571.689	7623.98216
571.893	7395.10233
572.098	7630.16444
572.302	7110.17451
572.506	7302.23715
572.71	6990.29599
572.914	7345.57974
573.119	7265.07865
573.323	7442.54971
573.527	7415.73303
573.731	7531.22498
573.935	7739.35322
574.139	7665.19372
574.343	7384.78616
574.547	7531.22498
574.751	7343.51603
574.955	7663.13335
575.159	7401.29177
575.364	7364.15218
575.568	7465.23788
575.772	7718.7561
575.976	7442.54971
576.18	7421.92182
576.383	7582.76209
576.587	7518.85407
576.791	7440.48702
576.995	7772.30424
577.199	7547.71831
577.403	7603.37319
577.607	7673.43502
577.811	7685.79633
578.015	7463.17543
578.219	7840.24883
578.422	7485.86122
578.626	7899.93904
578.83	7733.1743
579.034	7846.42449
579.238	7712.57655
579.442	7823.7795
579.645	7751.71048
579.849	7881.41635
580.053	7879.35817
580.257	7941.09459
580.46	7797.01399
580.664	7988.41333
580.868	7788.77774
581.071	8126.19362
581.275	7825.83824
581.479	7864.95034
581.682	7875.24175
581.886	7823.7795
582.09	8035.72128
582.293	8276.21008
582.497	8288.53552
582.7	8148.80562
582.904	7829.95565
583.107	8052.1737
583.311	7928.74879
583.515	8023.38111
583.718	8054.23017
583.922	8091.24302
584.125	8202.24257
584.329	8245.39339
584.532	7778.48196
584.735	8210.46245
584.939	8031.60797
585.142	8093.2991
585.346	7891.70694
585.549	8284.42712
585.753	8159.083
585.956	8175.52578
586.159	7920.51784
586.363	8259.77507
586.566	8380.95387
586.769	8208.40751
586.973	7996.64157
587.176	8204.29757
587.379	8150.86114
587.582	8405.59212
587.786	8126.19362
587.989	8150.86114
588.192	8068.62483
588.395	8315.23821
588.599	8323.45375
588.802	8442.54429
589.005	8255.66612
589.208	8539.00131
589.411	8298.80617
589.615	8407.64518
589.818	8046.0042
590.021	8327.56141
590.224	8311.13032
590.427	8543.10493
590.63	8374.79387
590.833	8524.63803
591.036	8426.12188
591.239	8836.32092
591.442	8249.50254
591.645	8436.38603
591.848	8586.18842
592.051	8770.73883
592.254	8645.67106
592.457	8655.9251
592.66	8555.41535
592.863	8752.29051
593.066	8582.08559
593.269	8815.82851
593.472	8512.32592
593.675	8854.76255
593.878	8651.82354
594.081	9176.23606
594.284	8756.39026
594.486	8914.17568
594.689	8842.46829
594.892	8668.22934
595.095	8678.48236
595.298	8637.46749
595.5	8557.46702
595.703	8877.30034
595.906	8707.18837
596.109	8698.98702
596.311	8528.74192
596.514	8623.11053
596.717	8840.41919
596.92	8983.81339
597.122	8844.51738
597.325	9049.33618
597.528	8793.28477
597.73	8946.94892
597.933	9035.0046
598.136	9035.0046
598.338	8940.80428
598.541	9131.21463
598.743	9075.94971
598.946	9237.61567
599.148	8856.81153
599.351	8865.00727
599.554	8932.61119
599.756	9004.29119
599.959	8869.10503
600.161	9075.94971
600.363	9049.33618
600.566	9041.14681
600.768	8815.82851
600.971	9227.38679
601.173	8948.9971
601.376	9270.34526
601.578	9004.29119
601.78	9325.56675
601.983	9120.98134
602.185	9159.86559
602.388	9258.07216
602.59	9388.95434
602.792	9145.54053
602.995	9127.12137
603.197	9063.66691
603.399	9278.52699
603.601	8914.17568
603.804	9022.71971
604.006	9032.95716
604.208	9288.75377
604.41	8979.71762
604.613	9315.34146
604.815	9135.30783
605.017	9446.19415
605.219	9196.69762
605.421	9301.02536
605.623	9123.02803
605.826	9446.19415
606.028	9073.90262
606.23	9161.91196
606.432	9198.74369
606.634	9405.30988
606.836	9315.34146
607.038	9215.11158
607.24	9084.1379
607.442	9157.8192
607.644	9356.24014
607.846	9213.06565
608.048	9227.38679
608.25	9143.49403
608.452	9178.2823
608.654	9399.17667
608.856	9151.67994
609.058	9403.26549
609.26	9329.65675
609.462	9213.06565
609.664	9086.1849
609.866	9225.34096
610.067	9176.23606
610.269	9354.19536
610.471	9098.46657
610.673	9438.01781
610.875	9204.88177
611.077	9405.30988
611.278	9118.93462
611.48	9378.73161
611.682	9442.10601
611.884	9617.83812
612.085	9303.07057
612.287	9570.85148
612.489	9298.98014
612.69	9683.19711
612.892	9576.98064
613.094	9489.11568
613.295	9131.21463
613.497	9677.07038
613.699	9552.46314
613.9	9615.79539
614.102	9321.47669
614.304	9352.15057
614.505	9413.48725
614.707	9601.49588
614.908	9415.53155
615.11	9356.24014
615.311	9397.13224
615.513	9554.50635
615.714	9219.20338
615.916	9393.04332
616.117	9270.34526
616.319	9529.98676
616.52	9652.56206
616.722	9529.98676
616.923	9487.07196
617.124	9552.46314
617.326	9456.41421
617.527	9417.57584
617.729	9417.57584
617.93	9691.36587
618.131	9350.10576
618.333	9462.54605
618.534	9390.99884
618.735	9513.63909
618.937	9352.15057
619.138	9474.80929
619.339	9278.52699
619.54	9458.45817
619.742	9241.7071
619.943	9409.39859
620.144	9358.2849
620.345	9487.07196
620.546	9478.89691
620.748	9472.76546
620.949	9092.32581
621.15	9628.05151
621.351	9411.44293
621.552	9429.84122
621.753	9668.90119
621.954	9726.08036
622.155	9495.24675
622.356	9511.59556
622.558	9487.07196
622.759	9509.55202
622.96	9393.04332
623.161	9652.56206
623.362	9270.34526
623.563	9691.36587
623.764	9548.37667
623.965	9834.27973
624.166	9564.72218
624.366	9517.72611
624.567	9303.07057
624.768	9768.95689
624.969	9213.06565
625.17	9270.34526
625.371	9501.37768
625.572	9658.68935
625.773	9593.32439
625.973	9527.94336
626.174	9529.98676
626.375	9585.15264
626.576	9662.77413
626.777	9864.89454
626.977	9683.19711
627.178	9658.68935
627.379	9362.37437
627.58	9707.70265
627.78	9572.89455
627.981	9773.04001
628.182	9781.20609
628.382	9911.83079
628.583	9585.15264
628.784	9773.04001
628.984	9617.83812
629.185	9936.31618
629.386	9417.57584
629.586	9911.83079
629.787	9805.70288
629.987	9636.22194
630.188	9413.48725
630.388	9795.49615
630.589	9442.10601
630.79	9687.28152
630.99	9640.30707
631.191	9658.68935
631.391	9675.0281
631.591	9544.29013
631.792	9552.46314
631.992	9536.11687
632.193	9650.5196
632.393	9630.09414
632.594	9609.66713
632.794	9474.80929
632.994	9664.8165
633.195	9638.26451
633.395	9581.06667
633.595	9781.20609
633.796	9797.53752
633.996	9971.00023
634.196	9766.9153
634.397	10105.6166
634.597	9871.01711
634.797	10172.90175
634.997	9566.76529
635.198	9915.91183
635.398	9936.31618
635.598	10119.89048
635.798	9654.60451
635.998	9650.5196
636.199	9623.9662
636.399	10013.83946
636.599	9736.28967
636.799	9968.96011
636.999	9593.32439
637.199	9868.97627
637.399	9846.52606
637.599	9848.56706
637.799	9783.24757
637.999	9797.53752
638.199	9854.68998
638.399	10128.04667
638.599	9922.03329
638.799	10066.86975
638.999	10011.79964
639.199	9907.74969
639.399	9666.85885
639.599	10138.2416
639.799	9717.91265
639.999	9883.26183
640.199	9799.57888
640.399	9711.7867
640.599	9515.68261
640.799	10117.8514
640.998	9760.79045
641.198	10003.64022
641.398	10109.69492
641.598	10070.94861
641.798	10111.73406
641.997	9846.52606
642.197	10079.10615
642.397	10168.82429
642.597	10003.64022
642.796	9922.03329
642.996	9830.1975
643.196	10274.82036
643.395	9830.1975
643.595	10101.53823
643.795	9862.85366
643.994	10028.11779
644.194	9807.74418
644.394	10356.33095
644.593	10026.07807
644.793	10266.66812
644.992	9866.93541
645.192	9885.30257
645.392	9795.49615
645.591	9817.95046
645.791	10183.09515
645.99	10160.66921
646.19	10019.95883
646.389	9985.28068
646.589	9873.05793
646.788	10144.35839
646.987	9948.55809
647.187	10270.74427
647.386	10099.49902
647.586	10148.43618
647.785	10138.2416
647.984	9975.08043
648.184	10009.7598
648.383	9854.68998
648.582	9995.48057
648.782	10274.82036
648.981	10060.75136
649.18	10291.12419
649.38	10258.51567
649.579	10419.4871
649.778	10126.00764
649.977	10207.55791
650.177	10048.5142
650.376	10234.05701
650.575	10011.79964
650.774	10393.0038
650.973	10340.03054
651.173	10366.51828
651.372	10046.47462
651.571	10046.47462
651.77	10195.32678
651.969	10393.0038
652.168	9993.44062
652.367	10146.39729
652.566	10254.43936
652.765	10250.363
652.964	10054.63285
653.163	10270.74427
653.362	10193.28821
653.561	10176.97915
653.76	10095.42056
653.959	10128.04667
654.158	10164.74678
654.357	10209.59638
654.556	10097.45979
654.755	10291.12419
654.954	10215.71172
655.153	10272.78232
655.352	10356.33095
655.551	10364.48084
655.749	10019.95883
655.948	10250.363
656.147	10132.12468
656.346	10443.93127
656.545	10056.67237
656.743	10293.16211
656.942	10062.79084
657.141	10264.63003
657.34	10185.13379
657.538	10321.69156
657.737	10409.30147
657.936	10623.13244
658.135	9985.28068
658.333	10405.22713
658.532	10232.0187
658.731	10256.47752
658.929	9797.53752
659.128	10289.08626
659.326	10070.94861
659.525	10360.40592
659.724	10311.50277
659.922	10170.86303
660.121	10130.08568
660.319	10236.0953
660.518	10054.63285
660.716	10172.90175
660.915	10158.63041
661.113	10388.92925
661.312	10248.3248
661.51	10494.85067
661.709	10238.13359
661.907	10299.27578
662.105	10225.90368
662.304	10409.30147
662.502	10256.47752
662.701	10429.6724
662.899	10315.57833
663.097	10545.7621
663.296	10268.7062
663.494	10478.55734
663.692	10174.94046
663.891	10403.18994
664.089	10060.75136
664.287	10229.98037
664.485	10095.42056
664.684	10427.63536
664.882	10262.59192
665.08	10307.42716
665.278	10282.97238
665.476	10232.0187
665.675	10103.57742
665.873	10207.55791
666.071	10066.86975
666.269	10205.51942
666.467	10079.10615
666.665	10435.78342
666.863	10111.73406
667.061	10384.85464
667.259	10278.8964
667.457	10649.59713
667.655	10299.27578
667.853	10234.05701
668.051	10148.43618
668.249	10474.48388
668.447	10146.39729
668.645	10297.23791
668.843	10270.74427
669.041	10121.92955
669.239	10278.8964
669.437	10614.98904
669.635	10229.98037
669.833	10305.38934
670.031	10356.33095
670.229	10256.47752
670.426	10156.59159
670.624	10382.81732
670.822	9948.55809
671.02	10378.74264
671.218	10028.11779
671.415	10087.26347
671.613	10058.71187
671.811	10256.47752
672.009	10070.94861
672.206	10331.88001
672.404	10036.27653
672.602	10183.09515
672.799	10056.67237
672.997	10095.42056
673.195	10060.75136
673.392	10213.67329
673.59	10075.02741
673.788	10313.54055
673.985	10054.63285
674.183	10219.78855
674.38	10195.32678
674.578	10435.78342
674.775	9956.71907
674.973	10225.90368
675.17	10174.94046
675.368	10280.9344
675.565	9887.34329
675.763	9971.00023
675.96	9854.68998
676.158	10217.75014
676.355	10003.64022
676.553	10329.84235
676.75	9670.94351
676.947	10354.29345
677.145	9950.59836
677.342	10172.90175
677.539	9944.47751
677.737	10154.55276
677.934	9958.75928
678.131	10201.44241
678.329	9854.68998
678.526	9995.48057
678.723	9862.85366
678.92	10195.32678
679.118	9601.49588
679.315	9952.63861
679.512	9985.28068
679.709	10040.35581
679.906	9842.44401
680.104	10337.99293
680.301	9987.32068
680.498	9848.56706
680.695	9626.00886
680.892	10050.55376
681.089	10056.67237
681.286	10017.91905
681.483	9919.99282
681.68	9913.87132
681.877	9572.89455
682.075	9836.32082
682.272	9670.94351
682.469	9915.91183
682.665	9764.8737
682.862	9897.54667
683.059	9738.33148
683.256	9746.49859
683.453	9691.36587
683.65	9744.45684
683.847	9438.01781
684.044	9834.27973
684.241	9652.56206
684.438	9642.3496
684.635	9636.22194
684.831	9832.23862
685.028	9750.58205
685.225	9615.79539
685.422	9630.09414
685.619	9615.79539
685.815	9801.62023
686.012	9758.7488
686.209	9740.37328
686.405	9773.04001
686.602	9791.41335
686.799	9699.53439
686.996	9615.79539
687.192	9846.52606
687.389	9495.24675
687.586	9785.28904
687.782	9634.17936
687.979	9934.27581
688.175	9519.76959
688.372	9838.3619
688.568	9456.41421
688.765	9499.33405
688.962	9536.11687
689.158	9599.45303
689.355	9507.50846
689.551	9540.20353
689.748	9405.30988
689.944	9513.63909
690.14	9413.48725
690.337	9662.77413
690.533	9652.56206
690.73	9532.03015
690.926	9456.41421
691.123	9646.43463
691.319	9503.42129
691.515	9850.60805
691.712	9335.79163
691.908	9521.81306
692.104	9213.06565
692.301	9544.29013
692.497	9323.52173
692.693	9546.33341
692.889	9235.56993
693.086	9521.81306
693.282	9429.84122
693.478	9687.28152
693.674	9388.95434
693.87	9519.76959
694.067	9313.29635
694.263	9556.54955
694.459	9151.67994
694.655	9529.98676
694.851	9325.56675
695.047	9468.67774
695.243	9233.52417
695.439	9086.1849
695.635	8998.14804
695.831	9454.37023
696.027	9049.33618
696.224	9370.55312
696.42	9241.7071
696.615	9399.17667
696.811	9084.1379
697.007	9335.79163
697.203	8891.64144
697.399	9354.19536
697.595	9123.02803
697.791	9188.5132
697.987	9082.09088
698.183	9527.94336
698.379	9305.11576
698.575	9444.15009
698.77	9104.60716
698.966	9309.20609
699.162	9024.76723
699.358	9084.1379
699.554	8717.43963
699.749	8983.81339
699.945	8867.05616
700.141	8967.42989
700.337	8873.20272
700.532	9213.06565
700.728	9073.90262
700.924	9288.75377
701.119	9094.37275
701.315	9303.07057
701.511	8989.95692
701.706	9180.32851
701.902	9170.09726
702.097	9198.74369
702.293	9170.09726
702.489	9102.56032
702.684	8682.58344
702.88	9131.21463
703.075	8889.59276
703.271	9028.86223
703.466	8942.85251
703.662	8742.0408
703.857	8807.63104
704.053	9039.09942
704.248	8883.44663
704.443	9301.02536
704.639	9143.49403
704.834	9235.56993
705.03	8813.77917
705.225	9065.71408
705.42	8709.23866
705.616	9071.85551
705.811	8801.48275
706.006	8989.95692
706.202	8819.92714
706.397	8865.00727
706.592	8596.44517
706.787	8869.10503
706.983	8879.34912
707.178	9159.86559
707.373	8789.18567
707.568	9182.37471
707.763	8752.29051
707.959	8985.86125
708.154	8881.39788
708.349	8664.128
708.544	8832.22259
708.739	8891.64144
708.934	8569.77664
709.129	8881.39788
709.324	8922.36942
709.519	8664.128
709.714	8555.41535
709.909	9012.48182
710.104	8619.00837
710.299	8606.70145
710.494	8614.90614
710.689	8709.23866
710.884	8635.41655
711.079	8780.98726
711.274	8649.77273
711.469	8766.63933
711.664	8809.68044
711.859	8801.48275
712.054	8739.9908
712.249	8633.3656
712.443	8471.28058
712.638	8844.51738
712.833	8374.79387
713.028	8725.64032
713.223	8405.59212
713.417	8651.82354
713.612	8563.62192
713.807	8676.4318
714.002	8372.7405
714.196	8553.36366
714.391	8475.38545
714.586	8844.51738
714.78	8389.16693
714.975	8662.07731
715.17	8688.73492
715.364	8703.08773
715.559	8485.64731
715.754	8610.80383
715.948	8352.20572
716.143	8438.43881
716.337	8263.88394
716.532	8649.77273
716.726	8358.36635
716.921	8686.68445
717.115	8657.97586
717.31	8651.82354
717.504	8715.38942
717.699	8358.36635
717.893	8302.9143
718.088	8592.34253
718.282	8401.48594
718.476	8588.23981
718.671	8625.16158
718.865	8584.13701
719.059	8253.61161
719.254	8463.07059
719.448	8407.64518
719.642	8506.1696
719.837	8144.69453
720.031	8383.00716
720.225	8218.68201
720.419	8302.9143
720.614	8085.07467
720.808	8500.01311
721.002	8107.69108
721.196	8569.77664
721.39	8356.31283
721.585	8101.52321
721.779	8323.45375
721.973	8504.11746
722.167	8210.46245
722.361	8358.36635
722.555	7867.00866
722.749	7969.89859
722.943	8043.94766
723.137	8282.37289
723.331	7897.88105
723.525	8031.60797
723.719	7862.89199
723.913	8298.80617
724.107	7980.18476
724.301	8235.12018
724.495	7965.78398
724.689	8134.41644
724.883	7782.60034
725.077	7823.7795
725.271	7901.99701
725.465	7755.8294
725.659	7739.35322
725.853	8191.96728
726.046	7883.47451
726.24	7941.09459
726.434	7829.95565
726.628	8041.89109
726.822	7971.95587
727.015	7990.47042
727.209	7860.83363
727.403	7755.8294
727.596	7846.42449
727.79	7675.49529
727.984	7943.15215
728.177	8136.4721
728.371	7617.79969
728.565	7910.2287
728.758	7965.78398
728.952	8054.23017
729.146	7860.83363
729.339	8037.77791
729.533	7910.2287
729.726	8113.85878
729.92	8076.84991
730.113	8356.31283
730.307	8027.49459
730.5	8194.02238
730.694	7842.3074
730.887	7932.86414
731.081	8011.04022
731.274	8200.18756
731.468	7809.36774
731.661	8076.84991
731.854	7838.19024
732.048	8060.39943
732.241	8050.11722
732.435	8169.35989
732.628	8122.08208
732.821	7969.89859
733.014	7945.20969
733.208	7897.88105
733.401	7735.23396
733.594	7856.71683
733.788	7652.83115
733.981	7792.89591
734.174	7807.30883
734.367	7514.73027
734.56	7772.30424
734.754	7821.72074
734.947	7621.92136
735.14	7904.05497
735.333	7918.46006
735.526	7939.03701
735.719	7930.80647
735.912	7881.41635
736.105	7700.21689
736.298	8004.86949
736.491	7899.93904
736.684	7780.54116
736.877	7708.45675
737.07	7846.42449
737.263	7848.483
737.456	7895.82303
737.649	7965.78398
737.842	7776.42274
738.035	7799.073
738.228	7860.83363
738.421	7803.19096
738.614	7731.11462
738.807	7613.67794
739	7673.43502
739.192	7508.5444
739.385	7745.53194
739.578	7607.49515
739.771	7535.34844
739.964	7450.80025
740.156	7619.86054
740.349	7401.29177
740.542	7525.03962
740.735	7436.36157
740.927	7549.77988
741.12	7623.98216
741.313	7487.92343
741.505	7512.66833
741.698	7475.54982
741.891	7549.77988
742.083	7494.10995
742.276	7691.9767
742.468	7665.19372
742.661	7694.03678
742.854	7566.27167
743.046	7659.01253
743.239	7603.37319
743.431	7508.5444
743.624	7459.05045
743.816	7452.86284
744.009	7502.35834
744.201	7232.04289
744.393	7362.08867
744.586	7277.46561
744.778	7324.94162
744.971	7126.70357
745.163	7508.5444
745.355	7355.89798
745.548	7287.78747
745.74	7388.91269
745.932	7438.4243
746.125	7428.11042
746.317	7384.78616
746.509	7331.13328
746.702	7646.64957
746.894	7545.65672
747.086	7339.38853
747.278	7308.42954
747.471	7227.91302
747.663	7161.82309
747.855	7329.06942
748.047	7287.78747
748.239	7496.17208
748.431	7310.49363
748.623	7360.02513
748.815	7196.93619
749.008	7450.80025
749.2	7227.91302
749.392	7149.4287
749.584	7186.60947
749.776	7103.97574
749.968	7248.56147
750.16	7428.11042
750.352	7318.74975
750.544	7203.13195
750.736	7258.88487
750.928	7337.32475
751.12	7254.75558
751.311	7054.37837
751.503	7186.60947
751.695	7112.24072
751.887	6996.49845
752.079	7153.56025
752.271	7116.37307
752.463	7153.56025
752.654	6955.14486
752.846	7341.45229
753.038	7139.09943
753.23	7271.27223
753.421	7079.17867
753.613	6963.4163
753.805	6963.4163
753.997	6951.009
754.188	7039.91004
754.38	6932.39653
754.572	6888.96031
754.763	7215.52288
754.955	6982.02572
755.146	7097.77677
755.338	7017.17187
755.53	6967.55188
755.721	6992.3635
755.913	7120.50534
756.104	6994.43099
756.296	7025.44061
756.487	6913.78223
756.679	7120.50534
756.87	6872.41054
757.062	6723.39709
757.253	6864.13512
757.445	6932.39653
757.636	6799.98822
757.827	6982.02572
758.019	6773.08139
758.21	6648.84587
758.401	6590.84097
758.593	6841.37582
758.784	6905.50862
758.975	6785.50041
759.167	6764.80159
759.358	6727.53795
759.549	6675.77058
759.74	6781.36083
759.932	6499.65381
760.123	6545.25299
760.314	6733.74907
760.505	6626.06038
760.696	6300.54389
760.888	6543.18054
761.079	6706.83272
761.27	6731.67872
761.461	6534.89052
761.652	6901.37168
761.843	6640.56056
762.034	6499.65381
762.225	6126.14603
762.416	6379.38391
762.607	6084.59831
762.798	6263.18684
762.989	6650.91714
763.18	6429.16026
763.371	6298.4687
763.562	6472.70356
763.753	6213.36564
763.944	6536.96306
764.135	6063.82092
764.326	6474.7768
764.517	6308.84443
764.708	6526.60013
764.899	6223.74617
765.089	6279.79091
765.28	6273.56456
765.471	6333.7438
765.662	6034.72863
765.853	6283.9417
766.043	6279.79091
766.234	6317.1446
766.425	6092.9086
766.615	6099.14108
766.806	6113.6827
766.997	6124.06886
767.187	6092.9086
767.378	6252.80854
767.569	6076.28764
767.759	6043.04118
767.95	5984.84538
768.141	6169.76101
768.331	5970.29355
768.522	6063.82092
768.712	5968.21462
768.903	6084.59831
769.093	5789.33858
769.284	5870.47841
769.474	5943.26565
769.665	5959.89867
769.855	5781.01452
770.046	5999.39607
770.236	5843.43579
770.426	5855.91749
770.617	6040.96308
770.807	5901.67648
770.998	5781.01452
771.188	5814.3085
771.378	5793.50047
771.569	5691.50698
771.759	5666.52035
771.949	5824.71164
772.139	5993.1602
772.33	5558.20569
772.52	5893.35751
772.71	5870.47841
772.9	5701.91708
773.09	5847.59645
773.281	5783.09557
773.471	5778.93344
773.661	5635.28228
773.851	5576.95702
774.041	5670.68503
774.231	5912.07465
774.421	5658.19072
774.611	5649.86071
774.802	5643.61295
774.992	5768.52771
775.182	5579.04038
775.372	5551.95482
775.562	5583.20704
775.752	5662.35558
775.942	5453.99689
776.131	5670.68503
776.321	5443.57277
776.511	5595.70644
776.701	5422.72278
776.891	5368.50179
777.081	5537.36864
777.271	5537.36864
777.461	5531.11706
777.651	5406.04109
777.84	5339.29931
778.03	5385.18686
778.22	5381.01574
778.41	5401.87043
778.599	5297.57351
778.789	5376.84452
778.979	5431.06306
779.169	5282.96727
779.358	5343.47138
779.548	5474.84335
779.738	5268.35988
779.927	5579.04038
780.117	5260.01228
780.307	5574.87363
780.496	5130.57683
780.686	5389.3579
780.875	5118.04607
781.065	5028.21785
781.254	5034.48632
781.444	5097.15961
781.633	4963.43146
781.823	5209.91887
782.012	5161.90007
782.202	5126.4
782.391	4869.34737
782.581	4986.42271
782.77	5080.44877
782.96	4925.80339
783.149	4802.41494
783.338	4959.25093
783.528	4944.61836
783.717	4946.70879
783.906	4909.07742
784.096	5003.14187
784.285	4846.34198
784.474	4737.55195
784.663	4804.50693
784.853	4848.43349
785.042	4708.25186
785.231	4906.98657
785.42	4779.40154
785.61	4712.43786
785.799	4775.21699
785.988	4678.94734
786.177	4534.45379
786.366	4727.08814
786.555	4496.7424
786.744	4756.38539
786.933	4628.70078
787.122	4768.93999
787.312	4551.2121
787.501	4789.86252
787.69	4666.38692
787.879	4875.62108
788.068	4373.08292
788.257	4699.87959
788.445	4366.79312
788.634	4886.07682
788.823	4582.63011
789.012	4643.35737
789.201	4557.49611
789.39	4787.77037
789.579	4616.13713
789.768	4779.40154
789.957	4574.25247
790.145	4706.15883
790.334	4519.7891
790.523	4693.60015
790.712	4469.50196
790.9	4576.34691
791.089	4490.45648
791.278	4812.87467
791.467	4452.73676
791.655	4683.13397
791.844	4547.02266
792.033	4578.44133
792.221	4347.92254
792.41	4465.31079
792.599	4580.53573
792.787	4509.31366
792.976	4310.17614
793.164	4435.97015
793.353	4526.0741
793.541	4477.88403
793.73	4370.98634
793.918	4465.31079
794.107	4110.84429
794.295	4266.12984
794.484	4033.15844
794.672	4427.58632
794.861	4165.41726
795.049	4259.83674
795.238	4238.85836
795.426	4448.54524
795.614	4257.739
795.803	4375.17948
795.991	4429.68231
796.179	4389.85477
796.368	4251.44564
796.556	4234.66242
796.744	4087.75146
796.932	4138.13254
797.121	4062.55642
797.309	4138.13254
797.497	3823.05675
797.685	4045.75807
797.874	4175.91043
798.062	4264.03216
798.25	3984.853
798.438	4037.3584
798.626	3862.99154
798.814	4140.23149
799.002	3930.23384
799.19	4138.13254
799.378	4100.34786
799.566	4217.87784
799.755	3831.46467
799.943	3938.63768
800.131	4148.62709
800.318	4094.04975
800.506	3986.95346
800.694	3972.2498
800.882	3766.29506
801.07	4058.35696
801.258	3898.71657
801.446	3980.65201
801.634	3711.62222
801.822	3890.3112
802.01	3831.46467
802.197	4167.51593
802.385	3862.99154
802.573	3694.79718
802.761	3818.85267
802.949	4031.05843
803.136	3894.51393
803.324	4133.93458
803.512	4026.85834
803.699	4058.35696
803.887	3816.7506
804.075	3877.70255
804.262	3913.4252
804.45	4066.7558
804.638	3886.1084
804.825	4230.4664
805.013	3978.55149
805.201	4066.7558
805.388	3995.3551
805.576	3928.13283
805.763	4058.35696
805.951	4012.15741
806.138	4033.15844
806.326	4146.52822
806.513	3959.64586
806.701	4133.93458
806.888	4033.15844
807.075	4188.50154
807.263	3764.1925
807.45	3936.53675
807.638	3776.80756
807.825	4039.45835
808.012	3823.05675
808.2	4037.3584
808.387	3963.84726
808.574	4052.05761
808.761	3686.3842
808.949	3871.39795
809.136	3768.3976
809.323	3574.88355
809.51	3980.65201
809.698	3808.34213
809.885	3600.13361
810.072	3730.54891
810.259	3835.66851
810.446	3989.0539
810.633	3835.66851
810.82	4079.35345
811.008	3717.93129
811.195	4150.72593
811.382	3802.03557
811.569	4066.7558
811.756	3978.55149
811.943	4131.83557
812.13	3804.13778
812.317	4020.55807
812.504	3852.48308
812.691	4020.55807
812.878	3650.62562
813.064	4104.54649
813.251	3932.33483
813.438	4178.009
813.625	4083.5525
813.812	3905.02039
813.999	3968.04857
814.186	3965.94792
814.372	3816.7506
814.559	4070.9551
814.746	3911.32402
814.933	3902.91914
815.12	3793.62655
815.306	4115.04271
815.493	3980.65201
815.68	3913.4252
815.866	3545.42177
816.053	4039.45835
816.24	3728.44603
816.426	3997.45546
816.613	3913.4252
816.799	4219.97598
816.986	3781.01243
817.173	3837.7704
817.359	3619.06938
817.546	3682.17759
817.732	3753.67942
817.919	4159.1211
818.105	3860.88989
818.292	3995.3551
818.478	3909.22283
818.665	3844.07595
818.851	3669.55732
819.037	3856.68652
819.224	3844.07595
819.41	3675.86754
819.597	3753.67942
819.783	3896.61526
819.969	3591.71722
820.156	3560.15311
820.342	3616.96548
820.528	3974.35038
820.714	3528.58484
820.901	3732.65178
821.087	3593.82135
821.273	3835.66851
821.459	3621.17327
821.646	3692.69396
821.832	3473.85673
822.018	3755.78207
822.204	3490.69746
822.39	3747.37133
822.576	3591.71722
822.762	3652.72922
822.948	3606.4457
823.134	3776.80756
823.32	3720.03428
823.507	3726.34312
823.693	3562.25752
823.879	3810.44428
824.065	3507.53702
824.25	3488.59243
824.436	3431.74987
824.622	3793.62655
824.808	3675.86754
824.994	3751.57674
825.18	3583.30053
825.366	3562.25752
825.552	3448.59347
825.738	3671.66074
825.923	3440.17181
826.109	3675.86754
826.295	3486.48738
826.481	3381.21222
826.667	3593.82135
826.852	3301.17367
827.038	3339.08979
827.224	3421.22203
827.409	3469.64637
827.595	3393.84759
827.781	3379.10627
827.966	3488.59243
828.152	3332.77082
828.338	3604.34169
828.523	3328.55809
828.709	3440.17181
828.894	3288.53373
829.08	3553.83979
829.266	3155.7779
829.451	3494.90746
829.637	3265.35892
829.822	3482.27724
830.008	3174.74703
830.193	3358.04575
830.378	3334.87716
830.564	3520.16593
830.749	3166.31647
830.935	3368.57623
831.12	2987.10685
831.305	3417.01078
831.491	3069.3465
831.676	3216.89591
831.861	3039.82727
832.047	3280.10677
832.232	3098.86266
832.417	3271.67953
832.602	3069.3465
832.788	3130.48368
832.973	2974.45254
833.158	3183.17733
833.343	2940.70508
833.528	3172.63942
833.714	2989.21585
833.899	3280.10677
834.084	2951.25157
834.269	3187.39239
834.454	2976.56163
834.639	3324.34529
834.824	3153.67014
835.009	3267.46581
835.194	3084.10497
835.379	3307.49341
835.564	3052.47874
835.749	3296.96043
835.934	2972.34344
836.119	3008.19616
836.304	2780.35413
836.489	2951.25157
836.674	2782.46453
836.859	2940.70508
837.044	2774.02283
837.228	2955.47006
837.413	2714.92491
837.598	2812.00877
837.783	2628.37029
837.968	2852.10019
838.152	2847.88028
838.337	2978.67071
838.522	2976.56163
838.707	2930.15822
838.891	2729.70037
839.076	2828.88998
839.261	2408.72664
839.445	2959.6885
839.63	2826.77988
839.815	2909.06341
839.999	2700.14882
840.184	2558.68921
840.368	2562.91268
840.553	2812.00877
840.737	2641.03815
840.922	2761.35987
841.106	2463.649
841.291	2575.5828
841.475	2546.01853
841.66	2854.21012
841.844	2503.7799
842.029	2786.6853
842.213	2710.70323
842.397	2698.03789
842.582	2488.9953
842.766	2691.70505
842.951	2624.14757
843.135	2695.92696
843.319	2666.37251
843.504	2822.55963
843.688	2425.6266
843.872	2493.21952
844.056	2518.56394
844.241	2638.92687
844.425	2499.55578
844.609	2529.12363
844.793	2419.28919
844.977	2539.68303
845.161	2317.87812
845.346	2655.81674
845.53	2324.21699
845.714	2423.51414
845.898	2343.23306
846.082	2368.58657
846.266	2165.72055
846.45	2391.82601
846.634	2387.60075
846.818	2554.4657
847.002	2431.96391
847.186	2364.36109
847.37	2224.8984
847.554	2210.10456
847.738	2191.0833
847.922	2372.81202
848.106	2372.81202
848.29	2326.32992
848.473	2201.65075
848.657	2339.00733
848.841	2136.12919
849.025	2343.23306
849.209	2254.48478
849.392	2248.14499
849.576	2425.6266
849.76	2271.39049
849.944	2136.12919
850.127	2142.47033
850.311	2000.83564
850.495	2174.17493
850.678	2053.68816
850.862	2157.26603
851.046	1812.65028
851.229	2089.62539
851.413	1979.69348
851.596	2106.53629
851.78	2064.25815
851.964	2057.91618
852.147	2038.88988
852.331	2140.35662
852.514	1789.38866
852.698	2083.28367
852.881	1844.36982
853.065	1848.59901
853.248	1895.11881
853.431	2083.28367
853.615	1793.61808
853.798	1964.89359
853.982	1734.40471
854.165	2047.34608
854.348	1848.59901
854.532	2140.35662
854.715	1964.89359
854.898	1945.86473
855.081	1785.15922
855.265	2007.17816
855.448	1772.4708
855.631	2047.34608
855.814	1719.60092
855.997	1916.26333
856.181	1835.91138
856.364	1793.61808
856.547	1804.19157
856.73	1869.74468
856.913	1787.27394
857.096	2070.60006
857.279	1797.84749
857.462	1893.00432
857.645	1835.91138
857.828	1833.79675
858.011	1698.45236
858.194	1802.07688
858.377	1639.23485
858.56	1829.5675
858.743	1666.72896
858.926	1797.84749
859.109	1675.1886
859.292	1744.97874
859.475	1744.97874
859.658	1797.84749
859.841	1645.57968
860.023	1734.40471
860.206	1577.9005
860.389	1594.82048
860.572	1376.97168
860.755	1588.4755
860.937	1364.28149
861.12	1641.3498
861.303	1480.60903
861.486	1694.22261
861.668	1421.38758
861.851	1577.9005
862.034	1450.9983
862.216	1391.77694
862.399	1343.13127
862.581	1632.89
862.764	1396.00703
862.947	1476.37892
863.129	1376.97168
863.312	1465.80367
863.494	1438.30799
863.677	1510.21968
863.859	1366.39652
864.042	1491.18427
864.224	1404.4672
864.406	1514.44976
864.589	1370.62658
864.771	1362.16646
864.954	1186.62608
865.136	1535.60012
865.318	1406.58225
865.501	1374.85664
865.683	1266.99189
865.865	1362.16646
866.048	1328.3262
866.23	1336.78623
866.412	1154.90408
866.594	1357.93641
866.777	1205.65967
866.959	1408.6973
867.141	1281.79656
867.323	1305.06126
867.505	1110.49485
867.687	1260.64707
867.869	1260.64707
868.052	1336.78623
868.234	1218.34889
868.416	1438.30799
868.598	1277.56664
868.78	1296.60134
868.962	1235.26802
869.144	1387.54686
869.326	1192.97058
869.508	1216.23401
869.69	1032.25526
869.872	1294.48636
870.054	1226.80843
870.236	1317.7512
870.417	1252.18734
870.599	1277.56664
870.781	1161.24841
870.963	1302.94628
871.145	1099.92152
871.327	1184.51125
871.508	1129.52714
871.69	1133.75658
871.872	1091.46294
872.054	1319.8662
872.235	1034.36975
872.417	1154.90408
872.599	1036.48424
872.78	1152.78931
872.962	1070.31686
873.144	1104.15084
873.325	1070.31686
873.507	1061.85857
873.689	1023.79738
873.87	1222.57865
874.052	1049.1713
874.233	1102.03617
874.415	1036.48424
874.596	1146.44503
874.778	1142.21553
874.959	1093.57758
875.141	998.42433
875.322	1269.10683
875.503	1135.87131
875.685	1203.54481
875.866	1121.0683
876.048	1264.87694
876.229	1051.28583
876.41	1066.0877
876.592	1008.99632
876.773	1032.25526
876.954	998.42433
877.136	962.48076
877.317	1006.88191
877.498	1121.0683
877.679	1089.34831
877.86	1256.4172
878.042	1083.00445
878.223	1231.03822
878.404	1083.00445
878.585	1150.67455
878.766	954.02373
878.947	1091.46294
879.128	1008.99632
879.309	1157.01885
879.49	922.31091
879.672	1173.93717
879.853	1015.3396
880.034	1059.74401
880.215	1000.53871
880.396	1055.51491
880.576	1053.40037
880.757	1040.71324
880.938	1006.88191
881.119	1290.25642
881.3	970.93789
881.481	1051.28583
881.662	1099.92152
881.843	1220.46377
882.023	1057.62946
882.204	1150.67455
882.385	1083.00445
882.566	1150.67455
882.747	1000.53871
882.927	1176.05198
883.108	1015.3396
883.289	1252.18734
883.469	1083.00445
883.65	1209.8894
883.831	1034.36975
884.011	1201.42996
884.192	1042.82774
884.373	1235.26802
884.553	1180.28161
884.734	1112.60953
884.914	981.50947
885.095	1226.80843
885.275	956.13798
885.456	1040.71324
885.636	1083.00445
885.817	1212.00427
885.997	1066.0877
886.178	1152.78931
886.358	882.1438
886.538	1085.11906
886.719	928.65334
886.899	1104.15084
887.08	1042.82774
887.26	1228.92332
887.44	992.08121
887.621	1286.02648
887.801	1106.2655
887.981	1051.28583
888.161	1209.8894
888.342	1142.21553
888.522	1085.11906
888.702	1260.64707
888.882	1023.79738
889.062	1049.1713
889.242	1108.38017
889.423	1112.60953
889.603	1104.15084
889.783	1104.15084
889.963	998.42433
890.143	1133.75658
890.323	962.48076
890.503	1152.78931
890.683	1002.65311
890.863	1250.07242
891.043	1066.0877
891.223	1106.2655
891.403	951.90949
891.583	1233.15312
891.763	1023.79738
891.943	1165.47798
892.122	1051.28583
892.302	1063.97313
892.482	1080.88983
892.662	1066.0877
892.842	1057.62946
893.022	1057.62946
893.201	918.08266
893.381	1008.99632
893.561	1017.45403
893.741	1178.16679
893.92	920.19678
894.1	1135.87131
894.28	1049.1713
894.459	1002.65311
894.639	1015.3396
894.819	1112.60953
894.998	987.85249
895.178	1057.62946
895.357	863.11829
895.537	1044.94226
895.716	808.15966
895.896	996.30995
896.075	901.16997
896.255	930.7675
896.434	880.02982
896.614	909.62625
896.793	892.71381
896.973	934.99584
897.152	873.68793
897.331	922.31091
897.511	822.95561
897.69	888.48578
897.87	744.75376
898.049	806.04598
898.228	755.32078
898.407	846.2073
898.587	806.04598
898.766	820.84188
898.945	626.42187
899.124	854.66273
899.304	704.60147
899.483	871.57399
899.662	723.62049
899.841	763.77459
900.02	803.93232
900.199	839.86582
900.378	704.60147
900.557	841.97964
900.737	757.43422
900.916	818.72815
901.095	617.971
901.274	806.04598
901.453	632.76015
901.632	795.47777
901.811	645.43704
901.989	677.13115
902.168	626.42187
902.347	729.96036
902.526	670.79211
902.705	579.94462
902.884	639.09854
903.063	660.22729
903.242	537.6981
903.42	736.30033
903.599	544.03473
903.778	643.32419
903.957	643.32419
904.135	620.0837
904.314	567.2701
904.493	645.43704
904.672	558.82068
904.85	586.28206
905.029	546.14697
905.207	641.21136
905.386	501.79293
905.565	484.89782
905.743	478.56239
905.922	516.57691
906.1	474.33885
906.279	512.35284
906.457	419.43842
906.636	448.99889
906.814	421.54978
906.993	453.22206
907.171	402.54813
907.35	408.88187
907.528	451.11047
907.707	484.89782
907.885	381.43673
908.063	415.21575
908.242	349.77279
908.42	402.54813
908.598	400.43691
908.777	372.99264
908.955	383.5478
909.133	429.99538
909.311	351.8836
909.49	408.88187
909.668	307.56028
909.846	463.78027
910.024	366.65975
910.202	379.32569
910.38	358.21613
910.559	394.10337
910.737	444.77578
910.915	421.54978
911.093	448.99889
911.271	484.89782
911.449	493.34525
911.627	402.54813
911.805	322.33385
911.983	457.4453
912.161	457.4453
912.339	529.24946
912.517	356.10527
912.695	516.57691
912.872	408.88187
913.05	474.33885
913.228	379.32569
913.406	448.99889
913.584	415.21575
913.762	406.7706
913.939	402.54813
914.117	427.88395
914.295	311.78121
914.473	391.99222
914.65	353.99443
914.828	417.32708
915.006	324.44443
915.184	353.99443
915.361	318.11274
915.539	453.22206
915.716	324.44443
915.894	394.10337
916.072	440.55273
916.249	474.33885
916.427	347.662
916.604	389.88109
916.782	330.77629
916.959	360.32701
917.137	398.32572
917.314	421.54978
917.492	368.7707
917.669	406.7706
917.847	461.6686
918.024	360.32701
918.201	288.56699
918.379	383.5478
918.556	339.219
918.733	364.54882
918.911	275.90563
919.088	322.33385
919.265	248.47499
919.442	377.21465
919.62	263.24494
919.797	362.43791
919.974	288.56699
920.151	398.32572
920.328	290.67728
920.506	366.65975
920.683	240.03545
920.86	299.11864
921.037	206.28038
921.214	297.00827
921.391	225.26699
921.568	307.56028
921.745	318.11274
921.922	362.43791
922.099	256.91485
922.276	313.8917
922.453	263.24494
922.63	290.67728
922.807	250.58493
922.984	275.90563
923.161	271.68532
923.338	225.26699
923.514	204.17086
923.691	318.11274
923.868	273.79547
924.045	282.23623
924.222	199.95188
924.399	240.03545
924.575	301.22902
924.752	301.22902
924.929	174.63967
925.105	284.34646
925.282	290.67728
925.459	286.45672
925.635	161.98467
925.812	197.84241
925.989	261.13489
926.165	227.37671
926.342	147.22146
926.518	229.48645
926.695	229.48645
926.871	191.51415
927.048	214.71868
927.224	174.63967
927.401	136.67694
927.577	202.06136
927.754	132.45929
927.93	185.18606
928.107	195.73297
928.283	210.49949
928.459	221.0476
928.636	172.53045
928.812	178.85816
928.988	193.62355
929.165	132.45929
929.341	240.03545
929.517	174.63967
929.693	197.84241
929.87	69.20492
930.046	199.95188
930.222	132.45929
930.398	191.51415
930.574	155.65745
930.751	195.73297
930.927	221.0476
931.103	269.5752
931.279	124.02423
931.455	147.22146
931.631	90.28749
931.807	204.17086
931.983	183.07674
932.159	136.67694
932.335	124.02423
932.511	113.4809
932.687	164.09378
932.863	94.50427
933.039	62.88058
933.215	90.28749
933.391	157.7665
933.566	147.22146
933.742	128.24171
933.918	50.23254
934.094	121.91552
934.27	180.96744
934.445	138.7858
934.621	147.22146
934.797	43.90883
934.973	155.65745
935.148	43.90883
935.324	37.58533
935.5	138.7858
935.675	69.20492
935.851	12.29343
936.027	107.15516
936.202	67.09678
936.378	69.20492
936.553	132.45929
936.729	56.55646
936.904	69.20492
937.08	56.55646
937.255	5.97099
937.431	77.63768
937.606	71.31307
937.782	54.44846
937.957	94.50427
938.133	37.58533
938.308	71.31307
938.483	31.26204
938.659	18.61609
938.834	77.63768
939.009	88.17913
939.185	54.44846
939.36	43.90883
939.535	46.01671
939.71	46.01671
939.886	10.18593
940.061	18.61609
940.236	1.75615
940.411	100.82962
940.586	-2.45859
940.761	145.11251
940.937	83.96248
941.112	18.61609
941.287	5.97099
941.462	18.61609
941.637	64.98867
941.812	86.0708
941.987	73.42125
942.162	-65.66794
942.337	62.88058
942.512	18.61609
942.687	20.72369
942.862	-6.67324
943.037	5.97099
943.212	27.04663
943.386	48.12461
943.561	35.47754
943.736	50.23254
943.911	77.63768
944.086	-21.42373
944.26	62.88058
944.435	-8.78052
944.61	3.86356
944.785	35.47754
944.959	73.42125
945.134	62.88058
945.309	-15.10224
945.483	-15.10224
945.658	46.01671
945.833	62.88058
946.007	20.72369
946.182	20.72369
946.357	90.28749
946.531	56.55646
946.706	119.80683
946.88	-15.10224
947.055	-63.56133
947.229	27.04663
947.404	-12.99502
947.578	48.12461
947.752	37.58533
947.927	71.31307
948.101	-15.10224
948.276	48.12461
948.45	37.58533
948.624	69.20492
948.799	46.01671
948.973	-12.99502
949.147	52.34049
949.321	71.31307
949.496	37.58533
949.67	96.6127
949.844	41.80097
950.018	67.09678
950.193	67.09678
950.367	58.66448
950.541	64.98867
950.715	35.47754
950.889	43.90883
951.063	33.36978
951.237	-8.78052
951.411	56.55646
951.585	43.90883
951.759	60.77252
951.933	29.15432
952.107	77.63768
952.281	-17.20943
952.455	64.98867
952.629	31.26204
952.803	-27.74501
952.977	14.40096
953.151	3.86356
953.325	73.42125
953.499	-19.31659
953.672	-6.67324
953.846	71.31307
954.02	52.34049
954.194	43.90883
954.368	94.50427
954.541	12.29343
954.715	79.74592
954.889	18.61609
955.062	64.98867
955.236	71.31307
955.41	39.69314
955.583	-29.85205
955.757	54.44846
955.93	35.47754
956.104	62.88058
956.278	92.39587
956.451	-15.10224
956.625	-23.53085
956.798	56.55646
956.972	-2.45859
957.145	48.12461
957.319	27.04663
957.492	14.40096
957.665	-19.31659
957.839	29.15432
958.012	69.20492
958.185	111.37229
958.359	43.90883
958.532	77.63768
958.705	50.23254
958.879	60.77252
959.052	10.18593
959.225	52.34049
959.398	-21.42373
959.572	41.80097
959.745	-23.53085
959.918	-6.67324
960.091	54.44846
960.264	96.6127
960.438	22.83131
960.611	60.77252
960.784	90.28749
960.957	27.04663
961.13	35.47754
961.303	67.09678
961.476	18.61609
961.649	29.15432
961.822	37.58533
961.995	86.0708
962.168	52.34049
962.341	77.63768
962.514	60.77252
962.686	52.34049
962.859	69.20492
963.032	29.15432
963.205	-6.67324
963.378	41.80097
963.551	22.83131
963.723	77.63768
963.896	-34.06606
964.069	-21.42373
964.242	52.34049
964.414	39.69314
964.587	20.72369
964.76	10.18593
964.932	-23.53085
965.105	33.36978
965.278	58.66448
965.45	27.04663
965.623	-38.27997
965.795	31.26204
965.968	-10.88778
966.14	3.86356
966.313	52.34049
966.485	18.61609
966.658	-42.49378
966.83	60.77252
967.003	-19.31659
967.175	37.58533
967.348	37.58533
967.52	35.47754
967.692	79.74592
967.865	-2.45859
968.037	52.34049
968.209	-38.27997
968.382	18.61609
968.554	20.72369
968.726	79.74592
968.898	54.44846
969.071	-17.20943
969.243	-31.95906
969.415	20.72369
969.587	3.86356
969.759	5.97099
969.932	62.88058
970.104	8.07845
970.276	60.77252
970.448	60.77252
970.62	35.47754
970.792	-36.17303
970.964	27.04663
971.136	145.11251
971.308	27.04663
971.48	69.20492
971.652	31.26204
971.824	39.69314
971.996	12.29343
972.168	46.01671
972.339	88.17913
972.511	35.47754
972.683	77.63768
972.855	-2.45859
973.027	-4.56592
973.199	-15.10224
973.37	10.18593
973.542	29.15432
973.714	119.80683
973.886	37.58533
974.057	43.90883
974.229	18.61609
974.401	-40.38689
974.572	35.47754
974.744	14.40096
974.915	56.55646
975.087	-55.13461
975.259	-0.35123
975.43	5.97099
975.602	81.85419
975.773	12.29343
975.945	60.77252
976.116	-34.06606
976.288	1.75615
976.459	-23.53085
976.63	-19.31659
976.802	10.18593
976.973	27.04663
977.145	-78.3071
977.316	77.63768
977.487	43.90883
977.659	-27.74501
977.83	35.47754
978.001	-27.74501
978.172	12.29343
978.344	77.63768
978.515	18.61609
978.686	-25.63794
978.857	18.61609
979.028	1.75615
979.2	39.69314
979.371	58.66448
979.542	1.75615
979.713	35.47754
979.884	56.55646
980.055	-40.38689
980.226	5.97099
980.397	18.61609
980.568	-21.42373
980.739	-19.31659
980.91	58.66448
981.081	-34.06606
981.252	33.36978
981.423	58.66448
981.594	62.88058
981.765	54.44846
981.936	5.97099
982.106	-21.42373
982.277	31.26204
982.448	-36.17303
982.619	46.01671
982.79	58.66448
982.96	113.4809
983.131	29.15432
983.302	-6.67324
983.472	-23.53085
983.643	-31.95906
983.814	18.61609
983.984	-2.45859
984.155	1.75615
984.326	102.93811
984.496	90.28749
984.667	27.04663
984.837	31.26204
985.008	107.15516
985.178	-48.81431
985.349	27.04663
985.519	16.50851
985.69	29.15432
985.86	39.69314
986.031	79.74592
986.201	18.61609
986.371	33.36978
986.542	50.23254
986.712	54.44846
986.882	12.29343
987.053	41.80097
987.223	12.29343
987.393	-19.31659
987.563	-6.67324
987.734	-48.81431
987.904	-65.66794
988.074	67.09678
988.244	14.40096
988.414	52.34049
988.585	27.04663
988.755	54.44846
988.925	-0.35123
989.095	-15.10224
989.265	-0.35123
989.435	-19.31659
989.605	43.90883
989.775	27.04663
989.945	12.29343
990.115	-80.41353
990.285	37.58533
990.455	60.77252
990.625	-71.98763
990.795	-17.20943
990.965	52.34049
991.134	-2.45859
991.304	-48.81431
991.474	-17.20943
991.644	22.83131
991.814	10.18593
991.984	-23.53085
992.153	56.55646
992.323	-15.10224
992.493	29.15432
992.662	77.63768
992.832	1.75615
993.002	1.75615
993.171	54.44846
993.341	24.93896
993.511	12.29343
993.68	-19.31659
993.85	52.34049
994.019	33.36978
994.189	-12.99502
994.358	43.90883
994.528	52.34049
994.697	-6.67324
994.867	-8.78052
995.036	46.01671
995.206	-6.67324
995.375	-23.53085
995.544	136.67694
995.714	60.77252
995.883	18.61609
996.052	60.77252
996.222	58.66448
996.391	73.42125
996.56	-15.10224
996.73	98.72115
996.899	-6.67324
997.068	27.04663
997.237	20.72369
997.406	14.40096
997.576	111.37229
997.745	107.15516
997.914	52.34049
998.083	20.72369
998.252	-4.56592
998.421	1.75615
998.59	14.40096
998.759	88.17913
998.928	31.26204
999.097	-40.38689
999.266	1.75615
999.435	1.75615
999.604	39.69314
999.773	-27.74501
999.942	27.04663
1000.111	-6.67324
1000.28	-36.17303
1000.448	43.90883
1000.617	18.61609
1000.786	52.34049
1000.955	22.83131
1001.124	-6.67324
1001.292	33.36978
1001.461	-74.09415
1001.63	29.15432
1001.798	54.44846
1001.967	-12.99502
1002.136	1.75615
1002.304	46.01671
1002.473	27.04663
1002.642	-4.56592
1002.81	1.75615
1002.979	-15.10224
1003.147	69.20492
1003.316	35.47754
1003.484	-6.67324
1003.653	-2.45859
1003.821	35.47754
1003.99	18.61609
1004.158	60.77252
1004.327	3.86356
1004.495	39.69314
1004.663	56.55646
1004.832	64.98867
1005	39.69314
1005.168	20.72369
1005.337	-40.38689
1005.505	-10.88778
1005.673	33.36978
1005.842	24.93896
1006.01	-25.63794
1006.178	14.40096
1006.346	37.58533
1006.514	69.20492
1006.683	35.47754
1006.851	-15.10224
1007.019	1.75615
1007.187	-6.67324
1007.355	31.26204
1007.523	39.69314
1007.691	-40.38689
1007.859	39.69314
1008.027	-15.10224
1008.195	24.93896
1008.363	18.61609
1008.531	41.80097
1008.699	-25.63794
1008.867	29.15432
1009.035	77.63768
1009.203	-25.63794
1009.37	-29.85205
1009.538	58.66448
1009.706	22.83131
1009.874	-6.67324
1010.042	10.18593
1010.209	18.61609
1010.377	18.61609
1010.545	-19.31659
1010.713	54.44846
1010.88	8.07845
1011.048	14.40096
1011.216	90.28749
1011.383	35.47754
1011.551	10.18593
1011.718	14.40096
1011.886	-15.10224
1012.054	20.72369
1012.221	14.40096
1012.389	64.98867
1012.556	113.4809
1012.724	22.83131
1012.891	-8.78052
1013.058	18.61609
1013.226	18.61609
1013.393	-8.78052
1013.561	43.90883
1013.728	48.12461
1013.895	33.36978
1014.063	-2.45859
1014.23	-42.49378
1014.397	52.34049
1014.565	18.61609
1014.732	41.80097
1014.899	3.86356
1015.066	3.86356
1015.233	-55.13461
1015.401	43.90883
1015.568	12.29343
1015.735	1.75615
1015.902	-38.27997
1016.069	52.34049
1016.236	22.83131
1016.403	52.34049
1016.57	18.61609
1016.737	29.15432
1016.904	35.47754
1017.071	5.97099
1017.238	-38.27997
1017.405	27.04663
1017.572	35.47754
1017.739	22.83131
1017.906	20.72369
1018.073	33.36978
1018.24	52.34049
1018.407	10.18593
1018.573	-63.56133
1018.74	-31.95906
1018.907	-27.74501
1019.074	-21.42373
1019.241	-53.02787
1019.407	43.90883
1019.574	-19.31659
1019.741	-65.66794
1019.907	-76.20064
1020.074	20.72369
1020.241	-27.74501
1020.407	29.15432
1020.574	8.07845
1020.74	136.67694
1020.907	35.47754
1021.073	50.23254
1021.24	-21.42373
1021.406	33.36978
1021.573	-57.24133
1021.739	3.86356
1021.906	43.90883
1022.072	-23.53085
1022.239	-4.56592
1022.405	52.34049
1022.571	-42.49378
1022.738	62.88058
1022.904	-27.74501
1023.07	43.90883
1023.237	-29.85205
1023.403	-6.67324
1023.569	10.18593
1023.735	-65.66794
1023.902	60.77252
1024.068	-80.41353
1024.234	-19.31659
1024.4	20.72369
1024.566	-65.66794
1024.732	-34.06606
1024.898	-8.78052
1025.065	-90.94533
1025.231	-42.49378
1025.397	48.12461
1025.563	-40.38689
1025.729	37.58533
1025.895	-19.31659
1026.061	46.01671
1026.227	-12.99502
1026.392	-57.24133
1026.558	35.47754
1026.724	-90.94533
1026.89	-36.17303
1027.056	10.18593
1027.222	1.75615
1027.388	27.04663
1027.553	77.63768
1027.719	-40.38689
1027.885	62.88058
1028.051	62.88058
1028.216	1.75615
1028.382	-31.95906
1028.548	79.74592
1028.713	-44.60065
1028.879	77.63768
1029.045	-6.67324
1029.21	29.15432
1029.376	50.23254
1029.541	35.47754
1029.707	18.61609
1029.873	-27.74501
1030.038	-36.17303
1030.204	62.88058
1030.369	46.01671
1030.534	35.47754
1030.7	18.61609
1030.865	-71.98763
1031.031	48.12461
1031.196	-4.56592
1031.361	10.18593
1031.527	-23.53085
1031.692	5.97099
1031.857	29.15432
1032.023	-27.74501
1032.188	14.40096
1032.353	-40.38689
1032.518	-8.78052
1032.684	-8.78052
1032.849	5.97099
1033.014	18.61609
1033.179	-61.45468
1033.344	-10.88778
1033.509	22.83131
1033.674	-19.31659
1033.839	43.90883
1034.004	94.50427
1034.17	37.58533
1034.335	-15.10224
1034.5	39.69314
1034.664	8.07845
1034.829	27.04663
1034.994	27.04663
1035.159	1.75615
1035.324	37.58533
1035.489	-34.06606
1035.654	27.04663
1035.819	18.61609
1035.984	43.90883
1036.148	39.69314
1036.313	-15.10224
1036.478	39.69314
1036.643	1.75615
1036.807	5.97099
1036.972	73.42125
1037.137	16.50851
1037.301	-34.06606
1037.466	3.86356
1037.631	35.47754
1037.795	22.83131
1037.96	31.26204
1038.124	-4.56592
1038.289	-0.35123
1038.454	22.83131
1038.618	5.97099
1038.783	67.09678
1038.947	-23.53085
1039.111	69.20492
1039.276	48.12461
1039.44	37.58533
1039.605	64.98867
1039.769	-6.67324
1039.933	60.77252
1040.098	-2.45859
1040.262	1.75615
1040.426	-23.53085
1040.591	88.17913
1040.755	-57.24133
1040.919	-17.20943
1041.083	-46.70749
1041.248	-4.56592
1041.412	39.69314
1041.576	-27.74501
1041.74	-12.99502
1041.904	-6.67324
1042.068	73.42125
1042.232	22.83131
1042.397	-38.27997
1042.561	-31.95906
1042.725	29.15432
1042.889	31.26204
1043.053	-19.31659
1043.217	-36.17303
1043.381	22.83131
1043.544	-27.74501
1043.708	20.72369
1043.872	3.86356
1044.036	-25.63794
1044.2	-23.53085
1044.364	5.97099
1044.528	-8.78052
1044.691	14.40096
1044.855	43.90883
1045.019	-23.53085
1045.183	-74.09415
1045.346	14.40096
1045.51	12.29343
1045.674	-57.24133
1045.837	5.97099
1046.001	46.01671
1046.165	90.28749
1046.328	5.97099
1046.492	43.90883
1046.655	24.93896
1046.819	-0.35123
1046.983	62.88058
1047.146	-12.99502
1047.31	-48.81431
1047.473	-57.24133
1047.636	41.80097
1047.8	-31.95906
1047.963	-38.27997
1048.127	37.58533
1048.29	10.18593
