Data from absorb_only_2.23.25_USB4F045381__2__0107.txt Node

Date: Sun Feb 23 19:11:49 EST 2025
User: ssocol
Spectrometer: USB4F04538
Trigger mode: 4
Integration Time (sec): 2.600000E-3
Scans to average: 1
Electric dark correction enabled: true
Nonlinearity correction enabled: true
Boxcar width: 0
XAxis mode: Wavelengths
Number of Pixels in Spectrum: 3648
>>>>>Begin Spectral Data<<<<<
345.52	21.7775
345.736	21.7775
345.952	21.7775
346.168	-33.01256
346.384	44.96277
346.6	4.91728
346.816	11.23968
347.032	-22.47729
347.248	74.47535
347.464	-43.54722
347.68	-20.37016
347.896	4.91728
348.112	-45.65407
348.328	11.23968
348.544	32.3159
348.76	-39.33343
348.975	32.3159
349.191	-73.04089
349.407	-89.89218
349.623	-64.61464
349.839	-5.61958
350.055	-81.46674
350.27	2.80986
350.486	-73.04089
350.702	25.99279
350.918	2.80986
351.133	4.91728
351.349	36.53143
351.565	34.42366
351.781	49.17857
351.996	30.20817
352.212	11.23968
352.428	44.96277
352.644	34.42366
352.859	-56.18797
353.075	57.61047
353.291	-45.65407
353.506	-3.51226
353.722	-22.47729
353.938	-22.47729
354.153	-43.54722
354.369	-3.51226
354.584	-22.47729
354.8	-5.61958
355.016	-35.11954
355.231	17.5623
355.447	-9.83416
355.662	-64.61464
355.878	-9.83416
356.093	-45.65407
356.309	-47.7609
356.524	63.93463
356.74	-43.54722
356.955	19.66988
357.171	-47.7609
357.386	19.66988
357.602	11.23968
357.817	4.91728
358.033	9.13219
358.248	-41.44034
358.464	-60.40135
358.679	21.7775
358.895	-11.94141
359.11	19.66988
359.325	-9.83416
359.541	28.10047
359.756	30.20817
359.972	-5.61958
360.187	-39.33343
360.402	-45.65407
360.618	32.3159
360.833	40.74705
361.048	-45.65407
361.264	-9.83416
361.479	-30.90556
361.694	-24.5844
361.909	36.53143
362.125	-45.65407
362.34	-18.26301
362.555	19.66988
362.77	-5.61958
362.986	21.7775
363.201	21.7775
363.416	0.70246
363.631	-9.83416
363.847	-54.08124
364.062	-18.26301
364.277	-5.61958
364.492	30.20817
364.707	-43.54722
364.922	4.91728
365.138	4.91728
365.353	-1.40491
365.568	-37.2265
365.783	32.3159
365.998	66.04272
366.213	-47.7609
366.428	-54.08124
366.643	-41.44034
366.858	9.13219
367.073	7.02472
367.288	15.45473
367.503	-22.47729
367.718	-16.15583
367.933	-30.90556
368.148	13.34719
368.363	30.20817
368.578	72.36716
368.793	13.34719
369.008	13.34719
369.223	38.63923
369.438	-64.61464
369.653	76.58356
369.868	23.88513
370.083	-14.04863
370.298	32.3159
370.513	13.34719
370.728	-5.61958
370.943	-43.54722
371.157	-22.47729
371.372	15.45473
371.587	11.23968
371.802	4.91728
372.017	-39.33343
372.232	-1.40491
372.446	-60.40135
372.661	-5.61958
372.876	-30.90556
373.091	-41.44034
373.306	-22.47729
373.52	17.5623
373.735	-11.94141
373.95	61.82655
374.165	-1.40491
374.379	11.23968
374.594	-45.65407
374.809	28.10047
375.023	-14.04863
375.238	25.99279
375.453	-14.04863
375.667	-9.83416
375.882	4.91728
376.097	-35.11954
376.311	95.55848
376.526	53.39447
376.741	17.5623
376.955	66.04272
377.17	-98.3172
377.384	-1.40491
377.599	25.99279
377.813	28.10047
378.028	21.7775
378.242	-47.7609
378.457	-14.04863
378.672	23.88513
378.886	-33.01256
379.101	-5.61958
379.315	-56.18797
379.53	-35.11954
379.744	-24.5844
379.958	36.53143
380.173	-28.79853
380.387	-28.79853
380.602	101.88386
380.816	44.96277
381.031	-30.90556
381.245	-30.90556
381.459	44.96277
381.674	-22.47729
381.888	-45.65407
382.103	4.91728
382.317	53.39447
382.531	-56.18797
382.746	-79.36032
382.96	21.7775
383.174	-14.04863
383.388	23.88513
383.603	4.91728
383.817	19.66988
384.031	28.10047
384.246	-39.33343
384.46	-20.37016
384.674	-64.61464
384.888	-3.51226
385.103	-77.25387
385.317	-26.69148
385.531	23.88513
385.745	9.13219
385.959	15.45473
386.174	63.93463
386.388	-18.26301
386.602	-35.11954
386.816	2.80986
387.03	-11.94141
387.244	-20.37016
387.458	19.66988
387.672	101.88386
387.887	0.70246
388.101	-68.82782
388.315	44.96277
388.529	-54.08124
388.743	-51.97449
388.957	0.70246
389.171	-20.37016
389.385	-26.69148
389.599	-30.90556
389.813	-43.54722
390.027	99.77538
390.241	-18.26301
390.455	-83.57314
390.669	7.02472
390.883	-33.01256
391.097	-26.69148
391.311	25.99279
391.525	-56.18797
391.738	61.82655
391.952	66.04272
392.166	-14.04863
392.38	7.02472
392.594	-20.37016
392.808	15.45473
393.022	-70.93437
393.236	0.70246
393.449	32.3159
393.663	4.91728
393.877	112.42659
394.091	-14.04863
394.305	53.39447
394.518	40.74705
394.732	-5.61958
394.946	19.66988
395.16	32.3159
395.373	-41.44034
395.587	28.10047
395.801	2.80986
396.015	-20.37016
396.228	-18.26301
396.442	-11.94141
396.656	61.82655
396.869	36.53143
397.083	38.63923
397.297	-9.83416
397.51	-1.40491
397.724	-20.37016
397.938	78.6918
398.151	-22.47729
398.365	47.07066
398.578	32.3159
398.792	34.42366
399.005	-11.94141
399.219	49.17857
399.433	13.34719
399.646	78.6918
399.86	15.45473
400.073	7.02472
400.287	-33.01256
400.5	-35.11954
400.714	72.36716
400.927	-5.61958
401.141	-35.11954
401.354	72.36716
401.567	30.20817
401.781	70.25899
401.994	32.3159
402.208	17.5623
402.421	2.80986
402.635	78.6918
402.848	-9.83416
403.061	70.25899
403.275	-7.72688
403.488	11.23968
403.701	-9.83416
403.915	23.88513
404.128	-30.90556
404.341	19.66988
404.555	-35.11954
404.768	-1.40491
404.981	36.53143
405.195	61.82655
405.408	36.53143
405.621	32.3159
405.834	-3.51226
406.048	28.10047
406.261	-5.61958
406.474	36.53143
406.687	44.96277
406.9	30.20817
407.114	7.02472
407.327	44.96277
407.54	23.88513
407.753	23.88513
407.966	32.3159
408.179	103.99236
408.392	101.88386
408.605	-14.04863
408.819	-20.37016
409.032	82.90833
409.245	-3.51226
409.458	91.34168
409.671	63.93463
409.884	-18.26301
410.097	53.39447
410.31	38.63923
410.523	34.42366
410.736	99.77538
410.949	57.61047
411.162	68.15085
411.375	78.6918
411.588	-9.83416
411.801	137.73137
412.014	44.96277
412.227	89.23331
412.44	-11.94141
412.653	30.20817
412.865	32.3159
413.078	28.10047
413.291	78.6918
413.504	78.6918
413.717	28.10047
413.93	21.7775
414.143	47.07066
414.356	42.8549
414.568	28.10047
414.781	80.80005
414.994	40.74705
415.207	13.34719
415.42	66.04272
415.632	103.99236
415.845	95.55848
416.058	108.20943
416.271	103.99236
416.483	61.82655
416.696	70.25899
416.909	47.07066
417.121	129.2961
417.334	44.96277
417.547	44.96277
417.759	55.50246
417.972	72.36716
418.185	57.61047
418.397	135.62252
418.61	-30.90556
418.823	137.73137
419.035	141.94913
419.248	89.23331
419.46	47.07066
419.673	78.6918
419.885	116.64384
420.098	72.36716
420.311	74.47535
420.523	173.58505
420.736	85.01664
420.948	97.66692
421.161	120.86117
421.373	163.03922
421.586	61.82655
421.798	89.23331
422.01	44.96277
422.223	61.82655
422.435	108.20943
422.648	163.03922
422.86	196.78769
423.073	152.49392
423.285	156.71198
423.497	114.5352
423.71	99.77538
423.922	118.75249
424.134	74.47535
424.347	131.40488
424.559	150.38492
424.771	53.39447
424.984	63.93463
425.196	156.71198
425.408	78.6918
425.621	173.58505
425.833	165.14835
426.045	156.71198
426.257	112.42659
426.47	122.96987
426.682	213.66387
426.894	165.14835
427.106	120.86117
427.318	230.54133
427.531	247.42003
427.743	158.82104
427.955	141.94913
428.167	112.42659
428.379	179.9128
428.591	232.6511
428.804	215.77348
429.016	207.33515
429.228	129.2961
429.44	177.80353
429.652	194.67826
429.864	171.47585
430.076	243.20024
430.288	224.21213
430.5	196.78769
430.712	213.66387
430.924	228.43158
431.136	139.84024
431.348	154.60294
431.56	209.44471
431.772	241.09037
431.984	234.76089
432.196	281.18111
432.408	336.05295
432.62	346.60661
432.832	209.44471
433.044	289.62213
433.256	268.52014
433.468	333.94227
433.679	384.60334
433.891	289.62213
434.103	293.84276
434.315	281.18111
434.527	350.82819
434.739	336.05295
434.95	378.27017
435.162	409.9375
435.374	276.96072
435.586	382.49226
435.798	287.51185
436.009	416.27141
436.221	395.15895
436.433	395.15895
436.645	338.16365
436.856	348.71739
437.068	380.38121
437.28	500.73695
437.491	437.38548
437.703	342.38509
437.915	483.8419
438.126	604.23877
438.338	513.40885
438.55	496.5131
438.761	431.05109
438.973	477.5065
439.184	445.83155
439.396	475.39473
439.608	528.19339
439.819	561.98919
440.031	466.9478
440.242	462.72443
440.454	509.18483
440.665	602.12617
440.877	570.43868
441.088	561.98919
441.3	576.77594
441.511	593.67589
441.723	483.8419
441.934	551.42762
442.146	511.29683
442.357	593.67589
442.569	602.12617
442.78	595.78844
442.991	517.63294
443.203	707.77125
443.414	671.84861
443.626	705.65806
443.837	720.4506
444.048	737.357
444.26	686.63989
444.471	686.63989
444.682	711.99765
444.894	707.77125
445.105	678.18766
445.316	826.12623
445.528	646.49347
445.739	735.24366
445.95	754.26407
446.161	811.33018
446.373	785.96659
446.584	788.08017
446.795	895.88486
447.006	826.12623
447.217	792.30735
447.429	887.42878
447.64	752.15065
447.851	855.71966
448.062	781.73945
448.273	775.39883
448.484	906.45513
448.695	792.30735
448.907	933.93875
449.118	914.9115
449.329	864.17524
449.54	900.11294
449.751	813.44387
449.962	889.54279
450.173	868.40308
450.384	923.36798
450.595	1020.6257
450.806	1223.6361
451.017	1026.96908
451.228	1081.94714
451.439	1041.77049
451.65	957.1951
451.861	1035.42699
452.072	1219.40633
452.283	1210.94683
452.494	1242.6702
452.705	1012.16795
452.915	1187.68349
453.126	1084.06175
453.337	1183.45384
453.548	1141.15816
453.759	1282.85404
453.97	1397.06455
454.181	1246.90003
454.391	1151.73193
454.602	1358.99392
454.813	1456.28593
455.024	1551.46282
455.235	1301.88878
455.445	1401.29464
455.656	1447.82572
455.867	1492.24179
456.078	1464.74614
456.288	1373.79913
456.499	1388.60438
456.71	1422.44511
456.921	1492.24179
457.131	1587.418
457.342	1562.03792
457.553	1568.38296
457.763	1625.48765
457.974	1906.74836
458.184	1756.61008
458.395	1946.9219
458.606	1697.39492
458.816	2039.94691
459.027	1989.20753
459.237	1965.95074
459.448	2107.5932
459.659	1968.06502
459.869	2103.36553
460.08	2073.77098
460.29	2249.20163
460.501	2352.74079
460.711	2297.80448
460.922	2143.52718
461.132	2407.67037
461.343	2200.59402
461.553	2285.12595
461.764	2405.55782
461.974	2369.64294
462.184	2382.31912
462.395	2454.14373
462.605	2711.75866
462.816	2563.96854
463.026	2479.49062
463.236	2559.74508
463.447	2745.53049
463.657	2732.86645
463.867	2914.33725
464.078	2741.3092
464.288	2935.4317
464.498	2973.39799
464.709	3024.01215
464.919	2931.21293
465.129	3220.05681
465.339	3112.56554
465.55	3177.90843
465.76	3108.34935
465.97	3257.98469
466.18	3205.30563
466.391	3710.57069
466.601	3270.6261
466.811	3477.01446
467.021	3535.95114
467.231	3681.12593
467.441	3331.71765
467.651	3937.58722
467.862	3718.98279
468.072	3891.36189
468.282	3830.4137
468.492	3912.37461
468.702	4019.508
468.912	4374.1312
469.122	4147.57766
469.332	4445.40154
469.542	4225.22126
469.752	4554.35413
469.962	4512.45635
470.172	4608.80796
470.382	4644.40422
470.592	4550.16475
470.802	4592.05454
471.012	4784.6321
471.222	5094.02644
471.432	5123.26732
471.642	5160.85605
471.852	5384.14409
472.062	5438.36049
472.272	5386.22963
472.482	5398.74238
472.691	5744.5923
472.901	5465.46273
473.111	5411.25428
473.321	5736.26621
473.531	6044.08023
473.741	5754.99938
473.95	6044.08023
474.16	6170.79934
474.37	6303.65664
474.58	6183.25879
474.79	6388.718
474.999	6343.0802
475.209	6334.7812
475.419	6674.73508
475.628	6817.57906
475.838	6825.85654
476.048	6983.05952
476.258	7057.47858
476.467	7418.82745
476.677	7336.29286
476.886	7398.19707
477.096	7699.18688
477.306	7464.20665
477.515	7528.13232
477.725	7740.38302
477.935	7532.25585
478.144	8003.84102
478.354	7876.27087
478.563	8123.10997
478.773	8246.42069
478.982	8470.25435
479.192	8544.13083
479.401	8529.76788
479.611	8665.15335
479.82	8773.8134
480.03	8823.00106
480.239	9023.74347
480.449	8859.88497
480.658	9406.33206
480.868	9224.31804
481.077	9275.45887
481.287	9367.48612
481.496	9604.56013
481.705	9821.01227
481.915	10059.73162
482.124	9969.98017
482.333	9769.97767
482.543	10233.03785
482.752	10092.36167
482.961	10192.26892
483.171	10422.54272
483.38	10377.72396
483.589	10516.23444
483.799	10532.52589
484.008	11173.39381
484.217	10707.60865
484.426	11008.7074
484.636	10835.8101
484.845	11384.74205
485.054	11134.77001
485.263	11640.65625
485.472	11315.65953
485.682	11407.08982
485.891	11971.50834
486.1	11492.40685
486.309	11876.13236
486.518	11949.18792
486.727	12072.9527
486.936	12135.83845
487.146	12285.92392
487.355	12371.09017
487.564	12490.70822
487.773	12746.0898
487.982	12393.39361
488.191	12433.94322
488.4	12673.13344
488.609	12904.13675
488.818	13076.33081
489.027	13197.85839
489.236	13284.94314
489.445	13489.4608
489.654	13126.96934
489.863	13459.08942
490.072	13479.3371
490.281	13768.84036
490.49	13732.40309
490.698	13849.80859
490.907	13811.34926
491.116	13995.54022
491.325	14256.61178
491.534	14070.42498
491.743	14183.75816
491.952	14428.61802
492.16	14535.86335
492.369	14507.53477
492.578	14475.15892
492.787	14796.88092
492.996	14669.40926
493.204	15146.91056
493.413	14823.18421
493.622	15076.09604
493.831	15367.44767
494.039	15391.72717
494.248	15498.96242
494.457	15450.40288
494.665	15389.70388
494.874	15428.14653
495.083	15644.64329
495.291	15996.72585
495.5	15812.58647
495.709	15919.8312
495.917	16033.15032
496.126	15646.66666
496.335	15786.28166
496.543	15980.53734
496.752	16134.33194
496.96	16644.35544
497.169	16316.46919
497.377	16435.87832
497.586	16460.16576
497.794	16796.17423
498.003	16500.64549
498.211	17026.9656
498.42	16875.12541
498.628	16887.27208
498.837	17045.18744
499.045	17184.89561
499.254	16646.37961
499.462	17304.36707
499.671	17239.56772
499.879	17387.39571
500.087	17336.76788
500.296	17640.56418
500.504	17859.34296
500.713	17699.30649
500.921	17782.36074
501.129	17575.7483
501.338	17705.38344
501.546	17944.43437
501.754	17814.77371
501.962	18171.37538
502.171	17966.72123
502.379	17962.66905
502.587	17794.5155
502.795	18177.45478
503.004	18057.89924
503.212	18544.30748
503.42	18349.7183
503.628	18526.06325
503.837	18734.8772
504.045	18765.29047
504.253	18982.26445
504.461	18736.90472
504.669	19059.33171
504.877	19144.51813
505.085	18933.5934
505.294	19302.74063
505.502	19160.74493
505.71	19189.14246
505.918	18907.23088
506.126	19191.17089
506.334	19022.82544
506.542	19394.03425
506.75	19298.68333
506.958	19856.71809
507.166	19434.61188
507.374	19594.90977
507.582	19373.74605
507.79	19525.91762
507.998	19605.05608
508.206	19759.29289
508.414	19600.99754
508.622	20080.02068
508.83	20071.89969
509.037	20047.53714
509.245	19864.83729
509.453	20220.11828
509.661	20102.35374
509.869	20494.28013
510.077	20027.23547
510.285	20498.34236
510.492	20506.46688
510.7	20723.82239
510.908	20411.00808
511.116	20746.17005
511.324	20274.94453
511.531	20504.43574
511.739	20677.09709
511.947	20803.05728
512.155	20563.34034
512.362	20618.18571
512.57	20772.58157
512.778	20786.80345
512.985	21280.63069
513.193	21026.57414
513.401	21203.39079
513.608	21481.88825
513.816	21211.52103
514.024	21205.42334
514.231	21174.93545
514.439	21673.01734
514.646	21518.48473
514.854	21227.7817
515.061	21538.81667
515.269	21748.25852
515.477	21573.38187
515.684	21782.83058
515.892	21813.33626
516.099	22395.14128
516.307	22037.07103
516.514	22342.23735
516.722	22053.34444
516.929	22207.95387
517.136	21986.21816
517.344	22423.62903
517.551	22244.57504
517.759	22220.16079
517.966	22568.11349
518.173	22289.33588
518.381	22545.72739
518.588	22631.20389
518.796	22765.53662
519.003	22732.96971
519.21	22604.74621
519.418	22704.4744
519.625	22726.86352
519.832	23217.49202
520.039	22989.45785
520.247	23013.8881
520.454	23188.9855
520.661	23730.71505
520.868	23215.45582
521.076	23716.45623
521.283	23408.90923
521.49	23400.76325
521.697	23474.07891
521.904	23950.72646
522.112	23009.81636
522.319	23681.82828
522.526	23620.72224
522.733	24407.15077
522.94	23830.53083
523.147	24254.31497
523.354	24227.82496
523.561	24419.37827
523.768	24130.01964
523.975	24529.42996
524.183	23940.54
524.39	24052.59493
524.597	23924.24181
524.804	24449.94743
525.011	24486.63119
525.218	24136.13229
525.425	24474.40318
525.632	24802.55279
525.838	24698.59786
526.045	24890.2059
526.252	24684.33002
526.459	24753.63204
526.666	24504.97339
526.873	24990.09496
527.08	25000.28804
527.287	25161.34608
527.494	24694.52132
527.701	25532.44267
527.907	25257.17198
528.114	25340.76868
528.321	25597.69749
528.528	25173.57891
528.735	25693.54419
528.941	25687.42619
529.148	25369.3147
529.355	25834.26302
529.562	25726.17383
529.768	26064.73469
529.975	25699.66221
530.182	26295.22889
530.388	25881.17129
530.595	26048.41735
530.802	25616.05078
531.008	26558.38535
531.215	26442.10362
531.422	26505.34393
531.628	26462.50355
531.835	26209.55593
532.042	26389.06455
532.248	26776.68215
532.455	26841.97049
532.661	26937.86543
532.868	26625.70868
533.074	26695.07385
533.281	26746.07876
533.487	26970.51123
533.694	26943.98649
533.9	27625.54003
534.107	27043.96559
534.313	27135.78606
534.52	27248.01478
534.726	27399.01969
534.933	27099.05754
535.139	27564.31681
535.345	27270.46101
535.552	27454.11782
535.758	27576.56137
535.965	27864.32087
536.171	27890.85306
536.377	27754.11231
536.584	27594.92828
536.79	27815.33887
536.996	28131.69256
537.203	27980.65578
537.409	27905.13971
537.615	28315.39412
537.821	28352.13549
538.028	28178.63767
538.234	28380.71235
538.44	28390.91843
538.646	27874.52554
538.853	28386.83599
539.059	28517.47596
539.265	28492.98063
539.471	28584.83888
539.677	28386.83599
539.883	28548.09533
540.09	28476.6505
540.296	28925.75364
540.502	29089.07637
540.708	28940.04411
540.914	29552.54094
541.12	29329.98954
541.326	29374.90716
541.532	29338.15634
541.738	29740.39235
541.944	29101.32585
542.15	29503.53772
542.356	29773.06309
542.562	29615.83768
542.768	29530.08106
542.974	29156.44893
543.18	29650.54923
543.386	30036.48134
543.592	30191.68234
543.798	30181.47154
544.004	30265.20096
544.21	30336.67888
544.415	29709.76378
544.621	30790.08884
544.827	30342.80563
545.033	30916.72847
545.239	30800.30152
545.445	31012.73308
545.651	30630.7754
545.856	30765.57855
546.062	30577.6727
546.268	30310.12977
546.474	30373.43954
546.679	30544.99455
546.885	30054.86006
547.091	30244.77897
547.297	29832.27953
547.502	30498.02027
547.708	30634.86026
547.914	30790.08884
548.119	30745.15346
548.325	30555.20644
548.531	30522.52851
548.736	31096.48437
548.942	30702.2612
549.147	31055.62977
549.353	31069.92882
549.559	31206.79476
549.764	31006.60503
549.97	30808.47169
550.175	31519.36554
550.381	31934.14498
550.586	31386.56945
550.792	32097.62593
550.997	31825.84563
551.203	31972.97058
551.408	31895.32008
551.614	32077.19012
551.819	32340.82782
552.025	32506.38604
552.23	31909.62391
552.435	31709.37851
552.641	32504.34202
552.846	32116.01832
553.052	32259.07597
553.257	32281.55739
553.462	32301.99527
553.668	32512.51811
553.873	32169.15284
554.078	32195.72062
554.283	32363.31019
554.489	32516.60617
554.694	32498.20998
554.899	32559.53132
555.105	32780.30575
555.31	32788.48313
555.515	32459.37419
555.72	33060.40418
555.925	33046.09139
556.131	33011.33229
556.336	32541.1347
556.541	33219.89871
556.746	33150.37338
556.951	32925.46017
557.156	32874.348
557.361	33095.16438
557.567	33301.69742
557.772	33295.56236
557.977	33260.79749
558.182	33653.48633
558.387	33788.49987
558.592	33688.26118
558.797	33446.90167
559.002	33459.17314
559.207	33287.38231
559.412	33518.48681
559.617	33172.86651
559.822	34130.19141
560.027	33651.44078
560.232	33833.5076
560.437	34019.69356
560.642	34281.63184
560.847	34234.56031
561.051	33753.72229
561.256	33782.36258
561.461	34709.4647
561.666	34285.72512
561.871	34171.11924
562.076	34320.51855
562.281	34531.35006
562.485	34107.68173
562.69	34150.65514
562.895	34117.91335
563.1	34289.8184
563.305	34418.76488
563.509	34541.58568
563.714	34154.74793
563.919	33915.34404
564.123	34236.60686
564.328	34122.00602
564.533	34598.90707
564.737	34113.82069
564.942	34719.70215
565.147	34731.98722
565.351	34639.85291
565.556	34496.5497
565.761	34654.18435
565.965	34809.79629
566.17	34830.2734
566.374	35082.17864
566.579	34899.89891
566.784	34643.94759
566.988	34867.13333
567.193	35147.72639
567.397	35192.7933
567.602	35391.52541
567.806	35397.67251
568.011	35575.95832
568.215	35631.2964
568.42	35446.85093
568.624	35645.64394
568.828	35391.52541
569.033	35264.49544
569.237	35690.7379
569.442	35711.23602
569.646	34803.65324
569.85	35377.18236
570.055	35424.31046
570.259	35651.79296
570.463	35653.84265
570.668	35741.9842
570.872	35522.67342
571.076	35711.23602
571.281	35727.6349
571.485	36053.63627
571.689	35988.01444
571.893	36385.93978
572.098	36527.52537
572.302	36150.02914
572.506	35961.35726
572.71	36014.6726
572.914	36640.4052
573.119	36513.16024
573.323	36463.91074
573.527	36564.46571
573.731	36761.51644
573.935	36303.87478
574.139	36127.46794
574.343	35893.69333
574.547	36215.66581
574.751	36240.28114
574.955	36671.19402
575.159	36689.66802
575.364	36636.30013
575.568	36560.36113
575.772	36193.10251
575.976	36623.9851
576.18	36472.11873
576.383	37274.964
576.587	37067.47835
576.791	36541.89081
576.995	36907.29135
577.199	37131.15428
577.403	36886.7576
577.607	37192.78268
577.811	37094.18033
578.015	36769.72821
578.219	37051.04696
578.422	36720.4592
578.626	37001.75548
578.83	36985.32588
579.034	36833.37305
579.238	37213.32692
579.442	37375.65211
579.645	37694.27454
579.849	37630.53527
580.053	38268.27682
580.257	37607.91991
580.46	37982.22444
580.664	37795.03914
580.868	37453.74906
581.071	37881.42402
581.275	37564.74773
581.479	37570.91498
581.682	37698.38701
581.886	38177.71028
582.09	38126.25932
582.293	38472.11257
582.497	38227.10817
582.7	38253.8674
582.904	38478.29075
583.107	38488.58789
583.311	38288.86243
583.515	38397.9806
583.718	38150.95512
583.922	38544.19629
584.125	38183.88474
584.329	38354.74219
584.532	38311.5076
584.735	38589.51163
584.939	38041.8911
585.142	38015.14312
585.346	38729.60483
585.549	38641.01162
585.753	38608.05098
585.956	39113.01927
586.159	38968.68536
586.363	39591.72439
586.566	39261.52614
586.769	39348.17853
586.973	38542.1366
587.176	39189.32902
587.379	38849.12947
587.582	39003.7336
587.786	38964.56222
587.989	39383.25706
588.192	39412.14742
588.395	39744.52858
588.599	39882.92717
588.802	40108.18419
589.005	39414.21109
589.208	39575.20838
589.411	39290.40834
589.615	38820.27585
589.818	39465.80612
590.021	39705.2897
590.224	39725.94128
590.427	39717.68052
590.63	40228.09763
590.833	40486.65686
591.036	39905.65382
591.239	39907.71994
591.442	39670.18439
591.645	40166.06889
591.848	40126.78906
592.051	40159.86655
592.254	39546.30691
592.457	39980.04086
592.66	39403.89283
592.863	39944.91194
593.066	39998.63977
593.269	40164.00143
593.472	40211.55567
593.675	40561.15409
593.878	40501.1413
594.081	40302.54505
594.284	40343.91087
594.486	40917.28806
594.689	40803.37119
594.892	40408.0366
595.095	40900.71616
595.298	41120.35441
595.5	41178.39409
595.703	41682.49034
595.906	41568.33181
596.109	41062.32397
596.311	40894.50189
596.514	40455.62063
596.717	41211.56379
596.92	41398.20027
597.122	41205.34424
597.325	41493.62987
597.528	41435.53924
597.73	42066.7529
597.933	41487.40542
598.136	41549.65484
598.338	41230.22309
598.541	41174.24809
598.743	41618.14188
598.946	41151.44594
599.148	41736.46913
599.351	41613.99077
599.554	42052.20544
599.756	41595.31139
599.959	41719.85938
600.161	41543.42941
600.363	41524.75376
600.566	41784.22655
600.768	41969.08894
600.971	41794.60947
601.173	42174.83911
601.376	42185.23382
601.578	41944.15791
601.78	41742.69799
601.983	42280.88009
602.185	42124.94891
602.388	42095.84967
602.59	42197.70789
602.792	42470.17313
602.995	42162.36588
603.197	41904.68746
603.399	42048.04914
603.601	41539.27918
603.804	41483.25585
604.006	41665.88316
604.208	41404.42316
604.41	41809.14607
604.613	41703.25043
604.815	41574.55768
605.017	42145.73561
605.219	42220.57821
605.421	41659.65567
605.623	42784.51114
605.826	42928.24831
606.028	42511.79028
606.23	42289.19843
606.432	42110.39898
606.634	42942.83385
606.836	42653.3274
607.038	41946.23543
607.24	42538.84421
607.442	42538.84421
607.644	42426.48067
607.846	42765.76742
608.048	43370.27051
608.25	42505.54738
608.452	42282.95965
608.654	42759.51976
608.856	42023.11238
609.058	41877.68396
609.26	42653.3274
609.462	42582.55133
609.664	42536.76306
609.866	41890.14685
610.067	42472.25386
610.269	41694.94624
610.471	41908.84203
610.673	42282.95965
610.875	42332.87308
611.077	42097.9281
611.278	42580.46991
611.48	42399.4358
611.682	42707.46043
611.884	43249.28031
612.085	43159.60974
612.287	43476.69581
612.489	42732.44789
612.69	43047.03511
612.892	43276.39488
613.094	43487.13155
613.295	42459.76964
613.497	42759.51976
613.699	42543.00655
613.9	42921.99756
614.102	42459.76964
614.304	42072.98771
614.505	41919.22868
614.707	42374.47324
614.908	42357.83256
615.11	42903.24604
615.311	42682.47486
615.513	42536.76306
615.714	42345.35259
615.916	42624.18249
616.117	42926.16471
616.319	43192.97265
616.52	43370.27051
616.722	43752.31281
616.923	43259.70872
617.124	43090.80952
617.326	42676.22876
617.527	43482.95721
617.729	42899.07918
617.93	42751.18971
618.131	43084.55568
618.333	42742.85988
618.534	43038.69779
618.735	43370.27051
618.937	42622.10081
619.138	42567.98166
619.339	42726.20085
619.54	43074.13287
619.742	43003.26655
619.943	42534.68193
620.144	42736.61265
620.345	44000.98897
620.546	43447.47753
620.748	43900.65933
620.949	43282.65241
621.15	43434.95622
621.351	42218.49903
621.552	43134.5898
621.753	42728.28318
621.954	43107.48703
622.155	42880.32896
622.356	43170.03528
622.558	43097.06349
622.759	42844.91478
622.96	42801.17311
623.161	42669.98278
623.362	42613.77421
623.563	43384.87583
623.764	42901.1626
623.965	43510.09136
624.166	43207.57
624.366	42615.85584
624.567	42490.98106
624.768	42822.00175
624.969	42341.1927
625.17	42543.00655
625.371	42992.84632
625.572	43330.63082
625.773	43057.45706
625.973	43566.45421
626.174	43142.92957
626.375	43775.29157
626.576	43434.95622
626.777	43658.32592
626.977	43297.25378
627.178	43752.31281
627.379	43666.6792
627.58	44059.52917
627.78	43821.25405
627.981	43480.87006
628.182	43558.10354
628.382	43059.54149
628.583	43230.51
628.784	42867.8294
628.984	42597.12165
629.185	43489.21874
629.386	42997.01437
629.586	43313.94187
629.787	42755.35471
629.987	42846.99786
630.188	43530.96534
630.388	43293.0819
630.589	43153.35458
630.79	43482.95721
630.99	42788.67655
631.191	43501.74215
631.391	43303.51172
631.591	43274.30906
631.792	42957.42003
631.992	43881.85104
632.193	43932.00896
632.393	43825.43278
632.594	43526.79044
632.794	43405.74172
632.994	43610.2988
633.195	43334.80319
633.395	43047.03511
633.595	43368.18409
633.796	43282.65241
633.996	44034.4392
634.196	43980.08436
634.397	44325.18614
634.597	44003.07951
634.797	43672.9443
634.997	43528.87788
635.198	43518.44079
635.398	43378.61633
635.598	44302.16769
635.798	43948.73001
635.998	43560.19118
636.199	44237.30649
636.399	43938.27925
636.599	43733.51323
636.799	43848.41679
636.999	43449.56446
637.199	43485.04437
637.399	43875.58185
637.599	43608.21082
637.799	43472.52161
637.999	44364.94922
638.199	43875.58185
638.399	44166.18363
638.599	43624.91499
638.799	44279.15091
638.999	43796.18279
639.199	44057.43826
639.399	43468.34746
639.599	43814.98605
639.799	42645.00002
639.999	42817.83592
640.199	42990.76232
640.399	43781.5588
640.599	42378.63354
640.799	44185.00872
640.998	43923.64876
641.198	44254.04359
641.398	44145.26818
641.598	44053.25649
641.798	44530.33345
641.997	44168.27526
642.197	44404.71728
642.397	44193.37579
642.597	44220.57027
642.796	44781.71556
642.996	43675.03269
643.196	43685.47486
643.395	44136.90238
643.595	44000.98897
643.795	44526.14544
643.994	44972.48049
644.194	44321.00084
644.394	44231.0303
644.593	44218.4783
644.793	44404.71728
644.992	44595.25468
645.192	44498.92473
645.392	44570.1223
645.591	44526.14544
645.791	44490.5496
645.99	44666.47393
646.19	43977.99397
646.389	44251.95141
646.589	44233.12235
646.788	44549.18017
646.987	43938.27925
647.187	44402.6241
647.386	43917.37875
647.586	44406.81048
647.785	44475.89366
647.984	44134.81096
648.184	44484.2684
648.383	44741.90006
648.582	44704.18475
648.782	44521.95749
648.981	43917.37875
649.18	43904.8391
649.38	45129.79108
649.579	45211.6236
649.778	45518.15959
649.977	45366.95394
650.177	44475.89366
650.376	44011.44179
650.575	44233.12235
650.774	44549.18017
650.973	44892.80638
651.173	44612.0107
651.372	44947.31807
651.571	45083.6385
651.77	44463.33196
651.969	44779.61988
652.168	44672.75876
652.367	45081.54082
652.566	44878.13177
652.765	45404.74856
652.964	45749.30808
653.163	45205.32803
653.362	45201.13106
653.561	44421.46323
653.76	44318.90821
653.959	44151.54267
654.158	44628.76762
654.357	44505.20623
654.556	44521.95749
654.755	45385.85068
654.954	44704.18475
655.153	44187.10047
655.352	44362.8563
655.551	44400.53094
655.749	44521.95749
655.948	44264.50473
656.147	44565.93376
656.346	44970.38354
656.545	45398.44914
656.743	45205.32803
656.942	45037.49268
657.141	44796.38569
657.34	44752.37734
657.538	44846.68846
657.737	44970.38354
657.936	45341.76004
658.135	45029.10326
658.333	44968.28661
658.532	44681.13871
658.731	44488.45585
658.929	44622.48367
659.128	44003.07951
659.326	44536.61557
659.525	44955.70532
659.724	44681.13871
659.922	44297.98269
660.121	44285.42804
660.319	44277.05855
660.518	44251.95141
660.716	44660.18924
660.915	45041.68748
661.113	45035.39531
661.312	44836.20806
661.51	44647.62022
661.709	45291.37827
661.907	44727.23246
662.105	45043.7849
662.304	45562.27488
662.502	45658.92991
662.701	45247.30083
662.899	45016.51954
663.097	44511.48785
663.296	44484.2684
663.494	45083.6385
663.692	45016.51954
663.891	45052.17471
664.089	44951.51167
664.287	45241.00455
664.485	44404.71728
664.684	44901.19218
664.882	44544.99192
665.08	44572.21659
665.278	44419.36994
665.476	44540.80371
665.675	44216.38635
665.873	44920.06105
666.071	45236.80711
666.269	44867.65032
666.467	44287.52045
666.665	44653.90466
666.863	43819.1647
667.061	44802.6731
667.259	44632.95699
667.457	45209.52506
667.655	44733.51849
667.853	45530.76333
668.051	44878.13177
668.249	45098.32268
668.447	45352.25725
668.645	45211.6236
668.843	45285.08112
669.041	45329.16384
669.239	44088.80331
669.437	44427.74318
669.635	44725.13714
669.833	44781.71556
670.031	44446.5838
670.229	44976.67442
670.426	44769.1417
670.624	44743.99549
670.822	44540.80371
671.02	44484.2684
671.218	44480.081
671.415	44871.84286
671.613	43909.01893
671.811	43585.24402
672.009	43863.04384
672.206	44090.89442
672.404	43890.21014
672.602	43675.03269
672.799	44000.98897
672.997	44486.36212
673.195	44321.00084
673.392	44423.55653
673.59	43558.10354
673.788	43543.49038
673.985	43528.87788
674.183	43683.3864
674.38	44578.49953
674.578	44270.78158
674.775	44509.39396
674.973	44126.44544
675.17	44220.57027
675.368	44509.39396
675.565	44360.76339
675.763	44687.42383
675.96	44469.61275
676.158	44203.83493
676.355	43122.08055
676.553	44241.49068
676.75	43017.85542
676.947	43167.95015
677.145	42984.51038
677.342	43015.77125
677.539	43259.70872
677.737	44287.52045
677.934	43637.44368
678.131	43662.50253
678.329	43107.48703
678.526	43044.95076
678.723	43597.77116
678.92	43965.45195
679.118	42751.18971
679.315	42249.68812
679.512	42763.68485
679.709	43263.88018
679.906	42822.00175
680.104	43334.80319
680.301	42772.01521
680.498	42767.85001
680.695	43272.22326
680.892	43391.13546
681.089	42944.91755
681.286	43217.99707
681.483	42667.90081
681.68	42926.16471
681.877	42861.5798
682.075	42878.24566
682.272	42518.0333
682.469	43307.68374
682.665	42967.83913
682.862	42774.09783
683.059	42540.92537
683.256	43022.02379
683.453	43003.26655
683.65	42780.34578
683.847	42924.08113
684.044	42767.85001
684.241	42986.59435
684.438	42861.5798
684.635	42147.81435
684.831	42751.18971
685.028	42484.73854
685.225	42834.49957
685.422	42761.6023
685.619	42784.51114
685.815	42395.27525
686.012	42129.10615
686.209	42193.54982
686.405	42647.08185
686.602	42064.67465
686.799	41763.46165
686.996	42647.08185
687.192	42624.18249
687.389	41782.15001
687.586	42503.46644
687.782	42778.26312
687.979	42455.60834
688.175	41985.71063
688.372	42530.51969
688.568	42187.3128
688.765	41630.5955
688.962	41888.06967
689.158	41794.60947
689.355	41877.68396
689.551	41942.0804
689.748	41194.97856
689.944	41466.65804
690.14	41611.91524
690.337	41416.86927
690.533	41435.53924
690.73	40846.8626
690.926	41890.14685
691.123	41161.81038
691.319	41151.44594
691.515	41883.91535
691.712	41553.80519
691.908	41056.10697
692.104	40525.97303
692.301	40981.5112
692.497	41012.59093
692.693	40786.80437
692.889	41029.16786
693.086	40683.27831
693.282	41497.77956
693.478	42214.3407
693.674	41850.68257
693.87	41576.633
694.067	41622.29304
694.263	41437.61374
694.459	40774.37973
694.655	41279.98592
694.851	40857.21845
695.047	40956.6493
695.243	40768.16757
695.439	41228.14978
695.635	41284.13313
695.831	41242.66315
696.027	41780.07347
696.224	41064.39633
696.42	40830.29385
696.615	41076.83072
696.811	40672.92727
697.007	40646.0159
697.203	40569.43245
697.399	40184.67648
697.595	40354.25301
697.791	40027.57311
697.987	39963.50922
698.183	40395.62434
698.379	40101.98276
698.575	40290.13616
698.77	39986.2404
698.966	40159.86655
699.162	40112.31853
699.358	40170.20383
699.554	39884.99318
699.749	40223.96207
699.945	40292.20429
700.141	40199.14967
700.337	40519.76495
700.532	40681.20808
700.728	40805.4421
700.924	40890.3591
701.119	40528.04242
701.315	40083.37904
701.511	39957.31003
701.706	40747.4611
701.902	40104.04989
702.097	40368.73247
702.293	40083.37904
702.489	40385.28109
702.684	40151.59692
702.88	39938.71303
703.075	39587.59533
703.271	39216.1437
703.466	39441.03973
703.662	39335.79855
703.857	39375.00303
704.053	39525.66422
704.248	39434.84835
704.443	40081.31202
704.639	39544.2426
704.834	39593.78894
705.03	39612.37033
705.225	39525.66422
705.42	39212.01826
705.616	39311.03966
705.811	38805.84972
706.006	39195.51688
706.202	38653.37246
706.397	38531.83831
706.592	38793.48483
706.787	39525.66422
706.983	39368.81261
707.178	40379.07528
707.373	39566.95061
707.568	39375.00303
707.763	39228.52026
707.959	38906.84217
708.154	38750.21032
708.349	39009.91886
708.544	39216.1437
708.739	39026.41333
708.934	38939.82415
709.129	38857.37369
709.324	38603.93106
709.519	39117.14379
709.714	38692.51725
709.909	39115.08152
710.104	38358.85997
710.299	38262.10131
710.494	37967.82318
710.689	38531.83831
710.884	38319.74247
711.079	38690.45692
711.274	38290.92104
711.469	38849.12947
711.664	38842.9464
711.859	38892.41331
712.054	38822.33676
712.249	38535.9576
712.443	38330.03624
712.638	38643.07174
712.833	38552.43512
713.028	38995.48671
713.223	38307.39022
713.417	37784.75616
713.612	37990.45391
713.807	37609.97582
714.002	37634.64726
714.196	37819.71909
714.391	37250.30838
714.586	37961.65133
714.78	38408.27603
714.975	38404.15783
715.17	37922.56469
715.364	38381.50837
715.559	38278.56952
715.754	37729.23154
715.948	37782.69959
716.143	37624.36736
716.337	37104.45064
716.532	37918.45047
716.726	37774.47339
716.921	37533.91254
717.115	37677.82498
717.31	38050.12153
717.504	37875.2532
717.699	37873.19628
717.893	37196.89147
718.088	37379.76221
718.282	37365.377
718.476	37303.73023
718.671	37176.34781
718.865	37840.2866
719.059	37020.23931
719.254	37515.41225
719.448	37207.16357
719.642	37867.02556
719.837	36361.31924
720.031	36550.09978
720.225	36024.92599
720.419	36225.92209
720.614	36488.53503
720.808	36782.04606
721.002	36045.43322
721.196	36437.23544
721.39	36355.16424
721.585	35924.44889
721.779	36232.07593
721.973	36447.49505
722.167	36426.976
722.361	36287.46295
722.555	36463.91074
722.749	36299.77178
722.943	36217.71705
723.137	35725.58502
723.331	35746.08405
723.525	36447.49505
723.719	35241.95984
723.913	35737.88437
724.107	35705.08652
724.301	36096.70382
724.495	35957.25624
724.689	36020.82462
724.883	36088.50028
725.077	36205.40967
725.271	36318.23544
725.465	36170.53994
725.659	35782.98369
725.853	35830.13582
726.046	35879.34116
726.24	35731.73467
726.434	35235.81387
726.628	35518.57473
726.822	35996.21685
727.015	35680.48904
727.209	35633.34603
727.403	36385.93978
727.596	35735.83447
727.79	35893.69333
727.984	36045.43322
728.177	36004.41935
728.371	36088.50028
728.565	35430.4578
728.758	35575.95832
728.952	35459.14599
729.146	35578.00781
729.339	35676.38954
729.533	35963.40777
729.726	35575.95832
729.92	35627.19715
730.113	35731.73467
730.307	35731.73467
730.5	35750.18393
730.694	35791.18385
730.887	35461.19519
731.081	35787.08376
731.274	35553.41428
731.468	35717.38556
731.661	35506.27877
731.854	35623.09792
732.048	35282.9341
732.241	35317.76376
732.435	35600.55255
732.628	35543.1672
732.821	35864.98927
733.014	35713.28586
733.208	35282.9341
733.401	35045.31014
733.594	34539.53855
733.788	34803.65324
733.981	35071.93724
734.174	35537.01901
734.367	35426.35957
734.56	35383.32935
734.754	35190.74475
734.947	35090.37185
735.14	35196.8904
735.333	35354.64378
735.526	35457.0968
735.719	35071.93724
735.912	35778.88364
736.105	35905.9954
736.298	35440.70347
736.491	35246.05718
736.684	35381.28035
736.877	35588.25534
737.07	35639.49496
737.263	34514.97328
737.456	34875.32461
737.649	34828.22567
737.842	35260.39801
738.035	34758.60541
738.228	35076.03378
738.421	34789.31961
738.614	34723.79715
738.807	34840.51213
739	34465.84448
739.192	34281.63184
739.385	34611.19065
739.578	34508.83205
739.771	34496.5497
739.964	34318.47184
740.156	34895.80315
740.349	34124.05236
740.542	35010.49127
740.735	34447.42178
740.927	34822.0825
741.12	35151.82329
741.313	35377.18236
741.505	35180.50209
741.698	34373.73419
741.891	34369.64059
742.083	34570.24597
742.276	34474.03245
742.468	34091.31133
742.661	34040.15533
742.854	34273.44535
743.046	33872.37923
743.239	34273.44535
743.431	34029.9244
743.624	33485.76171
743.816	33596.21212
744.009	33669.85085
744.201	33346.68869
744.393	33097.20912
744.586	33479.62584
744.778	33831.46176
744.971	34005.37054
745.163	33596.21212
745.355	33495.98822
745.548	33843.73686
745.74	34029.9244
745.932	34003.3244
746.125	33952.17224
746.317	33831.46176
746.509	33485.76171
746.702	33831.46176
746.894	33545.07654
747.086	33295.56236
747.278	33663.71413
747.471	33665.7597
747.663	33201.49463
747.855	33710.76306
748.047	33536.89503
748.239	33866.24152
748.431	33770.08809
748.623	33543.03116
748.815	33262.84246
749.008	33136.05974
749.2	33326.23794
749.392	32622.89891
749.584	32228.41991
749.776	33056.3148
749.968	33285.33731
750.16	33479.62584
750.352	33048.13607
750.544	33062.44888
750.736	32772.12842
750.928	32563.61949
751.12	32105.8003
751.311	32451.19834
751.503	32737.37518
751.695	32649.47309
751.887	32152.80361
752.079	32132.36726
752.271	32175.28384
752.463	31827.88896
752.654	32267.251
752.846	33138.10454
753.038	32894.79267
753.23	33152.4182
753.421	32318.34572
753.613	32629.03137
753.805	32839.59263
753.997	32751.68525
754.188	32557.48725
754.38	32539.09065
754.572	32584.06044
754.763	32522.73827
754.955	32277.46984
755.146	32207.98279
755.338	31979.101
755.53	32146.67269
755.721	31915.75415
755.913	31672.60064
756.104	31650.12555
756.296	32116.01832
756.487	31872.84281
756.679	31605.176
756.87	31774.76283
757.062	31364.09694
757.253	31876.92957
757.445	31476.46143
757.636	31204.75194
757.827	31470.33233
758.019	31552.05489
758.21	31127.12571
758.401	31290.55191
758.593	31715.50822
758.784	31278.2946
758.975	31202.70911
759.167	31172.06694
759.358	30726.77099
759.549	30990.26363
759.74	30465.34291
759.932	30259.07435
760.123	30402.03143
760.314	30720.64353
760.505	30687.96391
760.696	29952.75724
760.888	30500.06262
761.079	30371.39727
761.27	30898.34497
761.461	30381.60862
761.652	30179.42938
761.843	29662.80044
762.034	29681.17733
762.225	29768.97923
762.416	29854.74119
762.607	29883.32894
762.798	30132.46011
762.989	30428.58126
763.18	30048.73381
763.371	30359.14368
763.562	30306.04531
763.753	30289.70751
763.944	30453.08898
764.135	29985.42983
764.326	30444.91972
764.517	29936.42105
764.708	29758.76961
764.899	29136.03289
765.089	29926.21097
765.28	29491.28701
765.471	29738.35043
765.662	29856.78316
765.853	29491.28701
766.043	29048.24507
766.234	29577.04278
766.425	28821.63886
766.615	28940.04411
766.806	28799.18309
766.997	28850.21912
767.187	28511.35211
767.378	28809.39024
767.569	29164.61538
767.759	29309.57261
767.95	29566.83366
768.141	28980.87432
768.331	28803.26595
768.522	28768.56178
768.712	28672.61654
768.903	29160.53216
769.093	28286.81774
769.284	28150.06232
769.474	28613.41744
769.665	28876.75811
769.855	28993.12346
770.046	28831.84608
770.236	28568.50837
770.426	28397.04208
770.617	28282.73542
770.807	28439.90795
770.998	28023.51695
771.188	27741.86713
771.378	28341.92952
771.569	28252.11814
771.759	28107.1997
771.949	27743.90799
772.139	27762.27579
772.33	27694.92766
772.52	27921.46738
772.71	28021.47593
772.9	27905.13971
773.09	28025.55797
773.281	27827.58431
773.471	27658.19286
773.661	27507.17614
773.851	27321.47574
774.041	27419.42629
774.231	27254.13647
774.421	27447.99576
774.611	27164.35299
774.802	26823.60799
774.992	26897.05868
775.182	27072.53166
775.372	26950.10756
775.562	26884.81677
775.752	26803.20536
775.942	26087.17121
776.131	26654.27059
776.321	26134.08462
776.511	26460.46355
776.701	26199.35697
776.891	26368.6652
777.081	26588.98666
777.271	26321.74731
777.461	26968.47086
777.651	26864.4137
777.84	26780.76263
778.03	26613.46795
778.22	26699.1542
778.41	26346.2261
778.599	26527.7844
778.789	26223.83455
778.979	26282.98972
779.169	25887.28984
779.358	26270.7506
779.548	26558.38535
779.738	25805.71064
779.927	25548.75618
780.117	25960.71363
780.307	25454.95525
780.496	25834.26302
780.686	25854.6578
780.875	25228.62759
781.065	25518.16845
781.254	25546.71699
781.444	25499.81603
781.633	25748.607
781.823	25815.90788
782.012	25385.62691
782.202	25334.65172
782.391	25330.57377
782.581	25344.84665
782.77	25204.16131
782.96	25306.1062
783.149	24608.91635
783.338	24822.93684
783.528	25424.36892
783.717	25634.40423
783.906	25401.93924
784.096	25098.14442
784.285	25079.79595
784.474	24910.59097
784.663	25018.63571
784.853	24741.40207
785.042	24560.0012
785.231	24737.32543
785.42	24916.70654
785.61	24511.0875
785.799	24680.25352
785.988	24890.2059
786.177	24486.63119
786.366	24749.55537
786.555	24350.09033
786.744	24282.84319
786.933	24156.50796
787.122	24191.14723
787.312	24158.54554
787.501	24427.52999
787.69	24172.80869
787.879	24574.26797
788.068	24598.72558
788.257	24278.7677
788.445	24134.09474
788.634	23918.13004
788.823	24068.89453
789.012	24496.82127
789.201	24317.4853
789.39	24382.69604
789.579	23922.20455
789.768	24189.1096
789.957	23708.3084
790.145	24193.18486
790.334	24164.65831
790.523	23657.38553
790.712	24064.81961
790.9	23934.42816
791.089	23706.27145
791.278	23539.25176
791.467	22989.45785
791.655	23203.23868
791.844	23380.39851
792.033	23417.05527
792.221	23123.83014
792.41	23355.96124
792.599	22948.74185
792.787	23054.60625
792.976	23174.73248
793.164	23154.3713
793.353	23193.05782
793.541	23404.83624
793.73	23248.03543
793.918	23329.48804
794.107	22547.76248
794.295	22708.54512
794.484	23417.05527
794.672	23007.78049
794.861	22989.45785
795.049	23449.63991
795.238	22470.43188
795.426	22584.39456
795.614	21898.7568
795.803	22496.8865
795.991	22248.64414
796.179	22454.15241
796.368	22161.1619
796.556	22486.71157
796.744	21870.28253
796.932	22061.48124
797.121	21890.62122
797.309	22163.19629
797.497	22268.98983
797.685	22291.37051
797.874	22651.55635
798.062	22828.63751
798.25	22110.30329
798.438	22236.4369
798.626	22195.74708
798.814	22165.23069
799.002	21644.5491
799.19	21856.04568
799.378	22018.76372
799.566	21697.4193
799.755	22010.62724
799.943	21597.78152
800.131	21748.25852
800.318	21813.33626
800.506	21807.23505
800.694	22395.14128
800.882	21699.45282
801.07	21740.12408
801.258	21742.15768
801.446	21585.58162
801.634	21557.11575
801.822	21372.10653
802.01	21046.89632
802.197	21465.62356
802.385	21101.76825
802.573	21408.69914
802.761	21392.4356
802.949	21742.15768
803.136	21807.23505
803.324	21813.33626
803.512	21945.53758
803.699	22065.54966
803.887	21851.97804
804.075	21721.82182
804.262	21664.88348
804.45	21443.26002
804.638	21337.54804
804.825	21699.45282
805.013	21837.74144
805.201	21807.23505
805.388	21750.29214
805.576	21467.65663
805.763	21577.44844
805.951	21435.12795
806.138	21536.78346
806.326	21447.32608
806.513	21666.91694
806.701	21335.51522
806.888	21199.32569
807.075	21193.22808
807.263	20859.94774
807.45	21548.98279
807.638	21333.48241
807.825	21540.84988
808.012	21305.02345
808.2	21357.87642
808.387	21459.52436
808.574	21128.18913
808.761	21235.91214
808.949	21567.28204
809.136	21483.92135
809.323	21788.93164
809.51	21538.81667
809.698	22085.892
809.885	21925.19786
810.072	21542.8831
810.259	21778.76322
810.446	21248.10792
810.633	21559.149
810.82	22008.59313
811.008	22079.78926
811.195	21864.181
811.382	21758.42665
811.569	21760.46029
811.756	21673.01734
811.943	21321.28562
812.13	20987.96312
812.317	21483.92135
812.504	21666.91694
812.691	21323.3184
812.878	21162.74055
813.064	21215.58617
813.251	20979.83468
813.438	21388.36976
813.625	21457.49131
813.812	21569.31532
813.999	21788.93164
814.186	21677.08429
814.372	21506.28576
814.559	21784.86426
814.746	21349.74502
814.933	21699.45282
815.12	21231.84691
815.306	21286.72883
815.493	21211.52103
815.68	21459.52436
815.866	21191.19555
816.053	21534.75025
816.24	21337.54804
816.426	21179.00045
816.613	21168.83798
816.799	21370.07365
816.986	21374.13942
817.173	21851.97804
817.359	21372.10653
817.546	21593.71487
817.732	21260.30384
817.919	21860.11333
818.105	21366.00789
818.292	21431.06193
818.478	21449.35912
818.665	21841.80902
818.851	21307.05621
819.037	21557.11575
819.224	21553.04926
819.41	21506.28576
819.597	21185.09798
819.783	21130.22154
819.969	20713.66453
820.156	20805.08902
820.342	20693.34912
820.528	20740.07519
820.714	20289.15924
820.901	20693.34912
821.087	20650.68811
821.273	20691.3176
821.459	20536.9344
821.646	21004.22021
821.832	20908.71358
822.018	20876.20276
822.204	20171.38641
822.39	20599.90358
822.576	20516.62261
822.762	20469.90709
822.948	19970.39305
823.134	20679.12858
823.32	20532.87201
823.507	20406.94621
823.693	20319.62003
823.879	20130.77836
824.065	19805.97459
824.25	20010.99444
824.436	19915.58383
824.622	20325.71231
824.808	20484.12463
824.994	20540.9968
825.18	20370.39012
825.366	20459.75184
825.552	19954.15296
825.738	19994.75368
825.923	19791.76688
826.109	19996.78376
826.295	19639.55432
826.481	19511.71395
826.667	19678.11261
826.852	19657.81858
827.038	19592.88052
827.224	19532.00496
827.409	19369.68846
827.595	19688.25978
827.781	19456.93028
827.966	19570.55905
828.152	19448.81444
828.338	19574.61746
828.523	19450.84339
828.709	19848.59895
828.894	19296.65469
829.08	19477.22017
829.266	19187.11404
829.451	19448.81444
829.637	19428.52513
829.822	19708.55443
830.008	19416.35174
830.193	19215.51232
830.378	18994.43258
830.564	19026.88162
830.749	19004.57279
830.935	19507.65579
831.12	19030.93783
831.305	19373.74605
831.491	19140.46147
831.676	18966.04051
831.861	18803.81522
832.047	19296.65469
832.232	19227.68326
832.417	19047.1628
832.602	19264.19695
832.788	19270.2827
832.973	19367.65968
833.158	18931.56549
833.343	18775.42842
833.528	18720.68464
833.714	18649.72476
833.899	18532.14462
834.084	18110.58318
834.269	18738.93225
834.454	18290.94302
834.639	18278.78301
834.824	18276.75635
835.009	18398.36231
835.194	17873.52443
835.379	18418.63129
835.564	17808.69621
835.749	18426.73899
835.934	18217.98496
836.119	18345.66473
836.304	18072.08314
836.489	18126.79411
836.674	18017.37479
836.859	18260.54325
837.044	18001.16541
837.228	17974.82566
837.413	17709.43475
837.598	17389.42086
837.783	17298.292
837.968	17695.2552
838.152	17656.76868
838.337	17713.48608
838.522	17527.13856
838.707	17839.084
838.891	17756.02585
839.076	17367.14435
839.261	17405.6222
839.445	17808.69621
839.63	17488.65715
839.815	17427.89935
839.999	16992.54719
840.184	17320.56738
840.368	17551.44319
840.553	17446.1264
840.737	17154.52313
840.922	17417.77333
841.106	17476.50536
841.291	17612.20682
841.475	17063.40949
841.66	17116.05223
841.844	17039.11347
842.029	17300.31702
842.213	16943.9578
842.397	17148.44871
842.582	16411.59116
842.766	16867.02768
842.951	17006.71938
843.135	17124.15128
843.319	16678.76654
843.504	16822.49087
843.688	16927.76167
843.872	16792.12556
844.056	16887.27208
844.241	17024.94097
844.425	16794.14989
844.609	16974.32599
844.793	16611.96913
844.977	16488.50148
845.161	16251.70766
845.346	16964.20319
845.53	16494.57347
845.714	17061.3848
845.898	16162.6635
846.082	16099.92976
846.266	16389.32819
846.45	16245.63636
846.634	15923.87824
846.818	15774.14103
847.002	15794.37542
847.186	16010.89087
847.37	15715.46188
847.554	15816.63338
847.738	15741.76623
847.922	15802.46921
848.106	16120.16628
848.29	15956.25474
848.473	16292.1834
848.657	16273.96923
848.841	16233.49381
849.025	16225.39882
849.209	15899.59609
849.392	16225.39882
849.576	16099.92976
849.76	15913.76066
849.944	15525.26564
850.127	15367.44767
850.311	15239.98103
850.495	15223.79485
850.678	14989.09505
850.862	15446.35627
851.046	15235.93449
851.229	15189.39924
851.413	15264.26032
851.596	15098.35204
851.78	15177.25962
851.964	15430.16984
852.147	14912.20995
852.331	15326.98196
852.514	14800.92759
852.698	15110.49168
852.881	14924.34974
853.065	15239.98103
853.248	14539.91027
853.431	14896.02353
853.615	14657.26892
853.798	14681.54957
853.982	14262.6828
854.165	14323.39213
854.348	14396.24128
854.532	14556.0979
854.715	13987.44437
854.898	14165.54435
855.081	13916.60396
855.265	14163.52058
855.448	13973.27654
855.631	14256.61178
855.814	14242.446
855.997	14291.01402
856.181	13930.7723
856.364	14185.78191
856.547	14015.77967
856.73	14284.94308
856.913	13623.08513
857.096	14246.49337
857.279	14159.47304
857.462	14203.99553
857.645	14171.61564
857.828	14078.52043
858.011	13847.78444
858.194	13946.96452
858.377	13645.35438
858.56	13732.40309
858.743	13586.64366
858.926	13837.66365
859.109	13904.45957
859.292	13608.91358
859.475	13159.37646
859.658	13783.01014
859.841	13481.36185
860.023	13309.24443
860.206	13339.6202
860.389	13657.50107
860.572	13633.20757
860.755	13748.59755
860.937	13811.34926
861.12	13886.2428
861.303	13293.04364
861.486	13459.08942
861.668	13021.63781
861.851	13088.48433
862.034	13228.23771
862.216	13331.52009
862.399	12877.7979
862.581	12940.60445
862.764	13021.63781
862.947	13054.04891
863.129	12393.39361
863.312	12798.77586
863.494	12640.70593
863.677	12863.61507
863.859	12835.24861
864.042	13043.92058
864.224	12938.57851
864.406	13039.86921
864.589	12452.18967
864.771	12517.06167
864.954	12348.78591
865.136	12440.02543
865.318	12397.44869
865.501	12052.66539
865.683	12101.35362
865.865	12210.88619
866.048	12079.03874
866.23	11865.98491
866.412	11774.64835
866.594	12107.43934
866.777	11989.76979
866.959	12277.81221
867.141	12077.01006
867.323	12251.44835
867.505	12425.83351
867.687	12283.89601
867.869	12259.56043
868.052	12407.58627
868.234	12229.13952
868.416	12257.53242
868.598	11823.36332
868.78	11991.79879
868.962	12156.12263
869.144	12158.151
869.326	12119.61057
869.508	12044.55026
869.69	12125.69608
869.872	12490.70822
870.054	12020.20409
870.236	12200.74519
870.417	12032.37731
870.599	12152.06585
870.781	11890.33844
870.963	11898.45602
871.145	11918.7494
871.327	12038.46382
871.508	11595.98355
871.69	11892.36785
871.872	11577.70707
872.054	11581.76857
872.235	11492.40685
872.417	11667.0517
872.599	11461.93843
872.78	11533.02807
872.962	11142.90165
873.144	11350.20223
873.325	11344.10667
873.507	11533.02807
873.689	11400.99509
873.87	11565.52233
874.052	11490.37569
874.233	11610.19807
874.415	11478.18852
874.596	11488.34452
874.778	11126.63819
874.959	11388.80537
875.141	11305.49936
875.322	11618.32045
875.503	11366.45662
875.685	11455.84449
875.866	11171.36107
876.048	11354.26589
876.229	11512.71793
876.41	11636.59528
876.592	11411.15292
876.773	11699.53632
876.954	11287.21041
877.136	11486.31334
877.317	11476.15729
877.498	11695.47587
877.679	11484.28215
877.86	11776.67824
878.042	11342.0748
878.223	11610.19807
878.404	11126.63819
878.585	11193.7206
878.766	11090.04289
878.947	11459.90713
879.128	11118.5062
879.309	11368.48838
879.49	10923.28605
879.672	11212.01381
879.853	10935.49032
880.034	11081.91013
880.215	11134.77001
880.396	11238.43585
880.576	11116.47318
880.757	11368.48838
880.938	11181.52465
881.119	11602.07554
881.3	11390.83701
881.481	11439.59356
881.662	11443.65635
881.843	11914.69079
882.023	11721.86818
882.204	11906.57347
882.385	11746.22899
882.566	11358.32951
882.747	11419.27901
882.927	11916.72009
883.108	11417.24751
883.289	11999.91475
883.469	11975.5665
883.65	11585.83004
883.831	11788.85739
884.011	11985.71174
884.192	11809.1553
884.373	11610.19807
884.553	11746.22899
884.734	11695.47587
884.914	11433.4993
885.095	11598.01422
885.275	11289.24256
885.456	11226.24128
885.636	11344.10667
885.817	11512.71793
885.997	11549.2755
886.178	11612.22868
886.358	11364.42486
886.538	11604.10619
886.719	11425.37348
886.899	11640.65625
887.08	11533.02807
887.26	11776.67824
887.44	11518.81107
887.621	12058.75167
887.801	11865.98491
887.981	11829.45235
888.161	11419.27901
888.342	11463.96973
888.522	11449.75046
888.702	11634.56478
888.882	11528.96611
889.062	11788.85739
889.242	11565.52233
889.423	11650.80853
889.603	11587.86076
889.783	11991.79879
889.963	11539.12092
890.143	11549.2755
890.323	11468.03229
890.503	11971.50834
890.683	11868.01442
890.863	11717.80792
891.043	11522.87311
891.223	11689.38512
891.403	11610.19807
891.583	11598.01422
891.763	11398.9635
891.943	11516.78003
892.122	11386.77371
892.302	11535.05903
892.482	11362.39308
892.662	11478.18852
892.842	11293.30682
893.022	11555.36813
893.201	11419.27901
893.381	11857.8668
893.561	11577.70707
893.741	11770.58854
893.92	11602.07554
894.1	11539.12092
894.28	11205.91616
894.459	11350.20223
894.639	11161.19723
894.819	11319.72353
894.998	11388.80537
895.178	11547.2446
895.357	11116.47318
895.537	11161.19723
895.716	11207.94872
895.896	11110.37404
896.075	11069.71066
896.255	11100.2086
896.434	11077.84368
896.614	11197.78583
896.793	11218.11136
896.973	11153.06597
897.152	10980.23581
897.331	11175.42654
897.511	11266.88839
897.69	11077.84368
897.87	11110.37404
898.049	11037.17682
898.228	11085.97653
898.407	11264.85614
898.587	11268.92064
898.766	10980.23581
898.945	10695.39652
899.124	10595.64767
899.304	10713.71455
899.483	11207.94872
899.662	10591.57566
899.841	10888.70508
900.02	10959.89763
900.199	10988.37078
900.378	10723.89082
900.557	10933.4563
900.737	10664.86428
900.916	10605.82747
901.095	10316.59721
901.274	10601.75559
901.453	10377.72396
901.632	10467.35519
901.811	10084.2045
901.989	10320.67269
902.168	10202.46166
902.347	10823.60246
902.526	10630.25775
902.705	10644.50793
902.884	10255.45844
903.063	10516.23444
903.242	10561.03399
903.42	10336.97412
903.599	10312.52166
903.778	10385.8733
903.957	9808.76482
904.135	10147.41673
904.314	9949.57823
904.493	10104.59701
904.672	10116.83185
904.85	10247.30569
905.029	10149.45561
905.207	10145.37784
905.386	9855.71045
905.565	9967.94004
905.743	9606.60294
905.922	9582.08817
906.1	9580.04517
906.279	9743.43595
906.457	9643.37087
906.636	9949.57823
906.814	9684.21822
906.993	9459.48014
907.171	9373.62008
907.35	9810.8061
907.528	9769.97767
907.707	9698.51334
907.885	9414.5094
908.063	9578.00216
908.242	9471.74354
908.42	9506.48667
908.598	9259.09494
908.777	9516.70436
908.955	9349.08335
909.133	9436.99575
909.311	9179.3054
909.49	9477.87501
909.668	9038.07572
909.846	9201.81275
910.024	9007.36271
910.202	9148.61026
910.38	9209.99673
910.559	9162.93514
910.737	8669.25467
910.915	8857.83601
911.093	8605.67585
911.271	9111.771
911.449	8669.25467
911.627	8812.7545
911.805	8607.72705
911.983	8659.00123
912.161	8710.26379
912.339	8859.88497
912.517	8738.9658
912.695	8866.03172
912.872	8585.16272
913.05	8601.57337
913.228	8384.0338
913.406	8509.24778
913.584	8433.30684
913.762	8468.20187
913.939	8131.33292
914.117	8365.55354
914.295	8096.38318
914.473	8283.4
914.65	7872.15438
914.828	7950.35346
915.006	7765.09666
915.184	8075.82179
915.361	7962.69797
915.539	8197.10499
915.716	7876.27087
915.894	8084.04659
916.072	8176.55341
916.249	8281.34576
916.427	8038.80621
916.604	8010.01177
916.782	7633.2555
916.959	7876.27087
917.137	7728.02506
917.314	7707.42679
917.492	7598.22061
917.669	7546.68752
917.847	7435.33019
918.024	7369.31088
918.201	7253.72324
918.379	7476.58098
918.556	7521.94687
918.733	7493.07888
918.911	7286.75531
919.088	7433.26743
919.265	6918.95305
919.442	7212.42522
919.62	6832.0644
919.797	7146.32997
919.974	6881.71996
920.151	6997.53218
920.328	6484.10607
920.506	7107.07515
920.683	7204.16456
920.86	7032.67547
921.037	6846.54863
921.214	7069.87893
921.391	6939.63493
921.568	6941.70299
921.745	6612.59492
921.922	6858.96279
922.099	6527.63645
922.276	6923.08961
922.453	6879.65124
922.63	6769.97651
922.807	6164.56929
922.984	6428.12339
923.161	6012.90638
923.338	6278.7532
923.514	6077.32649
923.691	6235.16408
923.868	6160.41581
924.045	6222.70814
924.222	6114.72134
924.399	6482.03294
924.575	5987.96349
924.752	6127.1846
924.929	6062.78199
925.105	6231.01219
925.282	5881.91832
925.459	5798.7027
925.635	5698.79411
925.812	5960.93819
925.989	5523.82329
926.165	5852.79714
926.342	5730.02139
926.518	5873.59845
926.695	5750.83662
926.871	5694.63007
927.048	5269.4033
927.224	5694.63007
927.401	5146.2391
927.577	5430.02054
927.754	5123.26732
927.93	5446.70007
928.107	5419.59507
928.283	5415.42472
928.459	5208.87511
928.636	5304.8762
928.812	4947.754
928.988	5150.41549
929.165	4968.65699
929.341	5192.17423
929.517	5027.17308
929.693	5133.70939
929.87	4956.11547
930.046	5029.26261
930.222	4698.83303
930.398	4870.393
930.574	4780.44766
930.751	5014.63544
930.927	4807.64488
931.103	4979.10761
931.279	4726.04173
931.455	4818.10432
931.631	4612.99609
931.807	4625.55995
931.983	4367.84143
932.159	4661.15317
932.335	4317.51626
932.511	4585.77164
932.687	4344.77728
932.863	4353.16454
933.039	4124.48886
933.215	4334.2927
933.391	4006.90683
933.566	3920.77914
933.742	3880.85478
933.918	4093.00005
934.094	3887.15911
934.27	3674.81585
934.445	3302.22697
934.621	3710.57069
934.797	3335.93033
934.973	3453.85687
935.148	3352.78034
935.324	3514.90397
935.5	3188.44614
935.675	3300.12037
935.851	2935.4317
936.027	3074.61747
936.202	2701.20427
936.378	2910.11818
936.553	2521.73188
936.729	2846.82529
936.904	2420.34543
937.08	2367.5302
937.255	2042.06097
937.431	2278.78655
937.606	1982.86484
937.782	2073.77098
937.957	1980.7506
938.133	2183.68595
938.308	1946.9219
938.483	1919.43496
938.659	1762.95439
938.834	1727.00283
939.009	1485.89665
939.185	1617.02778
939.36	1466.86119
939.535	1523.96743
939.71	1386.48934
939.886	1498.58693
940.061	1204.60224
940.236	1314.57871
940.411	1151.73193
940.586	1166.53538
940.761	919.13972
940.937	1187.68349
941.112	999.48152
941.287	1174.99458
941.462	1024.85461
941.637	1098.86419
941.812	874.74491
941.987	1084.06175
942.162	952.96661
942.337	1054.45764
942.512	982.56663
942.687	1018.51126
942.862	864.17524
943.037	993.13839
943.212	840.92273
943.386	830.35376
943.561	724.67713
943.736	851.49193
943.911	754.26407
944.086	758.49094
944.26	798.64821
944.435	912.79739
944.61	707.77125
944.785	830.35376
944.959	545.09085
945.134	804.98915
945.309	728.90371
945.483	747.92384
945.658	726.79042
945.833	796.53458
946.007	669.73562
946.182	733.13033
946.357	661.28376
946.531	718.33734
946.706	646.49347
946.88	804.98915
947.055	619.02735
947.229	830.35376
947.404	682.41375
947.578	754.26407
947.752	695.0923
947.927	688.75297
948.101	737.357
948.276	834.58132
948.45	724.67713
948.624	982.56663
948.799	912.79739
948.973	948.73815
949.147	697.20543
949.321	889.54279
949.496	737.357
949.67	838.80892
949.844	781.73945
950.018	794.42096
950.193	665.50967
950.367	739.47034
950.541	695.0923
950.715	830.35376
950.889	652.83209
951.063	847.26422
951.237	716.2241
951.411	883.20079
951.585	889.54279
951.759	838.80892
951.933	760.60439
952.107	885.31478
952.281	817.67129
952.455	830.35376
952.629	686.63989
952.803	868.40308
952.977	722.56386
953.151	931.82458
953.325	811.33018
953.499	855.71966
953.672	752.15065
953.846	855.71966
954.02	711.99765
954.194	1016.39682
954.368	881.08681
954.541	1024.85461
954.715	891.6568
954.889	840.92273
955.062	923.36798
955.236	1003.71031
955.41	758.49094
955.583	948.73815
955.757	788.08017
955.93	936.05293
956.104	804.98915
956.278	1060.80129
956.451	965.65217
956.625	843.03655
956.798	754.26407
956.972	906.45513
957.145	783.85301
957.319	936.05293
957.492	828.23999
957.665	1113.66687
957.839	881.08681
958.012	1024.85461
958.185	995.25276
958.359	980.4523
958.532	824.01248
958.705	969.88074
958.879	904.34106
959.052	1026.96908
959.225	868.40308
959.398	946.62393
959.572	948.73815
959.745	1041.77049
959.918	758.49094
960.091	952.96661
960.264	840.92273
960.438	881.08681
960.611	775.39883
960.784	821.89874
960.957	764.83132
961.13	798.64821
961.303	722.56386
961.476	864.17524
961.649	731.01702
961.822	785.96659
961.995	669.73562
962.168	699.31857
962.341	745.81045
962.514	864.17524
962.686	747.92384
962.859	889.54279
963.032	602.12617
963.205	766.94481
963.378	697.20543
963.551	745.81045
963.723	595.78844
963.896	809.21649
964.069	714.11087
964.242	866.28916
964.414	733.13033
964.587	855.71966
964.76	695.0923
964.932	783.85301
965.105	673.96162
965.278	673.96162
965.45	640.15495
965.623	889.54279
965.795	682.41375
965.968	652.83209
966.14	581.00085
966.313	750.03724
966.485	697.20543
966.658	682.41375
966.83	648.60633
967.003	788.08017
967.175	536.64201
967.348	635.92933
967.52	530.30552
967.692	640.15495
967.865	519.745
968.037	682.41375
968.209	614.80198
968.382	595.78844
968.554	515.52089
968.726	728.90371
968.898	578.88839
969.071	574.66351
969.243	509.18483
969.415	593.67589
969.587	496.5131
969.759	644.38061
969.932	441.60848
970.104	559.87685
970.276	538.7542
970.448	648.60633
970.62	496.5131
970.792	587.33831
970.964	426.82825
971.136	471.17124
971.308	496.5131
971.48	485.95373
971.652	458.50112
971.824	466.9478
971.996	458.50112
972.168	576.77594
972.339	602.12617
972.511	469.05951
972.683	515.52089
972.855	542.97862
973.027	369.82618
973.199	441.60848
973.37	441.60848
973.542	450.05468
973.714	412.04879
973.886	483.8419
974.057	384.60334
974.229	564.10154
974.401	403.60374
974.572	443.72001
974.744	462.72443
974.915	564.10154
975.087	431.05109
975.259	479.61829
975.43	488.06558
975.602	336.05295
975.773	441.60848
975.945	553.53991
976.116	371.93715
976.288	418.38275
976.459	386.71443
976.63	437.38548
976.802	361.38246
976.973	357.1607
977.145	407.82623
977.316	409.9375
977.487	397.27012
977.659	475.39473
977.83	287.51185
978.001	340.27436
978.172	243.20024
978.344	420.4941
978.515	266.41005
978.686	291.73244
978.857	293.84276
979.028	336.05295
979.2	350.82819
979.371	272.74039
979.542	281.18111
979.713	253.74986
979.884	257.96985
980.055	298.06345
980.226	247.42003
980.397	331.83161
980.568	310.72597
980.739	257.96985
980.91	291.73244
981.081	243.20024
981.252	281.18111
981.423	374.04814
981.594	300.17382
981.765	300.17382
981.936	310.72597
982.106	285.40159
982.277	245.31013
982.448	340.27436
982.619	255.85985
982.79	238.98052
982.96	264.29997
983.131	272.74039
983.302	209.44471
983.472	289.62213
983.643	245.31013
983.814	222.10244
983.984	226.32184
984.155	217.88312
984.326	137.73137
984.496	131.40488
984.667	171.47585
984.837	139.84024
985.008	232.6511
985.178	173.58505
985.349	137.73137
985.519	188.35008
985.69	209.44471
985.86	171.47585
986.031	103.99236
986.201	211.55428
986.371	289.62213
986.542	171.47585
986.712	141.94913
986.882	222.10244
987.053	129.2961
987.223	232.6511
987.393	249.52996
987.563	150.38492
987.734	160.93012
987.904	171.47585
988.074	219.99277
988.244	213.66387
988.414	230.54133
988.585	173.58505
988.755	146.16698
988.925	163.03922
989.095	99.77538
989.265	61.82655
989.435	72.36716
989.605	139.84024
989.775	72.36716
989.945	230.54133
990.115	112.42659
990.285	135.62252
990.455	137.73137
990.625	182.02209
990.795	95.55848
990.965	146.16698
991.134	116.64384
991.304	80.80005
991.474	51.28651
991.644	78.6918
991.814	167.25749
991.984	112.42659
992.153	91.34168
992.323	125.07859
992.493	106.10089
992.662	141.94913
992.832	179.9128
993.002	103.99236
993.171	76.58356
993.341	103.99236
993.511	148.27594
993.68	63.93463
993.85	99.77538
994.019	72.36716
994.189	74.47535
994.358	173.58505
994.528	148.27594
994.697	99.77538
994.867	80.80005
995.036	154.60294
995.206	110.318
995.375	70.25899
995.544	101.88386
995.714	70.25899
995.883	36.53143
996.052	28.10047
996.222	87.12496
996.391	38.63923
996.56	74.47535
996.73	68.15085
996.899	47.07066
997.068	55.50246
997.237	47.07066
997.406	72.36716
997.576	137.73137
997.745	61.82655
997.914	80.80005
998.083	11.23968
998.252	47.07066
998.421	53.39447
998.59	89.23331
998.759	95.55848
998.928	53.39447
999.097	68.15085
999.266	68.15085
999.435	36.53143
999.604	23.88513
999.773	154.60294
999.942	106.10089
1000.111	87.12496
1000.28	2.80986
1000.448	125.07859
1000.617	61.82655
1000.786	93.45007
1000.955	78.6918
1001.124	30.20817
1001.292	63.93463
1001.461	78.6918
1001.63	116.64384
1001.798	51.28651
1001.967	30.20817
1002.136	53.39447
1002.304	76.58356
1002.473	66.04272
1002.642	23.88513
1002.81	82.90833
1002.979	66.04272
1003.147	49.17857
1003.316	66.04272
1003.484	51.28651
1003.653	97.66692
1003.821	2.80986
1003.99	70.25899
1004.158	19.66988
1004.327	55.50246
1004.495	-7.72688
1004.663	-18.26301
1004.832	61.82655
1005	-30.90556
1005.168	-16.15583
1005.337	17.5623
1005.505	59.7185
1005.673	-30.90556
1005.842	80.80005
1006.01	15.45473
1006.178	40.74705
1006.346	28.10047
1006.514	15.45473
1006.683	158.82104
1006.851	32.3159
1007.019	78.6918
1007.187	36.53143
1007.355	80.80005
1007.523	112.42659
1007.691	57.61047
1007.859	13.34719
1008.027	-5.61958
1008.195	70.25899
1008.363	2.80986
1008.531	9.13219
1008.699	19.66988
1008.867	4.91728
1009.035	78.6918
1009.203	91.34168
1009.37	4.91728
1009.538	11.23968
1009.706	19.66988
1009.874	-14.04863
1010.042	-28.79853
1010.209	23.88513
1010.377	51.28651
1010.545	78.6918
1010.713	2.80986
1010.88	19.66988
1011.048	89.23331
1011.216	82.90833
1011.383	13.34719
1011.551	-73.04089
1011.718	57.61047
1011.886	66.04272
1012.054	76.58356
1012.221	21.7775
1012.389	66.04272
1012.556	0.70246
1012.724	28.10047
1012.891	32.3159
1013.058	-47.7609
1013.226	4.91728
1013.393	47.07066
1013.561	51.28651
1013.728	95.55848
1013.895	53.39447
1014.063	7.02472
1014.23	-14.04863
1014.397	30.20817
1014.565	-20.37016
1014.732	95.55848
1014.899	-14.04863
1015.066	-22.47729
1015.233	61.82655
1015.401	74.47535
1015.568	53.39447
1015.735	53.39447
1015.902	11.23968
1016.069	36.53143
1016.236	0.70246
1016.403	4.91728
1016.57	-14.04863
1016.737	-33.01256
1016.904	99.77538
1017.071	30.20817
1017.238	-35.11954
1017.405	-20.37016
1017.572	7.02472
1017.739	-28.79853
1017.906	2.80986
1018.073	44.96277
1018.24	61.82655
1018.407	-11.94141
1018.573	91.34168
1018.74	-22.47729
1018.907	21.7775
1019.074	2.80986
1019.241	-39.33343
1019.407	-1.40491
1019.574	13.34719
1019.741	13.34719
1019.907	-14.04863
1020.074	-3.51226
1020.241	-1.40491
1020.407	36.53143
1020.574	21.7775
1020.74	49.17857
1020.907	-43.54722
1021.073	-33.01256
1021.24	-41.44034
1021.406	-35.11954
1021.573	-22.47729
1021.739	11.23968
1021.906	-3.51226
1022.072	11.23968
1022.239	30.20817
1022.405	-14.04863
1022.571	9.13219
1022.738	-37.2265
1022.904	42.8549
1023.07	-22.47729
1023.237	-1.40491
1023.403	-5.61958
1023.569	15.45473
1023.735	28.10047
1023.902	-28.79853
1024.068	28.10047
1024.234	38.63923
1024.4	-26.69148
1024.566	57.61047
1024.732	-22.47729
1024.898	34.42366
1025.065	87.12496
1025.231	15.45473
1025.397	61.82655
1025.563	4.91728
1025.729	25.99279
1025.895	-37.2265
1026.061	-28.79853
1026.227	28.10047
1026.392	53.39447
1026.558	-37.2265
1026.724	7.02472
1026.89	0.70246
1027.056	15.45473
1027.222	21.7775
1027.388	51.28651
1027.553	-9.83416
1027.719	13.34719
1027.885	-35.11954
1028.051	70.25899
1028.216	-35.11954
1028.382	47.07066
1028.548	28.10047
1028.713	2.80986
1028.879	21.7775
1029.045	-28.79853
1029.21	-62.50801
1029.376	-60.40135
1029.541	21.7775
1029.707	2.80986
1029.873	47.07066
1030.038	21.7775
1030.204	61.82655
1030.369	2.80986
1030.534	91.34168
1030.7	19.66988
1030.865	59.7185
1031.031	21.7775
1031.196	-11.94141
1031.361	17.5623
1031.527	30.20817
1031.692	13.34719
1031.857	-9.83416
1032.023	99.77538
1032.188	38.63923
1032.353	63.93463
1032.518	-22.47729
1032.684	7.02472
1032.849	40.74705
1033.014	36.53143
1033.179	7.02472
1033.344	19.66988
1033.509	21.7775
1033.674	-30.90556
1033.839	68.15085
1034.004	7.02472
1034.17	-35.11954
1034.335	13.34719
1034.5	32.3159
1034.664	-51.97449
1034.829	-26.69148
1034.994	4.91728
1035.159	55.50246
1035.324	-3.51226
1035.489	-68.82782
1035.654	-20.37016
1035.819	15.45473
1035.984	-45.65407
1036.148	-41.44034
1036.313	-47.7609
1036.478	-16.15583
1036.643	9.13219
1036.807	11.23968
1036.972	4.91728
1037.137	57.61047
1037.301	68.15085
1037.466	23.88513
1037.631	11.23968
1037.795	21.7775
1037.96	11.23968
1038.124	2.80986
1038.289	49.17857
1038.454	11.23968
1038.618	-11.94141
1038.783	19.66988
1038.947	32.3159
1039.111	4.91728
1039.276	-5.61958
1039.44	15.45473
1039.605	23.88513
1039.769	28.10047
1039.933	49.17857
1040.098	61.82655
1040.262	44.96277
1040.426	-28.79853
1040.591	-22.47729
1040.755	-43.54722
1040.919	11.23968
1041.083	-35.11954
1041.248	47.07066
1041.412	-81.46674
1041.576	91.34168
1041.74	-41.44034
1041.904	87.12496
1042.068	13.34719
1042.232	21.7775
1042.397	15.45473
1042.561	-14.04863
1042.725	-1.40491
1042.889	-11.94141
1043.053	11.23968
1043.217	53.39447
1043.381	-37.2265
1043.544	61.82655
1043.708	-22.47729
1043.872	-54.08124
1044.036	-68.82782
1044.2	-1.40491
1044.364	30.20817
1044.528	21.7775
1044.691	-14.04863
1044.855	-3.51226
1045.019	42.8549
1045.183	53.39447
1045.346	38.63923
1045.51	-47.7609
1045.674	-14.04863
1045.837	23.88513
1046.001	-35.11954
1046.165	-45.65407
1046.328	-5.61958
1046.492	-37.2265
1046.655	19.66988
1046.819	38.63923
1046.983	53.39447
1047.146	-43.54722
1047.31	-22.47729
1047.473	15.45473
1047.636	-43.54722
1047.8	2.80986
1047.963	-5.61958
1048.127	-5.61958
1048.29	-35.11954
