Data from absorb_only_2.23.25_USB4F045381__11__0116.txt Node

Date: Sun Feb 23 19:13:51 EST 2025
User: ssocol
Spectrometer: USB4F04538
Trigger mode: 4
Integration Time (sec): 2.600000E-3
Scans to average: 1
Electric dark correction enabled: true
Nonlinearity correction enabled: true
Boxcar width: 0
XAxis mode: Wavelengths
Number of Pixels in Spectrum: 3648
>>>>>Begin Spectral Data<<<<<
345.52	-63.56133
345.736	-63.56133
345.952	-63.56133
346.168	24.93896
346.384	-29.85205
346.6	-38.27997
346.816	5.97099
347.032	-0.35123
347.248	-0.35123
347.464	-34.06606
347.68	-38.27997
347.896	-21.42373
348.112	41.80097
348.328	24.93896
348.544	43.90883
348.76	-4.56592
348.975	20.72369
349.191	33.36978
349.407	-12.99502
349.623	41.80097
349.839	-0.35123
350.055	-27.74501
350.27	-17.20943
350.486	-42.49378
350.702	-4.56592
350.918	-29.85205
351.133	-78.3071
351.349	-29.85205
351.565	-12.99502
351.781	18.61609
351.996	-59.34802
352.212	41.80097
352.428	-50.9211
352.644	-15.10224
352.859	-10.88778
353.075	33.36978
353.291	-80.41353
353.506	-8.78052
353.722	-17.20943
353.938	8.07845
354.153	-25.63794
354.369	3.86356
354.584	-48.81431
354.8	119.80683
355.016	-67.77453
355.231	-101.47647
355.447	-25.63794
355.662	-23.53085
355.878	-48.81431
356.093	-88.83902
356.309	14.40096
356.524	27.04663
356.74	-63.56133
356.955	64.98867
357.171	-0.35123
357.386	27.04663
357.602	20.72369
357.817	-15.10224
358.033	-10.88778
358.248	-48.81431
358.464	20.72369
358.679	-40.38689
358.895	27.04663
359.11	-50.9211
359.325	8.07845
359.541	-34.06606
359.756	35.47754
359.972	-48.81431
360.187	16.50851
360.402	20.72369
360.618	18.61609
360.833	-25.63794
361.048	-23.53085
361.264	-34.06606
361.479	-8.78052
361.694	-40.38689
361.909	-0.35123
362.125	27.04663
362.34	-25.63794
362.555	-38.27997
362.77	46.01671
362.986	-44.60065
363.201	1.75615
363.416	8.07845
363.631	1.75615
363.847	-0.35123
364.062	18.61609
364.277	12.29343
364.492	-34.06606
364.707	-42.49378
364.922	-4.56592
365.138	-6.67324
365.353	41.80097
365.568	-34.06606
365.783	-50.9211
365.998	58.66448
366.213	67.09678
366.428	-29.85205
366.643	16.50851
366.858	8.07845
367.073	-59.34802
367.288	-55.13461
367.503	-29.85205
367.718	-8.78052
367.933	8.07845
368.148	8.07845
368.363	-46.70749
368.578	-10.88778
368.793	-40.38689
369.008	-17.20943
369.223	-63.56133
369.438	22.83131
369.653	18.61609
369.868	-93.05161
370.083	10.18593
370.298	18.61609
370.513	24.93896
370.728	-23.53085
370.943	33.36978
371.157	24.93896
371.372	86.0708
371.587	33.36978
371.802	12.29343
372.017	-133.06595
372.232	-25.63794
372.446	35.47754
372.661	-48.81431
372.876	20.72369
373.091	1.75615
373.306	-8.78052
373.52	-44.60065
373.735	-38.27997
373.95	-10.88778
374.165	-15.10224
374.379	-46.70749
374.594	-31.95906
374.809	-4.56592
375.023	16.50851
375.238	27.04663
375.453	-57.24133
375.667	16.50851
375.882	10.18593
376.097	41.80097
376.311	18.61609
376.526	10.18593
376.741	-38.27997
376.955	-76.20064
377.17	20.72369
377.384	-40.38689
377.599	-8.78052
377.813	33.36978
378.028	20.72369
378.242	10.18593
378.457	56.55646
378.672	69.20492
378.886	12.29343
379.101	46.01671
379.315	22.83131
379.53	12.29343
379.744	14.40096
379.958	43.90883
380.173	-38.27997
380.387	-4.56592
380.602	-65.66794
380.816	-84.62633
381.031	-42.49378
381.245	-59.34802
381.459	41.80097
381.674	-6.67324
381.888	-76.20064
382.103	16.50851
382.317	-23.53085
382.531	-46.70749
382.746	-53.02787
382.96	-48.81431
383.174	-25.63794
383.388	-0.35123
383.603	8.07845
383.817	-25.63794
384.031	12.29343
384.246	-0.35123
384.46	-0.35123
384.674	54.44846
384.888	1.75615
385.103	-42.49378
385.317	-17.20943
385.531	77.63768
385.745	-42.49378
385.959	8.07845
386.174	35.47754
386.388	-8.78052
386.602	100.82962
386.816	-8.78052
387.03	-31.95906
387.244	41.80097
387.458	-29.85205
387.672	-34.06606
387.887	16.50851
388.101	50.23254
388.315	-23.53085
388.529	8.07845
388.743	-4.56592
388.957	86.0708
389.171	1.75615
389.385	8.07845
389.599	-86.73269
389.813	54.44846
390.027	35.47754
390.241	-4.56592
390.455	-8.78052
390.669	-29.85205
390.883	-6.67324
391.097	50.23254
391.311	-42.49378
391.525	83.96248
391.738	16.50851
391.952	8.07845
392.166	-50.9211
392.38	58.66448
392.594	-42.49378
392.808	33.36978
393.022	-34.06606
393.236	37.58533
393.449	43.90883
393.663	-17.20943
393.877	39.69314
394.091	64.98867
394.305	24.93896
394.518	31.26204
394.732	41.80097
394.946	-59.34802
395.16	52.34049
395.373	-6.67324
395.587	-34.06606
395.801	18.61609
396.015	-4.56592
396.228	37.58533
396.442	-15.10224
396.656	-34.06606
396.869	-0.35123
397.083	8.07845
397.297	3.86356
397.51	-17.20943
397.724	-25.63794
397.938	58.66448
398.151	83.96248
398.365	-34.06606
398.578	-17.20943
398.792	-0.35123
399.005	43.90883
399.219	39.69314
399.433	-0.35123
399.646	75.52945
399.86	10.18593
400.073	-8.78052
400.287	46.01671
400.5	-15.10224
400.714	8.07845
400.927	-21.42373
401.141	-36.17303
401.354	102.93811
401.567	-8.78052
401.781	29.15432
401.994	24.93896
402.208	-67.77453
402.421	-40.38689
402.635	-42.49378
402.848	-67.77453
403.061	50.23254
403.275	22.83131
403.488	29.15432
403.701	58.66448
403.915	-21.42373
404.128	92.39587
404.341	-15.10224
404.555	24.93896
404.768	75.52945
404.981	-71.98763
405.195	41.80097
405.408	88.17913
405.621	-8.78052
405.834	-31.95906
406.048	56.55646
406.261	-6.67324
406.474	27.04663
406.687	-40.38689
406.9	-21.42373
407.114	67.09678
407.327	-25.63794
407.54	-27.74501
407.753	-17.20943
407.966	-2.45859
408.179	50.23254
408.392	10.18593
408.605	43.90883
408.819	3.86356
409.032	8.07845
409.245	37.58533
409.458	24.93896
409.671	83.96248
409.884	18.61609
410.097	-0.35123
410.31	24.93896
410.523	-38.27997
410.736	-8.78052
410.949	-12.99502
411.162	14.40096
411.375	33.36978
411.588	37.58533
411.801	-17.20943
412.014	119.80683
412.227	3.86356
412.44	37.58533
412.653	-4.56592
412.865	24.93896
413.078	-25.63794
413.291	100.82962
413.504	48.12461
413.717	3.86356
413.93	20.72369
414.143	33.36978
414.356	69.20492
414.568	-65.66794
414.781	8.07845
414.994	43.90883
415.207	43.90883
415.42	50.23254
415.632	1.75615
415.845	33.36978
416.058	-42.49378
416.271	33.36978
416.483	-71.98763
416.696	81.85419
416.909	69.20492
417.121	33.36978
417.334	8.07845
417.547	41.80097
417.759	60.77252
417.972	12.29343
418.185	29.15432
418.397	-15.10224
418.61	29.15432
418.823	35.47754
419.035	60.77252
419.248	41.80097
419.46	60.77252
419.673	71.31307
419.885	60.77252
420.098	-57.24133
420.311	-25.63794
420.523	16.50851
420.736	37.58533
420.948	151.43941
421.161	12.29343
421.373	-2.45859
421.586	33.36978
421.798	16.50851
422.01	62.88058
422.223	62.88058
422.435	-0.35123
422.648	67.09678
422.86	35.47754
423.073	24.93896
423.285	18.61609
423.497	35.47754
423.71	90.28749
423.922	71.31307
424.134	8.07845
424.347	54.44846
424.559	86.0708
424.771	41.80097
424.984	24.93896
425.196	14.40096
425.408	24.93896
425.621	83.96248
425.833	58.66448
426.045	67.09678
426.257	92.39587
426.47	67.09678
426.682	98.72115
426.894	71.31307
427.106	46.01671
427.318	138.7858
427.531	75.52945
427.743	20.72369
427.955	58.66448
428.167	60.77252
428.379	105.04662
428.591	143.00359
428.804	79.74592
429.016	159.87558
429.228	-0.35123
429.44	145.11251
429.652	86.0708
429.864	58.66448
430.076	109.26371
430.288	100.82962
430.5	54.44846
430.712	86.0708
430.924	79.74592
431.136	119.80683
431.348	39.69314
431.56	96.6127
431.772	75.52945
431.984	58.66448
432.196	111.37229
432.408	124.02423
432.62	54.44846
432.832	58.66448
433.044	206.28038
433.256	83.96248
433.468	187.2954
433.679	153.54842
433.891	88.17913
434.103	92.39587
434.315	46.01671
434.527	14.40096
434.739	168.31207
434.95	43.90883
435.162	81.85419
435.374	126.13296
435.586	83.96248
435.798	132.45929
436.009	130.35049
436.221	145.11251
436.433	102.93811
436.645	138.7858
436.856	204.17086
437.068	113.4809
437.28	126.13296
437.491	159.87558
437.703	157.7665
437.915	83.96248
438.126	138.7858
438.338	124.02423
438.55	221.0476
438.761	92.39587
438.973	199.95188
439.184	263.24494
439.396	237.92561
439.608	197.84241
439.819	159.87558
440.031	195.73297
440.242	145.11251
440.454	193.62355
440.665	237.92561
440.877	153.54842
441.088	204.17086
441.3	168.31207
441.511	197.84241
441.723	252.69488
441.934	164.09378
442.146	218.93794
442.357	280.12601
442.569	227.37671
442.78	265.355
442.991	303.33942
443.203	237.92561
443.414	187.2954
443.626	227.37671
443.837	269.5752
444.048	145.11251
444.26	250.58493
444.471	235.81579
444.682	237.92561
444.894	267.46509
445.105	193.62355
445.316	223.15728
445.528	284.34646
445.739	301.22902
445.95	187.2954
446.161	214.71868
446.373	299.11864
446.584	244.25518
446.795	252.69488
447.006	286.45672
447.217	221.0476
447.429	324.44443
447.64	286.45672
447.851	311.78121
448.062	353.99443
448.273	425.77255
448.484	261.13489
448.695	353.99443
448.907	328.66565
449.118	307.56028
449.329	377.21465
449.54	303.33942
449.751	316.00221
449.962	330.77629
450.173	324.44443
450.384	404.65936
450.595	383.5478
450.806	396.21454
451.017	362.43791
451.228	356.10527
451.439	415.21575
451.65	432.10681
451.861	391.99222
452.072	316.00221
452.283	463.78027
452.494	440.55273
452.705	389.88109
452.915	544.03473
453.126	499.68099
453.337	455.33367
453.548	457.4453
453.759	446.88733
453.97	478.56239
454.181	571.49488
454.391	531.3616
454.602	677.13115
454.813	594.73216
455.024	552.48376
455.235	514.46487
455.445	518.68897
455.656	565.15772
455.867	577.83217
456.078	550.37148
456.288	518.68897
456.499	658.11436
456.71	704.60147
456.921	626.42187
457.131	603.18247
457.342	662.34023
457.553	751.09394
457.763	539.8103
457.974	839.86582
458.184	727.84706
458.395	890.59979
458.606	772.22855
458.816	831.41065
459.027	829.29687
459.237	795.47777
459.448	818.72815
459.659	888.48578
459.869	873.68793
460.08	968.8236
460.29	907.51217
460.501	1038.59873
460.711	1034.36975
460.922	960.36649
461.132	1093.57758
461.343	998.42433
461.553	977.28082
461.764	1066.0877
461.974	1021.68293
462.184	1042.82774
462.395	1112.60953
462.605	1305.06126
462.816	1017.45403
463.026	1144.33028
463.236	1275.45168
463.447	1300.83129
463.657	1226.80843
463.867	1404.4672
464.078	1326.2112
464.288	1556.75038
464.498	1419.27253
464.709	1651.92449
464.919	1374.85664
465.129	1489.06922
465.339	1516.5648
465.55	1586.3605
465.76	1476.37892
465.97	1554.63536
466.18	1556.75038
466.391	1806.30626
466.601	1647.69462
466.811	1869.74468
467.021	1709.02668
467.231	1986.03619
467.441	1736.51952
467.651	2002.94982
467.862	1950.09341
468.072	2239.69181
468.282	2062.14417
468.492	2013.52063
468.702	2197.4238
468.912	2368.58657
469.122	2336.89446
469.332	2400.27641
469.542	2573.47114
469.752	2495.33162
469.962	2501.66784
470.172	2695.92696
470.382	2609.36767
470.592	2847.88028
470.802	2887.96714
471.012	2887.96714
471.222	2982.88881
471.432	2987.10685
471.642	2923.82993
471.852	3200.03715
472.062	3018.74025
472.272	3322.23887
472.482	3336.98348
472.691	3414.90512
472.901	3273.78636
473.111	3286.42702
473.321	3379.10627
473.531	3425.43322
473.741	3328.55809
473.95	3686.3842
474.16	3503.32724
474.37	3902.91914
474.58	3768.3976
474.79	4058.35696
474.999	3976.45094
475.209	3823.05675
475.419	4144.42933
475.628	4198.99355
475.838	4039.45835
476.048	4226.2703
476.258	4431.77828
476.467	4622.41906
476.677	4687.32051
476.886	4917.44059
477.096	4932.07526
477.306	4833.79242
477.515	4739.64465
477.725	4802.41494
477.935	4881.89459
478.144	5257.92532
478.354	5151.45957
478.563	5460.25107
478.773	5345.55737
478.982	5531.11706
479.192	5504.02446
479.401	5579.04038
479.611	5637.36498
479.82	5783.09557
480.03	5833.03372
480.239	5928.71051
480.449	5674.84961
480.658	6207.13704
480.868	6165.60765
481.077	6312.99456
481.287	6190.52641
481.496	6690.26689
481.705	6418.79129
481.915	6756.52142
482.124	6609.48737
482.333	6626.06038
482.543	6565.97618
482.752	6886.89166
482.961	6893.09752
483.171	6988.22846
483.38	7033.70899
483.589	7232.04289
483.799	7351.77075
484.008	7481.73672
484.217	7448.73765
484.426	7533.28672
484.636	7411.60707
484.845	7547.71831
485.054	7626.04294
485.263	7691.9767
485.472	7963.72664
485.682	8041.89109
485.891	8033.66464
486.1	7897.88105
486.309	8286.48133
486.518	8261.82951
486.727	8348.09853
486.936	8350.15213
487.146	8376.84722
487.355	8401.48594
487.564	8376.84722
487.773	8785.0865
487.982	8707.18837
488.191	8821.97643
488.4	8776.88794
488.609	8916.22414
488.818	9086.1849
489.027	9174.18981
489.236	9487.07196
489.445	9188.5132
489.654	9380.77619
489.863	9542.24684
490.072	9276.48158
490.281	9521.81306
490.49	9591.28147
490.698	9679.11264
490.907	9748.54033
491.116	10075.02741
491.325	9885.30257
491.534	9891.42468
491.743	9905.70911
491.952	9940.39688
492.16	10340.03054
492.369	10366.51828
492.578	10370.59312
492.787	10663.84649
492.996	10348.18085
493.204	10541.68948
493.413	10596.66566
493.622	10645.52577
493.831	10724.90843
494.039	10824.61978
494.248	10946.6772
494.457	11133.75354
494.665	10869.37897
494.874	11076.82706
495.083	11025.99266
495.291	11322.7715
495.5	11361.37719
495.709	11436.54644
495.917	11245.54917
496.126	11548.26005
496.335	11462.95408
496.543	11773.6334
496.752	11402.01089
496.96	11550.29094
497.169	11741.15392
497.377	11814.22964
497.586	11775.66329
497.794	12305.18879
498.003	11919.76404
498.211	12295.04947
498.42	11950.2025
498.628	12224.06921
498.837	12516.0481
499.045	12495.77628
499.254	12262.60244
499.462	12738.99715
499.671	12471.44924
499.879	12546.45463
500.087	12609.29031
500.296	12621.45137
500.504	12690.35993
500.713	12832.20928
500.921	12763.31451
501.129	12708.59928
501.338	12396.43492
501.546	13067.21556
501.754	12927.43576
501.962	13091.52268
502.171	12822.0781
502.379	13322.40738
502.587	13067.21556
502.795	13215.07346
503.004	12807.89422
503.212	13340.63271
503.42	13168.49075
503.628	13468.20093
503.837	13192.79507
504.045	13532.99165
504.253	13638.26875
504.461	13559.31181
504.669	13694.95263
504.877	13931.78431
505.085	13692.92825
505.294	13741.5125
505.502	13626.12187
505.71	14018.81556
505.918	13630.17085
506.126	14099.77084
506.334	13650.41552
506.542	14170.60376
506.75	13794.14343
506.958	14211.07857
507.166	14229.29197
507.374	14059.29366
507.582	14049.17423
507.79	14283.93125
507.998	14336.54561
508.206	14617.81255
508.414	14318.33308
508.622	14435.70038
508.83	14492.35863
509.037	14508.5465
509.245	14500.45258
509.453	14799.91592
509.661	14686.60802
509.869	14959.75738
510.077	14670.42096
510.285	14852.52236
510.492	15038.66544
510.7	14864.66225
510.908	14984.03684
511.116	15202.5505
511.324	14567.22685
511.531	15125.66621
511.739	15093.29386
511.947	15186.36433
512.155	15166.13163
512.362	15295.62111
512.57	15127.68948
512.778	15336.08673
512.985	15338.11002
513.193	15188.3876
513.401	15265.27196
513.608	15633.51475
513.816	15364.41274
514.024	15336.08673
514.231	15829.78587
514.439	15601.14096
514.646	15698.26298
514.854	15631.49138
515.061	15253.13231
515.269	15795.38715
515.477	15775.15275
515.684	15704.33317
515.892	15825.73895
516.099	16017.9734
516.307	16139.39113
516.514	15993.6905
516.722	16297.24292
516.929	16473.32158
517.136	16240.57696
517.344	16143.43848
517.551	15957.26651
517.759	15912.7489
517.966	16485.46549
518.173	16341.76718
518.381	16418.67489
518.588	16803.25944
518.796	16685.85126
519.003	16697.99657
519.21	16566.42684
519.418	16985.46114
519.625	16821.47868
519.832	16566.42684
520.039	16799.21075
520.247	17084.66883
520.454	16758.72435
520.661	17439.03807
520.868	16985.46114
521.076	17509.92305
521.283	16888.28431
521.49	17115.03985
521.697	17238.55526
521.904	17507.89771
522.112	17102.89137
522.319	17671.96059
522.526	17408.65997
522.733	17763.11596
522.94	17661.83263
523.147	17443.08854
523.354	17264.87961
523.561	17613.21957
523.768	17647.65362
523.975	18024.46647
524.183	17714.49892
524.39	17872.51147
524.597	17831.99345
524.804	17949.49953
525.011	18044.72864
525.218	17894.79697
525.425	18204.81249
525.632	18229.13102
525.838	18020.41408
526.045	18139.96567
526.252	18342.62457
526.459	18360.8657
526.666	18168.33569
526.873	18304.11652
527.08	18429.77939
527.287	18261.55656
527.494	18271.68973
527.701	18486.53514
527.907	18537.21246
528.114	18760.22153
528.321	18796.71845
528.528	19161.75912
528.735	18902.16124
528.941	18902.16124
529.148	18593.97393
529.355	19082.65585
529.562	18928.52363
529.768	18942.71904
529.975	18837.27209
530.182	19060.34579
530.388	19208.41267
530.595	19423.45286
530.802	19123.22085
531.008	19733.92333
531.215	19307.81228
531.422	19433.59741
531.628	19478.23468
531.835	19492.43787
532.042	19583.74895
532.248	19991.70857
532.455	19640.56899
532.661	19545.19435
532.868	19719.71666
533.074	19555.34015
533.281	19865.85219
533.487	19658.83327
533.694	19977.49817
533.9	20493.26458
534.107	20072.91481
534.313	20468.89156
534.52	20263.77597
534.726	20034.34101
534.933	19959.22796
535.139	20424.20928
535.345	20253.62285
535.552	20558.26222
535.758	20659.8296
535.965	20580.60615
536.171	20548.10606
536.377	20802.0414
536.584	20458.73632
536.79	20999.13984
536.996	21072.29962
537.203	20765.47071
537.409	20535.9188
537.615	20822.35904
537.821	20657.79815
538.028	21491.03725
538.234	21125.14053
538.44	21367.02433
538.646	20741.091
538.853	21306.03983
539.059	21184.08172
539.265	21198.30942
539.471	21090.5904
539.677	21141.39983
539.883	21279.61434
540.09	21056.04144
540.296	21541.86649
540.502	21511.36865
540.708	21722.8386
540.914	21757.40984
541.12	21728.93933
541.326	21743.17449
541.532	21914.01118
541.738	22060.46414
541.944	21637.43216
542.15	22154.04155
542.356	22027.91734
542.562	22105.21756
542.768	22025.88319
542.974	22607.79899
543.18	21773.67904
543.386	22172.3511
543.592	21979.09895
543.798	22819.4775
544.004	22556.92039
544.21	22306.63032
544.415	22477.55422
544.621	22833.72644
544.827	22194.72985
545.033	22689.20934
545.239	22758.41253
545.445	22772.66075
545.651	22748.23534
545.856	23000.65499
546.062	22953.83127
546.268	22683.10337
546.474	22565.06082
546.679	22367.67162
546.885	22351.39362
547.091	22679.03274
547.297	22721.77505
547.502	22884.61687
547.708	22664.78564
547.914	23082.09175
548.119	23143.17279
548.325	23124.84816
548.531	22782.83815
548.736	23120.77606
548.942	22809.29979
549.147	22707.52744
549.353	23084.12773
549.559	23187.96743
549.764	23436.4023
549.97	23483.24365
550.175	23662.47774
550.381	23717.47471
550.586	23214.43772
550.792	23805.06695
550.997	23515.8299
551.203	23682.84673
551.408	23699.14214
551.614	24010.828
551.819	23762.28866
552.025	24098.43802
552.23	24330.73101
552.435	24194.20367
552.641	24287.93757
552.846	23953.78241
553.052	24285.89981
553.257	24461.15627
553.462	24080.10062
553.668	24159.56433
553.873	24108.62557
554.078	24271.63561
554.283	24296.08861
554.489	24597.7065
554.694	24450.96641
554.899	24579.36327
555.105	24548.79168
555.31	24699.61699
555.515	24514.14456
555.72	24972.76687
555.925	24828.03289
556.131	24815.8024
556.336	24925.87993
556.541	25111.39621
556.746	24752.61287
556.951	24830.07132
557.156	24554.90595
557.361	25023.73232
557.567	25223.53043
557.772	24946.2654
557.977	24756.68954
558.182	25227.60816
558.387	24856.57105
558.592	25429.46661
558.797	25005.38459
559.002	25225.56929
559.207	24905.49468
559.412	25400.91972
559.617	25429.46661
559.822	25547.73658
560.027	25759.82367
560.232	25568.12865
560.437	25354.02214
560.642	25774.09951
560.847	25896.46768
561.051	25776.13893
561.256	25676.20989
561.461	25814.88815
561.666	25849.55909
561.871	25655.81678
562.076	25392.76354
562.281	25596.67787
562.485	25203.14189
562.69	25871.99351
562.895	25374.41225
563.1	25451.89659
563.305	25604.83486
563.509	25719.03606
563.714	25621.14894
563.919	25794.49374
564.123	25900.54673
564.328	25837.32223
564.533	25986.20856
564.737	25374.41225
564.942	26212.61563
565.147	26555.32524
565.351	26441.08363
565.556	26008.64433
565.761	26155.50191
565.965	26771.58156
566.17	26345.20615
566.374	26286.04951
566.579	26396.20436
566.784	26179.97906
566.988	26245.25264
567.193	26485.96367
567.397	26235.05353
567.602	26871.55476
567.806	26029.04067
568.011	26830.74895
568.215	26730.77718
568.42	26765.46087
568.624	26453.32356
568.828	26585.92651
569.033	26414.56397
569.237	26889.91756
569.442	26636.92939
569.646	26277.89008
569.85	26949.08738
570.055	27144.96826
570.259	26985.81407
570.463	26873.59507
570.668	26594.08691
570.872	26504.32391
571.076	27024.58163
571.281	27198.02149
571.485	27257.19731
571.689	27508.1965
571.893	27406.16199
572.098	27428.60931
572.302	26759.34018
572.506	27147.00875
572.71	27363.30843
572.914	27628.60122
573.119	27259.23788
573.323	27269.44072
573.527	27495.95219
573.731	27632.68281
573.935	27681.66227
574.139	27526.56305
574.343	27136.8063
574.547	27449.0161
574.751	27579.62251
574.955	27540.84821
575.159	27683.70309
575.364	27687.78475
575.568	27824.52294
575.772	28120.46665
575.976	27616.35648
576.18	27906.16019
576.383	27902.07828
576.587	28022.49644
576.791	27924.52882
576.995	28187.82265
577.199	27604.11178
577.403	27612.2749
577.607	28361.32089
577.811	27887.79165
578.015	27683.70309
578.219	27883.70976
578.422	27655.13164
578.626	28324.57943
578.83	27828.60476
579.034	28357.23849
579.238	28594.02483
579.442	28426.63989
579.645	28247.01528
579.849	28518.4966
580.053	28661.38906
580.257	28385.81539
580.46	28700.17505
580.664	28643.01688
580.868	28698.13367
581.071	28826.74247
581.275	29155.42813
581.479	28918.60842
581.682	28555.23988
581.886	28714.46472
582.09	29096.22189
582.293	28818.57671
582.497	28900.23506
582.7	29145.2201
582.904	29253.42658
583.107	29065.59832
583.311	29057.43207
583.515	29012.51802
583.718	28743.04421
583.922	29081.93086
584.125	29190.13564
584.329	28796.12095
584.532	28867.57152
584.735	29363.67771
584.939	29004.35188
585.142	29490.26612
585.346	29226.8851
585.549	29324.8853
585.753	29230.96839
585.956	29090.09716
586.159	29212.5936
586.363	29757.74865
586.566	29469.84836
586.769	29279.96824
586.973	29149.30331
587.176	29506.6004
587.379	29351.42743
587.582	29345.30231
587.786	29598.48202
587.989	29625.026
588.192	29772.04213
588.395	29933.35803
588.599	30270.30648
588.802	30155.94467
589.005	29710.78472
589.208	30676.73038
589.411	29816.96485
589.615	29488.22434
589.818	30260.09545
590.021	30127.3548
590.224	30266.22206
590.427	30613.41481
590.63	30511.29554
590.833	30160.02896
591.036	30278.47532
591.239	30550.10049
591.442	30331.57327
591.645	30762.51478
591.848	30864.64218
592.051	30568.48194
592.254	30456.15246
592.457	30723.70726
592.66	30121.22842
592.863	30721.66477
593.066	30543.97336
593.269	30774.76989
593.472	31019.88248
593.675	31297.70203
593.878	31150.61763
594.081	31040.30945
594.284	30907.53671
594.486	30987.19963
594.689	31379.41908
594.892	30750.25972
595.095	31005.58369
595.298	30670.60301
595.5	30952.4745
595.703	31616.41331
595.906	30766.59981
596.109	31316.08815
596.311	31696.09755
596.514	31199.64488
596.717	31036.22405
596.92	31542.86097
597.122	31561.24885
597.325	31499.95645
597.528	31320.17397
597.73	32131.34545
597.933	31508.12868
598.136	31706.31367
598.338	31563.29195
598.541	31524.47323
598.743	31877.95126
598.946	31485.65511
599.148	31763.52477
599.351	32074.12476
599.554	32000.55761
599.756	32127.2582
599.959	32121.12735
600.161	31824.82396
600.363	31949.47079
600.566	31767.61133
600.768	31679.75185
600.971	32231.48549
601.173	31963.77498
601.376	31849.3441
601.578	31714.4866
601.78	32114.99652
601.983	32117.04013
602.185	32200.82985
602.388	31847.30074
602.59	31663.40626
602.792	31886.12481
602.995	32127.2582
603.197	32053.68919
603.399	32159.95638
603.601	32045.51501
603.804	31832.99731
604.006	31698.14077
604.208	31949.47079
604.41	32029.16675
604.613	31879.99465
604.815	31951.51424
605.017	32290.75441
605.219	32184.48036
605.421	31692.01111
605.623	32172.21834
605.826	32456.30824
606.028	32566.68562
606.23	32609.61197
606.432	32200.82985
606.634	32607.56783
606.836	32084.34263
607.038	32542.15673
607.24	32556.46521
607.442	32489.01196
607.644	32249.8791
607.846	32807.90455
608.048	32746.5745
608.25	32315.28
608.452	32092.51695
608.654	32474.70401
608.856	32180.39301
609.058	32317.32381
609.26	32352.06897
609.462	32762.92896
609.664	32209.00464
609.866	32241.70414
610.067	32681.15821
610.269	32397.03423
610.471	31755.35167
610.673	32431.78084
610.875	32305.06097
611.077	32609.61197
611.278	32260.09785
611.48	32313.23619
611.682	32546.24486
611.884	32891.72595
612.085	32650.49518
612.287	33180.02349
612.489	32711.82178
612.69	32934.66053
612.892	32405.20984
613.094	32957.15053
613.295	32394.99033
613.497	32536.02456
613.699	32589.17072
613.9	32444.0445
614.102	32681.15821
614.304	32652.53936
614.505	32548.28892
614.707	32918.30437
614.908	32020.99267
615.11	32476.748
615.311	32182.43669
615.513	32877.41468
615.714	32740.44161
615.916	32542.15673
616.117	32217.17947
616.319	32677.06977
616.52	33233.19069
616.722	32955.10598
616.923	33165.70957
617.124	33319.08024
617.326	32280.5355
617.527	32554.42113
617.729	32881.5036
617.93	32462.44015
618.131	32713.86604
618.333	32636.18595
618.534	32728.17591
618.735	32981.68544
618.937	32519.67222
619.138	33200.47219
619.339	33147.30616
619.54	32908.08185
619.742	32605.5237
619.943	32654.58355
620.144	32683.20243
620.345	32991.90843
620.546	32394.99033
620.748	32920.34888
620.949	32583.03839
621.15	32848.79251
621.351	32824.25961
621.552	32822.21522
621.753	33222.96608
621.954	33004.17611
622.155	32519.67222
622.356	33036.89038
622.558	33092.09727
622.759	33184.11321
622.96	32578.95018
623.161	32873.32577
623.362	32916.25986
623.563	33135.03734
623.764	32814.03768
623.965	32544.20079
624.166	32822.21522
624.366	32646.40681
624.567	33112.54477
624.768	32754.75171
624.969	32519.67222
625.17	32711.82178
625.371	32983.73003
625.572	32538.06862
625.773	32634.14178
625.973	33132.99255
626.174	33124.81341
626.375	33349.75633
626.576	33525.64553
626.777	33435.65291
626.977	33216.83135
627.178	33374.29767
627.379	32648.45099
627.58	32652.53936
627.78	32724.08737
627.981	32832.43721
628.182	33312.94511
628.382	33055.29246
628.583	33255.68508
628.784	33088.00781
628.984	33110.50001
629.185	33261.81998
629.386	32767.0176
629.586	33378.38794
629.787	32562.59745
629.987	32987.81923
630.188	33269.99987
630.388	33149.35097
630.589	32908.08185
630.79	33820.20969
630.99	33705.64896
631.191	34174.18888
631.391	33674.96481
631.591	33272.04486
631.792	33300.67491
631.992	33666.78249
632.193	34194.65341
632.393	33075.73947
632.594	33006.22073
632.794	33769.06522
632.994	33703.60333
633.195	33390.65881
633.395	33225.01099
633.595	33249.55021
633.796	33337.48581
633.996	33838.62222
634.196	33566.55325
634.397	33889.76956
634.597	33728.15114
634.797	33632.00821
634.997	33372.25254
635.198	33063.47123
635.398	32873.32577
635.598	33897.95334
635.798	33863.17268
635.998	33454.06001
636.199	33879.53992
636.399	34256.04924
636.599	33897.95334
636.799	33345.66614
636.999	33523.60018
637.199	33509.2828
637.399	33235.23562
637.599	33738.37954
637.799	33382.47821
637.999	34198.74636
638.199	33934.78101
638.399	33689.28399
638.599	33652.46355
638.799	34145.53917
638.999	34049.36325
639.199	33703.60333
639.399	33515.4188
639.599	33638.14478
639.799	33323.17035
639.999	33732.24249
640.199	33949.10318
640.399	34323.58861
640.599	33231.14576
640.799	34098.47335
640.998	34213.0718
641.198	33724.05981
641.398	34026.85514
641.598	34028.90132
641.798	33987.97852
641.997	34208.9788
642.197	34096.42706
642.397	34481.19698
642.597	34360.43003
642.796	34118.93651
642.996	33818.16387
643.196	33857.03502
643.395	33200.47219
643.595	33580.87124
643.795	33722.01415
643.994	34227.39743
644.194	33816.11806
644.394	33994.11685
644.593	33885.6777
644.793	34448.44525
644.992	34037.08605
645.192	33816.11806
645.392	33582.91668
645.591	34086.19563
645.791	34325.63532
645.99	34078.01055
646.19	34323.58861
646.389	33947.05715
646.589	34102.56595
646.788	34393.17903
646.987	33875.44809
647.187	34024.80897
647.386	33803.84323
647.586	34333.82221
647.785	34452.53916
647.984	34448.44525
648.184	34444.35136
648.383	34192.60694
648.582	33660.64578
648.782	34456.63309
648.981	34163.95676
649.18	34286.74844
649.38	34546.70353
649.579	34991.03424
649.778	34749.39134
649.977	35199.96324
650.177	34671.58709
650.376	34726.86842
650.575	34802.6294
650.774	34829.24954
650.973	34407.50703
651.173	34483.24399
651.372	34391.13219
651.571	34407.50703
651.77	34260.14242
651.969	34532.37362
652.168	34374.7576
652.367	35054.52712
652.566	34339.96242
652.765	34769.86717
652.964	34358.38325
653.163	34501.66733
653.362	34638.82925
653.561	34644.97126
653.76	35056.57535
653.959	34941.88149
654.158	34935.73758
654.357	34196.69988
654.556	33368.1623
654.755	34028.90132
654.954	34157.81753
655.153	34141.44641
655.352	34608.11974
655.551	34757.58162
655.749	34698.20364
655.948	34491.4321
656.147	34552.84499
656.346	34636.78192
656.545	34116.89018
656.743	34737.10604
656.942	34902.97074
657.141	35015.6116
657.34	34993.08233
657.538	35036.09325
657.737	34780.10524
657.936	34882.49205
658.135	34679.77672
658.333	34657.2554
658.532	34847.6793
658.731	34773.96238
658.929	34542.60925
659.128	34773.96238
659.326	34720.7259
659.525	34872.25287
659.724	34778.05762
659.922	34368.61719
660.121	34413.64766
660.319	34632.68727
660.518	34335.86894
660.716	34622.45073
660.915	34442.30442
661.113	34438.21055
661.312	34526.23229
661.51	34714.58341
661.709	34597.88345
661.907	34591.74172
662.105	34370.66399
662.304	35265.5198
662.502	34579.45838
662.701	34921.40194
662.899	34761.67678
663.097	34868.15723
663.296	34493.47914
663.494	35124.16961
663.692	34505.76145
663.891	35070.9131
664.089	34728.91594
664.287	34976.69775
664.485	34640.87658
664.684	34741.20112
664.882	34178.28176
665.08	34104.61226
665.278	34114.84385
665.476	33953.19526
665.675	34497.57323
665.873	34215.11831
666.071	34127.12188
666.269	34567.17519
666.467	34372.71079
666.665	34542.60925
666.863	34483.24399
667.061	34833.34501
667.259	34984.89
667.457	35542.14249
667.655	34714.58341
667.853	34442.30442
668.051	34229.44396
668.249	34344.05591
668.447	34247.86293
668.645	34296.98169
668.843	35062.72008
669.041	34035.03986
669.239	34208.9788
669.437	34448.44525
669.635	34206.93231
669.833	34669.53969
670.031	34380.89804
670.229	33977.74805
670.426	34606.07247
670.624	34270.37543
670.822	34127.12188
671.02	34143.49279
671.218	34425.92903
671.415	34509.85558
671.613	34166.00318
671.811	33341.57597
672.009	33482.69377
672.206	33707.6946
672.404	33844.75979
672.602	34067.77929
672.799	34376.80441
672.997	34411.60078
673.195	34028.90132
673.392	34577.41117
673.59	34599.9307
673.788	34321.5419
673.985	34141.44641
674.183	34086.19563
674.38	34045.27083
674.578	34612.21429
674.775	34075.96429
674.973	34419.78833
675.17	34178.28176
675.368	34358.38325
675.565	33942.96509
675.763	34200.79284
675.96	33711.78588
676.158	33672.91922
676.355	33527.69089
676.553	33388.61365
676.75	33040.97971
676.947	33601.32579
677.145	33143.21654
677.342	33521.55483
677.539	33717.92283
677.737	34325.63532
677.934	34094.38076
678.131	33904.09121
678.329	33570.64409
678.526	33546.09923
678.723	33934.78101
678.92	33840.66807
679.118	33398.83944
679.315	33092.09727
679.512	33443.83381
679.709	33452.01477
679.906	33077.78418
680.104	33306.80999
680.301	33566.55325
680.498	33171.84409
680.695	33010.30998
680.892	33928.64298
681.089	32875.37022
681.286	32977.59626
681.483	32871.28132
681.68	33116.63431
681.877	33222.96608
682.075	33059.38184
682.272	32953.06142
682.469	33615.64416
682.665	33668.82806
682.862	33165.70957
683.059	33439.74336
683.256	33570.64409
683.453	33088.00781
683.65	32944.88322
683.847	33141.17174
684.044	32781.32792
684.241	32570.7738
684.438	33222.96608
684.635	33053.24777
684.831	33897.95334
685.028	33370.20742
685.225	32879.45914
685.422	32871.28132
685.619	33073.69475
685.815	33016.44388
686.012	33132.99255
686.209	32274.40419
686.405	32948.97232
686.602	32818.12645
686.799	32683.20243
686.996	32505.36403
687.192	32861.05909
687.389	32462.44015
687.586	32444.0445
687.782	33053.24777
687.979	32873.32577
688.175	32568.7297
688.372	32773.15058
688.568	32791.54965
688.765	32560.55336
688.962	32848.79251
689.158	33075.73947
689.355	32650.49518
689.551	32370.46372
689.748	32049.60209
689.944	32184.48036
690.14	32241.70414
690.337	32217.17947
690.533	32482.87997
690.73	31914.73245
690.926	32544.20079
691.123	32421.56118
691.319	32437.91266
691.515	32221.26689
691.712	32055.73273
691.908	32112.95291
692.104	31600.06815
692.301	32061.86339
692.497	31781.91436
692.693	31828.91063
692.889	31659.31988
693.086	31965.81844
693.282	32321.41145
693.478	32217.17947
693.674	32043.47147
693.87	32311.19238
694.067	31540.81788
694.263	31765.56805
694.459	31818.69397
694.655	31953.55769
694.851	31726.74605
695.047	31912.68903
695.243	31982.16621
695.439	31293.61625
695.635	31669.53584
695.831	31532.64554
696.027	31616.41331
696.224	31714.4866
696.42	31383.505
696.615	31704.27044
696.811	31473.39688
697.007	31510.17174
697.203	30719.62228
697.399	31179.21675
697.595	31070.95018
697.791	30744.13221
697.987	30883.02547
698.183	31452.96663
698.379	30950.43186
698.575	31391.67686
698.77	31222.116
698.966	31540.81788
699.162	31144.48928
699.358	31469.31081
699.554	30950.43186
699.749	31019.88248
699.945	30707.36739
700.141	30780.89746
700.337	30889.15326
700.532	31240.50159
700.728	30754.34474
700.924	31138.36095
701.119	30852.38671
701.315	30472.49106
701.511	30258.05325
701.706	31318.13106
701.902	30823.79081
702.097	31034.18135
702.293	30529.67678
702.489	30237.6313
702.684	30419.39091
702.88	30331.57327
703.075	30247.84226
703.271	30615.45723
703.466	30527.63441
703.662	30850.34413
703.857	31211.90183
704.053	30631.79662
704.248	30302.98196
704.443	30452.06782
704.639	30162.0711
704.834	30305.02419
705.03	30615.45723
705.225	30427.56011
705.42	30076.30201
705.616	29943.56813
705.811	30045.67069
706.006	29770.0002
706.202	29929.27399
706.397	29765.91634
706.592	30366.2916
706.787	30231.50473
706.983	30335.65776
707.178	30290.72862
707.373	30119.1863
707.568	30462.27942
707.763	30492.91441
707.959	30911.62193
708.154	30664.47565
708.349	30407.13715
708.544	30017.08168
708.739	29659.73764
708.934	29531.10196
709.129	30021.16581
709.324	29863.93008
709.519	30010.9555
709.714	29586.23101
709.909	29584.18918
710.104	29449.43071
710.299	29545.3946
710.494	29257.5099
710.689	30164.11325
710.884	29576.02187
711.079	30174.324
711.274	30062.00736
711.469	30117.14418
711.664	29929.27399
711.859	29919.06393
712.054	30421.43321
712.249	30450.02551
712.443	29904.76989
712.638	30051.79693
712.833	29392.26184
713.028	29931.31601
713.223	29375.92803
713.417	29380.01147
713.612	29408.59571
713.807	29324.8853
714.002	29482.099
714.196	29906.81189
714.391	29737.32948
714.586	29798.58731
714.78	30096.72304
714.975	29959.90435
715.17	29563.77093
715.364	29539.26918
715.559	29720.99422
715.754	29296.30166
715.948	29204.42706
716.143	29128.8873
716.337	28728.75444
716.532	28977.81204
716.726	29261.59323
716.921	29263.63489
717.115	29296.30166
717.31	29424.92966
717.504	29618.90045
717.699	29802.6712
717.893	29398.38703
718.088	28775.70673
718.282	29167.67781
718.476	28857.36422
718.671	28528.70303
718.865	28877.77885
719.059	28765.49967
719.254	28681.80269
719.448	28412.35127
719.642	28461.34106
719.837	27867.38227
720.031	28093.93279
720.225	28153.12395
720.419	28477.67113
720.614	28451.1348
720.808	28767.54108
721.002	28338.86773
721.196	28730.79583
721.39	28665.47178
721.585	28379.69175
721.779	28100.05597
721.973	28363.36209
722.167	27753.09188
722.361	28534.8269
722.555	28634.8515
722.749	28379.69175
722.943	28463.38232
723.137	28432.76361
723.331	27906.16019
723.525	27883.70976
723.719	27642.8868
723.913	28053.11185
724.107	27661.25407
724.301	27544.92969
724.495	27236.79173
724.689	27346.98342
724.883	26996.01601
725.077	27846.973
725.271	27546.97043
725.465	27677.58062
725.659	27240.87284
725.853	27869.4232
726.046	28202.11045
726.24	27602.071
726.434	27436.77201
726.628	27826.56385
726.822	27389.83676
727.015	27569.41871
727.209	27246.9945
727.403	27018.4604
727.596	27234.75118
727.79	27334.73971
727.984	27540.84821
728.177	27710.23394
728.371	27497.99291
728.565	27336.78032
728.758	27371.47097
728.952	27777.58237
729.146	27244.95395
729.339	27418.40596
729.533	27324.53665
729.726	26822.58786
729.92	27404.12133
730.113	27583.70405
730.307	27738.80584
730.5	27730.64242
730.694	27585.74481
730.887	27383.71482
731.081	27669.41734
731.274	27412.28397
731.468	27218.42682
731.661	27683.70309
731.854	27375.55225
732.048	27497.99291
732.241	27118.44198
732.435	27671.45816
732.628	27738.80584
732.821	27391.8774
733.014	27308.21183
733.208	27340.86156
733.401	27630.64201
733.594	27189.8594
733.788	27383.71482
733.981	27895.95543
734.174	27967.38933
734.367	27651.05002
734.56	27463.30093
734.754	26867.47415
734.947	27267.40015
735.14	26643.0498
735.333	27120.48246
735.526	27049.06666
735.719	27114.36104
735.912	27098.03731
736.105	26781.78275
736.298	27187.81888
736.491	27222.5079
736.684	27030.70287
736.877	27014.37959
737.07	26891.95788
737.263	26820.54759
737.456	27238.83228
737.649	27167.41375
737.842	27559.21493
738.035	27514.31867
738.228	27095.99685
738.421	27183.73784
738.614	27351.06466
738.807	27312.29303
739	27057.22838
739.192	26520.64423
739.385	26512.48406
739.578	26634.88926
739.771	26998.0564
739.964	26522.68428
740.156	26324.80715
740.349	26316.64759
740.542	26685.89306
740.735	26502.28388
740.927	26732.81739
741.12	26494.12376
741.313	26086.15136
741.505	26190.17794
741.698	26075.95292
741.891	26002.52546
742.083	26230.97389
742.276	25798.57261
742.468	25980.08975
742.661	25716.9967
742.854	26008.64433
743.046	26284.00965
743.239	26371.72509
743.431	26426.80378
743.624	26065.75453
743.816	25727.19352
744.009	26075.95292
744.201	25702.72123
744.393	25971.93137
744.586	25759.82367
744.778	25761.86307
744.971	26051.47685
745.163	25986.20856
745.355	26394.16441
745.548	26014.76321
745.74	25973.97096
745.932	25651.73818
746.125	25604.83486
746.317	25666.01331
746.509	25637.46315
746.702	25886.27008
746.894	25637.46315
747.086	25592.59939
747.278	25239.84141
747.471	25288.77519
747.663	25449.85749
747.855	25584.44244
748.047	25431.50569
748.239	25490.63988
748.431	25876.07252
748.623	25643.58101
748.815	25137.90006
749.008	25770.02069
749.2	25555.89338
749.392	25951.53553
749.584	25562.01101
749.776	26006.6047
749.968	25313.24254
750.16	25594.63863
750.352	25080.81531
750.544	25068.58309
750.736	25515.1097
750.928	25943.37725
751.12	25545.69739
751.311	25186.83122
751.503	25564.05022
751.695	25492.67902
751.887	24921.80286
752.079	25264.30814
752.271	25150.13273
752.463	25227.60816
752.654	25241.88029
752.846	25341.78817
753.038	25164.40428
753.23	25040.04156
753.421	24978.88265
753.613	25186.83122
753.805	25527.34472
753.997	25135.86129
754.188	25231.6859
754.38	25331.59325
754.572	25317.32046
754.763	25562.01101
754.955	24944.22685
755.146	25356.06114
755.338	25015.57775
755.53	24746.49788
755.721	25170.52069
755.913	24938.11119
756.104	24526.37287
756.296	24277.74882
756.487	24618.0881
756.679	24544.71551
756.87	24422.43516
757.062	24171.78989
757.253	24487.6502
757.445	24473.38418
757.636	24214.58012
757.827	24483.57418
758.019	24379.63923
758.21	24071.95073
758.401	24186.05317
758.593	24241.06991
758.784	24283.86206
758.975	23890.62739
759.167	24025.08974
759.358	23888.59018
759.549	24045.4639
759.74	23998.60376
759.932	24033.23937
760.123	23540.27011
760.314	23479.17042
760.505	23505.64661
760.696	23226.65497
760.888	23175.75055
761.079	23442.51195
761.27	23915.07417
761.461	23554.5271
761.652	23517.86657
761.843	23454.73133
762.034	23566.7475
762.225	23041.3727
762.416	23383.4532
762.607	22966.04599
762.798	23033.22905
762.989	23544.34352
763.18	23591.18862
763.371	23629.88797
763.562	23556.56383
763.753	23234.79986
763.944	23128.92028
764.135	23014.90604
764.326	23196.11207
764.517	23139.10063
764.708	23086.16372
764.899	22520.28917
765.089	22740.09365
765.28	23016.94192
765.471	22652.57398
765.662	22074.70366
765.853	22762.48343
766.043	22440.92551
766.234	22911.08074
766.425	22294.42245
766.615	22636.29197
766.806	22949.75973
766.997	22534.53451
767.187	22571.16617
767.378	22847.97555
767.569	22501.974
767.759	22738.05823
767.95	22622.04539
768.141	22782.83815
768.331	22406.33281
768.522	22324.94237
768.712	22170.31669
768.903	21909.94332
769.093	21893.67205
769.284	22119.45767
769.474	22040.12227
769.665	22086.90912
769.855	22001.47377
770.046	22088.94338
770.236	21991.30334
770.426	21903.84157
770.617	21708.60372
770.807	21798.08331
770.998	21728.93933
771.188	21405.64971
771.378	21549.9994
771.569	21909.94332
771.759	21584.56497
771.949	21574.39851
772.139	21989.26927
772.33	21665.90021
772.52	21814.35313
772.71	21428.01243
772.9	21249.12424
773.09	21070.26734
773.281	21389.38622
773.471	21344.66293
773.661	21074.33191
773.851	21182.04921
774.041	20932.08138
774.231	21001.17199
774.421	20647.64096
774.611	20450.6122
774.802	20759.37573
774.992	20759.37573
775.182	20604.98192
775.372	20491.23347
775.562	20594.82527
775.752	20704.52254
775.942	20351.09718
776.131	20615.13867
776.321	20550.13728
776.511	20576.54358
776.701	20529.82522
776.891	20956.46576
777.081	20393.74524
777.271	20204.88931
777.461	20338.91236
777.651	20590.76265
777.84	20371.40555
778.03	20491.23347
778.22	20814.23193
778.41	20830.4862
778.599	20310.4817
778.789	20259.71471
778.979	20221.13355
779.169	19928.77836
779.358	19656.80389
779.548	20318.60466
779.738	20221.13355
779.927	20334.85078
780.117	20170.37119
780.307	20105.39919
780.496	19924.71849
780.686	19918.62871
780.875	19902.38948
781.065	19949.07799
781.254	19742.04152
781.444	19569.54445
781.633	19390.99099
781.823	19642.59834
782.012	19644.62769
782.202	19638.53965
782.391	19685.21561
782.581	19713.62816
782.77	19407.22179
782.96	19177.98619
783.149	18965.02652
783.338	19182.04301
783.528	19248.98275
783.717	19048.17687
783.906	18545.32106
784.096	19248.98275
784.285	19161.75912
784.474	18721.69839
784.663	19092.79695
784.853	19042.09247
785.042	19372.73165
785.231	19382.87569
785.42	19036.0081
785.61	18792.66317
785.799	18912.30054
785.988	19125.24914
786.177	18632.49237
786.366	18829.16124
786.555	19123.22085
786.744	18938.66319
786.933	18731.83592
787.122	18752.11128
787.312	18360.8657
787.501	18640.6017
787.69	18395.32199
787.879	18593.97393
788.068	18377.08029
788.257	18780.49744
788.445	18480.45403
788.634	18922.43994
788.823	18687.23153
789.012	18553.42972
789.201	18208.86554
789.39	18105.51731
789.579	18229.13102
789.768	18466.26489
789.957	18316.27681
790.145	18180.49449
790.334	18099.4383
790.523	17953.55167
790.712	17771.21899
790.9	18083.22776
791.089	18034.59751
791.278	18190.62693
791.467	18085.25406
791.655	18067.01744
791.844	18010.28316
792.033	18034.59751
792.221	17848.20049
792.41	17647.65362
792.599	17256.77975
792.787	17823.89001
792.976	17933.2911
793.164	17599.04112
793.353	17601.0666
793.541	18139.96567
793.73	17777.2963
793.918	18198.73294
794.107	17615.24508
794.295	17522.07515
794.484	17607.14307
794.672	17518.02443
794.861	17682.08863
795.049	18010.28316
795.238	17404.60961
795.426	17208.18162
795.614	16977.36284
795.803	17366.13179
795.991	17074.5453
796.179	17050.24909
796.368	16973.3137
796.556	16977.36284
796.744	17009.7563
796.932	17690.19112
797.121	17250.7049
797.309	16967.24002
797.497	16999.63327
797.685	17048.22443
797.874	17315.50476
798.062	17311.45468
798.25	16908.52899
798.438	17076.57
798.626	16762.77295
798.814	16859.94219
799.002	16621.07772
799.19	16825.52743
799.378	16592.74003
799.566	16835.64934
799.755	16606.90882
799.943	16772.89448
800.131	16957.11727
800.318	17078.5947
800.506	16944.97006
800.694	16839.69813
800.882	16588.69182
801.07	16859.94219
801.258	16932.82294
801.446	16801.23509
801.634	16732.40871
801.822	16908.52899
802.01	16483.4415
802.197	16554.28242
802.385	16319.50494
802.573	16683.82705
802.761	16552.25836
802.949	16783.01607
803.136	16412.60312
803.324	16244.62448
803.512	16341.76718
803.699	16192.00723
803.887	16179.86496
804.075	16291.1715
804.262	16791.11339
804.45	16576.54726
804.638	16608.93294
804.825	16760.74865
805.013	16612.98119
805.201	16813.38122
805.388	16173.79384
805.576	16704.06925
805.763	16750.62719
805.951	16639.29504
806.138	16726.33593
806.326	16841.72252
806.513	16592.74003
806.701	16493.56147
806.888	16467.24965
807.075	16355.93418
807.263	16268.90977
807.45	16465.22568
807.638	16602.86058
807.825	16683.82705
808.012	16366.05352
808.2	16665.60928
808.387	16758.72435
808.574	16558.33055
808.761	16744.55434
808.949	16687.87547
809.136	16323.5526
809.323	16813.38122
809.51	16647.39169
809.698	16594.76413
809.885	16339.74333
810.072	16299.26673
810.259	16495.58547
810.446	16307.36199
810.633	16447.01002
810.82	16610.95707
811.008	16319.50494
811.195	16214.26824
811.382	15985.59624
811.569	16442.96212
811.756	15781.22306
811.943	16374.14903
812.13	16159.62796
812.317	16681.80285
812.504	16936.87197
812.691	16934.84746
812.878	16633.22258
813.064	16795.16206
813.251	16843.74692
813.438	16691.9239
813.625	15997.73763
813.812	16274.98113
813.999	16546.18618
814.186	16497.60948
814.372	16608.93294
814.559	16819.45431
814.746	16414.62704
814.933	16675.73024
815.12	16210.22077
815.306	16272.95734
815.493	16046.30372
815.68	16107.01252
815.866	16242.60072
816.053	16584.64362
816.24	16382.24457
816.426	16843.74692
816.613	16540.11403
816.799	16627.15014
816.986	16451.05793
817.173	16262.83842
817.359	16137.36745
817.546	16376.17291
817.732	16252.71955
817.919	16214.26824
818.105	16307.36199
818.292	16546.18618
818.478	16181.88867
818.665	16442.96212
818.851	16062.4926
819.037	16305.33817
819.224	16147.48584
819.41	16337.71948
819.597	16084.75247
819.783	16370.10127
819.969	16485.46549
820.156	16206.1733
820.342	16104.98888
820.528	15793.3637
820.714	15694.21619
820.901	15882.39634
821.087	15906.67836
821.273	16125.22544
821.459	15878.34935
821.646	16244.62448
821.832	15829.78587
822.018	15665.88875
822.204	15443.32131
822.39	15862.16145
822.576	15615.30447
822.762	15771.10588
822.948	15949.17235
823.134	15985.59624
823.32	15637.56149
823.507	15841.92668
823.693	15508.06737
823.879	15475.69427
824.065	15540.44063
824.25	15501.9974
824.436	15572.81406
824.622	15631.49138
824.808	15459.50777
824.994	15423.08828
825.18	15615.30447
825.366	15625.42128
825.552	15514.13734
825.738	15645.65498
825.923	15265.27196
826.109	15271.34179
826.295	15245.03922
826.481	15584.95414
826.667	15429.15818
826.852	15313.83063
827.038	15064.96803
827.224	15075.0844
827.409	15058.8982
827.595	15141.85238
827.781	14909.175
827.966	15285.50472
828.152	14690.65478
828.338	15032.5956
828.523	14383.08812
828.709	14828.24252
828.894	14366.89952
829.08	14716.95861
829.266	14573.29717
829.451	15044.73527
829.637	14781.70589
829.822	14961.78067
830.008	14803.96259
830.193	15026.52576
830.378	14789.79925
830.564	14941.54776
830.749	14237.38676
830.935	14310.23858
831.12	13982.38444
831.305	14154.41361
831.491	14132.15193
831.676	14188.81752
831.861	14126.08052
832.047	14415.46502
832.232	13909.51974
832.417	13998.57615
832.602	14006.67195
832.788	13994.52824
832.973	13800.2161
833.158	13812.36136
833.343	13925.71219
833.528	14051.19812
833.714	13897.37529
833.899	14221.19714
834.084	14132.15193
834.269	14150.36605
834.454	14000.6001
834.639	14120.00908
834.824	14168.58
835.009	14350.71081
835.194	13939.88044
835.379	14296.07313
835.564	14126.08052
835.749	14524.73429
835.934	14302.14405
836.119	14385.11169
836.304	13877.13433
836.489	13816.40976
836.674	13767.82822
836.859	13982.38444
837.044	13423.65507
837.228	14245.48153
837.413	13676.73309
837.598	13591.70504
837.783	13306.2068
837.968	13980.36047
838.152	13660.53773
838.337	13613.97487
838.522	13512.74495
838.707	13622.07288
838.891	12957.82472
839.076	13002.39312
839.261	13389.23198
839.445	13452.00265
839.63	13249.50264
839.815	13217.09874
839.999	13160.38917
840.184	13168.49075
840.368	13038.85636
840.553	13441.8786
840.737	13334.55764
840.922	13123.93111
841.106	12947.6952
841.291	12876.78485
841.475	12868.6804
841.66	13275.82999
841.844	12815.99933
842.029	13121.90562
842.213	13138.10942
842.397	13172.54152
842.582	12949.72111
842.766	12945.66928
842.951	12996.31576
843.135	12986.18672
843.319	12732.91768
843.504	12704.54613
843.688	12635.639
843.872	12710.62585
844.056	12882.86314
844.241	13002.39312
844.425	12870.70652
844.609	12858.54971
844.793	12773.4465
844.977	12738.99715
845.161	12228.12546
845.346	12374.13159
845.53	12128.73881
845.714	12487.66737
845.898	12357.91048
846.082	12268.68639
846.266	12432.92951
846.45	12495.77628
846.634	12357.91048
846.818	12361.9658
847.002	12293.02158
847.186	12136.85268
847.37	11704.61184
847.554	11787.84247
847.738	11684.30944
847.922	11956.28998
848.106	11895.41195
848.29	11988.75528
848.473	11897.44133
848.657	11824.37816
848.841	11775.66329
849.025	12084.11038
849.209	11814.22964
849.392	11840.61536
849.576	11911.64681
849.76	11958.31912
849.944	11832.49683
850.127	12100.33933
850.311	11881.20601
850.495	11970.4938
850.678	11647.76287
850.862	11802.05113
851.046	11649.79331
851.229	11680.24885
851.413	11399.9793
851.596	11771.6035
851.78	11672.12757
851.964	11538.10545
852.147	11345.12261
852.331	11469.04792
852.514	11412.16869
852.698	11562.4761
852.881	11164.24641
853.065	11172.37744
853.248	10916.16671
853.431	10993.45504
853.615	10969.04995
853.798	11229.28995
853.982	11034.12663
854.165	11229.28995
854.348	10914.13259
854.532	11034.12663
854.715	11058.52746
854.898	11172.37744
855.081	10869.37897
855.265	11125.6217
855.448	10822.58514
855.631	10704.55566
855.814	10749.33017
855.997	10657.73969
856.181	10423.56126
856.364	10545.7621
856.547	10623.13244
856.73	10820.55048
856.913	10315.57833
857.096	10496.88728
857.279	10181.0565
857.462	10386.89195
857.645	10138.2416
857.828	10309.46497
858.011	10203.48092
858.194	10580.37737
858.377	10376.70528
858.56	10439.85737
858.743	10411.33862
858.926	10248.3248
859.109	10299.27578
859.292	10142.31947
859.475	10187.17241
859.658	10443.93127
859.841	10085.22416
860.023	10056.67237
860.206	9977.12051
860.389	10315.57833
860.572	9991.40065
860.755	10123.9686
860.937	9966.91997
861.12	9868.97627
861.303	9660.73175
861.486	9975.08043
861.668	9636.22194
861.851	9703.61855
862.034	9683.19711
862.216	9576.98064
862.399	9478.89691
862.581	9632.13676
862.764	9544.29013
862.947	9675.0281
863.129	9709.74468
863.312	9491.15939
863.494	9407.35424
863.677	9497.29041
863.859	9073.90262
864.042	9231.47839
864.224	9170.09726
864.406	9476.85311
864.589	9141.4475
864.771	9405.30988
864.954	9331.70173
865.136	9321.47669
865.318	8899.83596
865.501	9141.4475
865.683	9041.14681
865.865	9061.61971
866.048	8926.46618
866.23	8973.57383
866.412	8944.90072
866.594	8770.73883
866.777	8657.97586
866.959	8662.07731
867.141	8657.97586
867.323	8938.75604
867.505	8748.19068
867.687	9327.61176
867.869	9014.52943
868.052	9315.34146
868.234	8838.37007
868.416	8987.90909
868.598	8961.28578
868.78	9006.33887
868.962	8756.39026
869.144	9028.86223
869.326	8649.77273
869.508	8602.599
869.69	8586.18842
869.872	8532.84573
870.054	8479.49025
870.236	8598.49646
870.417	8633.3656
870.599	8828.12418
870.781	8666.17868
870.963	8883.44663
871.145	8520.53407
871.327	8461.01805
871.508	8212.51737
871.69	8559.51867
871.872	8136.4721
872.054	8698.98702
872.235	8329.61521
872.417	8598.49646
872.599	8547.20848
872.78	8787.13609
872.962	8526.68999
873.144	8610.80383
873.325	8612.855
873.507	8645.67106
873.689	8432.28043
873.87	8580.03414
874.052	8436.38603
874.233	8510.27383
874.415	8255.66612
874.596	8426.12188
874.778	8173.4705
874.959	8284.42712
875.141	7976.07036
875.322	8448.70239
875.503	8144.69453
875.685	8103.57919
875.866	7971.95587
876.048	8261.82951
876.229	8107.69108
876.41	8263.88394
876.592	8167.30455
876.773	8208.40751
876.954	8136.4721
877.136	8231.01076
877.317	8670.27998
877.498	8698.98702
877.679	8682.58344
877.86	8502.06529
878.042	8424.06899
878.223	8510.27383
878.404	8317.29212
878.585	8321.3999
878.766	8058.34303
878.947	8586.18842
879.128	8171.41521
879.309	8175.52578
879.49	8329.61521
879.672	8352.20572
879.853	8247.44798
880.034	8368.6337
880.215	8228.95602
880.396	8530.79384
880.576	8181.69149
880.757	8520.53407
880.938	8185.80187
881.119	8473.33302
881.3	8512.32592
881.481	8491.8042
881.662	8424.06899
881.843	8280.31864
882.023	7906.1129
882.204	8074.79367
882.385	8033.66464
882.566	8179.63627
882.747	8124.13786
882.927	8290.58969
883.108	8097.4112
883.289	8543.10493
883.469	8397.37968
883.65	8469.22811
883.831	8444.59701
884.011	8448.70239
884.192	8202.24257
884.373	8504.11746
884.553	8461.01805
884.734	8378.90055
884.914	8054.23017
885.095	8559.51867
885.275	8226.90125
885.456	8263.88394
885.636	8117.97047
885.817	8588.23981
885.997	8584.13701
886.178	8292.64384
886.358	8364.52682
886.538	8637.46749
886.719	8218.68201
886.899	8592.34253
887.08	8534.89761
887.26	8530.79384
887.44	8444.59701
887.621	8530.79384
887.801	8428.17474
887.981	8705.13806
888.161	8397.37968
888.342	8341.9376
888.522	8399.43282
888.702	8592.34253
888.882	8370.68711
889.062	8532.84573
889.242	8300.86025
889.423	8407.64518
889.603	8304.96833
889.783	8561.5703
889.963	7922.57561
890.143	8411.75125
890.323	8019.26756
890.503	8231.01076
890.683	8181.69149
890.863	8389.16693
891.043	7906.1129
891.223	8633.3656
891.403	8354.25928
891.583	8592.34253
891.763	8331.66899
891.943	8331.66899
892.122	7934.92178
892.302	8247.44798
892.482	7971.95587
892.662	8206.35255
892.842	8424.06899
893.022	8553.36366
893.201	8159.083
893.381	8060.39943
893.561	8181.69149
893.741	8241.28417
893.92	8019.26756
894.1	8031.60797
894.28	7799.073
894.459	8173.4705
894.639	7901.99701
894.819	8212.51737
894.998	8017.21076
895.178	8159.083
895.357	7984.29909
895.537	8167.30455
895.716	7914.34442
895.896	8401.48594
896.075	7869.06697
896.255	7869.06697
896.434	7846.42449
896.614	7753.76995
896.793	7481.73672
896.973	7844.36596
897.152	7271.27223
897.331	7805.24991
897.511	7700.21689
897.69	7543.5951
897.87	7434.29881
898.049	7514.73027
898.228	7518.85407
898.407	7539.47181
898.587	7390.97592
898.766	7159.75741
898.945	7134.96756
899.124	7201.06672
899.304	6901.37168
899.483	7390.97592
899.662	6799.98822
899.841	7349.7071
900.02	6922.05548
900.199	7320.81373
900.378	7178.3477
900.557	7217.58796
900.737	7170.08557
900.916	7273.33671
901.095	6973.75509
901.274	7271.27223
901.453	6754.45132
901.632	6994.43099
901.811	7103.97574
901.989	7452.86284
902.168	6988.22846
902.347	6982.02572
902.526	6551.47019
902.705	6565.97618
902.884	6483.0695
903.063	6706.83272
903.242	6717.18562
903.42	6514.16385
903.599	6373.16093
903.778	6505.87254
903.957	6327.51927
904.135	6503.79965
904.314	6530.74537
904.493	6739.95999
904.672	6385.60669
904.85	6356.56527
905.029	6084.59831
905.207	5993.1602
905.386	5882.95827
905.565	5735.22542
905.743	5716.49022
905.922	5574.87363
906.1	5708.16285
906.279	5685.26064
906.457	5570.70679
906.636	5833.03372
906.814	5647.77815
906.993	5683.17848
907.171	5597.78959
907.35	5541.53623
907.528	5320.52386
907.707	5616.53689
907.885	5216.18128
908.063	5118.04607
908.242	5015.68028
908.42	5360.1587
908.598	5028.21785
908.777	5287.14059
908.955	4825.4256
909.133	4992.69257
909.311	4733.3665
909.49	5101.33709
909.668	5032.39686
909.846	5366.41606
910.024	5042.84397
910.202	5312.17861
910.38	5036.57577
910.559	5141.01849
910.737	5182.77932
910.915	5499.85601
911.093	5130.57683
911.271	5172.33999
911.449	5141.01849
911.627	5483.18128
911.805	5201.56866
911.983	5226.61817
912.161	5212.00636
912.339	5063.73645
912.517	5034.48632
912.695	5257.92532
912.872	5174.4279
913.05	5343.47138
913.228	5234.96726
913.406	5274.62033
913.584	5199.48105
913.762	5462.33576
913.939	5424.80788
914.117	5470.67425
914.295	5134.75356
914.473	5145.19499
914.65	5095.07084
914.828	5399.78507
915.006	5132.66521
915.184	5291.31383
915.361	4978.06258
915.539	5149.3714
915.716	4814.96655
915.894	5107.60313
916.072	4701.97269
916.249	4992.69257
916.427	4940.43741
916.604	5034.48632
916.782	4856.79932
916.959	5157.72394
917.137	4890.25895
917.314	5212.00636
917.492	4886.07682
917.669	4936.25638
917.847	4647.54476
918.024	4992.69257
918.201	4722.90246
918.379	4804.50693
918.556	4616.13713
918.733	4942.5279
918.911	4582.63011
919.088	4890.25895
919.265	4391.95115
919.442	4697.78647
919.62	4268.2275
919.797	4614.04311
919.974	4456.92819
920.151	4523.97912
920.328	4354.21293
920.506	4614.04311
920.683	4584.72447
920.86	4582.63011
921.037	4553.30679
921.214	4651.73206
921.391	4375.17948
921.568	4517.69406
921.745	4295.49509
921.922	4580.53573
922.099	4253.54345
922.276	4245.1521
922.453	4213.68148
922.63	4316.46769
922.807	3875.60103
922.984	4028.9584
923.161	3968.04857
923.338	4054.15741
923.514	3871.39795
923.691	3972.2498
923.868	3890.3112
924.045	3951.24283
924.222	3884.00696
924.399	4005.8567
924.575	3875.60103
924.752	3875.60103
924.929	3793.62655
925.105	3993.25472
925.282	3661.14342
925.459	3905.02039
925.635	3497.01243
925.812	3869.29638
925.989	3303.28027
926.165	3665.35041
926.342	3244.28914
926.518	3555.94425
926.695	3358.04575
926.871	3377.00029
927.048	3056.69577
927.224	3591.71722
927.401	3343.30235
927.577	3551.73531
927.754	3391.74174
927.93	3764.1925
928.107	3406.48232
928.283	3484.38232
928.459	3221.11044
928.636	3296.96043
928.812	3033.50132
928.988	3143.13108
929.165	3143.13108
929.341	3105.18715
929.517	3197.92973
929.693	3320.13243
929.87	3109.4034
930.046	3172.63942
930.222	2966.01603
930.398	3185.28487
930.574	2894.29617
930.751	2957.57929
930.927	2721.25733
931.103	3003.97842
931.279	2729.70037
931.455	2995.54276
931.631	2740.25387
931.807	2862.64972
931.983	2655.81674
932.159	2915.39201
932.335	2611.47912
932.511	2641.03815
932.687	2324.21699
932.863	2655.81674
933.039	2495.33162
933.215	2527.01171
933.391	2436.18873
933.566	2455.19988
933.742	2476.32235
933.918	2603.03324
934.094	2227.01177
934.27	2374.92472
934.445	2045.23204
934.621	2174.17493
934.797	1928.94978
934.973	1943.75038
935.148	1749.20833
935.324	1939.52167
935.5	1723.83059
935.675	1928.94978
935.851	1694.22261
936.027	1725.94542
936.202	1698.45236
936.378	1730.17507
936.553	1434.07789
936.729	1431.96284
936.904	1360.05143
937.08	1286.02648
937.255	1161.24841
937.431	1212.00427
937.606	911.74035
937.782	1140.10079
937.957	827.18311
938.133	943.45261
938.308	797.5914
938.483	841.97964
938.659	727.84706
938.834	875.80189
939.009	746.86714
939.185	744.75376
939.36	645.43704
939.535	687.69643
939.71	624.30913
939.886	725.73377
940.061	615.85832
940.236	609.52034
940.411	455.33367
940.586	556.70836
940.761	550.37148
940.937	575.71972
941.112	495.45715
941.287	531.3616
941.462	455.33367
941.637	446.88733
941.812	398.32572
941.987	370.88166
942.162	389.88109
942.337	375.10364
942.512	463.78027
942.687	421.54978
942.862	398.32572
943.037	398.32572
943.212	358.21613
943.386	278.01581
943.561	311.78121
943.736	339.219
943.911	332.88694
944.086	265.355
944.26	320.22329
944.435	267.46509
944.61	212.60907
944.785	415.21575
944.959	334.99761
945.134	305.44984
945.309	263.24494
945.483	417.32708
945.658	332.88694
945.833	318.11274
946.007	254.80485
946.182	305.44984
946.357	322.33385
946.531	271.68532
946.706	294.89792
946.88	320.22329
947.055	278.01581
947.229	356.10527
947.404	343.44047
947.578	328.66565
947.752	301.22902
947.927	366.65975
948.101	290.67728
948.276	377.21465
948.45	343.44047
948.624	366.65975
948.799	237.92561
948.973	413.10444
949.147	349.77279
949.321	360.32701
949.496	402.54813
949.67	316.00221
949.844	404.65936
950.018	385.65888
950.193	316.00221
950.367	391.99222
950.541	311.78121
950.715	413.10444
950.889	320.22329
951.063	362.43791
951.237	379.32569
951.411	436.32974
951.585	318.11274
951.759	337.1083
951.933	269.5752
952.107	444.77578
952.281	377.21465
952.455	330.77629
952.629	389.88109
952.803	455.33367
952.977	328.66565
953.151	387.76998
953.325	438.44123
953.499	455.33367
953.672	356.10527
953.846	387.76998
954.02	313.8917
954.194	432.10681
954.368	313.8917
954.541	398.32572
954.715	372.99264
954.889	358.21613
955.062	451.11047
955.236	438.44123
955.41	406.7706
955.583	497.56906
955.757	362.43791
955.93	353.99443
956.104	404.65936
956.278	480.67419
956.451	324.44443
956.625	337.1083
956.798	366.65975
956.972	353.99443
957.145	320.22329
957.319	508.12883
957.492	372.99264
957.665	506.01685
957.839	351.8836
958.012	334.99761
958.185	419.43842
958.359	436.32974
958.532	375.10364
958.705	432.10681
958.879	366.65975
959.052	465.89196
959.225	432.10681
959.398	489.12151
959.572	375.10364
959.745	404.65936
959.918	362.43791
960.091	508.12883
960.264	370.88166
960.438	366.65975
960.611	379.32569
960.784	345.55122
960.957	326.55503
961.13	318.11274
961.303	389.88109
961.476	372.99264
961.649	271.68532
961.822	341.32972
961.995	339.219
962.168	459.55694
962.341	415.21575
962.514	375.10364
962.686	353.99443
962.859	440.55273
963.032	364.54882
963.205	364.54882
963.378	307.56028
963.551	370.88166
963.723	413.10444
963.896	307.56028
964.069	358.21613
964.242	326.55503
964.414	343.44047
964.587	343.44047
964.76	402.54813
964.932	286.45672
965.105	337.1083
965.278	402.54813
965.45	286.45672
965.623	364.54882
965.795	345.55122
965.968	332.88694
966.14	284.34646
966.313	337.1083
966.485	328.66565
966.658	307.56028
966.83	286.45672
967.003	345.55122
967.175	299.11864
967.348	303.33942
967.52	225.26699
967.692	231.59621
967.865	252.69488
968.037	301.22902
968.209	265.355
968.382	364.54882
968.554	278.01581
968.726	396.21454
968.898	240.03545
969.071	265.355
969.243	235.81579
969.415	254.80485
969.587	252.69488
969.759	252.69488
969.932	218.93794
970.104	216.8283
970.276	214.71868
970.448	362.43791
970.62	197.84241
970.792	288.56699
970.964	159.87558
971.136	193.62355
971.308	227.37671
971.48	180.96744
971.652	189.40476
971.824	292.78759
971.996	159.87558
972.168	278.01581
972.339	168.31207
972.511	210.49949
972.683	210.49949
972.855	143.00359
973.027	168.31207
973.199	153.54842
973.37	202.06136
973.542	265.355
973.714	126.13296
973.886	212.60907
974.057	128.24171
974.229	191.51415
974.401	191.51415
974.572	168.31207
974.744	269.5752
974.915	235.81579
975.087	155.65745
975.259	153.54842
975.43	206.28038
975.602	250.58493
975.773	100.82962
975.945	214.71868
976.116	143.00359
976.288	221.0476
976.459	153.54842
976.63	159.87558
976.802	83.96248
976.973	197.84241
977.145	145.11251
977.316	210.49949
977.487	155.65745
977.659	67.09678
977.83	170.42125
978.001	88.17913
978.172	166.20292
978.344	183.07674
978.515	202.06136
978.686	117.69816
978.857	218.93794
979.028	52.34049
979.2	128.24171
979.371	199.95188
979.542	143.00359
979.713	143.00359
979.884	126.13296
980.055	100.82962
980.226	168.31207
980.397	168.31207
980.568	92.39587
980.739	145.11251
980.91	77.63768
981.081	100.82962
981.252	126.13296
981.423	126.13296
981.594	67.09678
981.765	100.82962
981.936	124.02423
982.106	48.12461
982.277	117.69816
982.448	140.89469
982.619	126.13296
982.79	109.26371
982.96	130.35049
983.131	155.65745
983.302	79.74592
983.472	50.23254
983.643	62.88058
983.814	81.85419
983.984	153.54842
984.155	96.6127
984.326	140.89469
984.496	168.31207
984.667	143.00359
984.837	94.50427
985.008	128.24171
985.178	161.98467
985.349	210.49949
985.519	24.93896
985.69	88.17913
985.86	92.39587
986.031	81.85419
986.201	10.18593
986.371	46.01671
986.542	88.17913
986.712	94.50427
986.882	151.43941
987.053	105.04662
987.223	88.17913
987.393	113.4809
987.563	1.75615
987.734	67.09678
987.904	8.07845
988.074	100.82962
988.244	119.80683
988.414	67.09678
988.585	41.80097
988.755	54.44846
988.925	-46.70749
989.095	96.6127
989.265	94.50427
989.435	50.23254
989.605	39.69314
989.775	12.29343
989.945	96.6127
990.115	79.74592
990.285	126.13296
990.455	52.34049
990.625	33.36978
990.795	100.82962
990.965	20.72369
991.134	22.83131
991.304	60.77252
991.474	50.23254
991.644	58.66448
991.814	111.37229
991.984	176.7489
992.153	143.00359
992.323	98.72115
992.493	18.61609
992.662	33.36978
992.832	29.15432
993.002	69.20492
993.171	73.42125
993.341	77.63768
993.511	35.47754
993.68	69.20492
993.85	24.93896
994.019	60.77252
994.189	145.11251
994.358	83.96248
994.528	31.26204
994.697	79.74592
994.867	92.39587
995.036	20.72369
995.206	79.74592
995.375	-12.99502
995.544	24.93896
995.714	46.01671
995.883	121.91552
996.052	20.72369
996.222	18.61609
996.391	71.31307
996.56	1.75615
996.73	18.61609
996.899	10.18593
997.068	121.91552
997.237	52.34049
997.406	22.83131
997.576	43.90883
997.745	88.17913
997.914	37.58533
998.083	12.29343
998.252	54.44846
998.421	52.34049
998.59	41.80097
998.759	83.96248
998.928	33.36978
999.097	-15.10224
999.266	20.72369
999.435	69.20492
999.604	54.44846
999.773	105.04662
999.942	-4.56592
1000.111	-17.20943
1000.28	12.29343
1000.448	24.93896
1000.617	-57.24133
1000.786	46.01671
1000.955	-25.63794
1001.124	-0.35123
1001.292	27.04663
1001.461	79.74592
1001.63	-19.31659
1001.798	10.18593
1001.967	22.83131
1002.136	-15.10224
1002.304	77.63768
1002.473	16.50851
1002.642	88.17913
1002.81	-25.63794
1002.979	37.58533
1003.147	3.86356
1003.316	18.61609
1003.484	75.52945
1003.653	41.80097
1003.821	-15.10224
1003.99	46.01671
1004.158	35.47754
1004.327	-42.49378
1004.495	22.83131
1004.663	58.66448
1004.832	8.07845
1005	50.23254
1005.168	10.18593
1005.337	52.34049
1005.505	-12.99502
1005.673	33.36978
1005.842	5.97099
1006.01	-21.42373
1006.178	33.36978
1006.346	64.98867
1006.514	35.47754
1006.683	24.93896
1006.851	24.93896
1007.019	1.75615
1007.187	31.26204
1007.355	43.90883
1007.523	-2.45859
1007.691	50.23254
1007.859	92.39587
1008.027	-4.56592
1008.195	-8.78052
1008.363	-36.17303
1008.531	39.69314
1008.699	-21.42373
1008.867	3.86356
1009.035	-10.88778
1009.203	50.23254
1009.37	-38.27997
1009.538	12.29343
1009.706	-34.06606
1009.874	41.80097
1010.042	54.44846
1010.209	-42.49378
1010.377	67.09678
1010.545	-21.42373
1010.713	3.86356
1010.88	56.55646
1011.048	5.97099
1011.216	-44.60065
1011.383	1.75615
1011.551	18.61609
1011.718	3.86356
1011.886	-21.42373
1012.054	31.26204
1012.221	56.55646
1012.389	-71.98763
1012.556	58.66448
1012.724	35.47754
1012.891	-29.85205
1013.058	-6.67324
1013.226	75.52945
1013.393	16.50851
1013.561	16.50851
1013.728	16.50851
1013.895	-78.3071
1014.063	-23.53085
1014.23	8.07845
1014.397	-12.99502
1014.565	18.61609
1014.732	18.61609
1014.899	-126.74853
1015.066	-25.63794
1015.233	24.93896
1015.401	-15.10224
1015.568	83.96248
1015.735	29.15432
1015.902	18.61609
1016.069	35.47754
1016.236	41.80097
1016.403	54.44846
1016.57	-2.45859
1016.737	-65.66794
1016.904	-53.02787
1017.071	-6.67324
1017.238	43.90883
1017.405	16.50851
1017.572	-65.66794
1017.739	27.04663
1017.906	-17.20943
1018.073	-15.10224
1018.24	33.36978
1018.407	12.29343
1018.573	-0.35123
1018.74	20.72369
1018.907	8.07845
1019.074	41.80097
1019.241	31.26204
1019.407	77.63768
1019.574	41.80097
1019.741	-17.20943
1019.907	-55.13461
1020.074	16.50851
1020.241	-38.27997
1020.407	27.04663
1020.574	29.15432
1020.74	18.61609
1020.907	29.15432
1021.073	-4.56592
1021.24	-29.85205
1021.406	18.61609
1021.573	67.09678
1021.739	-6.67324
1021.906	-15.10224
1022.072	92.39587
1022.239	35.47754
1022.405	-31.95906
1022.571	-25.63794
1022.738	-12.99502
1022.904	-6.67324
1023.07	-12.99502
1023.237	-25.63794
1023.403	43.90883
1023.569	8.07845
1023.735	20.72369
1023.902	-34.06606
1024.068	52.34049
1024.234	18.61609
1024.4	-42.49378
1024.566	-44.60065
1024.732	16.50851
1024.898	20.72369
1025.065	-25.63794
1025.231	-17.20943
1025.397	10.18593
1025.563	20.72369
1025.729	1.75615
1025.895	-71.98763
1026.061	-55.13461
1026.227	-59.34802
1026.392	-6.67324
1026.558	-10.88778
1026.724	-50.9211
1026.89	-17.20943
1027.056	-59.34802
1027.222	-0.35123
1027.388	-4.56592
1027.553	-2.45859
1027.719	-6.67324
1027.885	-38.27997
1028.051	-17.20943
1028.216	22.83131
1028.382	-2.45859
1028.548	33.36978
1028.713	-17.20943
1028.879	37.58533
1029.045	31.26204
1029.21	54.44846
1029.376	29.15432
1029.541	-25.63794
1029.707	-50.9211
1029.873	-21.42373
1030.038	48.12461
1030.204	8.07845
1030.369	-10.88778
1030.534	43.90883
1030.7	-17.20943
1030.865	-15.10224
1031.031	43.90883
1031.196	18.61609
1031.361	37.58533
1031.527	5.97099
1031.692	-25.63794
1031.857	-17.20943
1032.023	12.29343
1032.188	5.97099
1032.353	3.86356
1032.518	43.90883
1032.684	-27.74501
1032.849	-21.42373
1033.014	24.93896
1033.179	-71.98763
1033.344	-15.10224
1033.509	22.83131
1033.674	-105.68875
1033.839	12.29343
1034.004	-17.20943
1034.17	3.86356
1034.335	12.29343
1034.5	29.15432
1034.664	-21.42373
1034.829	20.72369
1034.994	-8.78052
1035.159	-29.85205
1035.324	-42.49378
1035.489	29.15432
1035.654	33.36978
1035.819	33.36978
1035.984	-40.38689
1036.148	12.29343
1036.313	16.50851
1036.478	-29.85205
1036.643	41.80097
1036.807	-65.66794
1036.972	33.36978
1037.137	-21.42373
1037.301	33.36978
1037.466	12.29343
1037.631	-8.78052
1037.795	-0.35123
1037.96	100.82962
1038.124	-0.35123
1038.289	-8.78052
1038.454	-12.99502
1038.618	-34.06606
1038.783	-0.35123
1038.947	46.01671
1039.111	41.80097
1039.276	-48.81431
1039.44	71.31307
1039.605	-6.67324
1039.769	-34.06606
1039.933	-50.9211
1040.098	-48.81431
1040.262	-57.24133
1040.426	-19.31659
1040.591	50.23254
1040.755	-21.42373
1040.919	24.93896
1041.083	-17.20943
1041.248	-8.78052
1041.412	12.29343
1041.576	-71.98763
1041.74	-82.51994
1041.904	56.55646
1042.068	-15.10224
1042.232	75.52945
1042.397	92.39587
1042.561	8.07845
1042.725	1.75615
1042.889	-38.27997
1043.053	50.23254
1043.217	79.74592
1043.381	-55.13461
1043.544	-6.67324
1043.708	22.83131
1043.872	8.07845
1044.036	-55.13461
1044.2	33.36978
1044.364	22.83131
1044.528	-34.06606
1044.691	-8.78052
1044.855	39.69314
1045.019	-12.99502
1045.183	-65.66794
1045.346	-53.02787
1045.51	-21.42373
1045.674	46.01671
1045.837	-67.77453
1046.001	-42.49378
1046.165	-12.99502
1046.328	-12.99502
1046.492	-31.95906
1046.655	1.75615
1046.819	-15.10224
1046.983	-40.38689
1047.146	24.93896
1047.31	-71.98763
1047.473	22.83131
1047.636	-80.41353
1047.8	-17.20943
1047.963	-63.56133
1048.127	-8.78052
1048.29	58.66448
