Data from absorb_only_2.23.25_USB4F045381__60__0165.txt Node

Date: Sun Feb 23 19:23:45 EST 2025
User: ssocol
Spectrometer: USB4F04538
Trigger mode: 4
Integration Time (sec): 2.600000E-3
Scans to average: 1
Electric dark correction enabled: true
Nonlinearity correction enabled: true
Boxcar width: 0
XAxis mode: Wavelengths
Number of Pixels in Spectrum: 3648
>>>>>Begin Spectral Data<<<<<
345.52	7.37596
345.736	7.37596
345.952	7.37596
346.168	-53.73012
346.384	-34.76838
346.6	-7.37567
346.816	-11.5902
347.032	7.37596
347.248	-43.19607
347.464	57.9618
347.68	-22.12611
347.896	-22.12611
348.112	11.59093
348.328	-17.91182
348.544	-24.23321
348.76	43.20621
348.975	28.45175
349.191	-24.23321
349.407	-30.55439
349.623	26.34407
349.839	-32.6614
350.055	-97.96616
350.27	5.26851
350.486	-17.91182
350.702	15.80599
350.918	-51.62336
351.133	-41.08919
351.349	41.09836
351.565	57.9618
351.781	22.12877
351.996	-13.69743
352.212	-15.80464
352.428	28.45175
352.644	9.48343
352.859	26.34407
353.075	-47.40976
353.291	-1.05368
353.506	-7.37567
353.722	32.66719
353.938	-47.40976
354.153	-26.3403
354.369	-24.23321
354.584	-15.80464
354.8	91.69308
355.016	-7.37567
355.231	-26.3403
355.447	-15.80464
355.662	74.82672
355.878	-32.6614
356.093	34.77495
356.309	-57.94356
356.524	-72.68981
356.74	45.31408
356.955	74.82672
357.171	15.80599
357.386	-17.91182
357.602	-17.91182
357.817	-55.83685
358.033	24.2364
358.248	-9.48295
358.464	-9.48295
358.679	11.59093
358.895	-26.3403
359.11	-64.26353
359.325	24.2364
359.541	-38.98228
359.756	-51.62336
359.972	-51.62336
360.187	-24.23321
360.402	-9.48295
360.618	83.25972
360.833	30.55946
361.048	26.34407
361.264	-9.48295
361.479	-1.05368
361.694	-5.26836
361.909	26.34407
362.125	-26.3403
362.34	43.20621
362.555	-26.3403
362.77	9.48343
362.986	-13.69743
363.201	-41.08919
363.416	-100.07236
363.631	-9.48295
363.847	24.2364
364.062	-17.91182
364.277	13.69845
364.492	64.28597
364.707	-1.05368
364.922	-32.6614
365.138	-17.91182
365.353	-9.48295
365.568	85.36802
365.783	24.2364
365.998	-3.16104
366.213	26.34407
366.428	-9.48295
366.643	-51.62336
366.858	-5.26836
367.073	-15.80464
367.288	-43.19607
367.503	-41.08919
367.718	24.2364
367.933	-28.44736
368.148	32.66719
368.363	-15.80464
368.578	-26.3403
368.793	-51.62336
369.008	-1.05368
369.223	-22.12611
369.438	60.06984
369.653	-57.94356
369.868	-47.40976
370.083	-49.51657
370.298	-36.87534
370.513	45.31408
370.728	45.31408
370.943	-41.08919
371.157	7.37596
371.372	9.48343
371.587	15.80599
371.802	57.9618
372.017	-26.3403
372.232	-68.47672
372.446	-30.55439
372.661	-13.69743
372.876	-13.69743
373.091	-41.08919
373.306	32.66719
373.52	-17.91182
373.735	28.45175
373.95	-17.91182
374.165	-5.26836
374.379	24.2364
374.594	-1.05368
374.809	-1.05368
375.023	1.05369
375.238	34.77495
375.453	11.59093
375.667	1.05369
375.882	-28.44736
376.097	-64.26353
376.311	24.2364
376.526	-64.26353
376.741	-76.90279
376.955	15.80599
377.17	-5.26836
377.384	43.20621
377.599	1.05369
377.813	49.5299
378.028	7.37596
378.242	-41.08919
378.457	68.5022
378.672	60.06984
378.886	43.20621
379.101	-47.40976
379.315	5.26851
379.53	-30.55439
379.744	-26.3403
379.958	22.12877
380.173	20.02115
380.387	49.5299
380.602	-1.05368
380.816	-9.48295
381.031	-57.94356
381.245	1.05369
381.459	-38.98228
381.674	-1.05368
381.888	15.80599
382.103	-17.91182
382.317	51.63784
382.531	49.5299
382.746	1.05369
382.96	24.2364
383.174	-24.23321
383.388	-22.12611
383.603	-13.69743
383.817	-9.48295
384.031	-74.79631
384.246	-34.76838
384.46	-11.5902
384.674	15.80599
384.888	7.37596
385.103	-17.91182
385.317	32.66719
385.531	-1.05368
385.745	-47.40976
385.959	-57.94356
386.174	15.80599
386.388	-30.55439
386.602	-66.37014
386.816	20.02115
387.03	-28.44736
387.244	-57.94356
387.458	-41.08919
387.672	-57.94356
387.887	-9.48295
388.101	-15.80464
388.315	-79.00925
388.529	11.59093
388.743	20.02115
388.957	17.91356
389.171	-22.12611
389.385	-24.23321
389.599	-43.19607
389.813	3.16109
390.027	-13.69743
390.241	9.48343
390.455	-5.26836
390.669	49.5299
390.883	-28.44736
391.097	-43.19607
391.311	15.80599
391.525	-24.23321
391.738	55.85379
391.952	-97.96616
392.166	72.71852
392.38	-34.76838
392.594	32.66719
392.808	-47.40976
393.022	26.34407
393.236	36.88273
393.449	32.66719
393.663	-57.94356
393.877	5.26851
394.091	9.48343
394.305	-22.12611
394.518	-1.05368
394.732	-24.23321
394.946	-1.05368
395.16	45.31408
395.373	9.48343
395.587	9.48343
395.801	15.80599
396.015	-41.08919
396.228	7.37596
396.442	51.63784
396.656	-38.98228
396.869	15.80599
397.083	-26.3403
397.297	-43.19607
397.51	-15.80464
397.724	-30.55439
397.938	53.7458
398.151	-38.98228
398.365	55.85379
398.578	-7.37567
398.792	15.80599
399.005	74.82672
399.219	-1.05368
399.433	49.5299
399.646	34.77495
399.86	-30.55439
400.073	38.99053
400.287	-43.19607
400.5	-55.83685
400.714	7.37596
400.927	-22.12611
401.141	-13.69743
401.354	41.09836
401.567	57.9618
401.781	-9.48295
401.994	60.06984
402.208	55.85379
402.421	20.02115
402.635	22.12877
402.848	-3.16104
403.061	-24.23321
403.275	-26.3403
403.488	-34.76838
403.701	17.91356
403.915	5.26851
404.128	45.31408
404.341	49.5299
404.555	28.45175
404.768	-32.6614
404.981	13.69845
405.195	-60.05024
405.408	28.45175
405.621	7.37596
405.834	26.34407
406.048	13.69845
406.261	68.5022
406.474	-34.76838
406.687	-28.44736
406.9	-76.90279
407.114	15.80599
407.327	28.45175
407.54	-22.12611
407.753	11.59093
407.966	11.59093
408.179	72.71852
408.392	-49.51657
408.605	-74.79631
408.819	34.77495
409.032	26.34407
409.245	-9.48295
409.458	26.34407
409.671	3.16109
409.884	-1.05368
410.097	28.45175
410.31	26.34407
410.523	17.91356
410.736	28.45175
410.949	-1.05368
411.162	9.48343
411.375	26.34407
411.588	41.09836
411.801	-62.1569
412.014	53.7458
412.227	-7.37567
412.44	49.5299
412.653	62.17789
412.865	43.20621
413.078	51.63784
413.291	32.66719
413.504	11.59093
413.717	34.77495
413.93	11.59093
414.143	41.09836
414.356	-43.19607
414.568	57.9618
414.781	34.77495
414.994	1.05369
415.207	-32.6614
415.42	-34.76838
415.632	64.28597
415.845	-1.05368
416.058	-13.69743
416.271	53.7458
416.483	26.34407
416.696	-13.69743
416.909	-81.11567
417.121	-1.05368
417.334	20.02115
417.547	-34.76838
417.759	24.2364
417.972	-30.55439
418.185	7.37596
418.397	-55.83685
418.61	7.37596
418.823	-28.44736
419.035	-38.98228
419.248	-22.12611
419.46	-64.26353
419.673	-7.37567
419.885	-34.76838
420.098	-47.40976
420.311	91.69308
420.523	24.2364
420.736	7.37596
420.948	-15.80464
421.161	3.16109
421.373	60.06984
421.586	28.45175
421.798	-34.76838
422.01	-5.26836
422.223	-11.5902
422.435	34.77495
422.648	-9.48295
422.86	17.91356
423.073	53.7458
423.285	-7.37567
423.497	57.9618
423.71	43.20621
423.922	-36.87534
424.134	-5.26836
424.347	-57.94356
424.559	-20.01897
424.771	7.37596
424.984	-32.6614
425.196	34.77495
425.408	17.91356
425.621	-34.76838
425.833	-68.47672
426.045	26.34407
426.257	24.2364
426.47	9.48343
426.682	20.02115
426.894	28.45175
427.106	62.17789
427.318	45.31408
427.531	74.82672
427.743	66.39408
427.955	49.5299
428.167	-41.08919
428.379	-34.76838
428.591	66.39408
428.804	-5.26836
429.016	-51.62336
429.228	-7.37567
429.44	1.05369
429.652	95.90989
429.864	-7.37567
430.076	-85.32845
430.288	-47.40976
430.5	20.02115
430.712	91.69308
430.924	41.09836
431.136	20.02115
431.348	7.37596
431.56	-13.69743
431.772	36.88273
431.984	15.80599
432.196	34.77495
432.408	-28.44736
432.62	45.31408
432.832	93.80147
433.044	-3.16104
433.256	7.37596
433.468	72.71852
433.679	-7.37567
433.891	-15.80464
434.103	3.16109
434.315	-34.76838
434.527	104.34378
434.739	30.55946
434.95	68.5022
435.162	-5.26836
435.374	15.80599
435.586	30.55946
435.798	66.39408
436.009	62.17789
436.221	36.88273
436.433	32.66719
436.645	-20.01897
436.856	41.09836
437.068	87.47635
437.28	11.59093
437.491	7.37596
437.703	38.99053
437.915	-32.6614
438.126	91.69308
438.338	15.80599
438.55	24.2364
438.761	3.16109
438.973	24.2364
439.184	1.05369
439.396	-30.55439
439.608	83.25972
439.819	51.63784
440.031	62.17789
440.242	9.48343
440.454	83.25972
440.665	5.26851
440.877	30.55946
441.088	-22.12611
441.3	-11.5902
441.511	85.36802
441.723	-53.73012
441.934	55.85379
442.146	11.59093
442.357	32.66719
442.569	17.91356
442.78	-32.6614
442.991	36.88273
443.203	17.91356
443.414	79.04317
443.626	57.9618
443.837	3.16109
444.048	-24.23321
444.26	154.95444
444.471	49.5299
444.682	15.80599
444.894	-7.37567
445.105	-17.91182
445.316	49.5299
445.528	74.82672
445.739	28.45175
445.95	51.63784
446.161	135.97399
446.373	24.2364
446.584	100.12679
446.795	51.63784
447.006	1.05369
447.217	15.80599
447.429	7.37596
447.64	26.34407
447.851	24.2364
448.062	43.20621
448.273	32.66719
448.484	91.69308
448.695	110.66943
448.907	57.9618
449.118	83.25972
449.329	7.37596
449.54	53.7458
449.751	-22.12611
449.962	24.2364
450.173	45.31408
450.384	28.45175
450.595	110.66943
450.806	60.06984
451.017	79.04317
451.228	47.42198
451.439	43.20621
451.65	57.9618
451.861	76.93493
452.072	68.5022
452.283	89.5847
452.494	22.12877
452.705	76.93493
452.915	125.43005
453.126	93.80147
453.337	72.71852
453.548	95.90989
453.759	85.36802
453.97	51.63784
454.181	70.61035
454.391	68.5022
454.602	95.90989
454.813	127.53879
455.024	66.39408
455.235	41.09836
455.445	133.86516
455.656	57.9618
455.867	91.69308
456.078	28.45175
456.288	83.25972
456.499	74.82672
456.71	91.69308
456.921	76.93493
457.131	102.23527
457.342	76.93493
457.553	68.5022
457.763	83.25972
457.974	110.66943
458.184	41.09836
458.395	83.25972
458.606	127.53879
458.816	98.01833
459.027	57.9618
459.237	135.97399
459.448	49.5299
459.659	100.12679
459.869	49.5299
460.08	60.06984
460.29	100.12679
460.501	119.10394
460.711	150.73642
460.922	62.17789
461.132	85.36802
461.343	180.26435
461.553	110.66943
461.764	108.56086
461.974	20.02115
462.184	66.39408
462.395	161.28164
462.605	116.99528
462.816	116.99528
463.026	110.66943
463.236	176.04582
463.447	100.12679
463.657	32.66719
463.867	192.92041
464.078	176.04582
464.288	176.04582
464.498	233.00273
464.709	167.60902
464.919	188.70164
465.129	163.39074
465.339	167.60902
465.55	237.22233
465.76	83.25972
465.97	220.34438
466.18	192.92041
466.391	152.84542
466.601	171.82738
466.811	277.31241
467.021	216.12509
467.231	268.87183
467.441	228.7832
467.651	251.99156
467.862	302.63595
468.072	264.65165
468.282	230.89295
468.492	327.96211
468.702	277.31241
468.912	302.63595
469.122	298.41518
469.332	296.30482
469.542	277.31241
469.752	294.19448
469.962	344.84764
470.172	389.17739
470.382	382.84411
470.592	387.06628
470.802	471.52319
471.012	429.29157
471.222	446.18347
471.432	382.84411
471.642	498.97701
471.852	444.07193
472.062	505.31286
472.272	448.29503
472.482	399.73318
472.691	591.91544
472.901	513.76086
473.111	522.20909
473.321	615.15409
473.531	551.77967
473.741	657.41006
473.95	686.99207
474.16	684.87899
474.37	744.0493
474.58	758.84318
474.79	805.34143
474.999	695.44449
475.209	686.99207
475.419	779.97816
475.628	767.29705
475.838	794.77323
476.048	784.20528
476.258	845.50269
476.467	1092.8727
476.677	1008.29152
476.886	1130.93695
477.096	900.46529
477.306	1031.55043
477.515	1025.20702
477.725	1192.26563
477.935	987.14771
478.144	1128.82223
478.354	1156.31393
478.563	1287.43646
478.773	1190.15079
478.982	1262.05702
479.192	1353.00136
479.401	1369.92157
479.611	1367.80654
479.82	1517.97483
480.03	1462.9836
480.239	1553.93035
480.449	1386.84185
480.658	1646.98964
480.868	1666.02399
481.077	1640.64482
481.287	1562.39042
481.496	1748.5034
481.705	1727.35531
481.915	1989.5599
482.124	1919.78737
482.333	1875.38344
482.543	1936.70251
482.752	1932.47376
482.961	1981.10297
483.171	2152.33418
483.38	2038.18519
483.589	2268.57291
483.799	2188.26527
484.008	2228.42068
484.217	2088.92075
484.426	2471.39387
484.636	2348.8673
484.845	2469.28165
485.054	2403.79736
485.263	2465.05717
485.472	2522.08387
485.682	2625.55515
485.891	2655.11302
486.1	2439.70938
486.309	2627.66651
486.518	2766.98791
486.727	2595.99486
486.936	2788.09221
487.146	2653.00182
487.355	2819.74611
487.564	2859.83655
487.773	2986.40385
487.982	2969.53128
488.191	2988.51285
488.4	3051.77589
488.609	3119.24106
488.818	3144.53631
489.027	3176.1521
489.236	3268.87039
489.445	3237.2655
489.654	3437.36453
489.863	3502.6256
490.072	3287.8315
490.281	3492.1008
490.49	3473.15501
490.698	3504.73051
490.907	3492.1008
491.116	3738.25934
491.325	3588.91169
491.534	3626.78352
491.743	3643.61349
491.952	3868.59585
492.16	3879.10354
492.369	3778.20919
492.578	3677.26979
492.787	4051.35767
492.996	4034.55843
493.204	3992.55459
493.413	3893.81348
493.622	4147.92747
493.831	3963.14703
494.039	4139.53185
494.248	4105.94602
494.457	4324.1571
494.665	4204.58908
494.874	4347.2236
495.083	4271.72355
495.291	4280.11382
495.5	4313.67147
495.709	4275.91873
495.917	4483.47188
496.126	4556.79789
496.335	4311.57428
496.543	4692.90243
496.752	4374.48063
496.96	4630.0967
497.169	4569.36534
497.377	4646.84687
497.586	4575.64876
497.794	4891.65298
498.003	4728.48335
498.211	4998.2656
498.42	4833.0952
498.628	4856.10218
498.837	5075.5745
499.045	4966.91516
499.254	4960.64445
499.462	5063.04007
499.671	4782.88859
499.879	4906.28962
500.087	5002.44527
500.296	5127.79229
500.504	5248.88157
500.713	5190.43446
500.921	5334.43178
501.129	5228.00971
501.338	5090.19694
501.546	5403.26066
501.754	5282.2717
501.962	5357.37758
502.171	5344.86204
502.379	5565.84535
502.587	5255.14268
502.795	5474.14851
503.004	5324.00094
503.212	5655.41409
503.42	5597.09521
503.628	5522.08664
503.837	5517.9186
504.045	5805.29198
504.253	5694.97708
504.461	5740.77622
504.669	5645.00136
504.877	5761.59023
505.085	5592.92887
505.294	6065.20616
505.502	5611.67666
505.71	5915.54058
505.918	5905.1426
506.126	6079.75046
506.334	5846.90301
506.542	6125.45364
506.75	5763.6715
506.958	6083.90577
507.166	6023.64464
507.374	6281.17452
507.582	6009.09588
507.79	6144.14712
507.998	6206.44496
508.206	6133.76209
508.414	6102.60347
508.622	6318.52792
508.83	6200.21613
509.037	6177.37526
509.245	6173.22207
509.453	6389.0637
509.661	6106.75826
509.869	6341.35127
510.077	6154.53156
510.285	6333.0522
510.492	6509.3273
510.7	6418.10001
510.908	6368.32068
511.116	6521.7639
511.324	6208.52119
511.531	6409.80438
511.739	6513.47292
511.947	6747.55083
512.155	6666.79611
512.362	6724.77739
512.57	6515.5457
512.778	6598.43787
512.985	6588.07838
513.193	6615.01187
513.401	6745.48063
513.608	6836.54774
513.816	6683.36402
514.024	6606.72506
514.231	6712.35434
514.439	6917.22946
514.646	6879.99603
514.854	6921.36605
515.061	6691.64743
515.269	7030.95291
515.477	6749.621
515.684	7022.68441
515.892	6846.89348
516.099	7128.08092
516.307	6954.45555
516.514	7204.50876
516.722	7227.2247
516.929	7043.35498
517.136	6985.47171
517.344	7223.09473
517.551	7101.22067
517.759	7262.32589
517.966	7173.52817
518.173	7252.00267
518.381	7291.22797
518.588	7520.22866
518.796	7382.03509
519.003	7466.61283
519.21	7394.4146
519.418	7507.85707
519.625	7295.35648
519.832	7516.10488
520.039	7417.10834
520.247	7604.74719
520.454	7507.85707
520.661	7812.7992
520.868	7493.42257
521.076	7656.26527
521.283	7687.16976
521.49	7732.48774
521.697	7740.72628
521.904	7748.96449
522.112	7701.59022
522.319	7851.9138
522.526	7691.29
522.733	7884.84661
522.94	7693.35008
523.147	7660.38614
523.354	7897.19504
523.561	7876.6139
523.768	8026.80901
523.975	8150.17597
524.183	7678.92903
524.39	8357.68185
524.597	8191.28224
524.804	8277.57961
525.011	8187.17198
525.218	8041.20557
525.425	8018.58196
525.632	8125.50837
525.838	8111.1176
526.045	8259.09025
526.252	8176.89595
526.459	8259.09025
526.666	8181.00642
526.873	8281.68814
527.08	8222.10673
527.287	8556.78313
527.494	8244.70853
527.701	8540.36919
527.907	8433.64897
528.114	8581.40178
528.321	8484.9632
528.528	8536.26552
528.735	8577.29886
528.941	8567.04123
529.148	8482.91086
529.355	8706.50493
529.562	8521.90207
529.768	8786.4529
529.975	8511.64189
530.182	8876.61741
530.388	8794.65112
530.595	8735.20741
530.802	8909.39587
531.008	9071.17314
531.215	8909.39587
531.422	9093.69044
531.628	8960.6031
531.835	9099.83116
532.042	9005.65631
532.248	9224.65902
532.455	9167.36886
532.661	9243.0709
532.868	9193.96951
533.074	9214.4296
533.281	9060.93731
533.487	9304.43403
533.694	9101.87803
533.9	9643.71129
534.107	9294.20788
534.313	9320.795
534.52	9255.34473
534.726	9185.785
534.933	9345.33447
535.139	9361.6928
535.345	9380.09466
535.552	9586.51462
535.758	9766.23477
535.965	9854.00966
536.171	9594.68632
536.377	9798.89843
536.584	9404.62842
536.79	9508.87083
536.996	9639.62622
537.203	9602.85777
537.409	9578.34266
537.615	9896.86646
537.821	9686.60079
538.028	9898.90709
538.234	9772.3595
538.44	9796.85707
538.646	9760.1099
538.853	9843.8047
539.059	9672.30505
539.265	9966.23992
539.471	10007.04
539.677	10135.52298
539.883	9868.29598
540.09	9719.27395
540.296	10031.51729
540.502	10335.27609
540.708	10221.14748
540.914	10398.43645
541.12	10323.05004
541.326	10310.82351
541.532	10137.56195
541.738	10194.64726
541.944	10312.86129
542.15	10455.47371
542.356	10261.91255
542.562	10255.79814
542.768	10113.09348
542.974	10496.20842
543.18	10553.22845
543.386	10724.23002
543.592	10598.02298
543.798	10428.99339
544.004	10569.51807
544.21	10714.05377
544.415	10498.24502
544.621	11206.25492
544.827	10657.06115
545.033	10732.37081
545.239	10683.52319
545.445	10764.93205
545.651	10634.66858
545.856	11000.91183
546.062	10870.73522
546.268	10730.33563
546.474	10836.1492
546.679	10864.63205
546.885	10571.55422
547.091	10791.38582
547.297	10789.35098
547.502	11011.07994
547.708	10644.84721
547.914	10905.31792
548.119	11074.11607
548.325	11063.94966
548.531	10606.1668
548.736	10943.96526
548.942	10864.63205
549.147	10952.10102
549.353	10948.03316
549.559	11228.61247
549.764	11253.00109
549.97	11198.12459
550.175	11257.06572
550.381	11318.0302
550.586	11124.94404
550.792	11326.15811
550.997	11248.93643
551.203	11496.80766
551.408	11240.80697
551.614	11502.90102
551.819	11192.02674
552.025	11476.49583
552.23	11358.66814
552.435	11443.99491
552.641	11590.22992
552.846	11620.68945
553.052	11504.93213
553.257	11425.71206
553.462	11675.51146
553.668	11604.44463
553.873	11667.39009
554.078	11494.77652
554.283	11612.56711
554.489	12067.20471
554.694	11848.05723
554.899	12077.34818
555.105	11770.92686
555.31	12059.08979
555.515	11738.4472
555.72	11866.32316
555.925	11667.39009
556.131	12077.34818
556.336	11833.84993
556.541	11998.22394
556.746	11856.17551
556.951	12134.14807
557.156	11829.79062
557.361	12059.08979
557.567	12042.85959
557.772	12186.88554
557.977	11925.17546
558.182	11988.07894
558.387	12022.57113
558.592	11965.75924
558.797	11817.6125
559.002	12217.30872
559.207	11894.73548
559.412	11756.71728
559.617	12152.40392
559.822	12495.10054
560.027	12085.46281
560.232	12136.17653
560.437	12095.60594
560.642	12598.4803
560.847	12261.92644
561.051	12478.8826
561.256	12278.1502
561.461	12263.95443
561.666	12507.26372
561.871	12253.81439
562.076	12576.18408
562.281	12784.92925
562.485	12359.26225
562.69	12381.56613
562.895	12272.06634
563.1	12097.63454
563.305	12302.48499
563.509	12399.81414
563.714	12399.81414
563.919	12381.56613
564.123	12318.70762
564.328	12444.4181
564.533	12572.13015
564.737	12578.21104
564.942	12693.73763
565.147	12576.18408
565.351	12478.8826
565.556	12472.80077
565.761	12365.34521
565.965	12685.63113
566.17	12444.4181
566.374	12951.07172
566.579	12884.21386
566.784	12940.94211
566.988	12904.47442
567.193	12863.95276
567.397	12795.06094
567.602	13048.30954
567.806	12381.56613
568.011	12928.7864
568.215	13007.79519
568.42	13066.54035
568.624	12718.05654
568.828	12665.36449
569.033	12762.63904
569.237	13238.70147
569.442	12770.74465
569.646	12827.48142
569.85	12863.95276
570.055	13060.46346
570.259	12892.31815
570.463	13137.43427
570.668	13111.10292
570.872	13216.42365
571.076	13131.35788
571.281	13501.94657
571.485	13216.42365
571.689	13074.64281
571.893	13210.34779
572.098	13250.85278
572.302	13103.00081
572.506	13019.9497
572.71	12938.91617
572.914	13234.651
573.119	13212.37308
573.323	13360.2077
573.527	13076.66841
573.731	13457.4021
573.935	13489.79826
574.139	13718.57016
574.343	13459.42689
574.547	13797.51714
574.751	13795.49292
574.955	13491.82298
575.159	13528.26745
575.364	13619.37355
575.568	13422.98012
575.772	13475.62506
575.976	13327.80752
576.18	13105.02634
576.383	13582.93196
576.587	13647.71625
576.791	13443.22848
576.995	13852.17009
577.199	13665.93621
577.403	13420.95526
577.607	13639.6184
577.811	13647.71625
578.015	13289.33092
578.219	13489.79826
578.422	13850.14594
578.626	13649.7407
578.83	13724.64318
579.034	13807.63822
579.238	13840.02517
579.442	13967.54191
579.645	13755.00781
579.849	14010.04518
580.053	13757.03209
580.257	13955.39791
580.46	14046.4757
580.664	14005.9973
580.868	13653.7896
581.071	13763.10493
581.275	14050.52349
581.479	14068.73842
581.682	14005.9973
581.886	13884.55605
582.09	14064.69067
582.293	14271.11475
582.497	14034.33228
582.7	14260.99641
582.904	14256.94906
583.107	14430.97881
583.311	14008.02124
583.515	14206.35655
583.718	14273.13841
583.922	14443.11998
584.125	13945.27784
584.329	14182.0717
584.532	14159.81034
584.735	14248.85434
584.939	14173.97669
585.142	14396.57854
585.346	14329.80024
585.549	14520.01286
585.753	14416.81405
585.956	14374.31931
586.159	14362.17782
586.363	14568.57581
586.566	14443.11998
586.769	14532.15367
586.973	14382.4136
587.176	14611.06783
587.379	14376.34288
587.582	14588.81017
587.786	14536.20059
587.989	14530.1302
588.192	14564.52893
588.395	14607.02099
588.599	14558.45859
588.802	14481.56667
589.005	14564.52893
589.208	14748.65791
589.411	14459.30812
589.615	14647.48917
589.818	14843.75465
590.021	14542.27097
590.224	14649.51257
590.427	14821.49811
590.63	14772.93808
590.833	14807.33481
591.036	14955.03637
591.239	15171.52702
591.442	14918.61706
591.645	15141.17796
591.848	15102.7358
592.051	15078.45652
592.254	14967.17611
592.457	15450.7401
592.66	15201.87608
592.863	15035.96773
593.066	14910.52387
593.269	14987.40898
593.472	15171.52702
593.675	15527.62619
593.878	15347.55201
594.081	15183.66664
594.284	14922.66366
594.486	15288.87685
594.689	15250.43461
594.892	15541.78952
595.095	15052.15395
595.298	15224.13206
595.5	15209.96916
595.703	15183.66664
595.906	15169.50374
596.109	15420.39055
596.311	15477.04315
596.514	15272.69064
596.717	15345.52873
596.92	15669.26106
597.122	15515.48623
597.325	15499.29964
597.528	15274.71391
597.73	16041.58198
597.933	15628.79356
598.136	15519.53288
598.338	15612.60665
598.541	15816.97062
598.743	15624.74683
598.946	15499.29964
599.148	15347.55201
599.351	15632.84029
599.554	15588.32639
599.756	15806.85335
599.959	15701.63531
600.161	16003.13382
600.363	15895.88633
600.566	16053.72361
600.768	15901.95684
600.971	15818.99408
601.173	15681.40137
601.376	15839.22872
601.578	15721.86934
601.78	15865.53392
601.983	15839.22872
602.185	16025.39322
602.388	15995.03954
602.59	16169.07187
602.792	16148.83496
602.995	16096.21975
603.197	15984.92172
603.399	16258.11627
603.601	15883.74533
603.804	15865.53392
604.006	15865.53392
604.208	15786.6189
604.41	15995.03954
604.613	15786.6189
604.815	15932.30959
605.017	15920.16846
605.219	15681.40137
605.421	15841.25219
605.623	15752.22056
605.826	16440.26353
606.028	16150.85864
606.23	16211.56992
606.432	15906.00386
606.634	16577.89665
606.836	15934.33312
607.038	16405.85674
607.24	16138.71657
607.442	16227.75985
607.644	15954.56846
607.846	16254.06873
608.048	16235.85486
608.25	16288.4731
608.452	16037.53478
608.654	16262.16383
608.856	16033.48759
609.058	16001.11025
609.26	15750.19714
609.462	16229.7836
609.664	16154.90602
609.866	16098.24339
610.067	16037.53478
610.269	16175.14298
610.471	16051.7
610.673	16120.50356
610.875	15976.82748
611.077	16106.33798
611.278	15885.76883
611.48	16114.43259
611.682	15958.61554
611.884	16446.33537
612.085	16114.43259
612.287	16644.6928
612.489	16080.03066
612.69	16100.26703
612.892	16165.02448
613.094	16571.82439
613.295	16023.36963
613.497	16073.95978
613.699	16116.45624
613.9	16138.71657
614.102	16165.02448
614.304	15936.35665
614.505	16033.48759
614.707	16543.48745
614.908	15924.2155
615.11	16357.28342
615.311	16284.4255
615.513	16444.31142
615.714	16039.55838
615.916	16225.73611
616.117	15938.38017
616.319	16209.54619
616.52	16247.99742
616.722	16373.4744
616.923	16422.0481
617.124	16302.63975
617.326	16114.43259
617.527	16175.14298
617.729	16041.58198
617.93	16067.88892
618.131	16553.60773
618.333	16357.28342
618.534	16278.35411
618.735	16509.07887
618.937	16118.4799
619.138	16225.73611
619.339	16250.02119
619.54	16553.60773
619.742	16585.99302
619.943	16604.20999
620.144	16357.28342
620.345	16345.14026
620.546	16203.475
620.748	16432.16776
620.949	16387.64161
621.15	16705.41874
621.351	16464.55102
621.552	16494.91081
621.753	16405.85674
621.954	16274.30653
622.155	16474.6709
622.356	16422.0481
622.558	16312.75885
622.759	16537.4153
622.96	16100.26703
623.161	16365.3789
623.362	16106.33798
623.563	16622.42715
623.764	16266.21139
623.965	16399.78501
624.166	16245.97366
624.366	16397.76111
624.567	16011.22813
624.768	16422.0481
624.969	16122.52722
625.17	16254.06873
625.371	16401.80892
625.572	16361.33115
625.773	16274.30653
625.973	16624.45129
626.174	16381.56994
626.375	16673.03131
626.576	16903.80521
626.777	16717.56417
626.977	16324.90182
627.178	16600.16176
627.379	16114.43259
627.58	16258.11627
627.78	16361.33115
627.981	16114.43259
628.182	16158.9534
628.382	16551.58367
628.583	16304.66357
628.784	16500.98282
628.984	16051.7
629.185	16590.04122
629.386	16318.83033
629.586	16731.73396
629.787	16339.06871
629.987	16622.42715
630.188	16290.4969
630.388	16300.61594
630.589	16288.4731
630.79	16381.56994
630.99	16438.23958
631.191	16737.80676
631.391	16764.12248
631.591	16577.89665
631.792	16496.93481
631.992	16689.22495
632.193	16673.03131
632.393	16940.24617
632.594	16782.3413
632.794	16944.29522
632.994	16956.44243
633.195	16849.14533
633.395	16671.00712
633.595	16743.87958
633.796	16626.47543
633.996	16889.63395
634.196	17077.9198
634.397	16976.68798
634.597	17130.56307
634.797	17162.95987
634.997	16666.95874
635.198	16741.85531
635.398	16723.63693
635.598	16745.90386
635.798	16594.08943
635.998	16737.80676
636.199	16351.21183
636.399	16624.45129
636.599	16662.91037
636.799	16561.704
636.999	16345.14026
637.199	16671.00712
637.399	16782.3413
637.599	16640.64448
637.799	16409.90457
637.999	16845.09652
638.199	16887.60949
638.399	16924.05008
638.599	16553.60773
638.799	16865.34065
638.999	16729.7097
639.199	16887.60949
639.399	16832.95016
639.599	16932.14811
639.799	16598.13765
639.999	16996.9338
640.199	16656.83782
640.399	16668.98293
640.599	16177.16668
640.799	17077.9198
640.998	16794.48728
641.198	16865.34065
641.398	16664.93455
641.598	17086.01864
641.798	16899.75626
641.997	17223.70584
642.197	16871.41394
642.397	17003.0076
642.597	16719.58842
642.796	17045.52488
642.996	17019.20452
643.196	17243.95508
643.395	16861.29181
643.595	16741.85531
643.795	16875.46281
643.994	16930.1236
644.194	16590.04122
644.394	16986.81086
644.593	16816.75516
644.793	17081.96922
644.992	16820.80389
645.192	17187.25795
645.392	17029.32768
645.591	17491.02001
645.791	17256.10477
645.99	17310.77967
646.19	17118.41445
646.389	17108.29068
646.589	17019.20452
646.788	17015.15527
646.987	16940.24617
647.187	17361.40652
647.386	17061.72225
647.586	17207.50666
647.785	16885.58504
647.984	17015.15527
648.184	17114.36494
648.383	17031.35232
648.582	17142.71178
648.782	17456.59018
648.981	17353.3061
649.18	17193.33253
649.38	17501.1466
649.579	17501.1466
649.778	17578.11132
649.977	17634.82514
650.177	17146.76138
650.376	17375.58238
650.575	17077.9198
650.774	17302.67955
650.973	17158.91023
651.173	17177.1337
651.372	17077.9198
651.571	17432.28732
651.77	17343.18064
651.969	17474.81763
652.168	17217.63113
652.367	17209.53155
652.566	17100.19172
652.765	17164.98469
652.964	17152.83579
653.163	17160.93504
653.362	17359.38141
653.561	17274.32949
653.76	17316.85479
653.959	16899.75626
654.158	17286.47944
654.357	17013.13066
654.556	16851.16973
654.755	17158.91023
654.954	17414.06047
655.153	17231.8055
655.352	17088.04336
655.551	17250.02991
655.749	17221.68094
655.948	17359.38141
656.147	17329.00512
656.346	17331.03018
656.545	17264.20462
656.743	17142.71178
656.942	17292.55446
657.141	17414.06047
657.34	17397.85903
657.538	17713.82369
657.737	17339.13047
657.936	17715.84936
658.135	17719.90072
658.333	17705.72105
658.532	17324.955
658.731	17649.004
658.929	17369.50699
659.128	16974.66341
659.326	17193.33253
659.525	17685.46466
659.724	17296.60448
659.922	17353.3061
660.121	17221.68094
660.319	17525.45075
660.518	17430.2621
660.716	17314.82975
660.915	17584.18768
661.113	17474.81763
661.312	17557.857
661.51	17653.05513
661.709	17713.82369
661.907	17306.7296
662.105	17130.56307
662.304	17626.72301
662.502	17551.78076
662.701	17529.50149
662.899	17235.85535
663.097	17604.44242
663.296	17464.69124
663.494	17484.94409
663.692	17177.1337
663.891	17434.31254
664.089	17245.98002
664.287	17393.80871
664.485	17154.8606
664.684	17869.81022
664.882	17264.20462
665.08	17345.20572
665.278	17699.64409
665.476	17225.73075
665.675	17312.80471
665.873	17444.4387
666.071	17086.01864
666.269	17167.00952
666.467	17067.79631
666.665	17537.603
666.863	17553.80617
667.061	17701.66974
667.259	17225.73075
667.457	17539.62838
667.655	17466.71651
667.853	17187.25795
668.051	17260.15469
668.249	17422.16126
668.447	17320.90489
668.645	17602.41693
668.843	17258.12973
669.041	17594.31501
669.239	17493.04532
669.437	17507.2226
669.635	17191.30767
669.833	17401.90937
670.031	17122.46398
670.229	17104.2412
670.426	17318.87984
670.624	17282.42945
670.822	17177.1337
671.02	17262.17965
671.218	17142.71178
671.415	17041.47556
671.613	16768.17109
671.811	16867.36508
672.009	16930.1236
672.206	17077.9198
672.404	17073.8704
672.602	17549.75536
672.799	16980.73713
672.997	17280.40446
673.195	17345.20572
673.392	17250.02991
673.59	16859.26739
673.788	17173.08402
673.985	16814.73079
674.183	17108.29068
674.38	16869.38951
674.578	17003.0076
674.775	16826.87702
674.973	17460.6407
675.17	17318.87984
675.368	17343.18064
675.565	16924.05008
675.763	17189.2828
675.96	16802.58466
676.158	17114.36494
676.355	16760.07388
676.553	17369.50699
676.75	16654.81365
676.947	16745.90386
677.145	16579.92074
677.342	17047.54954
677.539	17126.51352
677.737	17152.83579
677.934	16982.7617
678.131	17173.08402
678.329	17219.65603
678.526	17401.90937
678.723	17160.93504
678.92	17217.63113
679.118	16715.53993
679.315	16642.66864
679.512	16462.52705
679.709	17039.45091
679.906	16711.49144
680.104	17019.20452
680.301	16847.12092
680.498	16729.7097
680.695	16754.001
680.892	16883.56059
681.089	16699.34605
681.286	16988.83544
681.483	16399.78501
681.68	16628.49957
681.877	16764.12248
682.075	16664.93455
682.272	16405.85674
682.469	16839.02333
682.665	16351.21183
682.862	16839.02333
683.059	16531.34317
683.256	16567.77623
683.453	16486.81482
683.65	16369.42665
683.847	16697.32182
684.044	16140.74024
684.241	16428.11989
684.438	16393.7133
684.635	16019.32246
684.831	16415.97632
685.028	16472.64692
685.225	16505.03084
685.422	16470.62294
685.619	16648.74114
685.815	16648.74114
686.012	16575.87256
686.209	16262.16383
686.405	16762.09818
686.602	16393.7133
686.799	16160.97709
686.996	16094.19611
687.192	16600.16176
687.389	16035.51118
687.586	16450.38328
687.782	16450.38328
687.979	16434.1917
688.175	16353.23569
688.372	16709.46721
688.568	16430.14382
688.765	16551.58367
688.962	16197.40382
689.158	16118.4799
689.355	16138.71657
689.551	16389.66551
689.748	16296.56832
689.944	16563.72808
690.14	16395.73721
690.337	16438.23958
690.533	16549.55961
690.73	16029.4404
690.926	16201.45127
691.123	15906.00386
691.319	15835.18178
691.515	15810.90026
691.712	15398.13427
691.908	16059.79445
692.104	15764.36112
692.301	15804.8299
692.497	15612.60665
692.693	16086.10156
692.889	15673.30783
693.086	15964.68618
693.282	16080.03066
693.478	16120.50356
693.674	16298.59213
693.87	16474.6709
694.067	15689.49494
694.263	15928.26254
694.459	15671.28444
694.655	16065.8653
694.851	15802.80645
695.047	15966.70972
695.243	15697.58851
695.439	15887.79233
695.635	15533.69619
695.831	16114.43259
696.027	15825.06446
696.224	15930.28606
696.42	15742.10346
696.615	15782.57202
696.811	15624.74683
697.007	15687.47154
697.203	15721.86934
697.399	15669.26106
697.595	15566.06958
697.791	15780.54858
697.987	15612.60665
698.183	16023.36963
698.379	15345.52873
698.575	16025.39322
698.77	15555.95287
698.966	15446.69349
699.162	15025.85134
699.358	15153.31758
699.554	15145.2245
699.749	15333.38902
699.945	15153.31758
700.141	15305.06308
700.337	15209.96916
700.532	15515.48623
700.728	15683.42476
700.924	15899.93334
701.119	15713.77571
701.315	15770.43141
701.511	15493.22968
701.706	15693.54172
701.902	15203.89935
702.097	15371.83147
702.293	15191.75972
702.489	15509.41625
702.684	15159.38739
702.88	15420.39055
703.075	15224.13206
703.271	15199.85281
703.466	15418.36725
703.662	15280.78374
703.857	15298.99324
704.053	15222.10879
704.248	15260.55098
704.443	15359.69173
704.639	15321.24932
704.834	15477.04315
705.03	15317.20276
705.225	15444.67018
705.42	15110.82889
705.616	15260.55098
705.811	15153.31758
706.006	15636.88703
706.202	15143.20123
706.397	15143.20123
706.592	14916.59377
706.787	15114.87543
706.983	14936.82674
707.178	15153.31758
707.373	15001.57197
707.568	15329.34245
707.763	15058.22378
707.959	15084.52635
708.154	15029.8979
708.349	14779.00811
708.544	14724.37762
708.739	14568.57581
708.934	14744.6112
709.129	15110.82889
709.324	14924.68696
709.519	15282.80702
709.714	15005.61853
709.909	15068.34015
710.104	14732.47106
710.299	14576.66957
710.494	14558.45859
710.689	14764.8447
710.884	14807.33481
711.079	15062.27033
711.274	14942.89662
711.469	14997.5254
711.664	14613.09125
711.859	14987.40898
712.054	14600.95073
712.249	14615.11466
712.443	14594.88045
712.638	14754.72796
712.833	14635.34876
713.028	14410.74341
713.223	14248.85434
713.417	14724.37762
713.612	14578.69301
713.807	14718.30752
714.002	14532.15367
714.196	14534.17713
714.391	14835.66137
714.586	14912.54717
714.78	15019.7815
714.975	14969.1994
715.17	14396.57854
715.364	14726.40098
715.559	14414.7905
715.754	14250.87802
715.948	14402.64921
716.143	14309.56403
716.337	14224.56999
716.532	14902.43066
716.726	14517.98939
716.921	14661.65294
717.115	14511.91897
717.31	14546.31788
717.504	14706.16732
717.699	14710.21406
717.893	14503.82505
718.088	14746.63455
718.282	14524.0598
718.476	14341.94188
718.671	14127.42972
718.865	14337.89468
719.059	14228.6174
719.254	14171.95293
719.448	14026.23662
719.642	14040.404
719.837	13522.19346
720.031	13953.3739
720.225	13811.68663
720.419	13943.25382
720.614	14091.00086
720.808	14068.73842
721.002	13815.73502
721.196	14311.58766
721.39	13744.88634
721.585	13848.1218
721.779	14236.7122
721.973	14368.24857
722.167	14099.09622
722.361	13755.00781
722.555	13720.5945
722.749	13682.1315
722.943	13759.05637
723.137	13757.03209
723.331	13783.34751
723.525	13637.59393
723.719	13625.44704
723.913	13831.9285
724.107	13617.34905
724.301	14044.4518
724.495	13457.4021
724.689	14119.33448
724.883	13410.83091
725.077	13619.37355
725.271	13508.02067
725.465	13651.76515
725.659	13455.37731
725.853	14076.83388
726.046	13791.44446
726.24	13742.86204
726.434	13398.68157
726.628	13759.05637
726.822	13483.72405
727.015	13953.3739
727.209	13769.17773
727.403	13589.00564
727.596	13524.21813
727.79	13629.49602
727.984	13325.78247
728.177	13827.88015
728.371	13639.6184
728.565	13431.07951
728.758	13663.91178
728.952	13544.46462
729.146	13698.32659
729.339	13884.55605
729.533	13613.30003
729.726	13898.72468
729.92	13633.54498
730.113	13647.71625
730.307	13872.4114
730.5	13680.1071
730.694	13655.81404
730.887	13435.12918
731.081	13649.7407
731.274	13467.526
731.468	13386.53208
731.661	13833.95267
731.854	13718.57016
732.048	14030.28445
732.241	13878.48373
732.435	13981.70979
732.628	13894.67651
732.821	13633.54498
733.014	13627.47153
733.208	13633.54498
733.401	13803.58979
733.594	13471.57554
733.788	13785.37175
733.981	13682.1315
734.174	13684.1559
734.367	13449.30291
734.56	13514.09475
734.754	13333.88263
734.947	13315.65717
735.14	13194.14529
735.333	13240.7267
735.526	13313.6321
735.719	13394.63176
735.912	13256.92838
736.105	13246.80236
736.298	12967.27883
736.491	13352.10775
736.684	13252.87799
736.877	13263.00394
737.07	13339.95771
737.263	13439.17884
737.456	13540.41535
737.649	13410.83091
737.842	13453.35251
738.035	13319.7073
738.228	13260.97876
738.421	13325.78247
738.614	13562.68615
738.807	13433.10435
739	12993.61469
739.192	13082.74519
739.385	13356.15773
739.578	13173.89177
739.771	13429.05467
739.964	13252.87799
740.156	13313.6321
740.349	12896.37026
740.542	13321.73236
740.735	13030.07832
740.927	12967.27883
741.12	13056.41217
741.313	13135.40881
741.505	12991.58889
741.698	13030.07832
741.891	12942.96804
742.083	13157.68862
742.276	13100.97527
742.468	12900.42235
742.661	12853.82201
742.854	12973.35642
743.046	12588.34575
743.239	12922.70848
743.431	12807.21879
743.624	12618.74893
743.816	12772.77104
744.009	12801.13989
744.201	12385.62129
744.393	12553.88712
744.586	12649.15074
744.778	12872.05726
744.971	12472.80077
745.163	12709.95033
745.355	12616.7221
745.548	12653.20422
745.74	12671.44455
745.932	13046.28386
746.125	12711.97689
746.317	12940.94211
746.509	12572.13015
746.702	12600.50719
746.894	12432.2537
747.086	12728.18917
747.278	12632.93661
747.471	12568.07618
747.663	12308.56853
747.855	12519.42667
748.047	12651.17748
748.239	12665.36449
748.431	12578.21104
748.623	12523.48094
748.815	12551.86008
749.008	12752.5069
749.2	12588.34575
749.392	12606.58782
749.584	12634.9634
749.776	12819.37643
749.968	12689.68439
750.16	12835.58631
750.352	12659.28438
750.544	12521.45381
750.736	12503.20936
750.928	12685.63113
751.12	12357.23459
751.311	12397.78661
751.503	12588.34575
751.695	12142.26186
751.887	12381.56613
752.079	12324.79099
752.271	12393.73153
752.463	12592.39959
752.654	12673.47122
752.846	12653.20422
753.038	12653.20422
753.23	12533.61649
753.421	12543.75188
753.613	12345.06845
753.805	12420.08907
753.997	12336.95755
754.188	12316.67982
754.38	12044.88839
754.572	12197.02678
754.763	12580.238
754.955	12142.26186
755.146	12126.03416
755.338	11937.35093
755.53	12211.22422
755.721	12324.79099
755.913	12172.68748
756.104	12107.77743
756.296	11986.04991
756.487	11825.73128
756.679	11971.84652
756.87	11683.63268
757.062	11716.11613
757.253	11614.59771
757.445	11740.47724
757.636	11821.67191
757.827	11752.65733
758.019	11685.66296
758.21	11677.54177
758.401	11547.58308
758.593	11714.08598
758.784	11752.65733
758.975	11728.29685
759.167	11695.81424
759.358	11951.55528
759.549	11407.42841
759.74	11740.47724
759.932	11580.07628
760.123	11580.07628
760.314	11701.9049
760.505	11259.09802
760.696	11305.83804
760.888	11281.45261
761.079	11175.76532
761.27	11443.99491
761.461	11760.77721
761.652	11689.7235
761.843	11431.80643
762.034	11689.7235
762.225	11399.3021
762.416	11403.36527
762.607	11153.40478
762.798	11309.90213
762.989	11269.25935
763.18	11783.10616
763.371	11446.02629
763.562	11549.61398
763.753	11561.79915
763.944	11612.56711
764.135	11214.38509
764.326	11594.29131
764.517	11122.91105
764.708	11094.44806
764.899	10870.73522
765.089	10968.37201
765.28	10748.65181
765.471	10984.64227
765.662	10834.11462
765.853	10895.14688
766.043	10956.16884
766.234	10899.21533
766.425	11078.18255
766.615	11250.96876
766.806	11078.18255
766.997	10840.21832
767.187	10848.35641
767.378	11171.69986
767.569	10744.58163
767.759	11027.34833
767.95	10821.90692
768.141	10972.43964
768.331	10935.82932
768.522	11124.94404
768.712	10675.38125
768.903	10834.11462
769.093	10665.20354
769.284	10536.93802
769.474	10520.64679
769.665	10604.13086
769.855	10396.39921
770.046	10628.56126
770.236	10278.21706
770.426	10123.28892
770.617	10127.367
770.807	10451.39996
770.998	10276.17905
771.188	10471.76821
771.378	10443.25229
771.569	10492.13518
771.759	10355.65178
771.949	10463.62106
772.139	10453.43684
772.33	10015.19933
772.52	10113.09348
772.71	10290.44488
772.9	10612.27453
773.09	10510.46435
773.281	10343.42653
773.471	10610.23863
773.661	10602.09491
773.851	10316.93683
774.041	9843.8047
774.231	10002.96025
774.421	9929.5149
774.611	10145.71766
774.802	9917.27217
774.992	9923.3936
775.182	10055.99253
775.372	10329.16312
775.562	10060.07153
775.752	10204.83992
775.942	10043.75517
776.131	10149.79543
776.321	9978.48055
776.511	10129.40601
776.701	9782.56708
776.891	10106.97605
777.081	9678.43189
777.271	9729.48351
777.461	9596.72921
777.651	9704.97993
777.84	9666.17807
778.03	9696.81158
778.22	9537.4791
778.41	9594.68632
778.599	9559.95484
778.789	9884.62232
778.979	9835.64046
779.169	9780.52559
779.358	10082.50506
779.548	10015.19933
779.738	9707.02198
779.927	9696.81158
780.117	10015.19933
780.307	9721.31589
780.496	9631.45589
780.686	9686.60079
780.875	9829.51713
781.065	9682.51637
781.254	9508.87083
781.444	9545.65232
781.633	9529.30563
781.823	9606.94341
782.012	9529.30563
782.202	9584.47165
782.391	9445.5128
782.581	9320.795
782.77	9429.15982
782.96	9574.25659
783.149	9288.072
783.338	9451.6449
783.528	9148.95133
783.717	9110.06534
783.906	9087.54956
784.096	9380.09466
784.285	9142.81185
784.474	9130.53243
784.663	9167.36886
784.853	8962.65115
785.042	9085.50257
785.231	9183.73883
785.42	9153.04424
785.61	9169.41516
785.799	8972.89118
785.988	9275.79977
786.177	8925.78339
786.366	8829.49032
786.555	9054.79561
786.744	8929.88009
786.933	8852.03055
787.122	8792.60159
787.312	8841.78526
787.501	8774.15502
787.69	8784.4033
787.879	9007.70399
788.068	8872.51978
788.257	8757.75683
788.445	8720.85662
788.634	8983.13077
788.823	8753.6571
789.012	8792.60159
789.201	8722.90679
789.39	8829.49032
789.579	8690.1019
789.768	8788.50248
789.957	8501.38124
790.145	8706.50493
790.334	8681.89993
790.523	8487.01552
790.712	8435.70177
790.9	8468.54395
791.089	8170.7301
791.278	8698.30356
791.467	8363.84233
791.655	8402.85467
791.844	8355.62831
792.033	8534.21366
792.221	8480.8585
792.41	8811.04669
792.599	8078.22073
792.787	8197.4475
792.976	8045.31869
793.164	8246.76312
793.353	7901.31102
793.541	8285.79659
793.73	8181.00642
793.918	8417.22588
794.107	8107.00577
794.295	8129.61983
794.484	7934.2359
794.672	8178.9512
794.861	8051.48821
795.049	8452.12347
795.238	8232.38057
795.426	8599.86398
795.614	7985.67051
795.803	8347.41399
795.991	7839.56264
796.179	8069.9957
796.368	7946.58138
796.556	8037.09237
796.744	7860.1475
796.932	8254.98128
797.121	7604.74719
797.309	7958.92611
797.497	7746.90497
797.685	7975.38461
797.874	7909.54274
798.062	7938.35114
798.25	7699.53022
798.438	7810.74033
798.626	7748.96449
798.814	7856.03069
799.002	7773.67708
799.19	7837.50403
799.378	7497.54682
799.566	7612.99097
799.755	7557.33879
799.943	7676.86879
800.131	7936.29353
800.318	7989.78473
800.506	7662.44655
800.694	7648.02327
800.882	7462.48794
801.07	7860.1475
801.258	7746.90497
801.446	7856.03069
801.634	7629.47753
801.822	7524.35235
802.01	7577.95252
802.197	7786.03225
802.385	7678.92903
802.573	7818.97569
802.761	7497.54682
802.949	7788.09137
803.136	7493.42257
803.324	7823.09325
803.512	7577.95252
803.699	7860.1475
803.887	7563.52313
804.075	7895.13702
804.262	7437.73673
804.45	7796.32765
804.638	7493.42257
804.825	7816.91688
805.013	7349.01922
805.201	7705.71017
805.388	7379.97176
805.576	7862.20587
805.763	7612.99097
805.951	7584.13623
806.138	7551.15425
806.326	7893.07898
806.513	7485.17381
806.701	7744.84543
806.888	7540.84625
807.075	7856.03069
807.263	7654.2048
807.45	7936.29353
807.638	7615.05187
807.825	7697.4702
808.012	7522.29051
808.2	7687.16976
808.387	7419.17127
808.574	7621.23442
808.761	7627.41678
808.949	7783.97311
809.136	7344.89184
809.323	7623.29523
809.51	7559.40026
809.698	7555.27729
809.885	7596.50306
810.072	7573.82995
810.259	7324.25364
810.446	7429.48563
810.633	7520.22866
810.82	7695.41015
811.008	7608.86912
811.195	7810.74033
811.382	7571.76863
811.569	7827.21072
811.756	7462.48794
811.943	7685.10961
812.13	7547.03111
812.317	7509.91905
812.504	7357.27371
812.691	7720.1293
812.878	7771.61782
813.064	7542.9079
813.251	7497.54682
813.438	7654.2048
813.625	7555.27729
813.812	7713.9498
813.999	7489.29823
814.186	7497.54682
814.372	7435.67399
814.559	7526.41416
814.746	7332.50918
814.933	7612.99097
815.12	7483.11156
815.306	7373.78164
815.493	7478.98701
815.68	7509.91905
815.866	7301.54909
816.053	7847.79683
816.24	7460.42545
816.426	7695.41015
816.613	7567.64592
816.799	7612.99097
816.986	7474.86237
817.173	7701.59022
817.359	7373.78164
817.546	7491.36041
817.732	7398.54093
817.919	7637.72029
818.105	7365.52785
818.292	7437.73673
818.478	7689.22989
818.665	7580.01378
818.851	7590.31974
819.037	7713.9498
819.224	7458.36295
819.41	7448.05011
819.597	7105.35326
819.783	7295.35648
819.969	7282.97067
820.156	7493.42257
820.342	7318.06175
820.528	7639.78093
820.714	7138.41079
820.901	7678.92903
821.087	7423.29708
821.273	7580.01378
821.459	7332.50918
821.646	7406.79333
821.832	7092.95522
822.018	7493.42257
822.204	7022.68441
822.39	7538.78459
822.576	7175.5937
822.762	7187.9864
822.948	7262.32589
823.134	7427.4228
823.32	7377.90841
823.507	7472.80002
823.693	7095.02161
823.879	7208.63913
824.065	7346.95554
824.25	7382.03509
824.436	6927.57078
824.622	7072.29002
824.808	6979.26888
824.994	7194.18245
825.18	6877.92729
825.366	7014.41555
825.552	6811.71563
825.738	7097.08799
825.923	6877.92729
826.109	6824.13209
826.295	6391.13787
826.481	6604.6533
826.667	6954.45555
826.852	7103.28698
827.038	6768.25155
827.224	6929.63897
827.409	6724.77739
827.595	6718.56597
827.781	6828.27073
827.966	7043.35498
828.152	6799.29835
828.338	7022.68441
828.523	6836.54774
828.709	6902.75067
828.894	6501.03576
829.08	6795.15907
829.266	6826.20142
829.451	6741.34016
829.637	6596.36602
829.822	6621.22674
830.008	6695.789
830.193	6911.0244
830.378	6662.6539
830.564	6863.44548
830.749	6459.57253
830.935	6670.93822
831.12	6432.61645
831.305	6625.36987
831.491	6353.79918
831.676	6393.21202
831.861	6552.85176
832.047	6782.7407
832.232	6546.63461
832.417	6583.93441
832.602	6360.02282
832.788	6380.76677
832.973	6281.17452
833.158	6641.94147
833.343	6110.91295
833.528	6573.57411
833.714	6260.41935
833.899	6233.43414
834.084	6036.11408
834.269	6239.66185
834.454	6115.06755
834.639	6272.87273
834.824	6314.37792
835.009	6666.79611
835.194	6208.52119
835.379	6384.91528
835.564	6139.99317
835.749	6314.37792
835.934	6256.26804
836.119	6054.81666
836.304	5582.5126
836.489	6002.86034
836.674	5786.56393
836.859	5990.38864
837.044	5759.50894
837.228	5767.83398
837.413	5567.92884
837.598	5876.02512
837.783	5453.30196
837.968	5786.56393
838.152	5794.88775
838.337	6264.57057
838.522	5882.26497
838.707	6218.902
838.891	5882.26497
839.076	5807.37275
839.261	5697.05911
839.445	5824.01811
839.63	5936.33477
839.815	5865.6249
839.999	5730.36833
840.184	5932.17612
840.368	5969.60058
840.553	5917.62011
840.737	5732.44995
840.922	5909.30186
841.106	5732.44995
841.291	5832.34022
841.475	5715.79629
841.66	5786.56393
841.844	5699.14111
842.029	5857.3043
842.213	5636.67075
842.397	5653.33159
842.582	5399.08994
842.766	5580.42928
842.951	5367.80655
843.135	5765.75275
843.319	5632.50531
843.504	5647.08395
843.688	5301.05102
843.872	5626.25696
844.056	5338.60396
844.241	5494.9927
844.425	5250.96863
844.609	5338.60396
844.793	5148.67534
844.977	5476.23303
845.161	5278.09826
845.346	5184.17119
845.53	5060.95092
845.714	5129.8807
845.898	4797.53354
846.082	5357.37758
846.266	5152.85167
846.45	5267.66426
846.634	5044.23687
846.818	5261.40357
847.002	5129.8807
847.186	5257.22967
847.37	5115.26134
847.554	5069.30739
847.738	4833.0952
847.922	5077.66349
848.106	5058.86174
848.29	5077.66349
848.473	5096.46335
848.657	5161.20405
848.841	5050.50481
849.025	5255.14268
849.209	4987.81603
849.392	5175.81983
849.576	4730.57614
849.76	4900.01691
849.944	4780.79637
850.127	4960.64445
850.311	4699.18189
850.495	4933.46897
850.678	4634.28437
850.862	4613.34509
851.046	4793.34938
851.229	4822.63657
851.413	4617.53313
851.596	4770.3349
851.78	4684.5295
851.964	4617.53313
852.147	4445.75084
852.331	4550.51387
852.514	4229.76706
852.698	4657.31499
852.881	4584.02635
853.065	4607.06287
853.248	4699.18189
853.431	4590.30931
853.615	4431.07963
853.798	4845.6448
853.982	4613.34509
854.165	4659.40855
854.348	4613.34509
854.532	4705.46114
854.715	4282.21133
854.898	4546.32441
855.081	4292.69858
855.265	4449.94242
855.448	4212.98208
855.631	4282.21133
855.814	4114.34298
855.997	4340.933
856.181	4076.55404
856.364	4110.14454
856.547	4189.90051
856.73	4472.99453
856.913	4103.84673
857.096	4353.51401
857.279	4126.93779
857.462	4219.2766
857.645	4032.45844
857.828	4055.55727
858.011	3797.13035
858.194	4175.2109
858.377	4047.15798
858.56	4236.06108
858.743	4252.84418
858.926	4202.49077
859.109	4296.89333
859.292	4223.47285
859.475	4068.15558
859.658	4055.55727
859.841	4059.75679
860.023	4082.85266
860.206	3681.47648
860.389	4120.64048
860.572	3946.34092
860.755	4003.05632
860.937	3887.50934
861.12	4072.35485
861.303	3767.69676
861.486	4017.75788
861.668	3921.12932
861.851	3900.11744
862.034	3725.64214
862.216	3883.30648
862.399	3437.36453
862.581	3887.50934
862.764	3626.78352
862.947	3729.84795
863.129	3546.82479
863.312	3513.14995
863.494	3498.41574
863.677	3622.57584
863.859	3580.49491
864.042	3698.3025
864.224	3546.82479
864.406	3481.57554
864.589	3228.8369
864.771	3458.41838
864.954	3327.85597
865.136	3487.89075
865.318	3074.96886
865.501	3557.34721
865.683	3405.78041
865.865	3536.30191
866.048	3593.11997
866.23	3706.71504
866.412	3443.68087
866.594	3538.40652
866.777	3483.68063
866.959	3673.06302
867.141	3412.09755
867.323	3454.20776
867.505	3186.68988
867.687	3492.1008
867.869	3289.9382
868.052	3534.19728
868.234	3163.50622
868.416	3555.24276
868.598	3195.11981
868.78	3268.87039
868.962	3108.7007
869.144	3376.2983
869.326	3110.8088
869.508	3239.37261
869.69	3117.13302
869.872	3302.57807
870.054	3041.23301
870.236	3298.36485
870.417	3214.08619
870.599	3241.4797
870.781	3047.55879
870.963	3123.4571
871.145	3106.59258
871.327	3313.11083
871.508	2988.51285
871.69	3142.42846
871.872	2950.54848
872.054	3344.70652
872.235	3085.51049
872.417	3340.49398
872.599	3045.45021
872.78	3093.94352
872.962	3157.18306
873.144	3123.4571
873.325	3230.94407
873.507	3391.03978
873.689	3138.21272
873.87	3321.53672
874.052	3007.49321
874.233	3466.83942
874.415	3085.51049
874.596	3188.79739
874.778	2887.2639
874.959	3104.48444
875.141	3047.55879
875.322	3133.99691
875.503	2956.87622
875.685	3123.4571
875.866	2836.62691
876.048	3110.8088
876.229	2807.08492
876.41	3032.79843
876.592	3028.58105
876.773	3298.36485
876.954	3125.56509
877.136	3256.22889
877.317	2876.71521
877.498	3003.27546
877.679	2973.74951
877.86	2973.74951
878.042	3155.07531
878.223	3077.07722
878.404	2849.28692
878.585	2956.87622
878.766	2779.65066
878.947	3193.01236
879.128	2927.34567
879.309	3155.07531
879.49	2815.52577
879.672	3182.47482
879.853	3003.27546
880.034	3102.37629
880.215	2872.49563
880.396	3146.64414
880.576	2969.53128
880.757	3123.4571
880.938	2809.19515
881.119	3053.88442
881.3	2965.31298
881.481	3395.25148
881.662	2967.42214
881.843	3228.8369
882.023	3034.9071
882.204	3228.8369
882.385	3015.92853
882.566	3058.10144
882.747	2823.96639
882.927	3144.53631
883.108	3001.16656
883.289	3190.90488
883.469	2891.48328
883.65	3068.64369
883.831	2864.0563
884.011	3133.99691
884.192	2800.75414
884.373	2948.43921
884.553	2832.40679
884.734	3053.88442
884.914	2956.87622
885.095	3083.4022
885.275	2878.82497
885.456	3093.94352
885.636	2992.73082
885.817	3199.33468
885.997	2984.29483
886.178	2910.46977
886.358	2821.85625
886.538	3011.7109
886.719	3136.10482
886.899	3110.8088
887.08	2965.31298
887.26	3074.96886
887.44	2741.66097
887.621	3096.05173
887.801	2830.29671
887.981	3083.4022
888.161	2832.40679
888.342	2908.36022
888.522	2992.73082
888.702	3129.78103
888.882	2912.57931
889.062	3070.7521
889.242	2897.81224
889.423	2992.73082
889.603	2798.64386
889.783	3108.7007
889.963	2804.97467
890.143	3091.83529
890.323	2764.87741
890.503	3182.47482
890.683	2857.72665
890.863	2807.08492
891.043	2771.20888
891.223	3058.10144
891.403	2902.03148
891.583	3256.22889
891.763	2777.54023
891.943	3049.66735
892.122	2733.21824
892.302	3165.61391
892.482	2760.65636
892.662	3015.92853
892.842	2771.20888
893.022	2918.90784
893.201	2642.44566
893.381	2817.63594
893.561	2766.98791
893.741	2982.1858
893.92	2737.43963
894.1	2963.20381
894.28	2885.15419
894.459	2950.54848
894.639	2927.34567
894.819	2956.87622
894.998	2889.3736
895.178	2975.8586
895.357	2724.77529
895.537	2699.44518
895.716	2619.221
895.896	2870.38581
896.075	2507.29996
896.255	2680.44637
896.434	2686.77942
896.614	2790.20257
896.793	2598.10639
896.973	2653.00182
897.152	2403.79736
897.331	2627.66651
897.511	2340.41591
897.69	2598.10639
897.87	2357.31852
898.049	2462.94491
898.228	2378.44588
898.407	2376.33319
898.587	2253.78036
898.766	2572.76725
898.945	2384.78389
899.124	2433.37218
899.304	2315.06082
899.483	2418.58503
899.662	2196.7193
899.841	2414.36003
900.02	2230.53403
900.199	2644.55692
900.378	2308.72183
900.557	2450.27115
900.737	2367.88233
900.916	2488.29126
901.095	2112.17315
901.274	2331.96437
901.453	2114.28695
901.632	2336.19016
901.811	2154.44784
901.989	2471.39387
902.168	2165.01601
902.347	2302.38275
902.526	1924.01619
902.705	2175.58398
902.884	1959.96023
903.063	2162.90239
903.242	1917.67295
903.42	1976.87447
903.599	1835.2065
903.778	1985.33145
903.957	2004.35927
904.135	2004.35927
904.314	1919.78737
904.493	2207.28664
904.672	1856.35248
904.85	1841.55035
905.029	1885.95601
905.207	1904.98632
905.386	1943.0456
905.565	1818.28939
905.743	1752.73298
905.922	1928.24498
906.1	1613.15033
906.279	1655.44938
906.457	1439.71802
906.636	1608.92038
906.814	1412.22237
906.993	1549.7003
907.171	1388.95689
907.35	1691.40277
907.528	1367.80654
907.707	1646.98964
907.885	1513.74475
908.063	1594.11548
908.242	1401.64714
908.42	1427.02772
908.598	1281.09157
908.777	1412.22237
908.955	1469.32875
909.133	1393.18697
909.311	1175.34704
909.49	1359.34643
909.668	1300.1263
909.846	1448.17823
910.024	1295.89635
910.202	1496.8244
910.38	1401.64714
910.559	1530.66505
910.737	1285.32149
910.915	1537.01014
911.093	1308.58624
911.271	1427.02772
911.449	1340.31125
911.627	1401.64714
911.805	1460.86855
911.983	1482.01906
912.161	1338.19624
912.339	1429.14277
912.517	1240.90777
912.695	1372.0366
912.872	1401.64714
913.05	1560.27541
913.228	1482.01906
913.406	1505.28458
913.584	1418.56752
913.762	1386.84185
913.939	1333.96622
914.117	1338.19624
914.295	1287.43646
914.473	1403.76219
914.65	1240.90777
914.828	1397.41706
915.006	1357.2314
915.184	1437.60297
915.361	1207.06958
915.539	1355.11638
915.716	1308.58624
915.894	1240.90777
916.072	1215.52905
916.249	1338.19624
916.427	1340.31125
916.604	1505.28458
916.782	1226.10347
916.959	1575.08049
917.137	1092.8727
917.314	1484.13411
917.492	1243.02269
917.669	1278.97661
917.847	1124.5928
918.024	1255.71222
918.201	1143.62536
918.379	1317.0462
918.556	1177.46186
918.733	1287.43646
918.911	1160.54348
919.088	1388.95689
919.265	1114.01932
919.442	1346.6563
919.62	1056.92461
919.797	1410.10733
919.974	1111.90463
920.151	1215.52905
920.328	1046.35194
920.506	1088.64343
920.683	1012.52036
920.86	1094.98734
921.037	999.83392
921.214	1105.56061
921.391	1008.29152
921.568	1139.39587
921.745	913.14974
921.922	1105.56061
922.099	906.80748
922.276	1088.64343
922.453	866.64148
922.63	1048.46646
922.807	953.31898
922.984	1094.98734
923.161	902.57934
923.338	1046.35194
923.514	877.21119
923.691	1073.84117
923.868	864.52756
924.045	919.49208
924.222	820.1373
924.399	961.776
924.575	860.29975
924.752	919.49208
924.929	877.21119
925.105	923.72034
925.282	712.34986
925.459	889.89512
925.635	600.36568
925.812	853.9581
925.989	741.93593
926.165	870.86934
926.342	680.65288
926.518	739.82257
926.695	691.21826
926.871	735.59588
927.048	710.23665
927.224	862.41365
927.401	501.08894
927.577	602.47827
927.754	657.41006
927.93	695.44449
928.107	695.44449
928.283	767.29705
928.459	617.26677
928.636	710.23665
928.812	575.01558
928.988	634.16867
929.165	625.71762
929.341	623.60489
929.517	572.90316
929.693	665.86183
929.87	589.80291
930.046	524.32118
930.222	454.6298
930.398	581.35293
930.574	479.97025
930.751	492.64129
930.927	517.98495
931.103	591.91544
931.279	403.95561
931.455	484.19387
931.631	446.18347
931.807	456.74142
931.983	395.51081
932.159	517.98495
932.335	505.31286
932.511	488.41755
932.687	416.6233
932.863	408.17811
933.039	370.17801
933.215	484.19387
933.391	395.51081
933.566	454.6298
933.742	353.29082
933.918	410.28938
934.094	397.62199
934.27	270.98194
934.445	260.43154
934.621	429.29157
934.797	220.34438
934.973	283.64305
935.148	279.42261
935.324	304.74637
935.5	344.84764
935.675	300.52556
935.851	262.54158
936.027	203.46769
936.202	165.49987
936.378	256.21151
936.553	146.51847
936.729	173.93659
936.904	184.48295
937.08	178.15507
937.255	201.3582
937.431	57.9618
937.606	152.84542
937.782	176.04582
937.957	76.93493
938.133	201.3582
938.308	159.17255
938.483	129.64756
938.659	161.28164
938.834	159.17255
939.009	110.66943
939.185	121.21262
939.36	142.30062
939.535	79.04317
939.71	142.30062
939.886	100.12679
940.061	41.09836
940.236	66.39408
940.411	142.30062
940.586	70.61035
940.761	-34.76838
940.937	91.69308
941.112	74.82672
941.287	110.66943
941.462	85.36802
941.637	-72.68981
941.812	116.99528
941.987	74.82672
942.162	34.77495
942.337	74.82672
942.512	70.61035
942.687	87.47635
942.862	28.45175
943.037	108.56086
943.212	53.7458
943.386	91.69308
943.561	95.90989
943.736	26.34407
943.911	41.09836
944.086	55.85379
944.26	83.25972
944.435	57.9618
944.61	125.43005
944.785	79.04317
944.959	34.77495
945.134	32.66719
945.309	57.9618
945.483	28.45175
945.658	43.20621
945.833	98.01833
946.007	68.5022
946.182	76.93493
946.357	91.69308
946.531	68.5022
946.706	-11.5902
946.88	70.61035
947.055	20.02115
947.229	104.34378
947.404	17.91356
947.578	49.5299
947.752	91.69308
947.927	-15.80464
948.101	66.39408
948.276	133.86516
948.45	83.25972
948.624	7.37596
948.799	95.90989
948.973	74.82672
949.147	108.56086
949.321	-9.48295
949.496	98.01833
949.67	15.80599
949.844	129.64756
950.018	17.91356
950.193	74.82672
950.367	116.99528
950.541	74.82672
950.715	41.09836
950.889	36.88273
951.063	-13.69743
951.237	123.32132
951.411	15.80599
951.585	41.09836
951.759	-1.05368
951.933	114.88664
952.107	83.25972
952.281	79.04317
952.455	11.59093
952.629	36.88273
952.803	85.36802
952.977	43.20621
953.151	30.55946
953.325	24.2364
953.499	7.37596
953.672	74.82672
953.846	93.80147
954.02	41.09836
954.194	11.59093
954.368	60.06984
954.541	83.25972
954.715	-5.26836
954.889	36.88273
955.062	76.93493
955.236	83.25972
955.41	93.80147
955.583	24.2364
955.757	43.20621
955.93	28.45175
956.104	24.2364
956.278	30.55946
956.451	100.12679
956.625	62.17789
956.798	72.71852
956.972	11.59093
957.145	53.7458
957.319	24.2364
957.492	51.63784
957.665	45.31408
957.839	110.66943
958.012	76.93493
958.185	91.69308
958.359	49.5299
958.532	62.17789
958.705	93.80147
958.879	91.69308
959.052	66.39408
959.225	85.36802
959.398	106.45231
959.572	74.82672
959.745	47.42198
959.918	-15.80464
960.091	43.20621
960.264	24.2364
960.438	43.20621
960.611	60.06984
960.784	60.06984
960.957	110.66943
961.13	129.64756
961.303	121.21262
961.476	121.21262
961.649	89.5847
961.822	24.2364
961.995	93.80147
962.168	28.45175
962.341	7.37596
962.514	57.9618
962.686	34.77495
962.859	36.88273
963.032	104.34378
963.205	22.12877
963.378	68.5022
963.551	51.63784
963.723	64.28597
963.896	20.02115
964.069	43.20621
964.242	68.5022
964.414	74.82672
964.587	-17.91182
964.76	79.04317
964.932	-7.37567
965.105	34.77495
965.278	60.06984
965.45	93.80147
965.623	30.55946
965.795	83.25972
965.968	112.77803
966.14	7.37596
966.313	91.69308
966.485	51.63784
966.658	43.20621
966.83	24.2364
967.003	28.45175
967.175	49.5299
967.348	127.53879
967.52	45.31408
967.692	7.37596
967.865	83.25972
968.037	95.90989
968.209	70.61035
968.382	45.31408
968.554	66.39408
968.726	15.80599
968.898	43.20621
969.071	76.93493
969.243	7.37596
969.415	45.31408
969.587	-26.3403
969.759	57.9618
969.932	66.39408
970.104	17.91356
970.276	-13.69743
970.448	36.88273
970.62	-85.32845
970.792	60.06984
970.964	-3.16104
971.136	47.42198
971.308	32.66719
971.48	3.16109
971.652	51.63784
971.824	41.09836
971.996	30.55946
972.168	1.05369
972.339	57.9618
972.511	41.09836
972.683	47.42198
972.855	49.5299
973.027	51.63784
973.199	-9.48295
973.37	-43.19607
973.542	83.25972
973.714	47.42198
973.886	-1.05368
974.057	-1.05368
974.229	-30.55439
974.401	15.80599
974.572	43.20621
974.744	41.09836
974.915	57.9618
975.087	32.66719
975.259	7.37596
975.43	74.82672
975.602	-17.91182
975.773	57.9618
975.945	24.2364
976.116	53.7458
976.288	60.06984
976.459	176.04582
976.63	70.61035
976.802	-13.69743
976.973	-17.91182
977.145	41.09836
977.316	60.06984
977.487	17.91356
977.659	1.05369
977.83	43.20621
978.001	108.56086
978.172	38.99053
978.344	-7.37567
978.515	74.82672
978.686	-13.69743
978.857	24.2364
979.028	15.80599
979.2	36.88273
979.371	15.80599
979.542	41.09836
979.713	20.02115
979.884	28.45175
980.055	1.05369
980.226	41.09836
980.397	66.39408
980.568	91.69308
980.739	-5.26836
980.91	-1.05368
981.081	9.48343
981.252	91.69308
981.423	28.45175
981.594	49.5299
981.765	32.66719
981.936	-5.26836
982.106	91.69308
982.277	24.2364
982.448	1.05369
982.619	76.93493
982.79	9.48343
982.96	-34.76838
983.131	15.80599
983.302	-17.91182
983.472	36.88273
983.643	36.88273
983.814	70.61035
983.984	43.20621
984.155	22.12877
984.326	9.48343
984.496	49.5299
984.667	28.45175
984.837	15.80599
985.008	-1.05368
985.178	30.55946
985.349	74.82672
985.519	106.45231
985.69	-5.26836
985.86	-76.90279
986.031	62.17789
986.201	-34.76838
986.371	100.12679
986.542	74.82672
986.712	3.16109
986.882	-85.32845
987.053	1.05369
987.223	-43.19607
987.393	-5.26836
987.563	-11.5902
987.734	34.77495
987.904	-30.55439
988.074	32.66719
988.244	-1.05368
988.414	-9.48295
988.585	11.59093
988.755	41.09836
988.925	-57.94356
989.095	-5.26836
989.265	28.45175
989.435	-64.26353
989.605	68.5022
989.775	41.09836
989.945	49.5299
990.115	32.66719
990.285	-60.05024
990.455	49.5299
990.625	-51.62336
990.795	45.31408
990.965	-24.23321
991.134	-11.5902
991.304	9.48343
991.474	-41.08919
991.644	7.37596
991.814	-7.37567
991.984	87.47635
992.153	11.59093
992.323	30.55946
992.493	66.39408
992.662	-55.83685
992.832	87.47635
993.002	-95.85994
993.171	32.66719
993.341	3.16109
993.511	-1.05368
993.68	11.59093
993.85	-5.26836
994.019	49.5299
994.189	60.06984
994.358	15.80599
994.528	49.5299
994.697	-17.91182
994.867	66.39408
995.036	-15.80464
995.206	-7.37567
995.375	7.37596
995.544	20.02115
995.714	-43.19607
995.883	79.04317
996.052	-32.6614
996.222	7.37596
996.391	3.16109
996.56	22.12877
996.73	-43.19607
996.899	-13.69743
997.068	-45.30293
997.237	76.93493
997.406	-7.37567
997.576	1.05369
997.745	-30.55439
997.914	-1.05368
998.083	43.20621
998.252	-36.87534
998.421	-49.51657
998.59	-49.51657
998.759	53.7458
998.928	-13.69743
999.097	-41.08919
999.266	36.88273
999.435	57.9618
999.604	-32.6614
999.773	-24.23321
999.942	-22.12611
1000.111	7.37596
1000.28	-1.05368
1000.448	-22.12611
1000.617	-51.62336
1000.786	-57.94356
1000.955	5.26851
1001.124	-34.76838
1001.292	51.63784
1001.461	-24.23321
1001.63	32.66719
1001.798	-34.76838
1001.967	-17.91182
1002.136	-36.87534
1002.304	60.06984
1002.473	5.26851
1002.642	76.93493
1002.81	41.09836
1002.979	-1.05368
1003.147	-76.90279
1003.316	1.05369
1003.484	-45.30293
1003.653	-41.08919
1003.821	-13.69743
1003.99	-17.91182
1004.158	11.59093
1004.327	17.91356
1004.495	47.42198
1004.663	-22.12611
1004.832	-70.58328
1005	5.26851
1005.168	-47.40976
1005.337	11.59093
1005.505	-17.91182
1005.673	-26.3403
1005.842	32.66719
1006.01	-17.91182
1006.178	11.59093
1006.346	-5.26836
1006.514	28.45175
1006.683	-13.69743
1006.851	-1.05368
1007.019	-87.4348
1007.187	-57.94356
1007.355	-57.94356
1007.523	43.20621
1007.691	20.02115
1007.859	11.59093
1008.027	20.02115
1008.195	-60.05024
1008.363	-60.05024
1008.531	-38.98228
1008.699	-24.23321
1008.867	38.99053
1009.035	24.2364
1009.203	-34.76838
1009.37	34.77495
1009.538	-32.6614
1009.706	-3.16104
1009.874	-64.26353
1010.042	-1.05368
1010.209	57.9618
1010.377	119.10394
1010.545	17.91356
1010.713	28.45175
1010.88	-110.60293
1011.048	26.34407
1011.216	7.37596
1011.383	74.82672
1011.551	-9.48295
1011.718	13.69845
1011.886	-7.37567
1012.054	9.48343
1012.221	-93.7537
1012.389	-34.76838
1012.556	24.2364
1012.724	17.91356
1012.891	-43.19607
1013.058	45.31408
1013.226	-9.48295
1013.393	-43.19607
1013.561	26.34407
1013.728	28.45175
1013.895	-64.26353
1014.063	-9.48295
1014.23	17.91356
1014.397	-60.05024
1014.565	68.5022
1014.732	17.91356
1014.899	-11.5902
1015.066	-32.6614
1015.233	-9.48295
1015.401	13.69845
1015.568	-1.05368
1015.735	57.9618
1015.902	-13.69743
1016.069	-1.05368
1016.236	1.05369
1016.403	-30.55439
1016.57	7.37596
1016.737	28.45175
1016.904	-17.91182
1017.071	15.80599
1017.238	-7.37567
1017.405	20.02115
1017.572	9.48343
1017.739	62.17789
1017.906	26.34407
1018.073	-43.19607
1018.24	41.09836
1018.407	-11.5902
1018.573	-34.76838
1018.74	-30.55439
1018.907	-51.62336
1019.074	11.59093
1019.241	32.66719
1019.407	-51.62336
1019.574	32.66719
1019.741	1.05369
1019.907	5.26851
1020.074	3.16109
1020.241	7.37596
1020.407	57.9618
1020.574	-43.19607
1020.74	-22.12611
1020.907	49.5299
1021.073	38.99053
1021.24	-49.51657
1021.406	-5.26836
1021.573	-51.62336
1021.739	70.61035
1021.906	7.37596
1022.072	-17.91182
1022.239	24.2364
1022.405	-76.90279
1022.571	-51.62336
1022.738	13.69845
1022.904	41.09836
1023.07	-30.55439
1023.237	-9.48295
1023.403	-51.62336
1023.569	-28.44736
1023.735	24.2364
1023.902	-24.23321
1024.068	-1.05368
1024.234	-22.12611
1024.4	-51.62336
1024.566	38.99053
1024.732	-22.12611
1024.898	38.99053
1025.065	57.9618
1025.231	-22.12611
1025.397	-9.48295
1025.563	7.37596
1025.729	60.06984
1025.895	-15.80464
1026.061	36.88273
1026.227	-1.05368
1026.392	15.80599
1026.558	-11.5902
1026.724	36.88273
1026.89	-45.30293
1027.056	83.25972
1027.222	-17.91182
1027.388	-1.05368
1027.553	-47.40976
1027.719	-1.05368
1027.885	-13.69743
1028.051	-41.08919
1028.216	3.16109
1028.382	-9.48295
1028.548	7.37596
1028.713	7.37596
1028.879	3.16109
1029.045	7.37596
1029.21	-1.05368
1029.376	-43.19607
1029.541	17.91356
1029.707	9.48343
1029.873	7.37596
1030.038	36.88273
1030.204	76.93493
1030.369	49.5299
1030.534	47.42198
1030.7	34.77495
1030.865	55.85379
1031.031	-34.76838
1031.196	-26.3403
1031.361	-13.69743
1031.527	-45.30293
1031.692	41.09836
1031.857	11.59093
1032.023	-45.30293
1032.188	15.80599
1032.353	17.91356
1032.518	-34.76838
1032.684	-1.05368
1032.849	55.85379
1033.014	-41.08919
1033.179	-1.05368
1033.344	11.59093
1033.509	17.91356
1033.674	72.71852
1033.839	-43.19607
1034.004	70.61035
1034.17	-26.3403
1034.335	-93.7537
1034.5	-47.40976
1034.664	-43.19607
1034.829	49.5299
1034.994	43.20621
1035.159	47.42198
1035.324	-68.47672
1035.489	51.63784
1035.654	1.05369
1035.819	9.48343
1035.984	-7.37567
1036.148	1.05369
1036.313	62.17789
1036.478	-9.48295
1036.643	-34.76838
1036.807	-11.5902
1036.972	74.82672
1037.137	45.31408
1037.301	-22.12611
1037.466	-68.47672
1037.631	49.5299
1037.795	34.77495
1037.96	3.16109
1038.124	-17.91182
1038.289	-68.47672
1038.454	-9.48295
1038.618	-41.08919
1038.783	20.02115
1038.947	36.88273
1039.111	-51.62336
1039.276	15.80599
1039.44	-13.69743
1039.605	60.06984
1039.769	-51.62336
1039.933	-9.48295
1040.098	32.66719
1040.262	36.88273
1040.426	-32.6614
1040.591	100.12679
1040.755	-79.00925
1040.919	-17.91182
1041.083	-22.12611
1041.248	-24.23321
1041.412	-108.49687
1041.576	57.9618
1041.74	24.2364
1041.904	-66.37014
1042.068	-15.80464
1042.232	-30.55439
1042.397	28.45175
1042.561	-38.98228
1042.725	-43.19607
1042.889	-1.05368
1043.053	45.31408
1043.217	-57.94356
1043.381	1.05369
1043.544	-1.05368
1043.708	26.34407
1043.872	24.2364
1044.036	-7.37567
1044.2	-64.26353
1044.364	22.12877
1044.528	-5.26836
1044.691	-1.05368
1044.855	-49.51657
1045.019	-53.73012
1045.183	13.69845
1045.346	-1.05368
1045.51	-7.37567
1045.674	34.77495
1045.837	7.37596
1046.001	24.2364
1046.165	17.91356
1046.328	32.66719
1046.492	32.66719
1046.655	-3.16104
1046.819	34.77495
1046.983	-41.08919
1047.146	47.42198
1047.31	-1.05368
1047.473	3.16109
1047.636	-81.11567
1047.8	-5.26836
1047.963	-11.5902
1048.127	11.59093
1048.29	-66.37014
