Data from absorb_only_2.23.25_USB4F045381__15__0120.txt Node

Date: Sun Feb 23 19:14:33 EST 2025
User: ssocol
Spectrometer: USB4F04538
Trigger mode: 4
Integration Time (sec): 2.600000E-3
Scans to average: 1
Electric dark correction enabled: true
Nonlinearity correction enabled: true
Boxcar width: 0
XAxis mode: Wavelengths
Number of Pixels in Spectrum: 3648
>>>>>Begin Spectral Data<<<<<
345.52	21.07496
345.736	21.07496
345.952	21.07496
346.168	-14.75104
346.384	-6.32202
346.6	27.39791
346.816	2.10739
347.032	-31.6079
347.248	-31.6079
347.464	37.93663
347.68	31.61332
347.896	-40.03573
348.112	23.18258
348.328	-25.28676
348.544	-35.82187
348.76	14.75222
348.975	27.39791
349.191	-25.28676
349.407	77.98905
349.623	-27.39383
349.839	52.69182
350.055	-29.50088
350.27	27.39791
350.486	10.53718
350.702	-54.78349
350.918	33.72107
351.133	-21.07254
351.349	-18.9654
351.565	-33.71489
351.781	-16.85823
351.996	14.75222
352.212	29.5056
352.428	-21.07254
352.644	-8.42931
352.859	-29.50088
353.075	71.66443
353.291	29.5056
353.506	42.15228
353.722	35.82884
353.938	16.85977
354.153	56.90779
354.369	29.5056
354.584	40.04444
354.8	-8.42931
355.016	-6.32202
355.231	10.53718
355.447	2.10739
355.662	44.26014
355.878	56.90779
356.093	10.53718
356.309	48.47593
356.524	-52.67674
356.74	-21.07254
356.955	-6.32202
357.171	42.15228
357.386	21.07496
357.602	10.53718
357.817	-27.39383
358.033	21.07496
358.248	48.47593
358.464	27.39791
358.679	12.64469
358.895	52.69182
359.11	27.39791
359.325	29.5056
359.541	16.85977
359.756	4.2148
359.972	8.4297
360.187	18.96735
360.402	2.10739
360.618	29.5056
360.833	-21.07254
361.048	31.61332
361.264	44.26014
361.479	67.44814
361.694	21.07496
361.909	35.82884
362.125	-65.31684
362.34	16.85977
362.555	82.20557
362.77	27.39791
362.986	18.96735
363.201	46.36803
363.416	-35.82187
363.631	10.53718
363.847	2.10739
364.062	31.61332
364.277	4.2148
364.492	-52.67674
364.707	6.32224
364.922	-2.10736
365.138	2.10739
365.353	-31.6079
365.568	16.85977
365.783	10.53718
365.998	52.69182
366.213	52.69182
366.428	31.61332
366.643	-12.64382
366.858	16.85977
367.073	77.98905
367.288	-0
367.503	-2.10736
367.718	65.34002
367.933	18.96735
368.148	-14.75104
368.363	-29.50088
368.578	-4.2147
368.793	35.82884
369.008	-82.16888
369.223	14.75222
369.438	27.39791
369.653	18.96735
369.868	-86.38163
370.083	37.93663
370.298	-25.28676
370.513	54.79979
370.728	48.47593
370.943	50.58386
371.157	-67.42343
371.372	48.47593
371.587	23.18258
371.802	16.85977
372.017	2.10739
372.232	-29.50088
372.446	42.15228
372.661	-27.39383
372.876	-21.07254
373.091	-14.75104
373.306	-46.35635
373.52	86.42218
373.735	86.42218
373.95	-2.10736
374.165	-16.85823
374.379	-6.32202
374.594	-14.75104
374.809	23.18258
375.023	-44.2495
375.238	2.10739
375.453	27.39791
375.667	33.72107
375.882	56.90779
376.097	-23.17966
376.311	6.32224
376.526	-63.21022
376.741	10.53718
376.955	2.10739
377.17	103.28953
377.384	27.39791
377.599	-12.64382
377.813	12.64469
378.028	44.26014
378.242	-10.53658
378.457	25.29023
378.672	-73.74306
378.886	56.90779
379.101	56.90779
379.315	6.32224
379.53	2.10739
379.744	29.5056
379.958	50.58386
380.173	-73.74306
380.387	-56.89021
380.602	8.4297
380.816	-8.42931
381.031	61.12386
381.245	2.10739
381.459	80.0973
381.674	42.15228
381.888	56.90779
382.103	-14.75104
382.317	35.82884
382.531	80.0973
382.746	18.96735
382.96	94.85568
383.174	2.10739
383.388	4.2148
383.603	-2.10736
383.817	-12.64382
384.031	82.20557
384.246	-44.2495
384.46	33.72107
384.674	52.69182
384.888	29.5056
385.103	-31.6079
385.317	2.10739
385.531	-21.07254
385.745	-0
385.959	31.61332
386.174	2.10739
386.388	-6.32202
386.602	-75.84956
386.816	10.53718
387.03	37.93663
387.244	-8.42931
387.458	52.69182
387.672	40.04444
387.887	73.77262
388.101	2.10739
388.315	18.96735
388.529	40.04444
388.743	59.01582
388.957	27.39791
389.171	61.12386
389.385	-35.82187
389.599	-46.35635
389.813	77.98905
390.027	12.64469
390.241	21.07496
390.455	-2.10736
390.669	-21.07254
390.883	-21.07254
391.097	61.12386
391.311	8.4297
391.525	25.29023
391.738	-16.85823
391.952	44.26014
392.166	25.29023
392.38	-6.32202
392.594	-6.32202
392.808	2.10739
393.022	48.47593
393.236	69.55627
393.449	59.01582
393.663	4.2148
393.877	-42.14263
394.091	94.85568
394.305	94.85568
394.518	-6.32202
394.732	18.96735
394.946	-8.42931
395.16	40.04444
395.373	35.82884
395.587	25.29023
395.801	2.10739
396.015	31.61332
396.228	40.04444
396.442	-40.03573
396.656	48.47593
396.869	61.12386
397.083	99.07256
397.297	-23.17966
397.51	8.4297
397.724	-6.32202
397.938	25.29023
398.151	-58.9969
398.365	40.04444
398.578	31.61332
398.792	-37.92881
399.005	4.2148
399.219	77.98905
399.433	2.10739
399.646	-8.42931
399.86	99.07256
400.073	65.34002
400.287	44.26014
400.5	86.42218
400.714	-37.92881
400.927	16.85977
401.141	10.53718
401.354	-6.32202
401.567	-16.85823
401.781	21.07496
401.994	-54.78349
402.208	52.69182
402.421	88.53052
402.635	-6.32202
402.848	2.10739
403.061	37.93663
403.275	-14.75104
403.488	37.93663
403.701	54.79979
403.915	-16.85823
404.128	-33.71489
404.341	61.12386
404.555	10.53718
404.768	33.72107
404.981	37.93663
405.195	63.23193
405.408	2.10739
405.621	56.90779
405.834	61.12386
406.048	29.5056
406.261	61.12386
406.474	18.96735
406.687	-27.39383
406.9	61.12386
407.114	31.61332
407.327	-12.64382
407.54	-2.10736
407.753	2.10739
407.966	63.23193
408.179	-14.75104
408.392	2.10739
408.605	29.5056
408.819	94.85568
409.032	88.53052
409.245	-6.32202
409.458	37.93663
409.671	65.34002
409.884	27.39791
410.097	-23.17966
410.31	50.58386
410.523	29.5056
410.736	40.04444
410.949	44.26014
411.162	35.82884
411.375	-4.2147
411.588	35.82884
411.801	-21.07254
412.014	35.82884
412.227	40.04444
412.44	54.79979
412.653	73.77262
412.865	18.96735
413.078	-14.75104
413.291	33.72107
413.504	46.36803
413.717	-10.53658
413.93	14.75222
414.143	71.66443
414.356	-12.64382
414.568	-18.9654
414.781	54.79979
414.994	77.98905
415.207	10.53718
415.42	54.79979
415.632	44.26014
415.845	103.28953
416.058	37.93663
416.271	27.39791
416.483	-18.9654
416.696	88.53052
416.909	77.98905
417.121	-44.2495
417.334	52.69182
417.547	61.12386
417.759	115.94096
417.972	-4.2147
418.185	33.72107
418.397	14.75222
418.61	18.96735
418.823	67.44814
419.035	14.75222
419.248	56.90779
419.46	2.10739
419.673	31.61332
419.885	29.5056
420.098	99.07256
420.311	35.82884
420.523	73.77262
420.736	29.5056
420.948	-14.75104
421.161	77.98905
421.373	84.31387
421.586	88.53052
421.798	44.26014
422.01	73.77262
422.223	4.2148
422.435	4.2148
422.648	-23.17966
422.86	94.85568
423.073	73.77262
423.285	137.02842
423.497	69.55627
423.71	8.4297
423.922	52.69182
424.134	63.23193
424.347	27.39791
424.559	61.12386
424.771	77.98905
424.984	56.90779
425.196	18.96735
425.408	120.15828
425.621	137.02842
425.833	61.12386
426.045	12.64469
426.257	84.31387
426.47	35.82884
426.682	42.15228
426.894	25.29023
427.106	86.42218
427.318	105.39804
427.531	103.28953
427.743	65.34002
427.955	77.98905
428.167	132.81075
428.379	75.88082
428.591	132.81075
428.804	44.26014
429.016	59.01582
429.228	82.20557
429.44	111.72373
429.652	46.36803
429.864	61.12386
430.076	90.63889
430.288	145.464
430.5	128.59318
430.712	145.464
430.924	69.55627
431.136	94.85568
431.348	69.55627
431.56	35.82884
431.772	52.69182
431.984	99.07256
432.196	191.86571
432.408	122.26697
432.62	54.79979
432.832	50.58386
433.044	105.39804
433.256	111.72373
433.468	156.00896
433.679	149.68192
433.891	109.61514
434.103	94.85568
434.315	40.04444
434.527	88.53052
434.739	69.55627
434.95	128.59318
435.162	94.85568
435.374	99.07256
435.586	191.86571
435.798	92.74727
436.009	21.07496
436.221	149.68192
436.433	73.77262
436.645	130.70195
436.856	156.00896
437.068	96.96411
437.28	143.35507
437.491	73.77262
437.703	105.39804
437.915	126.48442
438.126	206.63197
438.338	122.26697
438.55	164.4453
438.761	153.89993
438.973	181.31899
439.184	221.39921
439.396	132.81075
439.608	130.70195
439.819	90.63889
440.031	158.11802
440.242	111.72373
440.454	153.89993
440.665	149.68192
440.877	238.27725
441.088	99.07256
441.3	204.52245
441.511	69.55627
441.723	115.94096
441.934	124.37568
442.146	158.11802
442.357	198.19399
442.569	126.48442
442.78	278.36751
442.991	189.75633
443.203	238.27725
443.414	151.79091
443.626	185.53762
443.837	151.79091
444.048	162.33619
444.26	82.20557
444.471	122.26697
444.682	170.77278
444.894	240.38709
445.105	162.33619
445.316	215.07028
445.528	210.85109
445.739	153.89993
445.95	204.52245
446.161	240.38709
446.373	183.42829
446.584	208.74152
446.795	234.05762
447.006	234.05762
447.217	242.49695
447.429	187.64696
447.64	208.74152
447.851	307.91202
448.062	280.47771
448.273	234.05762
448.484	170.77278
448.695	172.88198
448.907	217.1799
449.118	324.7962
449.329	236.16742
449.54	217.1799
449.751	248.82665
449.962	225.6186
450.173	217.1799
450.384	305.80158
450.595	305.80158
450.806	322.68561
451.017	221.39921
451.228	229.83807
451.439	174.9912
451.65	335.34939
451.861	333.23872
452.072	358.56795
452.283	250.93658
452.494	381.78858
452.705	229.83807
452.915	341.68151
453.126	282.58793
453.337	373.34447
453.548	449.35082
453.759	324.7962
453.97	358.56795
454.181	381.78858
454.391	352.2354
454.602	449.35082
454.813	377.56649
455.024	459.90888
455.235	381.78858
455.445	400.78878
455.656	356.45708
455.867	487.36163
456.078	449.35082
456.288	407.12248
456.499	426.12445
456.71	424.01305
456.921	407.12248
457.131	489.47348
457.342	487.36163
457.553	493.69724
457.763	432.45872
457.974	527.48935
458.184	443.01617
458.395	525.37723
458.606	449.35082
458.816	669.03129
459.027	622.54853
459.237	616.21043
459.448	601.42197
459.659	525.37723
459.869	578.18424
460.08	614.09776
460.29	723.97271
460.501	787.37564
460.711	698.61419
460.922	578.18424
461.132	745.10599
461.343	721.85944
461.553	704.95367
461.764	757.78646
461.974	728.19928
462.184	704.95367
462.395	821.19417
462.605	929.0057
462.816	702.8405
463.026	884.61012
463.236	916.3209
463.447	1041.06565
463.657	855.01504
463.867	1013.57757
464.078	981.86185
464.288	1142.56799
464.498	1110.84729
464.709	1191.20821
464.919	1062.211
465.129	1163.71566
465.339	1089.70075
465.55	1062.211
465.76	1072.78387
465.97	1123.53545
466.18	1227.16091
466.391	1366.74902
466.601	1142.56799
466.811	1206.01215
467.021	1328.6787
467.231	1514.80227
467.441	1288.49394
467.651	1637.4724
467.862	1438.6605
468.072	1700.91971
468.282	1559.2179
468.492	1574.02299
468.702	1656.50684
468.912	1889.12776
469.122	1747.446
469.332	1920.84457
469.542	1834.14919
469.752	1977.9316
469.962	2024.44362
470.172	1982.1601
470.382	1937.7597
470.592	2202.003
470.802	2022.32951
471.012	2218.91047
471.222	2166.07282
471.432	2392.17812
471.642	2202.003
471.852	2413.30378
472.062	2406.96619
472.272	2692.05687
472.482	2641.39002
472.691	2723.7199
472.901	2550.5941
473.111	2658.27978
473.321	2742.7163
473.531	3014.87413
473.741	2765.93266
473.95	2945.27527
474.16	2979.02222
474.37	3145.59023
474.58	3105.53851
474.79	3293.09823
474.999	3274.1375
475.209	3326.80277
475.419	3288.88485
475.628	3674.11472
475.838	3491.04829
476.048	3600.48428
476.258	3638.35426
476.467	3726.6936
476.677	3913.77539
476.886	3920.07877
477.096	4088.10137
477.306	4117.49175
477.515	3972.59989
477.725	4214.03118
477.935	4048.20791
478.144	4222.4238
478.354	4214.03118
478.563	4606.01582
478.773	4356.65914
478.982	4618.58012
479.192	4721.1584
479.401	4681.38956
479.611	4700.22844
479.82	4813.22332
480.03	4915.6983
480.239	5005.57996
480.449	4737.90074
480.658	5320.87157
480.868	5293.74818
481.077	5487.6975
481.287	5362.59214
481.496	5489.78187
481.705	5412.64444
481.915	5777.19919
482.124	5633.54668
482.333	5677.2789
482.543	5687.6898
482.752	5687.6898
482.961	5945.69139
483.171	6045.46561
483.38	5837.54135
483.589	6251.07876
483.799	6381.80391
484.008	6499.9993
484.217	6230.3202
484.426	6479.26873
484.636	6479.26873
484.845	6676.11574
485.054	6473.0491
485.263	6703.03652
485.472	6537.30848
485.682	6808.61139
485.891	6775.49626
486.1	6843.78981
486.309	7054.72284
486.518	7087.78913
486.727	7108.45265
486.936	7238.58166
487.146	7211.73685
487.355	7166.29864
487.564	7447.0188
487.773	7397.50935
487.982	7366.55959
488.191	7533.63034
488.4	7595.47252
488.609	7694.38012
488.818	7830.29877
489.027	7992.87034
489.236	7945.55262
489.445	8200.53006
489.654	8003.15537
489.863	8570.11857
490.072	8040.17728
490.281	8258.06301
490.49	8307.36468
490.698	8393.61554
490.907	8479.83232
491.116	8926.80757
491.325	8531.13582
491.534	8680.87467
491.743	8574.22162
491.952	8641.91113
492.16	8986.20256
492.369	9041.48804
492.578	9227.72776
492.787	9078.33796
492.996	9127.46247
493.204	9379.07237
493.413	9280.91327
493.622	9413.82797
493.831	9299.32101
494.039	9481.28133
494.248	9599.79351
494.457	9585.49314
494.665	9695.79051
494.874	9712.12703
495.083	9744.79713
495.291	9724.37878
495.5	9773.38027
495.709	10048.85413
495.917	9718.25297
496.126	9910.13034
496.335	9975.42044
496.543	10175.28024
496.752	10187.51218
496.96	10008.05993
497.169	10077.40668
497.377	10083.52472
497.586	10112.07392
497.794	10507.40956
498.003	10385.1942
498.211	10621.43591
498.42	10464.63947
498.628	10649.9364
498.837	10696.75344
499.045	10792.40323
499.254	10552.21032
499.462	10812.75086
499.671	10869.71804
499.879	11103.59711
500.087	10818.85493
500.296	11272.3077
500.504	11014.13031
500.713	11154.42119
500.921	11146.28979
501.129	11028.36509
501.338	10906.33501
501.546	11485.63627
501.754	11097.49777
501.962	11489.69863
502.171	11574.99938
502.379	11625.76584
502.587	11345.46125
502.795	11479.54267
503.004	11306.85406
503.212	11713.07091
503.42	11603.4293
503.628	11597.33733
503.837	11609.5212
504.045	11922.13154
504.253	12060.10416
504.461	12051.98914
504.669	11883.57369
504.877	12287.27587
505.085	12019.52779
505.294	12035.75871
505.502	12183.84313
505.71	12167.61666
505.918	12177.75826
506.126	12498.14136
506.334	12027.64332
506.542	12408.93794
506.75	12277.13623
506.958	12348.11001
507.166	12613.68183
507.374	12585.30535
507.582	12461.65059
507.79	12601.52063
507.998	12400.8279
508.206	12897.38329
508.414	12496.11415
508.622	12812.2845
508.83	12670.43121
509.037	13027.03975
509.245	12816.33704
509.453	12996.65339
509.661	12741.36137
509.869	12883.20082
510.077	12990.57598
510.285	13079.70681
510.492	13310.59449
510.7	13658.8507
510.908	13241.73931
511.116	13114.1412
511.324	13189.08195
511.531	13328.82004
511.739	13059.45064
511.947	13419.94283
512.155	13201.23392
512.362	13067.55316
512.57	13440.19125
512.778	13245.78975
512.985	13502.95892
513.193	13458.4145
513.401	13405.7687
513.608	13409.81847
513.816	13729.704
514.024	13770.18986
514.231	13563.69845
514.439	14081.89353
514.646	14126.41782
514.854	13865.32697
515.061	13545.47693
515.269	13857.23044
515.477	13915.92927
515.684	14000.93743
515.892	13875.44757
516.099	14209.39213
516.307	14100.10814
516.514	14294.38676
516.722	14219.51072
516.929	14369.26036
517.136	14079.86967
517.344	14205.34468
517.551	14257.9609
517.759	14314.6231
517.966	14547.32961
518.173	14399.61388
518.381	14743.59952
518.588	14585.77502
518.796	14512.93071
519.003	14945.93156
519.21	14385.44895
519.418	14830.60307
519.625	14555.42342
519.832	14877.13934
520.039	14780.01978
520.247	14982.35076
520.454	14840.71967
520.661	15393.07603
520.868	15073.39834
521.076	15348.56366
521.283	15138.14305
521.49	15028.88626
521.697	15077.44489
521.904	15293.93505
522.112	15073.39834
522.319	15382.95957
522.526	15312.14456
522.733	15680.38968
522.94	15585.29137
523.147	15583.26802
523.354	15459.84499
523.561	15722.88104
523.768	15443.65853
523.975	15858.45173
524.183	15672.29613
524.39	15840.24045
524.597	15767.39626
524.804	15898.92158
525.011	15929.2743
525.218	16060.80625
525.425	15607.54826
525.632	16101.27886
525.838	15834.17005
526.045	16131.63372
526.252	15789.65406
526.459	16198.41568
526.666	15983.90994
526.873	16234.84298
527.08	16174.13112
527.287	16382.58188
527.494	16307.69929
527.701	16421.03613
527.907	16327.93758
528.114	16578.90869
528.321	16459.4911
528.528	16690.23706
528.735	16793.47511
528.941	16734.77036
529.148	16554.61977
529.355	16791.45078
529.562	16740.84317
529.768	17085.00628
529.975	16538.42732
530.182	17246.99249
530.388	16769.18324
530.595	16965.55289
530.802	16906.84192
531.008	17303.69206
531.215	17155.873
531.422	17390.77097
531.628	17212.56889
531.835	17406.97232
532.042	17311.79219
532.248	17731.042
532.455	17287.49195
532.661	17544.69186
532.868	17550.76806
533.074	17743.19624
533.281	17461.65334
533.487	17650.01678
533.694	17471.7797
533.9	17733.0677
534.107	17439.37561
534.313	18043.04011
534.52	17895.13463
534.726	17812.07259
534.933	17664.19581
535.139	18158.5412
535.345	18004.54235
535.552	18105.85503
535.758	18213.25637
535.965	18472.68376
536.171	18444.30587
536.377	18732.17384
536.584	18227.44222
536.79	18097.74969
536.996	18270.00086
537.203	18282.16078
537.409	18290.26746
537.615	18533.49605
537.821	18782.86299
538.028	18545.65892
538.234	18391.60607
538.44	18709.8714
538.646	18176.77929
538.853	18900.47137
539.059	18494.9812
539.265	19058.65565
539.471	18624.72099
539.677	18647.02162
539.883	18523.36042
540.09	18857.88747
540.296	19076.90927
540.502	19310.17906
540.708	18959.28061
540.914	19606.40893
541.12	19212.80769
541.326	19448.13812
541.532	19334.52339
541.738	19701.7895
541.944	18896.41568
542.15	19886.48883
542.356	19628.73121
542.562	20026.55876
542.768	19502.9213
542.974	19397.41565
543.18	19308.15039
543.386	19608.43821
543.592	19856.04149
543.798	19910.84738
544.004	20162.58786
544.21	20089.49525
544.415	19957.53629
544.621	20576.88212
544.827	20044.83023
545.033	20414.39298
545.239	19967.68635
545.445	20578.91341
545.651	20059.0416
545.856	20414.39298
546.062	20182.89233
546.268	20213.34982
546.474	19983.92666
546.679	20154.46619
546.885	19933.17658
547.091	19874.30978
547.297	19886.48883
547.502	20444.85766
547.708	20367.68232
547.914	19983.92666
548.119	20771.90435
548.325	20351.43565
548.531	20079.34393
548.736	20645.94811
548.942	20243.80826
549.147	20231.62477
549.353	20469.23007
549.559	20922.26007
549.764	20532.19494
549.97	20678.45141
550.175	20733.30316
550.381	20706.89268
550.586	20450.9507
550.792	21056.38015
550.997	20769.87267
551.203	20843.01572
551.408	20995.41426
551.614	21298.24763
551.819	21279.95312
552.025	21601.1704
552.23	21471.04509
552.435	21835.02972
552.641	21820.79334
552.846	21450.71448
553.052	21572.70411
553.257	21489.34298
553.462	21542.20536
553.668	21503.5749
553.873	21763.8497
554.078	21806.55714
554.283	21863.50306
554.489	21621.50395
554.694	22007.91509
554.899	21607.27043
555.105	21830.96217
555.31	21948.92757
555.515	21824.86086
555.72	22022.15394
555.925	22168.62135
556.131	22311.03875
556.336	21967.2337
556.541	22492.13819
556.746	22032.32466
556.951	22280.51921
557.156	22150.31187
557.361	22278.48461
557.567	22384.28899
557.772	22396.49783
557.977	22201.1723
558.182	22300.86548
558.387	22229.65516
558.592	22756.71633
558.797	22412.77647
559.002	22380.21941
559.207	22429.05535
559.412	22199.13784
559.617	22622.3846
559.822	22868.67098
560.027	22701.7606
560.232	22801.49694
560.437	22652.9132
560.642	22834.0657
560.847	23076.32314
561.051	22937.88447
561.256	22742.4683
561.461	23023.38888
561.666	23186.27063
561.871	22681.40727
562.076	22720.07889
562.281	23229.03056
562.485	22713.97276
562.69	22921.59859
562.895	22691.58389
563.1	23023.38888
563.305	22791.31938
563.509	22895.1345
563.714	22750.61001
563.919	23345.10037
564.123	22842.20803
564.328	22933.81298
564.533	23115.00727
564.737	22870.70661
564.942	23235.13924
565.147	23636.33797
565.351	23345.10037
565.556	23306.40928
565.761	23359.35528
565.965	23548.7564
566.17	23485.6197
566.374	23302.3366
566.579	23314.55468
566.784	23670.96478
566.988	23844.11175
567.193	23976.53247
567.397	23495.80284
567.602	23856.33469
567.806	23607.82242
568.011	23638.37481
568.215	23725.96209
568.42	23552.82983
568.624	23874.6693
568.828	23538.57286
569.033	23624.11695
569.237	23772.81336
569.442	23701.51857
569.646	23595.60165
569.85	23758.55411
570.055	24043.76605
570.259	23958.19657
570.463	23952.08466
570.668	23768.73928
570.872	23520.24268
571.076	23882.81809
571.281	23970.42048
571.485	24477.79984
571.689	24212.88207
571.893	24557.28373
572.098	24355.52457
572.302	24066.17792
572.506	24306.6171
572.71	24261.7866
572.914	24481.87584
573.119	24600.08434
573.323	24424.81274
573.527	24404.43356
573.731	24887.48791
573.935	24822.25737
574.139	24561.35993
574.343	24265.86204
574.547	24392.20617
574.751	24461.49593
574.955	24312.73045
575.159	24740.72263
575.364	24634.73326
575.568	24928.25822
575.772	25048.53602
575.976	24944.56661
576.18	24343.29756
576.383	24616.38963
576.587	24832.44948
576.791	24848.75699
576.995	24736.64599
577.199	24638.80965
577.403	24600.08434
577.607	24995.53126
577.811	25454.27554
578.015	24616.38963
578.219	25166.78288
578.422	24734.60767
578.626	25440.00187
578.83	25211.63709
579.034	25709.17917
579.238	25462.43197
579.442	25860.09644
579.645	24993.49265
579.849	25278.92037
580.053	25527.68458
580.257	25378.83014
580.46	24987.37682
580.664	25951.87546
580.868	25609.25325
581.071	25817.26751
581.275	25562.35087
581.479	25501.17546
581.682	25150.47253
581.886	25240.18122
582.09	25384.94723
582.293	25937.59848
582.497	26092.6104
582.7	25747.9272
582.904	26092.6104
583.107	26041.6185
583.311	26096.6898
583.515	26002.8654
583.718	26092.6104
583.922	25988.5881
584.125	25835.62267
584.329	26070.17383
584.532	26027.34096
584.735	26253.75193
584.939	26088.53101
585.142	26392.46446
585.346	26347.58604
585.549	26582.18634
585.753	25792.79421
585.956	26051.81679
586.159	25962.07336
586.363	26518.94419
586.566	26467.94356
586.769	26388.38457
586.973	26361.86545
587.176	26839.25011
587.379	26068.13415
587.582	26117.0869
587.786	26008.98426
587.989	26139.52391
588.192	26478.14361
588.395	26710.71525
588.599	26598.50713
588.802	26880.05604
589.005	26716.83583
589.208	27057.56845
589.411	26504.66391
589.615	26761.72045
589.818	26880.05604
590.021	26924.94323
590.224	27367.7298
590.427	27067.77063
590.63	27320.79554
590.833	27163.67282
591.036	27216.72637
591.239	27322.83615
591.442	27343.24228
591.645	27202.44263
591.848	27569.75883
592.051	27243.25348
592.254	27092.25601
592.457	27367.7298
592.66	27555.47355
592.863	27561.59581
593.066	27033.08335
593.269	27257.5374
593.472	27226.92908
593.675	27973.85247
593.878	27900.37749
594.081	27706.4924
594.284	27384.05492
594.486	27833.02674
594.689	28057.5341
594.892	27502.41446
595.095	27530.98464
595.298	27541.18833
595.5	27875.88616
595.703	28141.21761
595.906	27794.2496
596.109	27824.86309
596.311	28216.73848
596.514	28216.73848
596.717	28092.23191
596.92	28277.97272
597.122	28159.58741
597.325	28061.61618
597.528	28135.09436
597.73	28547.41489
597.933	28329.002
598.136	28610.69567
598.338	28179.99841
598.541	28351.45509
598.743	28280.01387
598.946	28171.834
599.148	28273.8904
599.351	28226.94412
599.554	28665.81201
599.756	28459.64002
599.959	28541.291
600.161	28243.27319
600.363	28243.27319
600.566	28235.10865
600.768	28222.86186
600.971	28590.2824
601.173	28475.97008
601.376	28126.93005
601.578	28406.56779
601.78	28655.60522
601.983	28508.6304
602.185	28659.68793
602.388	28539.24971
602.59	28665.81201
602.792	28618.861
602.995	28422.89763
603.197	28269.80809
603.399	28688.26703
603.601	28265.72579
603.804	28318.79609
604.006	28627.02635
604.208	28257.5612
604.41	28512.71296
604.613	28725.01189
604.815	28198.3684
605.017	28722.9705
605.219	28263.68464
605.421	28149.38196
605.623	28702.55665
605.826	29129.22756
606.028	28802.58547
606.23	28941.40511
606.432	28733.17746
606.634	29261.9335
606.836	28631.10904
607.038	29294.60026
607.24	29051.64766
607.442	29153.72679
607.644	29188.43428
607.846	29621.28261
608.048	29511.02428
608.25	29651.91048
608.452	29012.85827
608.654	29053.68922
608.856	28508.6304
609.058	28861.78738
609.26	29204.76733
609.462	29335.43407
609.664	28912.82421
609.866	29170.05969
610.067	29151.68518
610.269	29094.52058
610.471	28651.52251
610.673	29123.10278
610.875	29033.27369
611.077	29151.68518
611.278	28741.34304
611.48	28747.46724
611.682	28918.94867
611.884	29390.56039
612.085	28869.95323
612.287	29533.48406
612.489	29319.1005
612.69	29282.35019
612.892	29484.48108
613.094	29114.93641
613.295	28990.40143
613.497	29035.31524
613.699	28976.11077
613.9	29174.14293
614.102	29043.48144
614.304	28943.44661
614.505	28745.42584
614.707	29149.64357
614.908	28618.861
615.11	28902.61679
615.311	29184.35103
615.513	29065.93858
615.714	29259.89184
615.916	28947.52962
616.117	28806.66833
616.319	29298.68362
616.52	29353.80943
616.722	29704.99935
616.923	29476.31397
617.124	29425.26995
617.326	28763.79849
617.527	29249.68354
617.729	29204.76733
617.93	29247.64188
618.131	28961.82017
618.333	29145.56036
618.534	28990.40143
618.735	29219.0588
618.937	29429.35345
619.138	29249.68354
619.339	29200.68406
619.54	29237.43361
619.742	29429.35345
619.943	28945.48812
620.144	29092.479
620.345	29586.57132
620.546	29039.39834
620.748	29317.05881
620.949	29688.66424
621.15	29923.48829
621.351	29335.43407
621.552	29515.10787
621.753	29666.20356
621.954	29856.1025
622.155	29049.6061
622.356	29392.60212
622.558	29878.5643
622.759	29425.26995
622.96	29408.936
623.161	29221.10044
623.362	29186.39266
623.563	29660.07795
623.764	29088.39585
623.965	28865.8703
624.166	28927.11463
624.366	29551.86034
624.567	29302.76699
624.768	29361.97628
624.969	29451.81276
625.17	29268.0585
625.371	28969.98622
625.572	29323.18389
625.773	29417.10297
625.973	29345.64259
626.174	29731.54407
626.375	29329.30898
626.576	29553.90215
626.777	29817.30517
626.977	29541.65128
627.178	29564.11124
627.379	29521.23326
627.58	29161.89323
627.78	29059.81389
627.981	29606.98969
628.182	30092.97918
628.382	29805.05347
628.583	29723.37644
628.784	29986.7912
628.984	29341.55918
629.185	29884.69026
629.386	29282.35019
629.586	29486.52286
629.787	29023.06597
629.987	29609.03153
630.188	29315.01711
630.388	29557.98578
630.589	29511.02428
630.79	29715.20884
630.99	30223.67636
631.191	30485.08545
631.391	30007.21172
631.591	29839.76674
631.792	30139.94793
631.992	30274.73127
632.193	30264.52023
632.393	29823.43104
632.594	29817.30517
632.794	30248.18262
632.994	30274.73127
633.195	29921.44628
633.395	29909.19423
633.595	29711.12504
633.796	29751.9632
633.996	30474.87378
634.196	29843.85067
634.397	30001.08555
634.597	29686.62235
634.797	30148.11647
634.997	29821.38908
635.198	29766.25666
635.398	30121.56878
635.598	30628.05217
635.798	29727.46025
635.998	30013.3379
636.199	30095.02128
636.399	30331.91364
636.599	29805.05347
636.799	29984.74915
636.999	29860.18645
637.199	29939.82442
637.399	29778.50824
637.599	29839.76674
637.799	29929.61433
637.999	30564.73756
638.199	30031.7165
638.399	29892.85823
638.599	29880.60628
638.799	30152.20075
638.999	30376.84332
639.199	30344.16713
639.399	29898.98423
639.599	30084.81076
639.799	30164.45361
639.999	30144.0322
640.199	30268.60464
640.399	30270.64685
640.599	29327.26728
640.799	30519.80536
640.998	29856.1025
641.198	30203.25461
641.398	30017.42203
641.598	30544.31376
641.798	30562.69517
641.997	30378.88559
642.197	30274.73127
642.397	30771.02527
642.597	30242.05604
642.796	30754.68515
642.996	30244.09824
643.196	30652.56138
643.395	29970.45486
643.595	29999.0435
643.795	30284.94233
643.994	30431.9851
644.194	30280.8579
644.394	30215.50765
644.593	30619.88247
644.793	31265.3564
644.992	30407.47753
645.192	30423.81589
645.392	30170.58005
645.591	30519.80536
645.791	30585.16149
645.99	30476.91611
646.19	30344.16713
646.389	30338.04038
646.589	30460.57749
646.788	30244.09824
646.987	30352.33615
647.187	30576.9919
647.386	30452.40821
647.586	30593.3311
647.785	30883.3659
647.984	30583.11909
648.184	30358.46293
648.383	30211.4233
648.582	30491.21246
648.782	30603.54314
648.981	30558.61041
649.18	30675.02833
649.38	30967.11348
649.579	30881.32331
649.778	30773.06779
649.977	30938.51648
650.177	30697.49543
650.376	31063.11974
650.575	30942.60175
650.774	31238.79922
650.973	30987.54007
651.173	30340.08263
651.372	30893.5789
651.571	30946.68702
651.77	30638.26432
651.969	30809.83338
652.168	30750.60014
652.367	31024.30831
652.566	30989.58274
652.765	30744.47263
652.964	31020.22293
653.163	31026.35101
653.362	30985.49741
653.561	30997.75343
653.76	31236.75637
653.959	30636.22188
654.158	30764.89771
654.357	30599.45832
654.556	30634.17945
654.755	30787.36547
654.954	30711.79276
655.153	30650.51894
655.352	30950.7723
655.551	31563.63247
655.749	31314.38572
655.948	31332.77196
656.147	30666.85851
656.346	31003.88146
656.545	30687.28309
656.743	30750.60014
656.942	31103.97445
657.141	31236.75637
657.34	31032.4791
657.538	30599.45832
657.737	31012.05218
657.936	31238.79922
658.135	30724.04767
658.333	31183.64283
658.532	30871.11036
658.731	31050.86344
658.929	30617.84005
659.128	30895.6215
659.326	30883.3659
659.525	31522.77066
659.724	31332.77196
659.922	31065.16246
660.121	30811.87593
660.319	30873.15295
660.518	31083.54702
660.716	31097.8462
660.915	30783.28041
661.113	30877.23813
661.312	30803.70575
661.51	30799.62067
661.709	30905.83453
661.907	30963.02817
662.105	30905.83453
662.304	31363.41596
662.502	31283.74229
662.701	31504.38307
662.899	31089.67523
663.097	31130.53032
663.296	30650.51894
663.494	31173.42881
663.692	31118.27373
663.891	30901.74931
664.089	30805.74829
664.287	31118.27373
664.485	31120.31649
664.684	31451.26411
664.882	31022.26562
665.08	30889.49369
665.278	30474.87378
665.476	30726.09016
665.675	30705.66533
665.873	31050.86344
666.071	30844.55685
666.269	30791.45053
666.467	31146.87253
666.665	31226.54215
666.863	31318.47154
667.061	31347.07245
667.259	31373.63071
667.457	31473.73738
667.655	31097.8462
667.853	30879.28072
668.051	30828.21635
668.249	30926.26071
668.447	30693.41049
668.645	30977.32676
668.843	31238.79922
669.041	30950.7723
669.239	30532.05954
669.437	30699.5379
669.635	30787.36547
669.833	30768.98275
670.031	30550.44088
670.229	30963.02817
670.426	30824.13123
670.624	31242.88492
670.822	30415.6467
671.02	30795.5356
671.218	30495.29715
671.415	30717.92021
671.613	29713.16694
671.811	30205.29678
672.009	29943.90846
672.206	30270.64685
672.404	30164.45361
672.602	30556.56802
672.799	30485.08545
672.997	30989.58274
673.195	30507.55123
673.392	31244.92778
673.59	31153.00088
673.788	30509.59358
673.985	30450.36589
674.183	30832.30146
674.38	30487.12778
674.578	30666.85851
674.775	31050.86344
674.973	31189.77127
675.17	30989.58274
675.368	30352.33615
675.565	30385.01242
675.763	30207.33895
675.96	29494.68998
676.158	29986.7912
676.355	29704.99935
676.553	29978.62302
676.75	29874.48032
676.947	30152.20075
677.145	29858.14448
677.342	30097.06339
677.539	30538.18664
677.737	30527.97481
677.934	30487.12778
678.131	30211.4233
678.329	30054.17936
678.526	30274.73127
678.723	29852.01855
678.92	30178.74866
679.118	30056.22145
679.315	29815.26322
679.512	29933.69836
679.709	30007.21172
679.906	29827.51496
680.104	30274.73127
680.301	30062.34771
680.498	29672.32919
680.695	29396.68559
680.892	30135.86366
681.089	29774.42438
681.286	29737.6698
681.483	29359.93457
681.68	29600.86417
681.877	29613.11522
682.075	29933.69836
682.272	29643.74302
682.469	30033.75858
682.665	29864.27041
682.862	29809.13737
683.059	30188.95946
683.256	30250.22482
683.453	30133.82153
683.65	29776.46631
683.847	29631.49187
684.044	29588.61315
684.241	29568.19488
684.438	29829.55692
684.635	29560.0276
684.831	30376.84332
685.028	29588.61315
685.225	29647.82675
685.422	29380.35176
685.619	29529.40046
685.815	29315.01711
686.012	29161.89323
686.209	28731.13606
686.405	29355.85114
686.602	29165.97646
686.799	28978.15229
686.996	29553.90215
687.192	29535.52586
687.389	29388.51867
687.586	29180.26779
687.782	29308.89205
687.979	29482.4393
688.175	28933.23912
688.372	29261.9335
688.568	29006.73367
688.765	29045.52299
688.962	29312.97542
689.158	29074.10485
689.355	28984.27686
689.551	28771.96414
689.748	28949.57112
689.944	28667.85337
690.14	28492.30021
690.337	28643.35711
690.533	29398.72732
690.73	29135.35235
690.926	29408.936
691.123	28506.58913
691.319	29186.39266
691.515	28990.40143
691.712	28602.53035
691.908	28373.90832
692.104	28186.12173
692.301	28422.89763
692.497	28412.69147
692.693	28482.09387
692.889	28388.1968
693.086	28786.25407
693.282	28518.83681
693.478	28725.01189
693.674	28251.43776
693.87	28241.23206
694.067	28506.58913
694.263	28096.31403
694.459	27988.13944
694.655	28373.90832
694.851	28371.86711
695.047	28228.98525
695.243	28282.05503
695.439	27957.52457
695.635	27671.79829
695.831	28171.834
696.027	28343.29031
696.224	28831.16559
696.42	28286.13736
696.615	28169.7929
696.811	28161.62851
697.007	27847.31315
697.203	27649.34935
697.399	27986.09844
697.595	27935.07382
697.791	27726.90085
697.987	27510.57734
698.183	28235.10865
698.379	27584.04417
698.575	28184.08062
698.77	27998.34446
698.966	27835.06765
699.162	28000.38546
699.358	28055.49306
699.554	27812.61767
699.749	27912.62322
699.945	27461.60035
700.141	27759.55463
700.337	27626.90056
700.532	27837.10856
700.728	28006.50849
700.924	28271.84925
701.119	27533.02537
701.315	27153.47032
701.511	27302.43015
701.706	27518.74025
701.902	27567.71807
702.097	27808.53587
702.293	27773.84075
702.489	27071.85152
702.684	27098.37739
702.88	27265.69967
703.075	27347.32352
703.271	27080.0133
703.466	27126.94397
703.662	27157.55132
703.857	27412.62408
704.053	27273.86197
704.248	27184.07793
704.443	26812.72657
704.639	27139.18687
704.834	27298.34896
705.03	27377.93299
705.225	27590.16648
705.42	26388.38457
705.616	27035.12377
705.811	26529.14443
706.006	26814.76683
706.202	26990.23491
706.397	27006.55805
706.592	26947.38708
706.787	26888.2173
706.983	26673.99209
707.178	26933.10461
707.373	26990.23491
707.568	27386.09557
707.763	27084.0942
707.959	27147.34883
708.154	26849.45154
708.349	27059.60888
708.544	27082.05375
708.739	26853.53212
708.934	26914.74154
709.129	26694.39379
709.324	26518.94419
709.519	26682.15275
709.714	26278.23005
709.909	26569.9458
710.104	26347.58604
710.299	26292.50907
710.494	26288.42934
710.689	26916.78187
710.884	26757.64
711.079	27124.90349
711.274	26916.78187
711.469	27149.38933
711.664	26686.23309
711.859	27035.12377
712.054	27845.27223
712.249	27453.43759
712.443	26551.58511
712.638	26792.32401
712.833	26822.9279
713.028	26506.70395
713.223	26314.94769
713.417	26665.83145
713.612	26453.66356
713.807	26135.44444
714.002	26543.42484
714.196	26608.70768
714.391	26492.42374
714.586	26818.84736
714.78	26871.89481
714.975	26576.06606
715.17	26159.92138
715.364	26586.26653
715.559	26476.10359
715.754	26335.34661
715.948	25878.45195
716.143	26257.8316
716.337	25878.45195
716.532	25768.32119
716.726	26006.94464
716.921	25919.24249
717.115	26225.19443
717.31	26286.38948
717.504	26520.98424
717.699	26486.30367
717.893	26072.21351
718.088	26059.97546
718.282	25841.74109
718.476	25393.10338
718.671	25209.59824
718.865	25594.9785
719.059	25554.19405
719.254	25650.03877
719.448	25458.35375
719.642	25313.58237
719.837	24956.79799
720.031	25668.39251
720.225	24920.10408
720.419	25274.84253
720.614	25101.54231
720.808	25287.07608
721.002	25160.66648
721.196	25548.07645
721.39	25311.54341
721.585	25313.58237
721.779	25303.3876
721.973	25505.25376
722.167	25307.4655
722.361	25535.84131
722.555	25307.4655
722.749	25397.18146
722.943	25260.57015
723.137	25001.64712
723.331	25026.11074
723.525	24918.06556
723.719	24956.79799
723.913	24718.30125
724.107	24543.01711
724.301	24956.79799
724.495	24567.47425
724.689	24744.79927
724.883	24253.63573
725.077	24477.79984
725.271	24671.42114
725.465	24157.86635
725.659	24630.65688
725.853	25019.9948
726.046	24924.18115
726.24	24956.79799
726.434	24687.72712
726.628	24742.76095
726.822	24253.63573
727.015	24514.48423
727.209	24589.89362
727.403	24282.16394
727.596	24304.57932
727.79	24673.45938
727.984	24773.33606
728.177	24854.87234
728.371	24644.92426
728.565	24587.85548
728.758	24400.35775
728.952	24473.72385
729.146	24551.16945
729.339	24642.88606
729.533	24198.61855
729.726	24043.76605
729.92	24361.63811
730.113	24589.89362
730.307	24712.18638
730.5	24842.64165
730.694	24549.13136
730.887	24581.74109
731.081	24759.06761
731.274	24412.5852
731.468	24192.50565
731.661	24084.51516
731.854	24249.56032
732.048	24127.30292
732.241	24102.85262
732.435	24632.69507
732.628	24447.23015
732.821	24115.07772
733.014	24263.82432
733.208	24184.35515
733.401	24432.96449
733.594	24457.41998
733.788	24644.92426
733.981	24983.29961
734.174	25148.43374
734.367	24852.83389
734.56	24382.01675
734.754	24163.97911
734.947	23970.42048
735.14	23943.93548
735.333	24443.15423
735.526	24033.57894
735.719	23984.68183
735.912	23925.59999
736.105	24033.57894
736.298	24269.9375
736.491	24465.57189
736.684	24082.47767
736.877	24159.90393
737.07	24218.99505
737.263	24163.97911
737.456	24282.16394
737.649	24241.40952
737.842	24500.21798
738.035	24400.35775
738.228	24000.98069
738.421	24184.35515
738.614	24310.69266
738.807	24398.31985
739	24060.06556
739.192	23943.93548
739.385	24131.37801
739.578	23988.75653
739.771	23778.92451
739.964	23699.48163
740.156	23632.26428
740.349	23746.33202
740.542	24139.52822
740.735	23758.55411
740.927	23880.78089
741.12	23624.11695
741.313	23316.59104
741.505	23174.05377
741.698	23300.30027
741.891	23508.02271
742.083	23302.3366
742.276	23141.47605
742.468	22842.20803
742.661	23102.7911
742.854	22984.70758
743.046	23137.4039
743.239	23505.98605
743.431	23793.18396
743.624	23086.50306
743.816	22974.52849
744.009	23210.7047
744.201	23161.83703
744.393	23320.66376
744.586	23084.46707
744.778	22760.78722
744.971	22626.45503
745.163	22760.78722
745.355	23104.82712
745.548	23082.43108
745.74	23094.64705
745.932	22925.67004
746.125	22711.93739
746.317	22970.45688
746.509	23031.53247
746.702	23029.49657
746.894	22864.59972
747.086	23178.12604
747.278	22736.36206
747.471	22720.07889
747.663	22716.00814
747.855	22235.75873
748.047	22457.54395
748.239	22616.27897
748.431	22960.27791
748.623	22606.103
748.815	22687.51323
749.008	22882.92049
749.2	22496.20817
749.392	22929.74151
749.584	22711.93739
749.776	23078.35911
749.968	23080.39509
750.16	23049.85573
750.352	22978.60012
750.544	22549.1192
750.736	22958.24213
750.928	23253.46544
751.12	22994.88676
751.311	22583.71618
751.503	23066.1433
751.695	22573.54049
751.887	22585.75132
752.079	22734.32665
752.271	21965.19967
752.463	22331.38556
752.654	22424.98561
752.846	22722.11428
753.038	22292.72693
753.23	22500.27816
753.421	22532.83862
753.613	22502.31316
753.805	22974.52849
753.997	22915.49144
754.188	22646.80741
754.38	22595.92712
754.572	22950.09903
754.763	22553.18938
754.955	22431.09023
755.146	22211.34467
755.338	22132.00268
755.53	22235.75873
755.721	22178.79342
755.913	22170.65576
756.104	21950.96157
756.296	21826.89462
756.487	22150.31187
756.679	22070.97425
756.87	21743.51342
757.062	22011.98332
757.253	21757.74878
757.445	21713.00973
757.636	21507.6412
757.827	21692.67443
758.019	21605.23708
758.21	21206.77838
758.401	21044.18667
758.593	21548.30504
758.784	20997.44639
758.975	21281.98583
759.167	21202.71327
759.358	21591.00378
759.549	21426.31827
759.74	21383.62629
759.932	21294.18215
760.123	21070.60605
760.314	21017.76799
760.505	20975.09311
760.696	20987.28575
760.888	20650.01096
761.079	20851.14305
761.27	21401.92264
761.461	21251.49566
761.652	21190.51804
761.843	21048.25115
762.034	21428.35127
762.225	20741.4296
762.416	20532.19494
762.607	20517.97672
762.798	20889.74881
762.989	21294.18215
763.18	20971.02894
763.371	21149.86832
763.562	20901.94041
763.753	20666.26255
763.944	20788.15793
764.135	20158.52701
764.326	20554.53828
764.517	20836.92026
764.708	20684.5459
764.899	20115.88917
765.089	20113.85884
765.28	20085.43471
765.471	20304.72797
765.662	19979.86656
765.853	19983.92666
766.043	20113.85884
766.234	20316.91237
766.425	19920.99695
766.615	20193.04472
766.806	20227.56364
766.997	20121.98018
767.187	19825.5951
767.378	20205.22773
767.569	20012.34785
767.759	20032.64921
767.95	20442.82665
768.141	20540.31973
768.331	19872.27995
768.522	19342.63829
768.712	19391.32913
768.903	19582.05792
769.093	19480.60186
769.284	19397.41565
769.474	19407.55994
769.665	19675.40671
769.855	19807.32772
770.046	19874.30978
770.236	19318.29377
770.426	19606.40893
770.617	19117.47404
770.807	19253.37794
770.998	19452.19603
771.188	19245.26376
771.378	19032.2899
771.569	19097.19145
771.759	19344.66703
771.949	19255.4065
772.139	19513.06667
772.33	19352.78202
772.52	19496.83413
772.71	19316.26509
772.9	18985.64447
773.09	19022.14941
773.281	19050.54304
773.471	18857.88747
773.661	18807.19466
773.851	19058.65565
774.041	18924.80582
774.231	18939.00118
774.421	18515.252
774.611	18405.79422
774.802	18182.85872
774.992	18300.4009
775.182	18316.6146
775.372	18628.77562
775.562	18413.90182
775.752	18428.09027
775.942	18211.22983
776.131	18515.252
776.321	18426.06334
776.511	18008.59469
776.701	18373.36442
776.891	18574.0395
777.081	18312.56115
777.271	18296.34751
777.461	18154.48833
777.651	18043.04011
777.84	18024.80417
778.03	18126.11865
778.22	18375.39126
778.41	18499.03533
778.599	18190.96468
778.789	17878.92695
778.979	17601.40419
779.169	17686.47747
779.358	17889.05672
779.548	18474.71078
779.738	18213.25637
779.927	18415.92873
780.117	18154.48833
780.307	17903.23855
780.496	17729.0163
780.686	18024.80417
780.875	17757.37635
781.065	17909.31653
781.254	17542.66647
781.444	17708.75953
781.633	17769.53085
781.823	17490.00736
782.012	17550.76806
782.202	17583.17495
782.391	17216.61868
782.581	17277.36697
782.77	17188.27038
782.96	17048.56187
783.149	16732.74609
783.338	17137.6498
783.528	16931.13585
783.717	16757.03744
783.906	16862.30402
784.096	17001.9953
784.285	17182.19581
784.474	17232.81797
784.663	17145.74898
784.853	17085.00628
785.042	17358.36886
785.231	17251.04239
785.42	16811.69425
785.61	17050.58654
785.799	16773.23186
785.988	16898.74403
786.177	16410.91652
786.366	16793.47511
786.555	16726.67331
786.744	16528.30711
786.933	16489.85081
787.122	16376.51023
787.312	16449.3713
787.501	16271.27085
787.69	16708.45509
787.879	16698.33394
788.068	16406.8687
788.257	16724.64905
788.445	16394.72525
788.634	16823.84045
788.823	16461.51507
789.012	16190.3208
789.201	16354.24763
789.39	16435.20367
789.579	16461.51507
789.768	16425.08399
789.957	16242.93801
790.145	16410.91652
790.334	16307.69929
790.523	16166.03632
790.712	16028.4286
790.9	16184.24966
791.089	16048.66459
791.278	16155.91786
791.467	16006.16919
791.655	16212.58179
791.844	15807.86508
792.033	15983.90994
792.221	15909.03913
792.41	15992.00419
792.599	15650.03895
792.787	15933.32135
792.976	15603.50154
793.164	15902.9686
793.353	15635.87535
793.541	16089.13701
793.73	15739.06834
793.918	15815.9589
794.107	15502.33462
794.295	15457.82168
794.484	15500.3113
794.672	15682.41307
794.861	15728.95127
795.049	15706.69381
795.238	15544.82452
795.426	15862.49869
795.614	15761.32597
795.803	15593.38477
795.991	15334.40066
796.179	15429.4954
796.368	15000.56032
796.556	15095.65435
796.744	14842.74299
796.932	15380.93628
797.121	15178.60846
797.309	15130.04997
797.497	15000.56032
797.685	15304.05144
797.874	15192.77136
798.062	15542.80118
798.25	14929.7452
798.438	15168.49211
798.626	14895.3491
798.814	14826.55642
799.002	14749.66958
799.19	15006.63017
799.378	14947.95485
799.566	15259.53935
799.755	14964.14118
799.943	15184.67827
800.131	15010.67673
800.318	15105.77071
800.506	15045.07248
800.694	14952.00143
800.882	14818.46312
801.07	15259.53935
801.258	15202.88771
801.446	15053.16559
801.634	14695.03876
801.822	14903.44231
802.01	14668.7348
802.197	15008.65345
802.385	14680.87511
802.573	14622.19661
802.761	14630.29025
802.949	14814.41646
803.136	14684.92187
803.324	14476.50792
803.512	14393.5432
803.699	14185.10733
803.887	14110.22729
804.075	14543.2827
804.262	14442.10822
804.45	14717.29584
804.638	14670.75819
804.825	15028.88626
805.013	14539.23578
805.201	15069.35179
805.388	14652.54767
805.576	14721.34257
805.763	15000.56032
805.951	14937.83838
806.138	14964.14118
806.326	14782.04312
806.513	14755.73964
806.701	14634.33706
806.888	14583.75159
807.075	14648.50087
807.263	14177.01232
807.45	14575.65785
807.638	14587.79845
807.825	14715.27247
808.012	14765.85637
808.2	14974.25762
808.387	14982.35076
808.574	15251.44625
808.761	14842.74299
808.949	14830.60307
809.136	14644.45407
809.323	14757.76299
809.51	14828.57974
809.698	14684.92187
809.885	14478.53142
810.072	14638.38387
810.259	14672.78158
810.446	14446.15526
810.633	14431.99058
810.82	14814.41646
811.008	14840.71967
811.195	14504.83679
811.382	14589.82188
811.569	14628.26684
811.756	14397.59032
811.943	14747.64623
812.13	14389.49608
812.317	14701.10889
812.504	14956.04802
812.691	15045.07248
812.878	14711.22574
813.064	15097.67762
813.251	14773.94975
813.438	15028.88626
813.625	14274.15024
813.812	14241.77143
813.999	14693.01539
814.186	14804.29981
814.372	14838.69635
814.559	15302.02816
814.746	14456.27285
814.933	14846.78963
815.12	14470.43742
815.306	14642.43067
815.493	14377.35467
815.68	14403.66099
815.866	14444.13174
816.053	14943.90826
816.24	14660.64124
816.426	14737.52945
816.613	14630.29025
816.799	14725.3893
816.986	14699.08551
817.173	14717.29584
817.359	14312.59948
817.546	14478.53142
817.732	14539.23578
817.919	14407.70809
818.105	14344.97729
818.292	14460.31988
818.478	14290.33947
818.665	14525.07154
818.851	14575.65785
819.037	14342.95369
819.224	14539.23578
819.41	14322.71759
819.597	14413.77873
819.783	14468.41391
819.969	14150.70335
820.156	14237.72405
820.342	13988.79368
820.528	14025.22466
820.714	14079.86967
820.901	14031.29641
821.087	13980.6978
821.273	14172.96481
821.459	14233.67665
821.646	14310.57585
821.832	13982.72177
822.018	13984.74574
822.204	13600.14063
822.39	13869.37522
822.576	13948.31387
822.762	13919.97738
822.948	14077.84581
823.134	14168.91729
823.32	13962.48192
823.507	13922.00144
823.693	13926.04953
823.879	13889.61629
824.065	13982.72177
824.25	13936.16972
824.436	13802.57769
824.622	14033.32033
824.808	13847.10972
824.994	14017.12895
825.18	13681.1193
825.366	13944.26583
825.552	13523.20579
825.738	13543.4523
825.923	13567.74764
826.109	13555.60003
826.295	12980.44687
826.481	13725.65534
826.667	13553.57542
826.852	13644.67956
827.038	13585.96881
827.224	13770.18986
827.409	13428.04224
827.595	13756.01995
827.781	13294.39371
827.966	13498.9095
828.152	13215.41101
828.338	13577.87054
828.523	12877.12254
828.709	13211.36043
828.894	12899.40933
829.08	13217.43629
829.266	13148.57422
829.451	13504.98362
829.637	13053.37369
829.822	13513.0824
830.008	13142.4979
830.193	13306.54432
830.378	13239.71408
830.564	13440.19125
830.749	12708.93704
830.935	12911.5655
831.12	12206.15375
831.305	12560.98169
831.491	12376.49714
831.676	12388.66264
831.861	12437.32223
832.047	12814.31077
832.232	12792.02145
832.417	12530.57584
832.602	12311.61028
832.788	12640.03034
832.973	12408.93794
833.158	12465.70522
833.343	12273.08032
833.528	12506.25013
833.714	12396.77284
833.899	12633.95001
834.084	12404.88293
834.269	12676.51122
834.454	12504.22295
834.639	12836.59942
834.824	12429.21257
835.009	12828.49453
835.194	12834.5732
835.379	12706.91047
835.564	12550.84657
835.749	12706.91047
835.934	12563.0087
836.119	12560.98169
836.304	12360.27608
836.489	12214.26648
836.674	11916.04366
836.859	12035.75871
837.044	12086.47713
837.228	12196.01267
837.413	12078.36251
837.598	12218.3228
837.783	11838.92401
837.968	12086.47713
838.152	12047.93158
838.337	11816.59765
838.522	11871.39691
838.707	12125.01992
838.891	11635.91845
839.076	11788.18078
839.261	11964.74468
839.445	11964.74468
839.63	11810.50846
839.815	11804.4192
839.999	11607.49058
840.184	11528.28912
840.368	11717.13121
840.553	11763.82213
840.737	11729.31189
840.922	11719.16134
841.106	11384.06483
841.291	11501.88547
841.475	11231.66113
841.66	11776.00161
841.844	11491.72979
842.029	11528.28912
842.213	11442.97922
842.397	11743.52229
842.582	11432.82215
842.766	11369.84287
842.951	11392.19144
843.135	11380.00146
843.319	11321.07819
843.504	11085.2988
843.688	11382.03315
843.872	11402.34948
844.056	11487.66746
844.241	11499.85435
844.425	11363.7476
844.609	11247.92025
844.793	11014.13031
844.977	11233.69356
845.161	10735.42355
845.346	11042.59932
845.53	10737.4587
845.714	11223.53132
845.898	10957.18578
846.082	10997.86134
846.266	11044.63274
846.45	11103.59711
846.634	10696.75344
846.818	10664.18575
847.002	10460.56583
847.186	10246.62629
847.37	10218.08988
847.554	10338.33253
847.738	10224.20505
847.922	10684.54092
848.106	10391.30607
848.29	10656.04334
848.473	10501.29989
848.657	10348.52044
848.841	10163.0478
849.025	10497.22672
849.209	10042.73536
849.392	10383.15688
849.576	10248.6645
849.76	10425.93783
849.944	10218.08988
850.127	10419.82661
850.311	10503.33646
850.495	10647.90074
850.678	10324.06889
850.862	10226.24341
851.046	10191.58939
851.229	10299.61543
851.413	9820.33187
851.596	10324.06889
851.78	10003.9802
851.964	10175.28024
852.147	10228.28176
852.331	9967.25999
852.514	9667.19924
852.698	10107.99563
852.881	9728.46257
853.065	10124.30844
853.248	9661.07215
853.431	9793.79499
853.615	9842.78418
853.798	10034.57681
853.982	9826.45541
854.165	9814.2082
854.348	9667.19924
854.532	9824.41424
854.715	9612.05036
854.898	9873.39807
855.081	9638.60494
855.265	9995.82056
855.448	9329.99758
855.631	9434.27024
855.814	9264.54971
855.997	9295.23052
856.181	9215.45257
856.364	9387.25058
856.547	9358.62569
856.73	9442.44669
856.913	9029.20348
857.096	9037.39326
857.279	9133.60234
857.462	8980.05894
857.645	9172.48459
857.828	9098.80772
858.011	8799.77486
858.194	9082.43205
858.377	9041.48804
858.56	9485.36885
858.743	9422.00507
858.926	9303.41143
859.109	9170.43831
859.292	8859.20198
859.475	8844.8589
859.658	8971.8672
859.841	8652.16534
860.023	8725.982
860.206	8750.58225
860.389	9084.47907
860.572	8654.21613
860.755	8771.08045
860.937	8762.88139
861.12	8752.63216
861.303	8533.18772
861.486	8537.29145
861.668	8332.01129
861.851	8416.1994
862.034	8434.67537
862.216	8371.02934
862.399	8286.82369
862.581	8383.34938
862.764	8278.60675
862.947	8368.97593
863.129	8184.08922
863.312	8531.13582
863.494	8225.18894
863.677	8210.80494
863.859	7834.41609
864.042	8190.25468
864.224	8194.36489
864.406	8305.31067
864.589	7959.95481
864.771	8446.99182
864.954	8073.08012
865.136	7863.23505
865.318	7834.41609
865.501	7766.46956
865.683	7955.84
865.865	8118.31311
866.048	7879.70121
866.23	7832.35744
866.412	7679.95914
866.594	7846.76757
866.777	7657.2955
866.959	7776.76595
867.141	7694.38012
867.323	7908.51379
867.505	7776.76595
867.687	7811.76977
867.869	7824.12262
868.052	8099.80988
868.234	7826.18136
868.416	7970.24147
868.598	7900.28204
868.78	8089.52961
868.962	7813.82863
869.144	8009.32614
869.326	7562.49242
869.508	7859.11831
869.69	7288.13152
869.872	7537.75375
870.054	7447.0188
870.236	7749.99424
870.417	7578.98315
870.599	7649.05354
870.781	7453.2066
870.963	7387.19331
871.145	7477.95586
871.327	7527.44506
871.508	7203.47616
871.69	7438.76809
871.872	7286.0672
872.054	7552.18502
872.235	7277.80968
872.417	7632.5686
872.599	7083.65615
872.78	7537.75375
872.962	7259.22898
873.144	7350.05105
873.325	7131.17994
873.507	7484.14269
873.689	7286.0672
873.87	7568.67661
874.052	7195.21511
874.233	7504.76405
874.415	7186.9537
874.596	7319.09375
874.778	7180.75742
874.959	7255.09969
875.141	7368.62306
875.322	7335.60492
875.503	7075.38994
875.685	6976.1674
875.866	6812.75037
876.048	7189.01909
876.229	7131.17994
876.41	7370.68651
876.592	7213.80197
876.773	7054.72284
876.954	7089.85558
877.136	7116.71743
877.317	7031.98644
877.498	7626.3864
877.679	7246.84085
877.86	7199.34568
878.042	7038.18755
878.223	7319.09375
878.404	7160.10169
878.585	7290.19582
878.766	6839.65152
878.947	7323.22167
879.128	6914.12695
879.309	7120.84969
879.49	7224.12723
879.672	7238.58166
879.853	7246.84085
880.034	7329.4134
880.215	6980.3027
880.396	7362.43259
880.576	7182.82287
880.757	7333.5411
880.938	7335.60492
881.119	7471.76884
881.3	7234.45193
881.481	7636.68996
881.662	7263.35818
881.843	7414.01389
882.023	6963.76093
882.204	6843.78981
882.385	6878.96166
882.566	7205.54136
882.747	7089.85558
882.927	7352.11469
883.108	7133.24593
883.289	7284.00285
883.469	7205.54136
883.65	7504.76405
883.831	7482.08043
884.011	7566.61523
884.192	7207.60655
884.373	7271.61631
884.553	7304.64532
884.734	7360.36905
884.914	7164.23302
885.095	7323.22167
885.275	6976.1674
885.456	7317.02975
885.636	7230.32212
885.817	7543.93871
885.997	7193.14979
886.178	7383.06674
886.358	7116.71743
886.538	7292.2601
886.719	6926.53667
886.899	7296.3886
887.08	7317.02975
887.26	7321.15772
887.44	7219.99719
887.621	7589.28917
887.801	7461.4567
887.981	7543.93871
888.161	7308.77356
888.342	7323.22167
888.522	7418.13981
888.702	7515.07392
888.882	7459.39421
889.062	7558.36952
889.242	7139.44374
889.423	7238.58166
889.603	7273.68079
889.783	7523.32143
889.963	7151.83878
890.143	7327.34951
890.323	7021.65082
890.503	7056.78965
890.683	6955.48951
890.863	7127.04791
891.043	7211.73685
891.223	7354.17831
891.403	7424.32852
891.583	7601.65568
891.763	7321.15772
891.943	7607.83865
892.122	7071.2567
892.302	7347.98738
892.482	6982.37032
892.662	7106.38639
892.842	7017.51641
893.022	7236.51681
893.201	6978.23506
893.381	7232.38704
893.561	6909.9902
893.741	6990.64058
893.92	7023.71799
894.1	7062.98995
894.28	6798.26354
894.459	7122.91578
894.639	6849.99709
894.819	7104.32012
894.998	6837.58234
895.178	7003.04528
895.357	6810.68089
895.537	6901.71642
895.716	6992.70808
895.896	6905.85336
896.075	6810.68089
896.255	6926.53667
896.434	6329.93995
896.614	6868.61768
896.793	6437.80062
896.973	6529.0182
897.152	6325.7902
897.331	6553.88793
897.511	6468.90257
897.69	6578.75433
897.87	6458.53583
898.049	6605.68918
898.228	6163.87705
898.407	6367.28347
898.587	6209.5593
898.766	6348.61265
898.945	6207.48308
899.124	6325.7902
899.304	6259.38153
899.483	6450.24202
899.662	6278.06139
899.841	6188.79605
900.02	6305.04007
900.199	6410.84136
900.378	6126.49222
900.557	6222.01612
900.737	6170.10712
900.916	6350.68728
901.095	5989.34929
901.274	6078.71162
901.453	6022.60548
901.632	6099.48732
901.811	5829.21948
901.989	6288.43827
902.168	5960.24518
902.347	6138.95467
902.526	5587.72081
902.705	5895.78391
902.884	5556.46936
903.063	5885.38481
903.242	5671.03208
903.42	5785.52343
903.599	5673.11438
903.778	5502.28761
903.957	5164.3361
904.135	5754.3056
904.314	5558.55295
904.493	5664.78504
904.672	5452.25957
904.85	5637.7121
905.029	5105.86258
905.207	5222.79137
905.386	4995.13079
905.565	4846.69057
905.743	4809.0395
905.922	4727.43694
906.1	4700.22844
906.279	4955.4187
906.457	4763.01153
906.636	4932.42369
906.814	4848.78208
906.993	4978.41092
907.171	4731.62253
907.35	4698.13532
907.528	4553.65591
907.707	4606.01582
907.885	4339.88454
908.063	4207.73649
908.242	4285.35756
908.42	4566.22355
908.598	4247.59961
908.777	4453.08604
908.955	4104.89638
909.133	4474.04229
909.311	4086.0019
909.49	4251.79528
909.668	4172.063
909.846	4578.7904
910.024	4300.03934
910.202	4566.22355
910.38	4180.45731
910.559	4339.88454
910.737	4360.85257
910.915	4444.70293
911.093	4274.86994
911.271	4524.32829
911.449	4402.78211
911.627	4494.99633
911.805	4291.64988
911.983	4243.40385
912.161	4086.0019
912.339	4423.74362
912.517	4270.67474
912.695	4499.18688
912.872	4289.55246
913.05	4601.82754
913.228	4432.1276
913.406	4593.45071
913.584	4620.6741
913.762	4616.48613
913.939	4350.36883
914.117	4465.66006
914.295	4193.04815
914.473	4350.36883
914.65	4058.70692
914.828	4476.13779
915.006	4249.69746
915.184	4562.03443
915.361	4297.942
915.539	4312.62287
915.716	4159.47089
915.894	4341.98144
916.072	4083.90241
916.249	4276.96751
916.427	4104.89638
916.604	4427.93565
916.782	4321.01147
916.959	4670.92272
917.137	4159.47089
917.314	4321.01147
917.492	3873.84976
917.669	3873.84976
917.847	3863.34181
918.024	4071.30504
918.201	3964.19737
918.379	4134.28441
918.556	4037.70839
918.733	4201.44161
918.911	3878.0528
919.088	4073.40465
919.265	3785.56761
919.442	3743.5163
919.62	3585.75543
919.797	3817.10095
919.974	3663.59751
920.151	3663.59751
920.328	3600.48428
920.506	3777.15797
920.683	3827.61108
920.86	3743.5163
921.037	3661.49401
921.214	4018.80795
921.391	3697.25091
921.568	3945.29049
921.745	3636.25053
921.922	3684.63145
922.099	3518.41195
922.276	3608.90036
922.453	3448.94437
922.63	3707.76659
922.807	3213.03254
922.984	3253.06842
923.161	3274.1375
923.338	3314.16408
923.514	3120.29508
923.691	3394.19856
923.868	3162.45237
924.045	3210.92522
924.222	3196.17354
924.399	3419.46735
924.575	3250.96142
924.752	3383.66915
924.929	3168.77541
925.105	3272.03067
925.282	3221.46165
925.459	3326.80277
925.635	3000.11211
925.812	3057.04719
925.989	3038.07007
926.165	3128.72705
926.342	2599.16215
926.518	2774.37457
926.695	2461.88878
926.871	3040.1787
927.048	2681.50189
927.224	3004.3299
927.401	2892.53812
927.577	2960.04003
927.754	2727.94142
927.93	3069.6979
928.107	2757.49054
928.283	2776.48502
928.459	2554.81766
928.636	2597.05063
928.812	2521.02789
928.988	2689.9459
929.165	2470.33776
929.341	2474.56218
929.517	2387.95286
929.693	2487.23519
929.87	2468.22553
930.046	2455.55193
930.222	2237.93071
930.398	2419.64127
930.574	2166.07282
930.751	2628.72218
930.927	2347.81088
931.103	2548.48231
931.279	2178.75433
931.455	2455.55193
931.631	2269.62951
931.807	2320.34325
931.983	2032.90001
932.159	2320.34325
932.335	1956.78876
932.511	2174.52719
932.687	1798.19994
932.863	2049.81245
933.039	1836.26381
933.215	2142.82261
933.391	1887.01326
933.566	2037.12816
933.742	1840.49304
933.918	1948.33146
934.094	1684.00067
934.27	1834.14919
934.445	1586.713
934.621	1882.78425
934.797	1578.253
934.973	1688.23045
935.148	1447.12071
935.324	1489.42173
935.5	1347.71381
935.675	1609.97787
935.851	1315.9887
936.027	1497.88192
936.202	1305.41376
936.378	1409.0498
936.553	1068.55471
936.729	1093.93002
936.904	846.55961
937.08	988.20488
937.255	825.42165
937.431	994.54797
937.606	690.1617
937.782	926.89155
937.957	745.10599
938.133	770.4673
938.308	538.05013
938.483	599.30939
938.659	455.68561
938.834	561.28507
939.009	483.13796
939.185	533.82578
939.36	483.13796
939.535	500.03297
939.71	500.03297
939.886	377.56649
940.061	424.01305
940.236	424.01305
940.411	474.69081
940.586	459.90888
940.761	407.12248
940.937	400.78878
941.112	392.34408
941.287	373.34447
941.462	354.34623
941.637	339.57079
941.812	373.34447
941.987	331.12806
942.162	314.24345
942.337	331.12806
942.512	316.35397
942.687	223.5089
942.862	293.13931
943.037	322.68561
943.212	248.82665
943.386	248.82665
943.561	217.1799
943.736	272.03701
943.911	265.70668
944.086	322.68561
944.26	229.83807
944.435	265.70668
944.61	244.60683
944.785	331.12806
944.959	305.80158
945.134	234.05762
945.309	265.70668
945.483	286.80843
945.658	217.1799
945.833	331.12806
946.007	265.70668
946.182	221.39921
946.357	229.83807
946.531	223.5089
946.706	288.91871
946.88	229.83807
947.055	246.71673
947.229	240.38709
947.404	200.30345
947.578	286.80843
947.752	246.71673
947.927	293.13931
948.101	288.91871
948.276	339.57079
948.45	257.26651
948.624	322.68561
948.799	354.34623
948.973	324.7962
949.147	242.49695
949.321	333.23872
949.496	238.27725
949.67	371.23349
949.844	301.58075
950.018	276.25732
950.193	189.75633
950.367	303.69116
950.541	187.64696
950.715	269.92688
950.889	212.96067
951.063	198.19399
951.237	274.14716
951.411	394.45523
951.585	316.35397
951.759	322.68561
951.933	322.68561
952.107	337.46008
952.281	286.80843
952.455	331.12806
952.629	318.4645
952.803	326.9068
952.977	225.6186
953.151	276.25732
953.325	316.35397
953.499	343.79226
953.672	250.93658
953.846	398.67758
954.02	215.07028
954.194	329.01742
954.368	280.47771
954.541	242.49695
954.715	318.4645
954.889	386.01073
955.062	280.47771
955.236	307.91202
955.41	246.71673
955.583	318.4645
955.757	274.14716
955.93	297.36
956.104	383.89964
956.278	322.68561
956.451	248.82665
956.625	348.0138
956.798	183.42829
956.972	288.91871
957.145	377.56649
957.319	409.23374
957.492	206.63197
957.665	297.36
957.839	326.9068
958.012	307.91202
958.185	345.90302
958.359	305.80158
958.532	350.12459
958.705	358.56795
958.879	297.36
959.052	350.12459
959.225	350.12459
959.398	394.45523
959.572	373.34447
959.745	352.2354
959.918	324.7962
960.091	322.68561
960.264	238.27725
960.438	405.01123
960.611	282.58793
960.784	297.36
960.957	231.94784
961.13	291.029
961.303	280.47771
961.476	250.93658
961.649	331.12806
961.822	377.56649
961.995	253.04654
962.168	278.36751
962.341	297.36
962.514	333.23872
962.686	269.92688
962.859	312.13296
963.032	231.94784
963.205	339.57079
963.378	280.47771
963.551	358.56795
963.723	242.49695
963.896	259.37653
964.069	204.52245
964.242	234.05762
964.414	196.08454
964.587	339.57079
964.76	246.71673
964.932	343.79226
965.105	246.71673
965.278	318.4645
965.45	253.04654
965.623	293.13931
965.795	263.59661
965.968	343.79226
966.14	221.39921
966.313	238.27725
966.485	248.82665
966.658	303.69116
966.83	305.80158
967.003	305.80158
967.175	280.47771
967.348	223.5089
967.52	124.37568
967.692	253.04654
967.865	229.83807
968.037	259.37653
968.209	164.4453
968.382	257.26651
968.554	263.59661
968.726	263.59661
968.898	212.96067
969.071	255.15652
969.243	162.33619
969.415	272.03701
969.587	139.13728
969.759	238.27725
969.932	248.82665
970.104	162.33619
970.276	130.70195
970.448	189.75633
970.62	166.55444
970.792	217.1799
970.964	166.55444
971.136	202.41294
971.308	191.86571
971.48	221.39921
971.652	162.33619
971.824	229.83807
971.996	147.57295
972.168	191.86571
972.339	128.59318
972.511	217.1799
972.683	177.10045
972.855	181.31899
973.027	147.57295
973.199	166.55444
973.37	221.39921
973.542	238.27725
973.714	130.70195
973.886	212.96067
974.057	179.20971
974.229	244.60683
974.401	170.77278
974.572	259.37653
974.744	141.24617
974.915	229.83807
975.087	204.52245
975.259	189.75633
975.43	147.57295
975.602	174.9912
975.773	54.79979
975.945	151.79091
976.116	179.20971
976.288	181.31899
976.459	153.89993
976.63	189.75633
976.802	77.98905
976.973	132.81075
977.145	69.55627
977.316	92.74727
977.487	164.4453
977.659	179.20971
977.83	156.00896
978.001	88.53052
978.172	54.79979
978.344	132.81075
978.515	156.00896
978.686	124.37568
978.857	107.50658
979.028	88.53052
979.2	107.50658
979.371	132.81075
979.542	120.15828
979.713	105.39804
979.884	111.72373
980.055	156.00896
980.226	105.39804
980.397	139.13728
980.568	99.07256
980.739	166.55444
980.91	71.66443
981.081	23.18258
981.252	168.6636
981.423	145.464
981.594	139.13728
981.765	105.39804
981.936	96.96411
982.106	120.15828
982.277	120.15828
982.448	48.47593
982.619	77.98905
982.79	158.11802
982.96	120.15828
983.131	73.77262
983.302	103.28953
983.472	90.63889
983.643	130.70195
983.814	101.18103
983.984	86.42218
984.155	69.55627
984.326	75.88082
984.496	90.63889
984.667	77.98905
984.837	73.77262
985.008	137.02842
985.178	27.39791
985.349	115.94096
985.519	71.66443
985.69	120.15828
985.86	111.72373
986.031	27.39791
986.201	35.82884
986.371	73.77262
986.542	48.47593
986.712	111.72373
986.882	99.07256
987.053	35.82884
987.223	122.26697
987.393	59.01582
987.563	109.61514
987.734	115.94096
987.904	56.90779
988.074	145.464
988.244	8.4297
988.414	4.2148
988.585	103.28953
988.755	35.82884
988.925	61.12386
989.095	86.42218
989.265	33.72107
989.435	65.34002
989.605	82.20557
989.775	82.20557
989.945	8.4297
990.115	99.07256
990.285	63.23193
990.455	-6.32202
990.625	90.63889
990.795	12.64469
990.965	103.28953
991.134	59.01582
991.304	23.18258
991.474	44.26014
991.644	52.69182
991.814	120.15828
991.984	80.0973
992.153	48.47593
992.323	27.39791
992.493	46.36803
992.662	48.47593
992.832	96.96411
993.002	73.77262
993.171	46.36803
993.341	33.72107
993.511	80.0973
993.68	77.98905
993.85	77.98905
994.019	2.10739
994.189	31.61332
994.358	52.69182
994.528	6.32224
994.697	69.55627
994.867	88.53052
995.036	-23.17966
995.206	99.07256
995.375	14.75222
995.544	35.82884
995.714	18.96735
995.883	23.18258
996.052	105.39804
996.222	92.74727
996.391	2.10739
996.56	27.39791
996.73	52.69182
996.899	10.53718
997.068	113.83233
997.237	90.63889
997.406	-2.10736
997.576	18.96735
997.745	-4.2147
997.914	101.18103
998.083	63.23193
998.252	71.66443
998.421	96.96411
998.59	2.10739
998.759	61.12386
998.928	-6.32202
999.097	18.96735
999.266	40.04444
999.435	12.64469
999.604	82.20557
999.773	2.10739
999.942	2.10739
1000.111	103.28953
1000.28	25.29023
1000.448	44.26014
1000.617	94.85568
1000.786	-14.75104
1000.955	35.82884
1001.124	86.42218
1001.292	52.69182
1001.461	12.64469
1001.63	94.85568
1001.798	21.07496
1001.967	103.28953
1002.136	-16.85823
1002.304	61.12386
1002.473	21.07496
1002.642	29.5056
1002.81	137.02842
1002.979	113.83233
1003.147	29.5056
1003.316	-14.75104
1003.484	143.35507
1003.653	6.32224
1003.821	86.42218
1003.99	48.47593
1004.158	86.42218
1004.327	73.77262
1004.495	10.53718
1004.663	27.39791
1004.832	29.5056
1005	105.39804
1005.168	56.90779
1005.337	27.39791
1005.505	-12.64382
1005.673	10.53718
1005.842	27.39791
1006.01	69.55627
1006.178	52.69182
1006.346	10.53718
1006.514	18.96735
1006.683	107.50658
1006.851	-27.39383
1007.019	84.31387
1007.187	-29.50088
1007.355	18.96735
1007.523	-12.64382
1007.691	23.18258
1007.859	54.79979
1008.027	48.47593
1008.195	37.93663
1008.363	31.61332
1008.531	80.0973
1008.699	54.79979
1008.867	18.96735
1009.035	16.85977
1009.203	80.0973
1009.37	23.18258
1009.538	40.04444
1009.706	-2.10736
1009.874	-52.67674
1010.042	-2.10736
1010.209	44.26014
1010.377	69.55627
1010.545	37.93663
1010.713	14.75222
1010.88	35.82884
1011.048	-2.10736
1011.216	35.82884
1011.383	18.96735
1011.551	-14.75104
1011.718	56.90779
1011.886	69.55627
1012.054	25.29023
1012.221	23.18258
1012.389	-37.92881
1012.556	44.26014
1012.724	52.69182
1012.891	-6.32202
1013.058	115.94096
1013.226	-12.64382
1013.393	2.10739
1013.561	-6.32202
1013.728	31.61332
1013.895	61.12386
1014.063	-35.82187
1014.23	-33.71489
1014.397	-4.2147
1014.565	-25.28676
1014.732	77.98905
1014.899	61.12386
1015.066	18.96735
1015.233	-2.10736
1015.401	29.5056
1015.568	-23.17966
1015.735	-23.17966
1015.902	23.18258
1016.069	-40.03573
1016.236	118.04961
1016.403	40.04444
1016.57	18.96735
1016.737	2.10739
1016.904	21.07496
1017.071	86.42218
1017.238	44.26014
1017.405	-18.9654
1017.572	-14.75104
1017.739	31.61332
1017.906	12.64469
1018.073	105.39804
1018.24	8.4297
1018.407	4.2148
1018.573	44.26014
1018.74	61.12386
1018.907	2.10739
1019.074	27.39791
1019.241	124.37568
1019.407	21.07496
1019.574	-33.71489
1019.741	8.4297
1019.907	71.66443
1020.074	-29.50088
1020.241	80.0973
1020.407	73.77262
1020.574	52.69182
1020.74	2.10739
1020.907	-48.46317
1021.073	8.4297
1021.24	10.53718
1021.406	40.04444
1021.573	-12.64382
1021.739	-46.35635
1021.906	-12.64382
1022.072	99.07256
1022.239	-35.82187
1022.405	107.50658
1022.571	8.4297
1022.738	16.85977
1022.904	6.32224
1023.07	59.01582
1023.237	-0
1023.403	61.12386
1023.569	-6.32202
1023.735	-4.2147
1023.902	-48.46317
1024.068	-44.2495
1024.234	-94.80682
1024.4	52.69182
1024.566	77.98905
1024.732	18.96735
1024.898	10.53718
1025.065	71.66443
1025.231	14.75222
1025.397	21.07496
1025.563	84.31387
1025.729	63.23193
1025.895	4.2148
1026.061	14.75222
1026.227	10.53718
1026.392	88.53052
1026.558	-14.75104
1026.724	4.2148
1026.89	18.96735
1027.056	-6.32202
1027.222	33.72107
1027.388	10.53718
1027.553	6.32224
1027.719	-10.53658
1027.885	10.53718
1028.051	18.96735
1028.216	4.2148
1028.382	35.82884
1028.548	40.04444
1028.713	73.77262
1028.879	6.32224
1029.045	-0
1029.21	-35.82187
1029.376	56.90779
1029.541	2.10739
1029.707	35.82884
1029.873	6.32224
1030.038	-4.2147
1030.204	-18.9654
1030.369	2.10739
1030.534	-6.32202
1030.7	50.58386
1030.865	40.04444
1031.031	35.82884
1031.196	-12.64382
1031.361	35.82884
1031.527	56.90779
1031.692	56.90779
1031.857	-4.2147
1032.023	21.07496
1032.188	92.74727
1032.353	96.96411
1032.518	14.75222
1032.684	6.32224
1032.849	-44.2495
1033.014	-23.17966
1033.179	-18.9654
1033.344	56.90779
1033.509	14.75222
1033.674	61.12386
1033.839	-18.9654
1034.004	6.32224
1034.17	52.69182
1034.335	2.10739
1034.5	-0
1034.664	-25.28676
1034.829	73.77262
1034.994	-35.82187
1035.159	77.98905
1035.324	-27.39383
1035.489	-6.32202
1035.654	44.26014
1035.819	-6.32202
1035.984	29.5056
1036.148	-6.32202
1036.313	44.26014
1036.478	21.07496
1036.643	-31.6079
1036.807	35.82884
1036.972	-54.78349
1037.137	52.69182
1037.301	18.96735
1037.466	-4.2147
1037.631	35.82884
1037.795	-8.42931
1037.96	-23.17966
1038.124	-12.64382
1038.289	27.39791
1038.454	21.07496
1038.618	46.36803
1038.783	6.32224
1038.947	40.04444
1039.111	27.39791
1039.276	10.53718
1039.44	4.2148
1039.605	96.96411
1039.769	6.32224
1039.933	-52.67674
1040.098	27.39791
1040.262	-8.42931
1040.426	-48.46317
1040.591	-46.35635
1040.755	-46.35635
1040.919	-48.46317
1041.083	2.10739
1041.248	-44.2495
1041.412	29.5056
1041.576	4.2148
1041.74	37.93663
1041.904	-69.53
1042.068	33.72107
1042.232	-16.85823
1042.397	-12.64382
1042.561	21.07496
1042.725	2.10739
1042.889	12.64469
1043.053	50.58386
1043.217	-46.35635
1043.381	-4.2147
1043.544	2.10739
1043.708	18.96735
1043.872	80.0973
1044.036	10.53718
1044.2	-50.56997
1044.364	-10.53658
1044.528	-12.64382
1044.691	-73.74306
1044.855	37.93663
1045.019	23.18258
1045.183	27.39791
1045.346	-52.67674
1045.51	2.10739
1045.674	12.64469
1045.837	29.5056
1046.001	77.98905
1046.165	16.85977
1046.328	33.72107
1046.492	-37.92881
1046.655	21.07496
1046.819	-16.85823
1046.983	4.2148
1047.146	-21.07254
1047.31	-73.74306
1047.473	-21.07254
1047.636	35.82884
1047.8	-2.10736
1047.963	31.61332
1048.127	-6.32202
1048.29	69.55627
