Data from absorb_only_2.23.25_USB4F045381__82__0187.txt Node

Date: Sun Feb 23 19:29:26 EST 2025
User: ssocol
Spectrometer: USB4F04538
Trigger mode: 4
Integration Time (sec): 2.600000E-3
Scans to average: 1
Electric dark correction enabled: true
Nonlinearity correction enabled: true
Boxcar width: 0
XAxis mode: Wavelengths
Number of Pixels in Spectrum: 3648
>>>>>Begin Spectral Data<<<<<
345.52	16.15725
345.736	16.15725
345.952	16.15725
346.168	47.77329
346.384	-44.95179
346.6	37.23403
346.816	-13.34623
347.032	-19.66778
347.248	51.98916
347.464	49.88122
347.68	51.98916
347.896	-36.52418
348.112	1.40492
348.328	-84.97739
348.544	-2.80981
348.76	-4.91714
348.975	-30.20322
349.191	-63.91243
349.407	11.94218
349.623	1.40492
349.839	-30.20322
350.055	47.77329
350.27	43.55752
350.486	-91.29638
350.702	18.26482
350.918	-23.88203
351.133	-23.88203
351.349	-49.16544
351.565	-57.59244
351.781	-4.91714
351.996	-72.33872
352.212	26.69535
352.428	1.40492
352.644	-47.05863
352.859	58.31314
353.075	-9.13173
353.291	5.61975
353.506	-30.20322
353.722	11.94218
353.938	-34.41722
354.153	-19.66778
354.369	-72.33872
354.584	-32.31023
354.8	-21.77492
355.016	35.12624
355.231	-23.88203
355.447	9.83468
355.662	14.04971
355.878	20.37242
356.093	-17.56062
356.309	3.51233
356.524	39.34183
356.74	-15.45344
356.955	-21.77492
357.171	-13.34623
357.386	-57.59244
357.602	45.6654
357.817	-13.34623
358.033	-89.19007
358.248	9.83468
358.464	-66.01904
358.679	-2.80981
358.895	51.98916
359.11	-36.52418
359.325	33.01848
359.541	9.83468
359.756	54.09713
359.972	-36.52418
360.187	30.91075
360.402	11.94218
360.618	43.55752
360.833	-25.98912
361.048	-19.66778
361.264	-32.31023
361.479	5.61975
361.694	-38.63112
361.909	-19.66778
362.125	54.09713
362.34	-17.56062
362.555	-44.95179
362.77	20.37242
362.986	-49.16544
363.201	-47.05863
363.416	-17.56062
363.631	16.15725
363.847	-74.44523
364.062	-0.70246
364.277	-21.77492
364.492	43.55752
364.707	-19.66778
364.922	9.83468
365.138	-34.41722
365.353	-11.23899
365.568	87.82774
365.783	51.98916
365.998	37.23403
366.213	1.40492
366.428	-95.5089
366.643	49.88122
366.858	20.37242
367.073	-38.63112
367.288	9.83468
367.503	37.23403
367.718	-78.65817
367.933	-47.05863
368.148	-23.88203
368.363	70.96171
368.578	-34.41722
368.793	26.69535
369.008	-66.01904
369.223	-28.09618
369.438	-51.27223
369.653	-28.09618
369.868	-7.02445
370.083	-21.77492
370.298	20.37242
370.513	54.09713
370.728	-4.91714
370.943	43.55752
371.157	-28.09618
371.372	-28.09618
371.587	-32.31023
371.802	77.2863
372.017	30.91075
372.232	-19.66778
372.446	20.37242
372.661	-17.56062
372.876	9.83468
373.091	5.61975
373.306	-19.66778
373.52	-36.52418
373.735	37.23403
373.95	-53.37899
374.165	30.91075
374.379	-11.23899
374.594	-7.02445
374.809	-2.80981
375.023	26.69535
375.238	33.01848
375.453	-13.34623
375.667	-19.66778
375.882	3.51233
376.097	7.72721
376.311	-30.20322
376.526	35.12624
376.741	22.48004
376.955	-32.31023
377.17	-76.55171
377.384	-11.23899
377.599	-44.95179
377.813	-21.77492
378.028	-70.23219
378.242	-21.77492
378.457	-4.91714
378.672	-4.91714
378.886	-55.48573
379.101	-7.02445
379.315	-49.16544
379.53	-13.34623
379.744	18.26482
379.958	5.61975
380.173	-36.52418
380.387	-44.95179
380.602	-7.02445
380.816	-47.05863
381.031	35.12624
381.245	30.91075
381.459	66.74543
381.674	-7.02445
381.888	-17.56062
382.103	22.48004
382.317	70.96171
382.531	-66.01904
382.746	1.40492
382.96	33.01848
383.174	45.6654
383.388	-4.91714
383.603	-2.80981
383.817	33.01848
384.031	-116.56997
384.246	-19.66778
384.46	16.15725
384.674	68.85356
384.888	1.40492
385.103	18.26482
385.317	11.94218
385.531	-32.31023
385.745	-19.66778
385.959	16.15725
386.174	-25.98912
386.388	18.26482
386.602	-44.95179
386.816	-7.02445
387.03	3.51233
387.244	56.20513
387.458	5.61975
387.672	-15.45344
387.887	-40.73804
388.101	35.12624
388.315	-74.44523
388.529	22.48004
388.743	-40.73804
388.957	-47.05863
389.171	-19.66778
389.385	-4.91714
389.599	68.85356
389.813	3.51233
390.027	-74.44523
390.241	-15.45344
390.455	-25.98912
390.669	-21.77492
390.883	-44.95179
391.097	-11.23899
391.311	-108.14586
391.525	45.6654
391.738	64.63732
391.952	-15.45344
392.166	-2.80981
392.38	9.83468
392.594	-13.34623
392.808	18.26482
393.022	1.40492
393.236	-53.37899
393.449	-82.87101
393.663	1.40492
393.877	-55.48573
394.091	-13.34623
394.305	24.58768
394.518	-57.59244
394.732	-25.98912
394.946	39.34183
395.16	70.96171
395.373	18.26482
395.587	-15.45344
395.801	-32.31023
396.015	-17.56062
396.228	-2.80981
396.442	-13.34623
396.656	39.34183
396.869	-32.31023
397.083	47.77329
397.297	-11.23899
397.51	-59.69913
397.724	28.80304
397.938	-120.78186
398.151	-17.56062
398.365	-7.02445
398.578	1.40492
398.792	-7.02445
399.005	-15.45344
399.219	-15.45344
399.433	1.40492
399.646	3.51233
399.86	-2.80981
400.073	-0.70246
400.287	-28.09618
400.5	-91.29638
400.714	11.94218
400.927	9.83468
401.141	56.20513
401.354	37.23403
401.567	-44.95179
401.781	11.94218
401.994	-55.48573
402.208	26.69535
402.421	-47.05863
402.635	1.40492
402.848	-19.66778
403.061	51.98916
403.275	-4.91714
403.488	18.26482
403.701	-28.09618
403.915	11.94218
404.128	30.91075
404.341	26.69535
404.555	26.69535
404.768	1.40492
404.981	-2.80981
405.195	-66.01904
405.408	-11.23899
405.621	-15.45344
405.834	-38.63112
406.048	58.31314
406.261	-2.80981
406.474	18.26482
406.687	1.40492
406.9	30.91075
407.114	3.51233
407.327	51.98916
407.54	49.88122
407.753	11.94218
407.966	30.91075
408.179	1.40492
408.392	-49.16544
408.605	-44.95179
408.819	35.12624
409.032	11.94218
409.245	-40.73804
409.458	18.26482
409.671	11.94218
409.884	-51.27223
410.097	-40.73804
410.31	18.26482
410.523	-23.88203
410.736	-40.73804
410.949	5.61975
411.162	60.42118
411.375	1.40492
411.588	-55.48573
411.801	20.37242
412.014	-11.23899
412.227	-40.73804
412.44	-34.41722
412.653	18.26482
412.865	-7.02445
413.078	-19.66778
413.291	-23.88203
413.504	1.40492
413.717	22.48004
413.93	-7.02445
414.143	-28.09618
414.356	-25.98912
414.568	45.6654
414.781	1.40492
414.994	1.40492
415.207	-2.80981
415.42	9.83468
415.632	-2.80981
415.845	-36.52418
416.058	47.77329
416.271	18.26482
416.483	26.69535
416.696	9.83468
416.909	5.61975
417.121	20.37242
417.334	-11.23899
417.547	37.23403
417.759	-13.34623
417.972	70.96171
418.185	-106.03976
418.397	66.74543
418.61	3.51233
418.823	-32.31023
419.035	-7.02445
419.248	18.26482
419.46	14.04971
419.673	-63.91243
419.885	-78.65817
420.098	1.40492
420.311	-44.95179
420.523	-51.27223
420.736	22.48004
420.948	-11.23899
421.161	-7.02445
421.373	37.23403
421.586	30.91075
421.798	3.51233
422.01	-2.80981
422.223	68.85356
422.435	16.15725
422.648	28.80304
422.86	79.39455
423.073	26.69535
423.285	-57.59244
423.497	1.40492
423.71	3.51233
423.922	77.2863
424.134	70.96171
424.347	-49.16544
424.559	5.61975
424.771	28.80304
424.984	-11.23899
425.196	45.6654
425.408	-61.80579
425.621	3.51233
425.833	-23.88203
426.045	28.80304
426.257	22.48004
426.47	28.80304
426.682	14.04971
426.894	39.34183
427.106	-4.91714
427.318	-55.48573
427.531	14.04971
427.743	28.80304
427.955	26.69535
428.167	-0.70246
428.379	-61.80579
428.591	70.96171
428.804	-23.88203
429.016	-13.34623
429.228	30.91075
429.44	43.55752
429.652	1.40492
429.864	37.23403
430.076	-23.88203
430.288	37.23403
430.5	-4.91714
430.712	-80.7646
430.924	43.55752
431.136	-49.16544
431.348	26.69535
431.56	-70.23219
431.772	18.26482
431.984	66.74543
432.196	30.91075
432.408	7.72721
432.62	51.98916
432.832	11.94218
433.044	-4.91714
433.256	68.85356
433.468	-49.16544
433.679	1.40492
433.891	-19.66778
434.103	14.04971
434.315	81.50281
434.527	-38.63112
434.739	22.48004
434.95	-23.88203
435.162	35.12624
435.374	70.96171
435.586	20.37242
435.798	26.69535
436.009	18.26482
436.221	-21.77492
436.433	26.69535
436.645	-36.52418
436.856	22.48004
437.068	20.37242
437.28	1.40492
437.491	70.96171
437.703	-17.56062
437.915	30.91075
438.126	24.58768
438.338	-23.88203
438.55	-19.66778
438.761	56.20513
438.973	-21.77492
439.184	14.04971
439.396	7.72721
439.608	60.42118
439.819	26.69535
440.031	66.74543
440.242	43.55752
440.454	-13.34623
440.665	1.40492
440.877	-36.52418
441.088	-57.59244
441.3	94.15287
441.511	22.48004
441.723	62.52924
441.934	-21.77492
442.146	-25.98912
442.357	-30.20322
442.569	94.15287
442.78	18.26482
442.991	9.83468
443.203	1.40492
443.414	35.12624
443.626	-28.09618
443.837	-30.20322
444.048	5.61975
444.26	47.77329
444.471	3.51233
444.682	-4.91714
444.894	37.23403
445.105	30.91075
445.316	-30.20322
445.528	-49.16544
445.739	-55.48573
445.95	22.48004
446.161	11.94218
446.373	1.40492
446.584	-2.80981
446.795	11.94218
447.006	-2.80981
447.217	26.69535
447.429	-23.88203
447.64	35.12624
447.851	9.83468
448.062	37.23403
448.273	-53.37899
448.484	18.26482
448.695	9.83468
448.907	5.61975
449.118	20.37242
449.329	66.74543
449.54	-21.77492
449.751	-21.77492
449.962	-23.88203
450.173	18.26482
450.384	26.69535
450.595	14.04971
450.806	51.98916
451.017	94.15287
451.228	-4.91714
451.439	56.20513
451.65	5.61975
451.861	-19.66778
452.072	26.69535
452.283	5.61975
452.494	108.91229
452.705	1.40492
452.915	-32.31023
453.126	79.39455
453.337	26.69535
453.548	-9.13173
453.759	41.44967
453.97	79.39455
454.181	28.80304
454.391	11.94218
454.602	16.15725
454.813	85.71941
455.024	-36.52418
455.235	54.09713
455.445	47.77329
455.656	35.12624
455.867	58.31314
456.078	35.12624
456.288	37.23403
456.499	-2.80981
456.71	94.15287
456.921	60.42118
457.131	3.51233
457.342	-15.45344
457.553	-17.56062
457.763	115.23808
457.974	60.42118
458.184	-7.02445
458.395	51.98916
458.606	-32.31023
458.816	-0.70246
459.027	60.42118
459.237	-30.20322
459.448	9.83468
459.659	43.55752
459.869	5.61975
460.08	94.15287
460.29	77.2863
460.501	81.50281
460.711	-4.91714
460.922	-7.02445
461.132	62.52924
461.343	14.04971
461.553	24.58768
461.764	-13.34623
461.974	165.85139
462.184	37.23403
462.395	83.6111
462.605	39.34183
462.816	100.4782
463.026	9.83468
463.236	37.23403
463.447	1.40492
463.657	73.06989
463.867	47.77329
464.078	11.94218
464.288	62.52924
464.498	28.80304
464.709	45.6654
464.919	-23.88203
465.129	58.31314
465.339	60.42118
465.55	39.34183
465.76	51.98916
465.97	64.63732
466.18	9.83468
466.391	16.15725
466.601	79.39455
466.811	104.6952
467.021	113.12946
467.231	102.58669
467.441	87.82774
467.651	7.72721
467.862	5.61975
468.072	43.55752
468.282	45.6654
468.492	70.96171
468.702	51.98916
468.912	20.37242
469.122	43.55752
469.332	60.42118
469.542	-40.73804
469.752	-42.84492
469.962	51.98916
470.172	51.98916
470.382	146.86997
470.592	60.42118
470.802	96.26129
471.012	180.61589
471.222	45.6654
471.432	111.02086
471.642	127.89025
471.852	81.50281
472.062	115.23808
472.272	165.85139
472.482	117.34672
472.691	138.43433
472.901	85.71941
473.111	106.80373
473.321	146.86997
473.531	113.12946
473.741	87.82774
473.95	94.15287
474.16	106.80373
474.37	127.89025
474.58	146.86997
474.79	96.26129
474.999	163.74226
475.209	199.6003
475.419	102.58669
475.628	123.67278
475.838	155.30595
476.048	201.70978
476.258	203.81928
476.467	180.61589
476.677	220.69599
476.886	138.43433
477.096	142.6521
477.306	184.83451
477.515	195.3814
477.725	191.16258
477.935	186.94385
478.144	256.56318
478.354	159.52406
478.563	246.01343
478.773	275.55393
478.982	180.61589
479.192	237.57397
479.401	220.69599
479.611	343.08867
479.82	288.21528
480.03	385.30703
480.239	374.75181
480.449	288.21528
480.658	349.42099
480.868	317.76099
481.077	414.86386
481.287	349.42099
481.496	321.98209
481.705	347.3102
481.915	465.54001
482.124	286.10501
482.333	509.88883
482.543	372.64081
482.752	465.54001
482.961	499.329
483.171	516.2249
483.38	383.19595
483.589	543.68269
483.799	509.88883
484.008	583.81748
484.217	469.76342
484.426	592.26753
484.636	490.88139
484.845	562.6933
485.054	522.5611
485.263	613.39353
485.472	594.38007
485.682	560.58096
485.891	592.26753
486.1	564.80566
486.309	651.4235
486.518	712.70206
486.727	583.81748
486.936	845.85499
487.146	604.94298
487.355	820.48959
487.564	668.32696
487.773	805.69371
487.982	776.10334
488.191	795.1255
488.4	706.36246
488.609	828.94458
488.818	841.62734
489.027	940.98604
489.236	875.44956
489.445	919.84443
489.654	905.04575
489.863	991.72881
490.072	1006.52951
490.281	1078.42279
490.49	953.67136
490.698	1091.1105
490.907	1114.37177
491.116	1074.1936
491.325	1069.96443
491.534	1135.51886
491.743	1053.04795
491.952	1112.25708
492.16	1154.55162
492.369	1194.73294
492.578	1093.22514
492.787	1264.52445
492.996	1228.57084
493.204	1385.07932
493.413	1171.4699
493.622	1370.27407
493.831	1262.40951
494.039	1467.56621
494.248	1190.50327
494.457	1347.0088
494.665	1361.81396
494.874	1514.09725
495.083	1401.99965
495.291	1404.1147
495.5	1387.19436
495.709	1636.76741
495.917	1289.90392
496.126	1676.95101
496.335	1429.49528
496.543	1607.1579
496.752	1547.93778
496.96	1621.96271
497.169	1522.55741
497.377	1634.65246
497.586	1600.81295
497.794	1674.83611
498.003	1624.07767
498.211	1818.64183
498.42	1643.11225
498.628	1748.85587
498.837	1643.11225
499.045	1841.90278
499.254	1863.0486
499.462	1930.71177
499.671	1763.65931
499.879	1932.82616
500.087	1793.26563
500.296	1863.0486
500.504	1786.92149
500.713	1970.88406
500.921	1867.27771
501.129	1911.68206
501.338	1827.10042
501.546	2262.5855
501.754	1966.6555
501.962	2123.09441
502.171	2070.24773
502.379	2101.9563
502.587	2057.56384
502.795	2140.00434
503.004	2063.90582
503.212	2304.84796
503.42	2152.68645
503.628	2232.99961
503.837	2066.0198
504.045	2154.80011
504.253	2093.50084
504.461	2321.75188
504.669	2220.3194
504.877	2376.6853
505.085	2359.78343
505.294	2342.88092
505.502	2216.0926
505.71	2435.83666
505.918	2317.52596
506.126	2355.55786
506.334	2275.26463
506.542	2448.51087
506.75	2283.7172
506.958	2611.12721
507.166	2338.65519
507.374	2545.66656
507.582	2494.97961
507.79	2642.79754
507.998	2296.39577
508.206	2528.77164
508.414	2524.5478
508.622	2575.23086
508.83	2448.51087
509.037	2693.46418
509.245	2575.23086
509.453	2780.00239
509.661	2657.57606
509.869	2735.68072
510.077	2579.45414
510.285	2836.97858
510.492	2672.35397
510.7	2718.79473
510.908	2630.12974
511.116	2887.61552
511.324	2668.13177
511.531	2860.18819
511.739	2613.23865
511.947	2672.35397
512.155	2805.32638
512.362	2900.27347
512.57	2710.35143
512.778	2904.49267
512.985	2742.01275
513.193	3003.62694
513.401	2910.82136
513.608	3043.69305
513.816	2727.23783
514.024	2896.05421
514.231	2993.08231
514.439	2915.04042
514.646	2815.87746
514.854	3273.43522
515.061	2963.55534
515.269	3260.79394
515.477	2836.97858
515.684	2847.52862
515.892	3168.07286
516.099	3033.14988
516.307	3096.4031
516.514	3208.11544
516.722	3187.04114
516.929	3345.05756
517.136	3134.34823
517.344	3561.90678
517.551	3018.38878
517.759	3536.65268
517.966	3214.43741
518.173	3368.22522
518.381	3163.85751
518.588	3288.18261
518.796	3290.28932
519.003	3580.84561
519.21	3197.57849
519.418	3528.23405
519.625	3355.58857
519.832	3456.66396
520.039	3450.34795
520.247	3574.53284
520.454	3429.29341
520.661	3526.12935
520.868	3340.84503
521.076	3711.27171
521.283	3313.46191
521.49	3633.44553
521.697	3382.96717
521.904	3599.78293
522.112	3728.09554
522.319	3635.54928
522.526	3597.67886
522.733	3860.53961
522.94	3433.50446
523.147	3929.88368
523.354	3667.1033
523.561	3944.59021
523.768	3759.63689
523.975	4018.10791
524.183	3477.71617
524.39	4024.40826
524.597	3961.39645
524.804	3881.55527
525.011	3761.73949
525.218	4076.90396
525.425	3721.78675
525.632	4041.20829
525.838	3925.68163
526.045	4055.90723
526.252	3923.58057
526.459	4106.2959
526.666	3892.06235
526.873	4062.20647
527.08	4024.40826
527.287	4141.9806
527.494	3892.06235
527.701	4267.87789
527.907	4072.70478
528.114	4267.87789
528.321	4016.00775
528.528	4181.85633
528.735	4196.54546
528.941	4123.08945
529.148	4276.26832
529.355	4347.57307
529.562	4248.99818
529.768	4299.34023
529.975	4045.40809
530.182	4372.73349
530.388	4196.54546
530.595	4647.19581
530.802	4165.06748
531.008	4666.038
531.215	4456.5789
531.422	4529.91484
531.628	4515.24981
531.835	4676.5051
532.042	4490.10725
532.248	4699.53074
532.455	4328.70071
532.661	4783.2373
532.868	4724.6465
533.074	4745.57383
533.281	4594.84687
533.487	4580.18667
533.694	4523.62996
533.9	4793.69807
534.107	4622.07007
534.313	4858.54215
534.52	4607.41189
534.726	4749.75902
534.933	4695.34446
535.139	4649.28948
535.345	4795.79015
535.552	4921.27359
535.758	4686.97164
535.965	4944.26995
536.171	4655.57034
536.377	4866.90753
536.584	4960.99283
536.79	5071.74462
536.996	4950.5412
537.203	4954.72192
537.409	4862.72489
537.615	5126.05193
537.821	5186.60693
538.028	5188.69469
538.234	4789.51383
538.44	5111.43227
538.646	4988.16436
538.853	5192.87013
539.059	4992.34425
539.265	5067.56649
539.471	4933.8174
539.677	5184.51915
539.883	4958.90255
540.09	5236.7066
540.296	5159.46401
540.502	5255.49051
540.708	5293.05265
540.914	5355.63936
541.12	5338.95163
541.326	5368.15417
541.532	5184.51915
541.738	5242.96812
541.944	5336.86556
542.15	5562.02556
542.356	5414.03458
542.562	5487.00271
542.768	5259.66446
542.974	5524.51795
543.18	5518.26594
543.386	5726.55195
543.592	5505.76128
543.798	5570.35955
544.004	5578.69316
544.21	5709.89775
544.415	5286.79282
544.621	5701.57009
544.827	5628.6869
545.033	5778.58659
545.239	5703.65204
545.445	5784.82976
545.651	5624.52127
545.856	5703.65204
546.062	5584.94312
546.268	5749.44901
546.474	5807.71955
546.679	5678.66706
546.885	5678.66706
547.091	5624.52127
547.297	5626.6041
547.502	5926.28454
547.708	5768.18085
547.914	5795.23456
548.119	5801.47716
548.325	5730.71527
548.531	5751.53042
548.736	5984.49893
548.942	5836.84788
549.147	5855.57079
549.353	6059.31885
549.559	5907.56885
549.764	6038.5386
549.97	5949.15668
550.175	5996.97103
550.381	6167.33823
550.586	5969.94706
550.792	6277.36958
550.997	5999.04963
551.203	6200.56218
551.408	6034.38226
551.614	6044.77292
551.819	6190.18034
552.025	6140.33934
552.23	5990.73509
552.435	6296.04761
552.641	6362.44307
552.846	6418.44565
553.052	6250.38685
553.257	6271.14315
553.462	6310.57366
553.668	6491.01633
553.873	6059.31885
554.078	6254.5383
554.283	6296.04761
554.489	6387.3352
554.694	6349.99574
554.899	6623.64358
555.105	6470.28476
555.31	6551.12479
555.515	6408.07608
555.72	6671.2834
555.925	6289.82181
556.131	6565.63081
556.336	6466.13816
556.541	6464.06483
556.746	6451.62435
556.951	6652.64318
557.156	6580.1357
557.361	6553.19715
557.567	6408.07608
557.772	6656.78561
557.977	6573.91946
558.182	6745.82566
558.387	6470.28476
558.592	6677.49639
558.797	6466.13816
559.002	6859.65244
559.207	6582.20774
559.412	6665.0702
559.617	6501.38125
559.822	6942.39234
560.027	6689.92175
560.232	6789.29494
560.437	6946.52839
560.642	6874.13454
560.847	6803.78246
561.051	6801.71289
561.256	6636.07253
561.461	6967.20725
561.666	6785.15545
561.871	6994.08641
562.076	6830.6849
562.281	6921.71077
562.485	6685.78005
562.69	7037.49855
562.895	6716.84054
563.1	7008.55822
563.305	6905.16388
563.509	6814.13001
563.714	6865.85919
563.919	6989.9514
564.123	6888.61553
564.328	7018.89456
564.533	7058.16751
564.737	7147.01858
564.942	6896.88989
565.147	7111.89635
565.351	6983.74872
565.556	6971.34276
565.761	7074.70107
565.965	7045.7664
566.17	7130.49128
566.374	7248.21735
566.579	7144.95275
566.784	7082.96732
566.988	7099.49873
567.193	7336.98079
567.397	7159.41313
567.602	7425.70376
567.806	7103.63136
568.011	7336.98079
568.215	7178.00345
568.42	7347.29949
568.624	7308.08552
568.828	7334.91698
569.033	7109.83013
569.237	7347.29949
569.442	7293.63628
569.646	7425.70376
569.85	7248.21735
570.055	7466.95657
570.259	7268.86364
570.463	7384.44228
570.668	7334.91698
570.872	7429.82943
571.076	7446.33125
571.281	7407.13717
571.485	7633.9424
571.689	7293.63628
571.893	7798.72984
572.098	7615.39535
572.302	7343.17207
572.506	7369.9987
572.71	7376.18893
572.914	7712.23324
573.119	7526.7578
573.323	7821.37761
573.527	7456.64418
573.731	7578.29607
573.935	7576.23479
574.139	7798.72984
574.343	7537.06652
574.547	7829.61254
574.751	7609.21261
574.955	7677.21217
575.159	7532.9431
575.364	7784.3163
575.568	7897.53805
575.772	7800.78883
575.976	7547.37471
576.18	7856.37376
576.383	7846.0814
576.587	7806.96568
576.791	7833.72988
576.995	7633.9424
577.199	7553.55937
577.403	7819.31883
577.607	7774.02029
577.811	7749.30774
578.015	7872.84047
578.219	7755.48616
578.422	7778.13876
578.626	8006.5836
578.83	7932.5212
579.034	8127.90673
579.238	7856.37376
579.442	8076.50721
579.645	7990.12758
579.849	8060.0567
580.053	7992.18465
580.257	7994.2417
580.46	7932.5212
580.664	8092.95642
580.868	7784.3163
581.071	8064.16945
581.275	7885.18963
581.479	8111.46025
581.682	7983.95623
581.886	8070.33842
582.09	8016.86795
582.293	8362.1311
582.497	8125.85099
582.7	8249.16012
582.904	8275.8677
583.107	8362.1311
583.311	8010.6974
583.515	8206.01006
583.718	8199.84505
583.922	8575.58928
584.125	8298.46383
584.329	8524.29604
584.532	8055.94387
584.735	8321.05759
584.939	8162.85125
585.142	8466.83354
585.346	8226.55879
585.549	8214.22979
585.753	8158.74043
585.956	8446.30759
586.159	8390.87794
586.363	8571.48626
586.566	8298.46383
586.769	8561.22837
586.973	8553.02171
587.176	8284.08475
587.379	8358.0241
587.582	8448.36027
587.786	8583.79511
587.989	8585.84652
588.192	8413.46209
588.395	8674.03944
588.599	8450.41294
588.802	8706.84665
589.005	8294.35562
589.208	8682.24169
589.411	8466.83354
589.615	8425.77973
589.818	8470.9385
590.021	8553.02171
590.224	8485.30526
590.427	8792.94318
590.63	8753.99875
590.833	8786.7945
591.036	8581.74368
591.239	8872.86125
591.442	8407.30301
591.645	8905.64024
591.848	8944.55936
592.051	9040.80558
592.254	8676.09003
592.457	8879.00766
592.66	8676.09003
592.863	9333.40586
593.066	8712.99747
593.269	9094.03159
593.472	8930.22148
593.675	9149.29241
593.878	8944.55936
594.081	9028.52099
594.284	8932.2698
594.486	8983.47208
594.689	8891.29999
594.892	9003.94991
595.095	8864.66579
595.298	9102.21917
595.5	8729.39886
595.703	9556.20902
595.906	8993.71121
596.109	9137.01331
596.311	9065.37289
596.514	9061.27851
596.717	9149.29241
596.92	9325.22591
597.122	8901.54311
597.325	9380.43542
597.528	9253.64007
597.73	9388.61359
597.933	8930.22148
598.136	9218.8624
598.338	9034.66336
598.541	9388.61359
598.743	9274.09525
598.946	9171.8025
599.148	9208.63275
599.351	9335.4508
599.554	9349.76496
599.756	9407.01352
599.959	9343.63042
600.161	9562.33852
600.363	9398.83594
600.566	9415.19084
600.768	9392.70258
600.971	9357.94411
601.173	9470.38096
601.376	9462.20539
601.578	9364.0783
601.78	9595.0268
601.983	9507.16786
602.185	9521.47248
602.388	9672.64543
602.59	9517.38552
602.792	9592.9839
602.995	9740.03298
603.197	9580.72617
603.399	9642.00918
603.601	9343.63042
603.804	9400.88036
604.006	9364.0783
604.208	9601.15541
604.41	9257.73124
604.613	9554.16582
604.815	9347.72013
605.017	9621.58307
605.219	9458.11751
605.421	9460.16146
605.623	9560.29537
605.826	9905.36902
606.028	9609.32666
606.23	9678.77226
606.432	9466.29321
606.634	9752.28348
606.836	9474.46865
607.038	9754.32517
607.24	9560.29537
607.442	9744.11654
607.644	9607.28387
607.846	9897.20656
608.048	9882.92171
608.25	9797.19729
608.452	9691.02551
608.654	9854.34982
608.856	9492.86246
609.058	9654.2641
609.26	9807.40396
609.462	9613.4122
609.664	9425.41212
609.866	9451.98556
610.067	9760.45017
610.269	9864.5544
610.471	9699.19404
610.673	9719.61427
610.875	9701.23613
611.077	9809.44525
611.278	9552.1226
611.48	9670.60312
611.682	9772.69976
611.884	9976.7805
612.085	9637.92408
612.287	9819.65147
612.489	9560.29537
612.69	9823.73385
612.892	9750.24177
613.094	10064.49039
613.295	9646.09422
613.497	10129.74585
613.699	9719.61427
613.9	9944.13746
614.102	9887.00317
614.304	9829.85731
614.505	9603.19825
614.707	9723.69814
614.908	9574.5971
615.11	9780.86584
615.311	9748.20004
615.513	9699.19404
615.714	9603.19825
615.916	9858.43169
616.117	9586.85511
616.319	9976.7805
616.52	9872.71779
616.722	9756.36686
616.923	10074.68751
617.124	10025.73812
617.326	9537.81966
617.527	9925.77412
617.729	9903.32842
617.93	10160.32941
618.131	9735.94936
618.333	9878.84018
618.534	9786.99025
618.735	9960.45944
618.937	9935.97612
619.138	9929.85496
619.339	9776.78283
619.54	9895.16591
619.742	9817.61026
619.943	10174.60067
620.144	10029.81755
620.345	10146.05747
620.546	9699.19404
620.748	9960.45944
620.949	9686.94116
621.15	10123.62876
621.351	9601.15541
621.552	9815.56903
621.753	9929.85496
621.954	10109.35506
622.155	9731.86568
622.356	10117.51155
622.558	10168.4845
622.759	9913.53123
622.96	9823.73385
623.161	9823.73385
623.362	9537.81966
623.563	10239.83215
623.764	10066.52985
623.965	10125.6678
624.166	9919.65274
624.366	10021.65863
624.567	9821.69267
624.768	10017.57909
624.969	9838.02172
625.17	9944.13746
625.371	9878.84018
625.572	9984.94068
625.773	9740.03298
625.973	9958.41925
626.174	9752.28348
626.375	10017.57909
626.576	10042.05549
626.777	10062.45093
626.977	9984.94068
627.178	10139.94072
627.379	9821.69267
627.58	9780.86584
627.78	9752.28348
627.981	9909.45015
628.182	9935.97612
628.382	10172.56196
628.583	9776.78283
628.784	9862.51351
628.984	9866.59527
629.185	10272.44265
629.386	9997.18051
629.586	10266.32844
629.787	9954.33881
629.987	10148.09636
630.188	10127.70683
630.388	10245.94688
630.589	9789.03169
630.79	10270.40459
630.99	10025.73812
631.191	10056.33245
631.391	10355.99137
631.591	10076.72689
631.792	9844.14487
631.992	10474.14442
632.193	10072.64812
632.393	10139.94072
632.594	9970.66021
632.794	10339.69094
632.994	10264.29035
633.195	10337.65332
633.395	10029.81755
633.595	10443.59178
633.796	10170.52324
633.996	10396.73875
634.196	10139.94072
634.397	10461.92371
634.597	10209.25664
634.797	10331.5404
634.997	10164.40698
635.198	10335.6157
635.398	10148.09636
635.598	10384.51509
635.798	10182.75538
635.998	10066.52985
636.199	10060.41145
636.399	10445.62872
636.599	10272.44265
636.799	10131.78485
636.999	9921.69322
637.199	10233.71729
637.399	10123.62876
637.599	10068.56928
637.799	10054.29293
637.999	10569.85743
638.199	10166.44575
638.399	10370.25355
638.599	10327.46506
638.799	10180.71672
638.999	10137.90177
639.199	10404.8876
639.399	10227.60231
639.599	10506.73072
639.799	10321.35194
639.999	10449.70254
640.199	10197.02558
640.399	10514.87678
640.599	9684.89896
640.799	10292.82246
640.998	10223.52559
641.198	10580.03802
641.398	10578.00193
641.598	10604.47018
641.798	10408.96195
641.997	10612.61384
642.197	10425.25881
642.397	10681.82697
642.597	10408.96195
642.796	10724.56922
642.996	10343.76612
643.196	10620.7573
643.395	10243.90865
643.595	10736.78032
643.795	10355.99137
643.994	10626.86476
644.194	10139.94072
644.394	10573.9297
644.593	10539.31376
644.793	10529.13191
644.992	10523.02264
645.192	10496.54785
645.392	10457.85004
645.591	10543.38641
645.791	10620.7573
645.99	11052.08851
646.19	10433.40693
646.389	10561.71273
646.589	10327.46506
646.788	10582.07411
646.987	10441.55484
647.187	10769.34115
647.386	10286.70866
647.586	10598.36231
647.785	10307.08753
647.984	10653.32916
648.184	10463.96053
648.383	10584.11018
648.582	10580.03802
648.782	10972.77861
648.981	10683.86244
649.18	10730.67483
649.38	10551.53157
649.579	10777.48088
649.778	10565.7851
649.977	10860.90228
650.177	10669.61392
650.376	10753.06112
650.575	10557.6403
650.774	10655.3648
650.973	10685.89789
651.173	10700.14573
651.372	10653.32916
651.571	10856.8334
651.77	10706.25177
651.969	10948.37215
652.168	10600.39828
652.367	10600.39828
652.566	10484.32799
652.765	10632.97212
652.964	10588.18228
653.163	10755.09616
653.362	10610.57794
653.561	10714.39298
653.76	10840.55741
653.959	10600.39828
654.158	10779.51578
654.357	10474.14442
654.556	10657.40042
654.755	10860.90228
654.954	10714.39298
655.153	10885.31461
655.352	10606.50612
655.551	10736.78032
655.749	10869.03991
655.948	10913.79356
656.147	10653.32916
656.346	10803.9337
656.545	10608.54204
656.743	10836.48829
656.942	10689.96876
657.141	10999.21711
657.34	11011.41887
657.538	10946.33821
657.737	10799.86416
657.936	11041.92151
658.135	10736.78032
658.333	10751.02606
658.532	10822.24603
658.731	10706.25177
658.929	10555.60407
659.128	10797.82938
659.326	10734.74517
659.525	11121.21688
659.724	10584.11018
659.922	10864.97112
660.121	10930.06625
660.319	10820.21137
660.518	10887.34889
660.716	11096.82006
660.915	10913.79356
661.113	10970.7448
661.312	10726.60444
661.51	10962.60945
661.709	10753.06112
661.907	10913.79356
662.105	10761.20123
662.304	10799.86416
662.502	10596.32633
662.701	10950.40609
662.899	10883.28031
663.097	10850.72999
663.296	10671.64945
663.494	10840.55741
663.692	10555.60407
663.891	10885.31461
664.089	10531.1683
664.287	10795.79458
664.485	10803.9337
664.684	10840.55741
664.882	10602.43424
665.08	10777.48088
665.278	10604.47018
665.476	10915.82769
665.675	10746.95591
665.873	10732.71
666.071	10801.89894
666.269	10706.25177
666.467	10474.14442
666.665	10718.46351
666.863	11074.45494
667.061	11157.80923
667.259	11060.22191
667.457	11005.31804
667.655	10982.94749
667.853	10875.14301
668.051	10675.7205
668.249	10704.21643
668.447	10907.69112
668.645	11017.51959
668.843	10875.14301
669.041	11027.68725
669.239	10685.89789
669.437	10696.07498
669.635	10702.18109
669.833	11100.8863
670.031	10759.16622
670.229	10867.00552
670.426	10987.01496
670.624	10962.60945
670.822	10710.3224
671.02	10840.55741
671.218	10700.14573
671.415	10932.10028
671.613	10848.6955
671.811	10679.79149
672.009	10960.57558
672.206	10854.79894
672.404	10873.10865
672.602	10828.34993
672.799	10714.39298
672.997	10828.34993
673.195	10588.18228
673.392	11029.72075
673.59	10669.61392
673.788	10830.38454
673.985	10907.69112
674.183	10685.89789
674.38	10761.20123
674.578	10885.31461
674.775	10635.00788
674.973	10799.86416
675.17	10496.54785
675.368	10637.04362
675.565	10459.88688
675.763	10549.4953
675.96	10388.5897
676.158	10820.21137
676.355	10349.87881
676.553	10938.20232
676.75	10632.97212
676.947	10864.97112
677.145	10700.14573
677.342	10781.55067
677.539	10598.36231
677.737	10917.8618
677.934	10694.03959
678.131	10675.7205
678.329	10657.40042
678.526	10525.05908
678.723	10533.20468
678.92	10775.44596
679.118	10190.90986
679.315	10425.25881
679.512	10626.86476
679.709	10443.59178
679.906	10366.17871
680.104	10993.11609
680.301	10459.88688
680.498	10563.74892
680.695	10598.36231
680.892	10730.67483
681.089	10484.32799
681.286	10645.18649
681.483	10274.48069
681.68	10702.18109
681.877	10626.86476
682.075	10417.11048
682.272	10174.60067
682.469	10406.92478
682.665	10233.71729
682.862	10443.59178
683.059	10353.95386
683.256	10439.51788
683.453	10343.76612
683.65	10345.8037
683.847	10555.60407
684.044	10260.21412
684.241	10327.46506
684.438	10618.72145
684.635	10095.08068
684.831	10504.69417
685.028	10364.14127
685.225	10626.86476
685.422	10219.44882
685.619	10331.5404
685.815	10162.36821
686.012	10109.35506
686.209	10027.77784
686.405	10217.41041
686.602	10168.4845
686.799	10131.78485
686.996	10025.73812
687.192	10298.93614
687.389	10329.50274
687.586	10461.92371
687.782	10459.88688
687.979	10547.45901
688.175	10007.37998
688.372	10303.01186
688.568	10029.81755
688.765	10329.50274
688.962	9986.98068
689.158	10239.83215
689.355	10066.52985
689.551	10192.94844
689.748	9870.67697
689.944	10229.64065
690.14	10052.25339
690.337	10423.22175
690.533	10115.47245
690.73	10225.56396
690.926	10115.47245
691.123	9889.04388
691.319	9817.61026
691.515	10121.5897
691.712	9762.49181
691.908	9960.45944
692.104	9889.04388
692.301	10052.25339
692.497	10037.97624
692.693	9938.01648
692.889	9717.57232
693.086	9986.98068
693.282	10101.19836
693.478	10184.79402
693.674	10062.45093
693.87	10141.97965
694.067	9889.04388
694.263	10060.41145
694.459	9854.34982
694.655	9811.48653
694.851	10074.68751
695.047	10031.85724
695.243	10074.68751
695.439	9864.5544
695.635	9619.54038
695.831	10152.1741
696.027	9780.86584
696.224	10168.4845
696.42	9721.65621
696.615	10121.5897
696.811	10066.52985
697.007	9854.34982
697.203	9584.81215
697.399	9840.06278
697.595	9840.06278
697.791	9729.82382
697.987	9644.05171
698.183	10178.67805
698.379	9764.53343
698.575	10082.84495
698.77	9691.02551
698.966	9658.34895
699.162	9588.89806
699.358	9727.78194
699.554	9362.03359
699.749	9672.64543
699.945	9468.3371
700.141	9695.1098
700.337	9519.42901
700.532	9874.75861
700.728	9742.07477
700.924	9956.37903
701.119	9691.02551
701.315	9582.76917
701.511	9404.96915
701.706	9835.98064
701.902	9372.25699
702.097	9929.85496
702.293	9862.51351
702.489	9762.49181
702.684	9529.64619
702.88	9584.81215
703.075	9605.24107
703.271	9660.39135
703.466	9642.00918
703.662	9748.20004
703.857	9548.03613
704.053	9543.94959
704.248	9556.20902
704.443	9762.49181
704.639	9523.51593
704.834	9768.61662
705.03	9678.77226
705.225	9715.53035
705.42	9329.31592
705.616	9523.51593
705.811	9447.89752
706.006	9678.77226
706.202	9345.67528
706.397	9349.76496
706.592	9317.04571
706.787	9308.86523
706.983	9229.09163
707.178	9460.16146
707.373	9511.25498
707.568	9468.3371
707.763	9349.76496
707.959	9711.44636
708.154	9290.45819
708.349	9345.67528
708.544	9315.00061
708.739	9509.21143
708.934	9374.30163
709.129	9533.73296
709.324	9407.01352
709.519	9592.9839
709.714	9155.43173
709.909	9605.24107
710.104	9312.9555
710.299	9396.7915
710.494	9362.03359
710.689	9427.45633
710.884	9539.86298
711.079	9605.24107
711.274	9261.82234
711.469	9537.81966
711.664	9278.18609
711.859	9496.9498
712.054	9046.94764
712.249	9368.16768
712.443	9143.15294
712.638	9382.47999
712.833	8905.64024
713.028	9429.50052
713.223	9075.60853
713.417	9308.86523
713.612	9085.84374
713.807	9345.67528
714.002	9020.33091
714.196	9294.54876
714.391	9202.49476
714.586	9359.98886
714.78	8909.73729
714.975	9298.63927
715.17	9005.99759
715.364	9357.94411
715.559	9163.61725
715.754	9087.89073
715.948	8946.60755
716.143	9265.91338
716.337	9044.90031
716.532	9210.67871
716.726	8891.29999
716.921	9333.40586
717.115	9102.21917
717.31	9278.18609
717.504	9124.73359
717.699	9208.63275
717.893	9055.13682
718.088	9008.04526
718.282	8874.91007
718.476	9102.21917
718.671	8856.47003
718.865	9364.0783
719.059	8786.7945
719.254	9020.33091
719.448	8965.04053
719.642	9186.12603
719.837	8903.59168
720.031	9028.52099
720.225	8780.64565
720.419	9073.56144
720.614	8764.24792
720.808	9010.09291
721.002	8803.19062
721.196	8944.55936
721.39	8840.07767
721.585	8844.17587
721.779	8883.10517
721.973	8874.91007
722.167	8790.89364
722.361	8999.85448
722.555	8596.10329
722.749	8684.2922
722.943	8704.79634
723.137	8735.54908
723.331	8641.2275
723.525	8805.24006
723.719	8565.33158
723.913	8741.69914
724.107	8524.29604
724.301	8803.19062
724.495	8585.84652
724.689	8926.12478
724.883	8360.07761
725.077	8708.89694
725.271	8339.54163
725.465	8528.39993
725.659	8323.11145
725.853	8799.0917
726.046	8555.0734
726.24	8733.49903
726.434	8341.59532
726.628	8723.24848
726.822	8550.97
727.015	8555.0734
727.209	8464.78103
727.403	8499.67108
727.596	8249.16012
727.79	8565.33158
727.984	8684.2922
728.177	8563.27998
728.371	8261.48711
728.565	8606.35958
728.758	8487.35758
728.952	8671.98884
729.146	8462.7285
729.339	8721.19832
729.533	8667.88757
729.726	8585.84652
729.92	8403.19686
730.113	8833.93024
730.307	8495.56666
730.5	8879.00766
730.694	8637.12567
730.887	8536.6075
731.081	8676.09003
731.274	8870.81241
731.468	8522.24407
731.661	8745.79908
731.854	8633.02377
732.048	8618.66652
732.241	8622.76869
732.435	8922.02802
732.628	8973.23251
732.821	8555.0734
733.014	8823.68415
733.208	8520.19207
733.401	8581.74368
733.594	8604.30836
733.788	8450.41294
733.981	8491.46215
734.174	8290.24733
734.367	8345.70263
734.56	8331.3267
734.754	8450.41294
734.947	8433.9911
735.14	8401.14375
735.333	8405.24994
735.526	8386.77148
735.719	8360.07761
735.912	8454.5182
736.105	8427.8326
736.298	8454.5182
736.491	8382.66495
736.684	8561.22837
736.877	8401.14375
737.07	8314.89589
737.263	8530.45185
737.456	8618.66652
737.649	8433.9911
737.842	8561.22837
738.035	8331.3267
738.228	8249.16012
738.421	8397.03749
738.614	8364.18457
738.807	8199.84505
739	8171.07265
739.192	8150.51855
739.385	8134.07383
739.578	8206.01006
739.771	8257.37819
739.964	8341.59532
740.156	8347.75626
740.349	8154.62953
740.542	8234.77773
740.735	8018.92476
740.927	8134.07383
741.12	8195.73495
741.313	8173.12795
741.505	8214.22979
741.698	8027.1518
741.891	8148.46303
742.083	7903.71197
742.276	8023.03832
742.468	8146.40749
742.661	8068.28211
742.854	8236.83242
743.046	7969.55571
743.239	8251.21466
743.431	8238.88708
743.624	8041.54833
743.816	8066.22579
744.009	8097.06852
744.201	8020.98155
744.393	8016.86795
744.586	7881.07332
744.778	7961.32639
744.971	7792.55273
745.163	7975.72748
745.355	7994.2417
745.548	8101.18055
745.74	8047.71797
745.932	8236.83242
746.125	8088.84424
746.317	8249.16012
746.509	8043.6049
746.702	7973.67025
746.894	7887.24775
747.086	8080.61963
747.278	7990.12758
747.471	7961.32639
747.663	7977.7847
747.855	7881.07332
748.047	7782.25714
748.239	7759.605
748.431	7924.2904
748.623	8134.07383
748.815	7957.21161
749.008	8006.5836
749.2	7955.15419
749.392	7907.82782
749.584	7714.29311
749.776	8014.81112
749.968	7983.95623
750.16	8162.85125
750.352	7806.96568
750.544	7708.11343
750.736	7887.24775
750.928	8111.46025
751.12	7837.84714
751.311	7528.81958
751.503	7885.18963
751.695	7887.24775
751.887	7722.53239
752.079	7675.15191
752.271	7603.02969
752.463	7734.89069
752.654	7862.54893
752.846	7664.85033
753.038	7813.14235
753.23	7916.05928
753.421	7689.57324
753.613	7763.72376
753.805	7753.42671
753.997	7732.83102
754.188	7582.41855
754.38	7561.80528
754.572	7881.07332
754.763	7786.37544
754.955	7559.74383
755.146	7716.35296
755.338	7526.7578
755.53	7526.7578
755.721	7605.09068
755.913	7559.74383
756.104	7405.07411
756.296	7644.24557
756.487	7460.7692
756.679	7631.8817
756.87	7239.95822
757.062	7417.45216
757.253	7113.96254
757.445	7367.93524
757.636	7400.94791
757.827	7244.08783
758.019	7188.33063
758.21	7076.76767
758.401	7200.72251
758.593	7458.7067
758.784	7512.32468
758.975	7450.45649
759.167	7289.50772
759.358	7442.20593
759.549	7163.54447
759.74	7396.82164
759.932	7252.34678
760.123	7066.43447
760.314	7277.12154
760.505	7142.88689
760.696	7128.42526
760.888	7242.02303
761.079	7215.1787
761.27	7369.9987
761.461	7006.49089
761.652	7103.63136
761.843	6921.71077
762.034	7091.2332
762.225	6987.88387
762.416	7054.0339
762.607	6851.37646
762.798	6954.80021
762.989	6843.1001
763.18	6963.07166
763.371	6809.99106
763.562	6979.61349
763.753	6824.47698
763.944	6872.06574
764.135	6946.52839
764.326	6778.94603
764.517	6673.35442
764.708	6872.06574
764.899	6849.3074
765.089	6849.3074
765.28	6898.95842
765.471	6890.68416
765.662	6594.63946
765.853	6946.52839
766.043	6770.66649
766.234	6925.84726
766.425	6665.0702
766.615	6766.52658
766.806	6517.96392
766.997	6774.8063
767.187	6685.78005
767.378	6557.3418
767.569	6461.99148
767.759	6532.47253
767.95	6561.48635
768.141	6747.89586
768.331	6617.42879
768.522	6652.64318
768.712	6320.94871
768.903	6714.77
769.093	6408.07608
769.284	6459.9181
769.474	6501.38125
769.665	6615.35715
769.855	6352.07035
770.046	6491.01633
770.236	6368.66642
770.426	6424.66711
770.617	6588.4237
770.807	6410.15004
770.998	6451.62435
771.188	6374.88955
771.378	6432.96206
771.569	6457.8447
771.759	6246.23531
771.949	6374.88955
772.139	6511.74559
772.33	6250.38685
772.52	6177.72136
772.71	6432.96206
772.9	6256.61398
773.09	6459.9181
773.281	6293.97237
773.471	6358.29405
773.661	6316.79876
773.851	6121.64548
774.041	6003.20677
774.231	6312.64872
774.421	6127.87698
774.611	6202.63848
774.802	6115.41377
774.992	6100.87229
775.182	6154.87769
775.372	6030.22584
775.562	5870.13173
775.752	6078.01906
775.942	5845.16941
776.131	5913.80763
776.321	5909.64847
776.511	5980.34137
776.701	6019.83436
776.891	5826.44543
777.081	5747.36758
777.271	5944.99832
777.461	5920.04619
777.651	6063.47461
777.84	6003.20677
778.03	5986.57767
778.22	5967.86813
778.41	5901.32986
778.599	5903.40955
778.789	5992.81376
778.979	5909.64847
779.169	5986.57767
779.358	5982.42016
779.548	6213.01961
779.738	5984.49893
779.927	5978.26255
780.117	5724.47026
780.307	5799.39632
780.496	5622.43842
780.686	5759.85582
780.875	5503.67709
781.065	5559.942
781.254	5418.20497
781.444	6026.06932
781.633	5368.15417
781.823	5720.3068
782.012	5684.91362
782.202	5818.12305
782.391	5620.35555
782.581	5609.94084
782.77	5489.08709
782.96	5770.26204
783.149	5422.37526
783.338	5628.6869
783.528	5322.26241
783.717	5534.93749
783.906	5520.34996
784.096	5607.85782
784.285	5455.73418
784.474	5368.15417
784.663	5330.60721
784.853	5478.66495
785.042	5268.01207
785.231	5493.25578
785.42	5509.92959
785.61	5537.02133
785.799	5230.44488
785.988	5393.18126
786.177	5334.77947
786.366	5268.01207
786.555	5171.992
786.744	5050.85302
786.933	4969.35371
787.122	5374.41126
787.312	5384.83927
787.501	5332.69335
787.69	5328.52104
787.879	5192.87013
788.068	5126.05193
788.257	5290.96606
788.445	5009.06289
788.634	5389.01031
788.823	5067.56649
789.012	5401.52287
789.201	5186.60693
789.39	5320.17615
789.579	5142.75871
789.768	4927.5456
789.957	5086.36736
790.145	5293.05265
790.334	4933.8174
790.523	5034.13808
790.712	5036.22753
790.9	5303.48523
791.089	5222.09559
791.278	5351.46757
791.467	5084.27847
791.655	5251.31647
791.844	5092.6339
792.033	4843.90185
792.221	4724.6465
792.41	4952.63157
792.599	4519.43993
792.787	4829.26044
792.976	4783.2373
793.164	4741.38854
793.353	4927.5456
793.541	5055.03153
793.73	4858.54215
793.918	4975.62414
794.107	4435.62083
794.295	4707.90302
794.484	4858.54215
794.672	4768.59126
794.861	4749.75902
795.049	4981.89435
795.238	4617.88213
795.426	4988.16436
795.614	4536.19952
795.803	4942.17948
795.991	4816.70976
796.179	4875.27255
796.368	4837.6271
796.556	4733.0177
796.744	4603.22364
796.932	4785.3295
797.121	4320.31243
797.309	4573.90339
797.497	4330.79773
797.685	4640.91468
797.874	4383.21608
798.062	4871.09009
798.25	4546.67354
798.438	4659.75748
798.626	4435.62083
798.814	4724.6465
799.002	4483.82112
799.19	4521.53496
799.378	4536.19952
799.566	4469.1527
799.755	4550.86299
799.943	4460.77026
800.131	4464.96152
800.318	4532.00975
800.506	4209.13533
800.694	4458.67459
800.882	4360.15367
801.07	4502.67893
801.258	4299.34023
801.446	4504.77413
801.634	4305.63212
801.822	4414.66057
802.01	4416.75669
802.197	4559.24163
802.385	4374.83005
802.573	4477.53478
802.761	4280.46341
802.949	4454.4832
803.136	4410.46825
803.324	4630.44567
803.512	4565.52537
803.699	4406.27585
803.887	4462.8659
804.075	4527.8199
804.262	4284.65841
804.45	4619.97611
804.638	4481.72569
804.825	4741.38854
805.013	4534.10464
805.201	4722.55365
805.388	4588.56406
805.576	4559.24163
805.763	4555.05235
805.951	4557.147
806.138	4464.96152
806.326	4686.97164
806.513	4288.85332
806.701	4615.78813
806.888	4431.42895
807.075	4561.33623
807.263	4246.90032
807.45	4557.147
807.638	4225.92062
807.825	4508.96447
808.012	4456.5789
808.2	4691.1581
808.387	4316.11816
808.574	4439.81262
808.761	4219.62629
808.949	4257.38937
809.136	3929.88368
809.323	4458.67459
809.51	4251.09601
809.698	4259.48712
809.885	4158.77131
810.072	4324.50661
810.259	4349.66989
810.446	4592.75262
810.633	4448.19594
810.82	4529.91484
811.008	4358.05696
811.195	4477.53478
811.382	4393.69812
811.569	4458.67459
811.756	4383.21608
811.943	4573.90339
812.13	4280.46341
812.317	4494.2979
812.504	4293.04815
812.691	4559.24163
812.878	4299.34023
813.064	4464.96152
813.251	4456.5789
813.438	4783.2373
813.625	4259.48712
813.812	4540.38919
813.999	4536.19952
814.186	4364.34703
814.372	4402.08336
814.559	4645.10212
814.746	4448.19594
814.933	4488.0119
815.12	4429.33298
815.306	4567.61991
815.493	4420.94887
815.68	4529.91484
815.866	4423.04493
816.053	4500.58371
816.24	4223.82253
816.426	4519.43993
816.613	4179.7578
816.799	4557.147
816.986	4467.05712
817.173	4418.85279
817.359	4058.007
817.546	4425.14097
817.732	4242.70455
817.919	4431.42895
818.105	4238.5087
818.292	4643.00841
818.478	4305.63212
818.665	4475.43929
818.851	4154.57376
819.037	4498.48846
819.224	4123.08945
819.41	4441.90848
819.597	3898.36635
819.783	4272.07315
819.969	4223.82253
820.156	4213.33178
820.342	4043.3082
820.528	4297.24289
820.714	4045.40809
820.901	4234.31276
821.087	4293.04815
821.273	4322.40953
821.459	4022.30816
821.646	4207.03707
821.832	4045.40809
822.018	4179.7578
822.204	4165.06748
822.39	4171.36345
822.576	4091.60044
822.762	4305.63212
822.948	3986.60338
823.134	4175.56067
823.32	3990.80425
823.507	4330.79773
823.693	4209.13533
823.879	4106.2959
824.065	3984.50292
824.25	4230.11673
824.436	3900.46765
824.622	4162.96878
824.808	4248.99818
824.994	4198.64383
825.18	3986.60338
825.366	4171.36345
825.552	3837.42009
825.738	4251.09601
825.923	3854.23452
826.109	3971.8997
826.295	3906.77142
826.481	3921.4795
826.667	3820.60438
826.852	3679.7237
827.038	3688.13693
827.224	4125.18855
827.409	3673.41359
827.595	3919.37841
827.781	3725.99263
827.966	3915.17616
828.152	3747.02088
828.338	4072.70478
828.523	3896.26504
828.709	4041.20829
828.894	3730.19843
829.08	4020.20804
829.266	3944.59021
829.451	3950.8927
829.637	3694.44664
829.822	3910.97383
830.008	3778.5596
830.193	3854.23452
830.378	3789.07153
830.564	3948.79189
830.749	3646.06776
830.935	3864.7429
831.12	3646.06776
831.305	3694.44664
831.491	3467.19029
831.676	3730.19843
831.861	3437.71544
832.047	3629.23797
832.232	3406.13136
832.417	3606.09503
832.602	3513.50076
832.788	3591.36653
832.973	3467.19029
833.158	3719.68378
833.343	3475.61103
833.528	3772.25221
833.714	3555.59351
833.899	3610.30301
834.084	3473.50587
834.269	3566.11554
834.454	3481.92639
834.639	3742.81538
834.824	3580.84561
835.009	3696.54984
835.194	3500.8715
835.379	3789.07153
835.564	3515.60557
835.749	3660.79284
835.934	3582.94983
836.119	3578.74137
836.304	3229.18809
836.489	3530.33874
836.674	3140.67191
836.859	3279.75564
837.044	3317.67489
837.228	3364.01307
837.413	3142.77977
837.598	3273.43522
837.783	2978.31919
837.968	3340.84503
838.152	3273.43522
838.337	3498.76656
838.522	3357.69472
838.707	3431.39895
838.891	3039.47583
839.076	3351.37622
839.261	3132.2403
839.445	3385.0731
839.63	3210.22278
839.815	3275.54204
839.999	3001.51805
840.184	3233.40242
840.368	3039.47583
840.553	3271.32839
840.737	3104.8358
840.922	3212.3301
841.106	3001.51805
841.291	3064.77825
841.475	3047.91022
841.66	3033.14988
841.844	2940.35353
842.029	3146.99545
842.213	3047.91022
842.397	3111.16015
842.582	2921.3689
842.766	3170.18051
842.951	2902.38308
843.135	3262.90087
843.319	3073.21189
843.504	2877.06683
843.688	2889.72522
843.872	3043.69305
844.056	2902.38308
844.241	2997.30021
844.425	2887.61552
844.609	3001.51805
844.793	2908.71182
844.977	3157.53436
845.161	2864.40794
845.346	2830.64839
845.53	2723.01631
845.714	2925.5878
845.898	2756.78702
846.082	2874.95705
846.266	2748.34466
846.45	2750.45527
846.634	2663.90953
846.818	2843.30864
847.002	2613.23865
847.186	2927.69724
847.37	2672.35397
847.554	2870.73745
847.738	2532.99544
847.922	2720.90553
848.106	2691.35322
848.29	2803.21613
848.473	2680.79821
848.657	2655.46488
848.841	2596.34678
849.025	2881.28635
849.209	2342.88092
849.392	2946.68147
849.576	2699.797
849.76	2763.11864
849.944	2494.97961
850.127	2568.89585
850.311	2302.73493
850.495	2613.23865
850.678	2397.81173
850.862	2596.34678
851.046	2290.05653
851.229	2562.56073
851.413	2575.23086
851.596	2402.03689
851.78	2237.22627
851.964	2482.30685
852.147	2275.26463
852.331	2330.20361
852.514	2281.60407
852.698	2520.32391
852.881	2199.18503
853.065	2440.06144
853.248	2175.93624
853.431	2469.63369
853.615	2199.18503
853.798	2361.8962
853.982	2146.34543
854.165	2296.39577
854.348	2224.54617
854.532	2480.19468
854.715	2173.82267
854.898	2402.03689
855.081	2207.63888
855.265	2410.48708
855.448	2182.27692
855.631	2142.11804
855.814	2114.63926
855.997	2275.26463
856.181	2328.0907
856.364	2190.73104
856.547	2118.86685
856.73	2389.36128
856.913	2156.91376
857.096	2490.7554
857.279	2161.14104
857.462	2146.34543
857.645	2140.00434
857.828	2161.14104
858.011	1928.59738
858.194	2190.73104
858.377	2004.71163
858.56	2066.0198
858.743	1960.31261
858.926	2169.59549
859.109	1998.36909
859.292	2085.04527
859.475	2057.56384
859.658	2275.26463
859.841	1873.62133
860.023	2106.18398
860.206	1729.8226
860.389	2078.70351
860.572	1869.39225
860.755	1920.13977
860.937	1776.34783
861.12	1932.82616
861.303	1780.57731
861.486	2053.33582
861.668	1632.53751
861.851	1643.11225
862.034	1700.21475
862.216	1805.95381
862.399	1700.21475
862.581	1962.42691
862.764	1772.11834
862.947	1786.92149
863.129	1543.70773
863.312	1761.54455
863.494	1687.52549
863.677	1793.26563
863.859	1693.87013
864.042	1797.49504
864.224	1662.14664
864.406	1793.26563
864.589	1509.86717
864.771	1702.32962
864.954	1575.43299
865.136	1670.6063
865.318	1702.32962
865.501	1725.59295
865.683	1594.46798
865.865	1524.67245
866.048	1564.85794
866.23	1632.53751
866.412	1492.94681
866.594	1575.43299
866.777	1456.99095
866.959	1725.59295
867.141	1471.79631
867.323	1647.34213
867.505	1414.68993
867.687	1552.16783
867.869	1514.09725
868.052	1674.83611
868.234	1514.09725
868.416	1776.34783
868.598	1404.1147
868.78	1541.59271
868.962	1387.19436
869.144	1643.11225
869.326	1423.15012
869.508	1564.85794
869.69	1321.6287
869.872	1423.15012
870.054	1526.78748
870.236	1560.62791
870.417	1560.62791
870.599	1547.93778
870.781	1454.8759
870.963	1533.13258
871.145	1573.31798
871.327	1507.75213
871.508	1499.29195
871.69	1471.79631
871.872	1213.76666
872.054	1372.38911
872.235	1317.3987
872.417	1490.83176
872.599	1340.66375
872.78	1454.8759
872.962	1429.49528
873.144	1401.99965
873.325	1353.35386
873.507	1370.27407
873.689	1220.11129
873.87	1425.26517
874.052	1262.40951
874.233	1397.76956
874.415	1285.67399
874.596	1598.69796
874.778	1304.70876
874.959	1482.37157
875.141	1347.0088
875.322	1372.38911
875.503	1387.19436
875.685	1535.24762
875.866	1412.57488
876.048	1437.95548
876.229	1378.73421
876.41	1456.99095
876.592	1249.71993
876.773	1476.02642
876.954	1285.67399
877.136	1440.07053
877.317	1247.60501
877.498	1454.8759
877.679	1332.20371
877.86	1465.45116
878.042	1387.19436
878.223	1446.41569
878.404	1459.106
878.585	1406.22974
878.766	1217.99641
878.947	1539.47768
879.128	1349.12382
879.309	1389.3094
879.49	1211.65179
879.672	1366.04401
879.853	1237.03044
880.034	1323.74369
880.215	1279.3291
880.396	1509.86717
880.576	1065.73527
880.757	1423.15012
880.938	1237.03044
881.119	1374.50414
881.3	1137.63359
881.481	1482.37157
881.662	1234.91554
881.843	1440.07053
882.023	1300.4788
882.204	1456.99095
882.385	1423.15012
882.566	1363.92898
882.747	1186.2736
882.927	1440.07053
883.108	1213.76666
883.289	1382.96428
883.469	1298.36382
883.65	1480.25652
883.831	1319.5137
884.011	1404.1147
884.192	1370.27407
884.373	1518.32733
884.553	1391.42444
884.734	1431.61033
884.914	1336.43373
885.095	1251.83485
885.275	1165.12552
885.456	1245.49009
885.636	1198.96263
885.817	1389.3094
885.997	1234.91554
886.178	1344.89378
886.358	1239.14535
886.538	1340.66375
886.719	1108.02773
886.899	1287.78895
887.08	1437.95548
887.26	1401.99965
887.44	1262.40951
887.621	1429.49528
887.801	1327.9737
887.981	1427.38022
888.161	1220.11129
888.342	1425.26517
888.522	1334.31872
888.702	1395.65452
888.882	1137.63359
889.062	1442.18558
889.242	1344.89378
889.423	1412.57488
889.603	1287.78895
889.783	1437.95548
889.963	1342.77877
890.143	1450.64579
890.323	1243.37517
890.503	1516.21229
890.683	1268.75434
890.863	1336.43373
891.043	1141.86307
891.223	1363.92898
891.403	1262.40951
891.583	1444.30064
891.763	1148.20733
891.943	1245.49009
892.122	1253.94978
892.302	1313.16871
892.482	1099.56908
892.662	1361.81396
892.842	1129.17468
893.022	1332.20371
893.201	1279.3291
893.381	1397.76956
893.561	1177.81432
893.741	1344.89378
893.92	1222.22617
894.1	1401.99965
894.28	1234.91554
894.459	1302.59378
894.639	1217.99641
894.819	1201.07748
894.998	1209.53692
895.178	1112.25708
895.357	1067.84985
895.537	1230.68574
895.716	1184.15878
895.896	1143.97782
896.075	1002.30071
896.255	1283.55902
896.434	1177.81432
896.614	1184.15878
896.793	1082.65201
896.973	1245.49009
897.152	1086.88125
897.331	1294.13387
897.511	991.72881
897.69	1192.6181
897.87	976.92843
898.049	1095.33978
898.228	955.7856
898.407	1010.75834
898.587	951.55712
898.766	1143.97782
898.945	962.12838
899.124	1023.44497
899.304	991.72881
899.483	1057.27703
899.662	890.24746
899.841	1084.76663
900.02	998.07193
900.199	1175.69951
900.378	991.72881
900.557	949.44289
900.737	879.67749
900.916	1050.93341
901.095	784.55754
901.274	1025.55943
901.453	837.39972
901.632	828.94458
901.811	837.39972
901.989	881.79147
902.168	744.40153
902.347	765.53582
902.526	801.4664
902.705	921.95856
902.884	687.34425
903.063	828.94458
903.242	748.6283
903.42	896.58954
903.599	727.49485
903.778	814.14844
903.957	613.39353
904.135	795.1255
904.314	778.21687
904.493	702.13611
904.672	691.57044
904.85	826.83082
905.029	596.49263
905.207	778.21687
905.386	647.19775
905.565	744.40153
905.743	634.5208
905.922	710.58885
906.1	594.38007
906.279	566.91803
906.457	596.49263
906.636	653.53639
906.814	569.03042
906.993	537.34607
907.171	552.13172
907.35	642.97205
907.528	499.329
907.707	712.70206
907.885	562.6933
908.063	569.03042
908.242	547.90718
908.42	543.68269
908.598	461.31665
908.777	577.48009
908.955	492.99327
909.133	575.36765
909.311	435.97783
909.49	526.78531
909.668	528.89743
909.846	383.19595
910.024	389.52924
910.202	442.31232
910.38	482.43403
910.559	457.09336
910.737	505.66485
910.915	592.26753
911.093	482.43403
911.271	592.26753
911.449	537.34607
911.627	543.68269
911.805	478.21043
911.983	535.23389
912.161	516.2249
912.339	571.14282
912.517	492.99327
912.695	617.61889
912.872	545.79493
913.05	469.76342
913.228	484.54585
913.406	558.46863
913.584	501.44093
913.762	558.46863
913.939	442.31232
914.117	467.65171
914.295	332.53516
914.473	507.77683
914.65	395.86267
914.828	433.86636
915.006	368.41887
915.184	452.87013
915.361	419.08653
915.539	528.89743
915.716	389.52924
915.894	526.78531
916.072	459.205
916.249	473.9869
916.427	556.35631
916.604	465.54001
916.782	429.64347
916.959	465.54001
917.137	435.97783
917.314	547.90718
917.492	454.98174
917.669	516.2249
917.847	450.75854
918.024	524.6732
918.201	419.08653
918.379	440.20081
918.556	324.09267
918.733	469.76342
918.911	315.65046
919.088	501.44093
919.265	381.08489
919.442	351.5318
919.62	338.86722
919.797	383.19595
919.974	324.09267
920.151	364.197
920.328	330.42451
920.506	465.54001
920.683	408.52999
920.86	370.52983
921.037	317.76099
921.214	381.08489
921.391	400.08505
921.568	516.2249
921.745	273.44377
921.922	345.19943
922.099	330.42451
922.276	355.75346
922.453	389.52924
922.63	366.30793
922.807	265.00332
922.984	305.0981
923.161	355.75346
923.338	378.97385
923.514	305.0981
923.691	406.41873
923.868	364.197
924.045	326.20327
924.222	319.87153
924.399	343.08867
924.575	271.33363
924.752	267.11341
924.929	275.55393
925.105	311.42946
925.282	296.65654
925.459	279.77431
925.635	195.3814
925.812	283.99475
925.989	283.99475
926.165	205.9288
926.342	254.45319
926.518	212.25747
926.695	273.44377
926.871	283.99475
927.048	222.80567
927.224	332.53516
927.401	161.63315
927.577	178.50662
927.754	153.19692
927.93	197.49084
928.107	180.61589
928.283	195.3814
928.459	271.33363
928.636	324.09267
928.812	210.14789
928.988	163.74226
929.165	205.9288
929.341	239.6838
929.517	144.76102
929.693	222.80567
929.87	222.80567
930.046	229.13482
930.222	153.19692
930.398	290.32557
930.574	222.80567
930.751	273.44377
930.927	172.17891
931.103	214.36707
931.279	241.79366
931.455	176.39736
931.631	167.96055
931.807	199.6003
931.983	231.24458
932.159	127.89025
932.335	104.6952
932.511	199.6003
932.687	73.06989
932.863	180.61589
933.039	92.04447
933.215	163.74226
933.391	98.36974
933.566	144.76102
933.742	115.23808
933.918	115.23808
934.094	153.19692
934.27	159.52406
934.445	64.63732
934.621	136.32547
934.797	155.30595
934.973	159.52406
935.148	144.76102
935.324	102.58669
935.5	51.98916
935.675	127.89025
935.851	58.31314
936.027	127.89025
936.202	113.12946
936.378	98.36974
936.553	104.6952
936.729	18.26482
936.904	39.34183
937.08	87.82774
937.255	64.63732
937.431	119.45538
937.606	102.58669
937.782	102.58669
937.957	119.45538
938.133	119.45538
938.308	119.45538
938.483	98.36974
938.659	49.88122
938.834	60.42118
939.009	14.04971
939.185	39.34183
939.36	22.48004
939.535	37.23403
939.71	35.12624
939.886	106.80373
940.061	89.9361
940.236	1.40492
940.411	136.32547
940.586	14.04971
940.761	-13.34623
940.937	20.37242
941.112	-32.31023
941.287	35.12624
941.462	-2.80981
941.637	43.55752
941.812	45.6654
941.987	20.37242
942.162	37.23403
942.337	75.17808
942.512	-15.45344
942.687	30.91075
942.862	18.26482
943.037	43.55752
943.212	18.26482
943.386	22.48004
943.561	-91.29638
943.736	-28.09618
943.911	14.04971
944.086	35.12624
944.26	68.85356
944.435	39.34183
944.61	14.04971
944.785	9.83468
944.959	30.91075
945.134	41.44967
945.309	11.94218
945.483	35.12624
945.658	-36.52418
945.833	14.04971
946.007	45.6654
946.182	22.48004
946.357	47.77329
946.531	-72.33872
946.706	9.83468
946.88	68.85356
947.055	20.37242
947.229	75.17808
947.404	37.23403
947.578	30.91075
947.752	22.48004
947.927	22.48004
948.101	47.77329
948.276	54.09713
948.45	26.69535
948.624	1.40492
948.799	60.42118
948.973	35.12624
949.147	7.72721
949.321	14.04971
949.496	26.69535
949.67	30.91075
949.844	113.12946
950.018	47.77329
950.193	60.42118
950.367	39.34183
950.541	43.55752
950.715	3.51233
950.889	64.63732
951.063	66.74543
951.237	-7.02445
951.411	28.80304
951.585	62.52924
951.759	94.15287
951.933	-23.88203
952.107	-28.09618
952.281	35.12624
952.455	5.61975
952.629	-38.63112
952.803	45.6654
952.977	83.6111
953.151	30.91075
953.325	43.55752
953.499	-23.88203
953.672	66.74543
953.846	87.82774
954.02	-19.66778
954.194	45.6654
954.368	-2.80981
954.541	41.44967
954.715	60.42118
954.889	20.37242
955.062	54.09713
955.236	70.96171
955.41	9.83468
955.583	-7.02445
955.757	79.39455
955.93	18.26482
956.104	9.83468
956.278	87.82774
956.451	77.2863
956.625	-25.98912
956.798	96.26129
956.972	45.6654
957.145	30.91075
957.319	-21.77492
957.492	11.94218
957.665	37.23403
957.839	35.12624
958.012	-21.77492
958.185	43.55752
958.359	51.98916
958.532	-40.73804
958.705	49.88122
958.879	62.52924
959.052	73.06989
959.225	30.91075
959.398	-11.23899
959.572	26.69535
959.745	-47.05863
959.918	85.71941
960.091	54.09713
960.264	75.17808
960.438	111.02086
960.611	85.71941
960.784	47.77329
960.957	75.17808
961.13	123.67278
961.303	-19.66778
961.476	-4.91714
961.649	20.37242
961.822	-4.91714
961.995	41.44967
962.168	54.09713
962.341	-19.66778
962.514	35.12624
962.686	81.50281
962.859	51.98916
963.032	85.71941
963.205	14.04971
963.378	28.80304
963.551	-17.56062
963.723	43.55752
963.896	-32.31023
964.069	-11.23899
964.242	-4.91714
964.414	37.23403
964.587	-4.91714
964.76	9.83468
964.932	9.83468
965.105	35.12624
965.278	-0.70246
965.45	18.26482
965.623	-40.73804
965.795	98.36974
965.968	79.39455
966.14	111.02086
966.313	85.71941
966.485	37.23403
966.658	1.40492
966.83	22.48004
967.003	5.61975
967.175	51.98916
967.348	-2.80981
967.52	30.91075
967.692	28.80304
967.865	62.52924
968.037	9.83468
968.209	75.17808
968.382	51.98916
968.554	68.85356
968.726	47.77329
968.898	47.77329
969.071	18.26482
969.243	60.42118
969.415	-13.34623
969.587	-2.80981
969.759	102.58669
969.932	73.06989
970.104	-13.34623
970.276	98.36974
970.448	18.26482
970.62	22.48004
970.792	11.94218
970.964	11.94218
971.136	5.61975
971.308	43.55752
971.48	51.98916
971.652	11.94218
971.824	62.52924
971.996	-36.52418
972.168	39.34183
972.339	33.01848
972.511	45.6654
972.683	66.74543
972.855	129.99903
973.027	11.94218
973.199	51.98916
973.37	64.63732
973.542	68.85356
973.714	-25.98912
973.886	1.40492
974.057	14.04971
974.229	33.01848
974.401	9.83468
974.572	30.91075
974.744	-15.45344
974.915	-42.84492
975.087	1.40492
975.259	11.94218
975.43	-19.66778
975.602	-30.20322
975.773	26.69535
975.945	9.83468
976.116	60.42118
976.288	60.42118
976.459	18.26482
976.63	35.12624
976.802	60.42118
976.973	-11.23899
977.145	20.37242
977.316	16.15725
977.487	26.69535
977.659	35.12624
977.83	68.85356
978.001	-55.48573
978.172	-15.45344
978.344	30.91075
978.515	-36.52418
978.686	-7.02445
978.857	-32.31023
979.028	22.48004
979.2	43.55752
979.371	77.2863
979.542	98.36974
979.713	-38.63112
979.884	-19.66778
980.055	-13.34623
980.226	-19.66778
980.397	35.12624
980.568	5.61975
980.739	3.51233
980.91	5.61975
981.081	26.69535
981.252	30.91075
981.423	16.15725
981.594	26.69535
981.765	-23.88203
981.936	60.42118
982.106	-0.70246
982.277	18.26482
982.448	11.94218
982.619	-23.88203
982.79	85.71941
982.96	14.04971
983.131	39.34183
983.302	14.04971
983.472	56.20513
983.643	68.85356
983.814	3.51233
983.984	54.09713
984.155	-4.91714
984.326	9.83468
984.496	-23.88203
984.667	26.69535
984.837	39.34183
985.008	54.09713
985.178	37.23403
985.349	47.77329
985.519	-7.02445
985.69	16.15725
985.86	-4.91714
986.031	22.48004
986.201	-40.73804
986.371	5.61975
986.542	47.77329
986.712	-32.31023
986.882	-7.02445
987.053	-2.80981
987.223	-7.02445
987.393	37.23403
987.563	39.34183
987.734	49.88122
987.904	-44.95179
988.074	9.83468
988.244	-28.09618
988.414	9.83468
988.585	37.23403
988.755	-7.02445
988.925	-21.77492
989.095	22.48004
989.265	117.34672
989.435	43.55752
989.605	51.98916
989.775	16.15725
989.945	81.50281
990.115	-4.91714
990.285	-32.31023
990.455	-40.73804
990.625	-19.66778
990.795	-4.91714
990.965	-66.01904
991.134	9.83468
991.304	51.98916
991.474	-44.95179
991.644	20.37242
991.814	26.69535
991.984	16.15725
992.153	14.04971
992.323	-49.16544
992.493	56.20513
992.662	30.91075
992.832	1.40492
993.002	-23.88203
993.171	-78.65817
993.341	60.42118
993.511	14.04971
993.68	9.83468
993.85	-4.91714
994.019	-7.02445
994.189	1.40492
994.358	30.91075
994.528	16.15725
994.697	9.83468
994.867	87.82774
995.036	-61.80579
995.206	-13.34623
995.375	20.37242
995.544	60.42118
995.714	43.55752
995.883	39.34183
996.052	5.61975
996.222	18.26482
996.391	-2.80981
996.56	-34.41722
996.73	111.02086
996.899	14.04971
997.068	26.69535
997.237	18.26482
997.406	60.42118
997.576	35.12624
997.745	9.83468
997.914	73.06989
998.083	-19.66778
998.252	22.48004
998.421	-57.59244
998.59	1.40492
998.759	51.98916
998.928	11.94218
999.097	-25.98912
999.266	18.26482
999.435	-9.13173
999.604	89.9361
999.773	58.31314
999.942	-17.56062
1000.111	20.37242
1000.28	56.20513
1000.448	-7.02445
1000.617	-2.80981
1000.786	18.26482
1000.955	24.58768
1001.124	9.83468
1001.292	-15.45344
1001.461	-7.02445
1001.63	26.69535
1001.798	20.37242
1001.967	73.06989
1002.136	26.69535
1002.304	-9.13173
1002.473	5.61975
1002.642	18.26482
1002.81	-28.09618
1002.979	-28.09618
1003.147	5.61975
1003.316	77.2863
1003.484	-2.80981
1003.653	7.72721
1003.821	-74.44523
1003.99	3.51233
1004.158	20.37242
1004.327	3.51233
1004.495	51.98916
1004.663	-2.80981
1004.832	51.98916
1005	39.34183
1005.168	3.51233
1005.337	35.12624
1005.505	-7.02445
1005.673	94.15287
1005.842	39.34183
1006.01	-44.95179
1006.178	77.2863
1006.346	51.98916
1006.514	-34.41722
1006.683	28.80304
1006.851	-4.91714
1007.019	-7.02445
1007.187	18.26482
1007.355	41.44967
1007.523	-82.87101
1007.691	20.37242
1007.859	-21.77492
1008.027	16.15725
1008.195	33.01848
1008.363	-42.84492
1008.531	35.12624
1008.699	-51.27223
1008.867	30.91075
1009.035	-49.16544
1009.203	43.55752
1009.37	30.91075
1009.538	-13.34623
1009.706	14.04971
1009.874	20.37242
1010.042	-72.33872
1010.209	47.77329
1010.377	51.98916
1010.545	-23.88203
1010.713	-32.31023
1010.88	51.98916
1011.048	16.15725
1011.216	16.15725
1011.383	9.83468
1011.551	43.55752
1011.718	-78.65817
1011.886	22.48004
1012.054	22.48004
1012.221	-70.23219
1012.389	-38.63112
1012.556	26.69535
1012.724	-103.93364
1012.891	-55.48573
1013.058	43.55752
1013.226	20.37242
1013.393	113.12946
1013.561	5.61975
1013.728	-80.7646
1013.895	-66.01904
1014.063	89.9361
1014.23	54.09713
1014.397	18.26482
1014.565	16.15725
1014.732	-32.31023
1014.899	-7.02445
1015.066	-17.56062
1015.233	-44.95179
1015.401	-28.09618
1015.568	35.12624
1015.735	18.26482
1015.902	-55.48573
1016.069	-2.80981
1016.236	-49.16544
1016.403	68.85356
1016.57	-30.20322
1016.737	-36.52418
1016.904	-124.99365
1017.071	24.58768
1017.238	20.37242
1017.405	-66.01904
1017.572	-38.63112
1017.739	26.69535
1017.906	-40.73804
1018.073	70.96171
1018.24	-61.80579
1018.407	-0.70246
1018.573	-74.44523
1018.74	-7.02445
1018.907	-38.63112
1019.074	-40.73804
1019.241	-47.05863
1019.407	54.09713
1019.574	14.04971
1019.741	-23.88203
1019.907	39.34183
1020.074	-47.05863
1020.241	14.04971
1020.407	14.04971
1020.574	35.12624
1020.74	26.69535
1020.907	20.37242
1021.073	41.44967
1021.24	-61.80579
1021.406	22.48004
1021.573	-36.52418
1021.739	-70.23219
1021.906	-30.20322
1022.072	26.69535
1022.239	30.91075
1022.405	-108.14586
1022.571	47.77329
1022.738	11.94218
1022.904	30.91075
1023.07	-13.34623
1023.237	-15.45344
1023.403	-42.84492
1023.569	-7.02445
1023.735	18.26482
1023.902	60.42118
1024.068	11.94218
1024.234	1.40492
1024.4	-32.31023
1024.566	35.12624
1024.732	1.40492
1024.898	-47.05863
1025.065	-42.84492
1025.231	-53.37899
1025.397	-17.56062
1025.563	-2.80981
1025.729	5.61975
1025.895	-32.31023
1026.061	26.69535
1026.227	22.48004
1026.392	-32.31023
1026.558	60.42118
1026.724	-70.23219
1026.89	-49.16544
1027.056	26.69535
1027.222	-23.88203
1027.388	-9.13173
1027.553	-57.59244
1027.719	37.23403
1027.885	-13.34623
1028.051	1.40492
1028.216	-36.52418
1028.382	16.15725
1028.548	37.23403
1028.713	-11.23899
1028.879	1.40492
1029.045	-13.34623
1029.21	-49.16544
1029.376	35.12624
1029.541	-7.02445
1029.707	1.40492
1029.873	54.09713
1030.038	-38.63112
1030.204	22.48004
1030.369	-40.73804
1030.534	1.40492
1030.7	3.51233
1030.865	-74.44523
1031.031	-15.45344
1031.196	14.04971
1031.361	-44.95179
1031.527	-28.09618
1031.692	62.52924
1031.857	-15.45344
1032.023	68.85356
1032.188	35.12624
1032.353	-72.33872
1032.518	-32.31023
1032.684	-36.52418
1032.849	7.72721
1033.014	26.69535
1033.179	-4.91714
1033.344	-15.45344
1033.509	-21.77492
1033.674	18.26482
1033.839	-15.45344
1034.004	-44.95179
1034.17	26.69535
1034.335	37.23403
1034.5	35.12624
1034.664	75.17808
1034.829	68.85356
1034.994	60.42118
1035.159	49.88122
1035.324	75.17808
1035.489	26.69535
1035.654	54.09713
1035.819	-21.77492
1035.984	-4.91714
1036.148	-23.88203
1036.313	43.55752
1036.478	-4.91714
1036.643	5.61975
1036.807	-19.66778
1036.972	33.01848
1037.137	51.98916
1037.301	-21.77492
1037.466	-32.31023
1037.631	9.83468
1037.795	68.85356
1037.96	104.6952
1038.124	-17.56062
1038.289	51.98916
1038.454	70.96171
1038.618	9.83468
1038.783	35.12624
1038.947	9.83468
1039.111	26.69535
1039.276	9.83468
1039.44	35.12624
1039.605	-32.31023
1039.769	22.48004
1039.933	1.40492
1040.098	-40.73804
1040.262	28.80304
1040.426	5.61975
1040.591	35.12624
1040.755	-55.48573
1040.919	45.6654
1041.083	-4.91714
1041.248	-53.37899
1041.412	-74.44523
1041.576	-15.45344
1041.74	11.94218
1041.904	-7.02445
1042.068	20.37242
1042.232	39.34183
1042.397	-40.73804
1042.561	-32.31023
1042.725	-55.48573
1042.889	7.72721
1043.053	9.83468
1043.217	-15.45344
1043.381	-49.16544
1043.544	-21.77492
1043.708	-42.84492
1043.872	11.94218
1044.036	-21.77492
1044.2	22.48004
1044.364	-82.87101
1044.528	11.94218
1044.691	-11.23899
1044.855	-63.91243
1045.019	-7.02445
1045.183	-99.72133
1045.346	-19.66778
1045.51	102.58669
1045.674	26.69535
1045.837	26.69535
1046.001	-7.02445
1046.165	1.40492
1046.328	-36.52418
1046.492	14.04971
1046.655	-7.02445
1046.819	-25.98912
1046.983	14.04971
1047.146	5.61975
1047.31	-0.70246
1047.473	-23.88203
1047.636	1.40492
1047.8	-38.63112
1047.963	-7.02445
1048.127	56.20513
1048.29	-57.59244
