Data from absorb_only_2.23.25_USB4F045381__27__0132.txt Node

Date: Sun Feb 23 19:16:59 EST 2025
User: ssocol
Spectrometer: USB4F04538
Trigger mode: 4
Integration Time (sec): 2.600000E-3
Scans to average: 1
Electric dark correction enabled: true
Nonlinearity correction enabled: true
Boxcar width: 0
XAxis mode: Wavelengths
Number of Pixels in Spectrum: 3648
>>>>>Begin Spectral Data<<<<<
345.52	13.87408
345.736	13.87408
345.952	13.87408
346.168	22.3044
346.384	-5.09275
346.6	-40.91361
346.816	-61.98135
347.032	-7.20006
347.248	-40.91361
347.464	1.22931
347.68	18.08919
347.896	1.22931
348.112	34.9506
348.328	34.9506
348.544	70.78603
348.76	39.16618
348.975	-49.34101
349.191	-61.98135
349.407	24.41204
349.623	-9.30734
349.839	53.92147
350.055	-21.95051
350.27	-21.95051
350.486	-36.69976
350.702	41.27401
350.918	-99.89684
351.133	20.19678
351.349	9.65906
351.565	-30.3788
351.781	9.65906
351.996	-7.20006
352.212	-83.04654
352.428	-66.19459
352.644	39.16618
352.859	-24.05762
353.075	-83.04654
353.291	13.87408
353.506	-40.91361
353.722	-15.62904
353.938	-7.20006
354.153	-36.69976
354.369	43.38186
354.584	-11.4146
354.8	1.22931
355.016	13.87408
355.231	-24.05762
355.447	-30.3788
355.662	-17.73622
355.878	43.38186
356.093	-57.768
356.309	-24.05762
356.524	-5.09275
356.74	-40.91361
356.955	18.08919
357.171	13.87408
357.386	53.92147
357.602	26.51971
357.817	13.87408
358.033	13.87408
358.248	-0.87807
358.464	43.38186
358.679	-15.62904
358.895	64.46165
359.11	93.97717
359.325	1.22931
359.541	-28.27177
359.756	34.9506
359.972	-49.34101
360.187	-2.98542
360.402	-7.20006
360.618	45.48974
360.833	1.22931
361.048	51.8135
361.264	-19.84338
361.479	-68.30117
361.694	5.44413
361.909	18.08919
362.125	9.65906
362.34	-93.57817
362.555	22.3044
362.77	24.41204
362.986	-32.48582
363.201	22.3044
363.416	1.22931
363.631	26.51971
363.847	32.84284
364.062	-19.84338
364.277	-47.2342
364.492	26.51971
364.707	-34.5928
364.922	-28.27177
365.138	-24.05762
365.353	5.44413
365.568	51.8135
365.783	-61.98135
365.998	-19.84338
366.213	9.65906
366.428	30.7351
366.643	-53.55456
366.858	-26.16471
367.073	-53.55456
367.288	-15.62904
367.503	28.62739
367.718	28.62739
367.933	49.70556
368.148	112.95374
368.363	-13.52183
368.578	45.48974
368.793	-49.34101
369.008	-11.4146
369.223	68.67788
369.438	-57.768
369.653	-7.20006
369.868	11.76656
370.083	9.65906
370.298	-7.20006
370.513	13.87408
370.728	-45.12736
370.943	34.9506
371.157	34.9506
371.372	34.9506
371.587	-83.04654
371.802	60.24551
372.017	-78.83371
372.232	18.08919
372.446	3.33671
372.661	49.70556
372.876	9.65906
373.091	26.51971
373.306	72.8942
373.52	-40.91361
373.735	-59.87469
373.95	1.22931
374.165	5.44413
374.379	81.32712
374.594	-24.05762
374.809	9.65906
375.023	43.38186
375.238	-32.48582
375.453	-5.09275
375.667	9.65906
375.882	43.38186
376.097	20.19678
376.311	9.65906
376.526	51.8135
376.741	-7.20006
376.955	30.7351
377.17	1.22931
377.384	-24.05762
377.599	56.02946
377.813	20.19678
378.028	56.02946
378.242	51.8135
378.457	-78.83371
378.672	3.33671
378.886	9.65906
379.101	68.67788
379.315	-24.05762
379.53	30.7351
379.744	-0.87807
379.958	43.38186
380.173	-57.768
380.387	-36.69976
380.602	1.22931
380.816	15.98162
381.031	-66.19459
381.245	68.67788
381.459	13.87408
381.674	-49.34101
381.888	32.84284
382.103	-28.27177
382.317	-7.20006
382.531	-15.62904
382.746	-47.2342
382.96	-11.4146
383.174	-36.69976
383.388	-43.0205
383.603	53.92147
383.817	49.70556
384.031	-5.09275
384.246	-7.20006
384.46	18.08919
384.674	-51.44779
384.888	70.78603
385.103	18.08919
385.317	45.48974
385.531	-21.95051
385.745	-15.62904
385.959	62.35357
386.174	77.11062
386.388	-26.16471
386.602	43.38186
386.816	-17.73622
387.03	47.59764
387.244	-36.69976
387.458	-2.98542
387.672	-21.95051
387.887	-32.48582
388.101	-40.91361
388.315	-21.95051
388.529	22.3044
388.743	47.59764
388.957	26.51971
389.171	56.02946
389.385	-2.98542
389.599	-74.62077
389.813	-83.04654
390.027	-11.4146
390.241	70.78603
390.455	34.9506
390.669	-5.09275
390.883	18.08919
391.097	28.62739
391.311	-30.3788
391.525	-7.20006
391.738	1.22931
391.952	1.22931
392.166	-13.52183
392.38	-129.38082
392.594	-15.62904
392.808	18.08919
393.022	-32.48582
393.236	-32.48582
393.449	-21.95051
393.663	-57.768
393.877	26.51971
394.091	-32.48582
394.305	13.87408
394.518	-15.62904
394.732	53.92147
394.946	81.32712
395.16	60.24551
395.373	34.9506
395.587	15.98162
395.801	89.7604
396.015	-70.40773
396.228	-49.34101
396.442	26.51971
396.656	24.41204
396.869	41.27401
397.083	-38.8067
397.297	39.16618
397.51	5.44413
397.724	-32.48582
397.938	28.62739
398.151	-55.66129
398.365	43.38186
398.578	13.87408
398.792	45.48974
399.005	-85.15292
399.219	-15.62904
399.433	1.22931
399.646	-30.3788
399.86	26.51971
400.073	-7.20006
400.287	15.98162
400.5	43.38186
400.714	-15.62904
400.927	3.33671
401.141	-53.55456
401.354	-19.84338
401.567	-57.768
401.781	18.08919
401.994	37.05838
402.208	53.92147
402.421	-53.55456
402.635	-15.62904
402.848	-53.55456
403.061	45.48974
403.275	26.51971
403.488	51.8135
403.701	-13.52183
403.915	66.56975
404.128	-53.55456
404.341	26.51971
404.555	-26.16471
404.768	47.59764
404.981	5.44413
405.195	-26.16471
405.408	11.76656
405.621	-7.20006
405.834	22.3044
406.048	51.8135
406.261	-21.95051
406.474	20.19678
406.687	-36.69976
406.9	39.16618
407.114	47.59764
407.327	11.76656
407.54	43.38186
407.753	41.27401
407.966	9.65906
408.179	18.08919
408.392	85.54372
408.605	30.7351
408.819	34.9506
409.032	-21.95051
409.245	-7.20006
409.458	64.46165
409.671	-13.52183
409.884	22.3044
410.097	22.3044
410.31	26.51971
410.523	47.59764
410.736	41.27401
410.949	-26.16471
411.162	-7.20006
411.375	1.22931
411.588	-15.62904
411.801	30.7351
412.014	11.76656
412.227	5.44413
412.44	-66.19459
412.653	9.65906
412.865	56.02946
413.078	22.3044
413.291	47.59764
413.504	28.62739
413.717	-43.0205
413.93	-5.09275
414.143	-9.30734
414.356	13.87408
414.568	37.05838
414.781	64.46165
414.994	37.05838
415.207	-7.20006
415.42	72.8942
415.632	9.65906
415.845	-7.20006
416.058	18.08919
416.271	13.87408
416.483	37.05838
416.696	1.22931
416.909	-13.52183
417.121	85.54372
417.334	58.13747
417.547	49.70556
417.759	34.9506
417.972	26.51971
418.185	1.22931
418.397	-30.3788
418.61	5.44413
418.823	9.65906
419.035	-11.4146
419.248	-2.98542
419.46	51.8135
419.673	9.65906
419.885	85.54372
420.098	26.51971
420.311	-13.52183
420.523	75.0024
420.736	89.7604
420.948	3.33671
421.161	-5.09275
421.373	34.9506
421.586	56.02946
421.798	30.7351
422.01	-5.09275
422.223	37.05838
422.435	-7.20006
422.648	56.02946
422.86	3.33671
423.073	64.46165
423.285	58.13747
423.497	64.46165
423.71	91.86877
423.922	58.13747
424.134	-28.27177
424.347	18.08919
424.559	-28.27177
424.771	26.51971
424.984	-57.768
425.196	-5.09275
425.408	-38.8067
425.621	5.44413
425.833	-24.05762
426.045	62.35357
426.257	20.19678
426.47	-38.8067
426.682	7.55158
426.894	30.7351
427.106	91.86877
427.318	26.51971
427.531	24.41204
427.743	89.7604
427.955	93.97717
428.167	-5.09275
428.379	60.24551
428.591	62.35357
428.804	79.21886
429.016	-40.91361
429.228	39.16618
429.44	1.22931
429.652	24.41204
429.864	43.38186
430.076	-11.4146
430.288	26.51971
430.5	-28.27177
430.712	129.82329
430.924	-19.84338
431.136	45.48974
431.348	60.24551
431.56	77.11062
431.772	32.84284
431.984	51.8135
432.196	26.51971
432.408	-24.05762
432.62	-5.09275
432.832	-5.09275
433.044	68.67788
433.256	51.8135
433.468	1.22931
433.679	66.56975
433.891	45.48974
434.103	-13.52183
434.315	-15.62904
434.527	13.87408
434.739	81.32712
434.95	43.38186
435.162	47.59764
435.374	77.11062
435.586	39.16618
435.798	11.76656
436.009	-17.73622
436.221	22.3044
436.433	18.08919
436.645	51.8135
436.856	85.54372
437.068	96.08559
437.28	-15.62904
437.491	51.8135
437.703	87.65205
437.915	-15.62904
438.126	106.62802
438.338	64.46165
438.55	22.3044
438.761	32.84284
438.973	62.35357
439.184	53.92147
439.396	93.97717
439.608	53.92147
439.819	30.7351
440.031	5.44413
440.242	81.32712
440.454	68.67788
440.665	77.11062
440.877	20.19678
441.088	26.51971
441.3	41.27401
441.511	77.11062
441.723	102.41098
441.934	64.46165
442.146	64.46165
442.357	62.35357
442.569	56.02946
442.78	-7.20006
442.991	37.05838
443.203	100.3025
443.414	64.46165
443.626	77.11062
443.837	83.43541
444.048	153.02117
444.26	3.33671
444.471	13.87408
444.682	115.06236
444.894	-15.62904
445.105	144.58528
445.316	81.32712
445.528	34.9506
445.739	72.8942
445.95	85.54372
446.161	51.8135
446.373	169.89395
446.584	37.05838
446.795	24.41204
447.006	112.95374
447.217	20.19678
447.429	93.97717
447.64	64.46165
447.851	68.67788
448.062	28.62739
448.273	18.08919
448.484	70.78603
448.695	64.46165
448.907	56.02946
449.118	81.32712
449.329	28.62739
449.54	142.47636
449.751	129.82329
449.962	125.60578
450.173	43.38186
450.384	106.62802
450.595	106.62802
450.806	102.41098
451.017	51.8135
451.228	123.49705
451.439	72.8942
451.65	131.93208
451.861	81.32712
452.072	172.00315
452.283	79.21886
452.494	98.19403
452.705	144.58528
452.915	51.8135
453.126	142.47636
453.337	51.8135
453.548	110.84515
453.759	119.27966
453.97	165.67563
454.181	131.93208
454.391	83.43541
454.602	131.93208
454.813	91.86877
455.024	157.23924
455.235	212.08167
455.445	190.9868
455.656	178.33085
455.867	136.14973
456.078	176.22159
456.288	106.62802
456.499	79.21886
456.71	140.36746
456.921	129.82329
457.131	239.50798
457.342	169.89395
457.553	144.58528
457.763	79.21886
457.974	129.82329
458.184	138.25859
458.395	201.53399
458.606	216.30089
458.816	205.753
459.027	146.69422
459.237	220.52019
459.448	203.64348
459.659	186.76807
459.869	233.17854
460.08	180.44012
460.29	250.05744
460.501	209.9721
460.711	155.13019
460.922	203.64348
461.132	224.73956
461.343	258.49735
461.553	197.31505
461.764	178.33085
461.974	203.64348
462.184	188.87742
462.395	266.93757
462.605	250.05744
462.816	338.69132
463.026	288.03942
463.236	252.16739
463.447	205.753
463.657	214.19127
463.867	319.69565
464.078	264.82749
464.288	304.92223
464.498	338.69132
464.709	292.26001
464.919	283.8189
465.129	330.24862
465.339	340.80204
465.55	326.02738
465.76	349.24509
465.97	313.36408
466.18	288.03942
466.391	366.13202
466.601	389.35331
466.811	416.79924
467.021	383.02003
467.231	543.50667
467.441	465.36403
467.651	562.51727
467.862	497.04108
468.072	501.26494
468.282	600.54173
468.492	516.0489
468.702	592.09148
468.912	554.06798
469.122	520.27302
469.332	581.52897
469.542	604.76693
469.752	651.24742
469.962	636.45753
470.172	708.29955
470.382	708.29955
470.592	606.87955
470.802	720.97891
471.012	731.54534
471.222	858.36202
471.432	765.35969
471.642	803.40391
471.852	913.32592
472.062	797.06299
472.272	987.3239
472.482	1010.58214
472.691	997.89573
472.901	983.09522
473.111	1016.92543
473.321	1048.64267
473.531	1277.0379
473.741	1203.0161
473.95	1120.53962
474.16	1082.47579
474.37	1389.13314
474.58	1348.94757
474.79	1378.55795
474.999	1281.26782
475.209	1363.75273
475.419	1323.56744
475.628	1645.05095
475.838	1480.08026
476.048	1526.61123
476.258	1577.37175
476.467	1617.55653
476.677	1623.90143
476.886	1837.49734
477.096	1685.23436
477.306	1704.26825
477.515	1877.67417
477.725	1793.08941
477.935	1841.72656
478.144	2004.53545
478.354	1919.96357
478.563	2190.55492
478.773	2017.22037
478.982	2080.64128
479.192	2125.03203
479.401	2232.82349
479.611	2148.28297
479.82	2469.45767
480.03	2604.61686
480.239	2469.45767
480.449	2505.36393
480.658	2646.8441
480.868	2678.51125
481.077	2847.35278
481.287	2511.69999
481.496	2817.81179
481.705	2889.54941
481.915	2841.0228
482.124	2864.23212
482.333	3117.30869
482.543	3035.08282
482.752	2935.95904
482.961	2999.23339
483.171	3163.68186
483.38	2999.23339
483.589	3288.00705
483.799	3332.24424
484.008	3557.52258
484.217	3376.4738
484.426	3591.19119
484.636	3534.37266
484.845	3532.26801
485.054	3429.11795
485.263	3557.52258
485.472	3751.05107
485.682	3685.85838
485.891	3666.92801
486.1	3919.20331
486.309	3883.4816
486.518	4057.83202
486.727	4106.12096
486.936	4154.39886
487.146	3864.56777
487.355	4219.45145
487.564	4049.43282
487.773	4468.97806
487.982	4238.33387
488.191	4341.10774
488.4	4372.55878
488.609	4615.61362
488.818	4422.87026
489.027	4716.10053
489.236	4556.97245
489.445	4919.00865
489.654	4757.95476
489.863	4866.73326
490.072	4538.11979
490.281	4728.65775
490.49	4749.58464
490.698	4916.91791
490.907	4937.82428
491.116	5054.85743
491.325	4927.37138
491.534	5284.53228
491.743	5109.16961
491.952	5326.261
492.16	5159.29
492.369	5317.91601
492.578	5186.43295
492.787	5468.06851
492.996	5509.75592
493.204	5603.51814
493.413	5418.0312
493.622	5641.00966
493.831	5436.79678
494.039	5609.76725
494.248	5576.43617
494.457	5921.95238
494.665	5613.93321
494.874	5888.67793
495.083	5867.87833
495.291	5811.70763
495.5	5911.55476
495.709	5994.71919
495.917	5982.24693
496.126	6183.77791
496.335	6005.11209
496.543	6187.93086
496.752	6150.55092
496.96	6210.77042
497.169	6401.68123
497.377	6488.77053
497.586	6397.53309
497.794	6550.9521
498.003	6250.21387
498.211	6640.04272
498.42	6393.38487
498.628	6753.93379
498.837	6625.5425
499.045	6677.32381
499.254	6743.58293
499.462	6679.39476
499.671	6731.16113
499.879	6869.82451
500.087	6822.23519
500.296	7078.66203
500.504	6851.20403
500.713	6971.17045
500.921	6892.58037
501.129	7045.59416
501.338	6795.33155
501.546	7111.72417
501.754	6880.16842
501.962	7018.72229
502.171	7235.65645
502.379	7396.64971
502.587	6979.44119
502.795	7126.18705
503.004	6942.22001
503.212	7404.90218
503.42	7097.26018
503.628	7359.50924
503.837	7332.68117
504.045	7268.6916
504.253	7664.67863
504.461	7602.85794
504.669	7543.0797
504.877	7582.24678
505.085	7777.96716
505.294	7604.91894
505.502	7623.46696
505.71	7932.34972
505.918	7421.4061
506.126	7590.4915
506.334	7571.9404
506.542	7788.26297
506.75	7726.48026
506.958	7841.79276
507.166	7961.15494
507.374	8012.58287
507.582	7854.1438
507.79	7977.61327
507.998	7784.14471
508.206	7938.52261
508.414	7920.0034
508.622	8281.85933
508.83	7882.95997
509.037	8158.56915
509.245	8212.00364
509.453	8296.23856
509.661	8324.99414
509.869	8347.58512
510.077	8076.33585
510.285	8481.02953
510.492	8333.20931
510.7	8448.18922
510.908	8355.79944
511.116	8520.02107
511.324	8446.13654
511.531	8546.69554
511.739	8300.34673
511.947	8696.42404
512.155	8511.8129
512.362	9003.77927
512.57	8563.10901
512.778	8692.32321
512.985	8454.34715
513.193	8786.6237
513.401	8792.77239
513.608	8872.69051
513.816	8942.34046
514.024	8874.73934
514.231	8694.37363
514.439	8977.15773
514.646	8987.39713
514.854	9091.81408
515.061	8723.07763
515.269	8973.06185
515.477	8796.87142
515.684	8966.91789
515.892	8901.3724
516.099	9273.9248
516.307	9079.53208
516.514	9163.44672
516.722	9259.60633
516.929	9104.09545
517.136	9175.7245
517.344	9245.28705
517.551	9161.40037
517.759	9421.1533
517.966	9423.19754
518.173	9429.33017
518.381	9566.25452
518.588	9582.59892
518.796	9605.07083
519.003	9498.82314
519.21	9273.9248
519.418	9543.77931
519.625	9474.29834
519.832	9731.69553
520.039	9637.75387
520.247	9699.02386
520.454	9576.46989
520.661	9790.903
520.868	9690.85533
521.076	9937.84645
521.283	9937.84645
521.49	9929.68493
521.697	9725.56989
521.904	9880.71089
522.112	9807.23385
522.319	10107.14598
522.526	9662.26354
522.733	10137.73186
522.94	9888.87382
523.147	10029.64757
523.354	10037.80626
523.561	10188.70137
523.768	10007.20999
523.975	10473.97469
524.183	10384.34531
524.39	10341.55874
524.597	10329.33293
524.804	10449.5328
525.011	10215.20212
525.218	10359.89655
525.425	10327.29525
525.632	10506.561
525.838	10353.78407
526.045	10398.60622
526.252	10429.16314
526.459	10620.58765
526.666	10392.49448
526.873	10856.66386
527.08	10418.97783
527.287	10807.83363
527.494	10471.93794
527.701	10864.80158
527.907	10874.97348
528.114	10885.14508
528.321	10734.57557
528.528	11019.38369
528.735	11125.11345
528.941	10832.24958
529.148	10840.38786
529.355	11177.96743
529.562	10740.681
529.768	11153.57418
529.975	10801.72937
530.182	11165.77099
530.388	11039.71862
530.595	11243.00871
530.802	11051.91906
531.008	11458.38364
531.215	11358.83746
531.422	11549.78322
531.628	11316.16753
531.835	11234.87913
532.042	11259.26737
532.248	11584.30699
532.455	11458.38364
532.661	11535.56677
532.868	11360.86925
533.074	11710.19484
533.281	11543.69051
533.487	11744.70648
533.694	11551.8141
533.9	12280.34713
534.107	11693.95319
534.313	11905.05146
534.52	11955.78269
534.726	11925.34456
534.933	11681.77158
535.139	12030.85568
535.345	11919.25672
535.552	12043.02865
535.758	12136.34557
535.965	12034.91337
536.171	12085.63187
536.377	12209.36505
536.584	11864.46277
536.79	11781.24546
536.996	12172.85651
537.203	12335.09879
537.409	12130.26017
537.615	12274.2633
537.821	12371.59707
538.028	12377.67991
538.234	12199.22403
538.44	12371.59707
538.646	12156.62972
538.853	12432.42266
539.059	12383.76268
539.265	12483.10607
539.471	12440.53228
539.677	12225.59031
539.883	12274.2633
540.09	12371.59707
540.296	12545.94786
540.502	12618.91784
540.708	12622.97149
540.914	12973.52524
541.12	12732.41106
541.326	13238.87024
541.532	12699.98632
541.738	13016.06703
541.944	12829.6765
542.15	13188.23806
542.356	12961.37003
542.562	13202.41535
542.768	13044.427
542.974	13222.66824
543.18	12965.42179
543.386	13115.32274
543.592	13226.71877
543.798	13131.52667
544.004	13127.47571
544.21	13404.925
544.415	13421.124
544.621	13281.39915
544.827	13299.62524
545.033	13540.58407
545.239	13348.2265
545.445	13815.90371
545.651	13597.27254
545.856	13880.67652
546.062	13552.73183
546.268	13704.56839
546.474	13534.51014
546.679	13536.53478
546.885	13419.09914
547.091	13603.34614
547.297	13305.70053
547.502	13682.3002
547.708	13524.38685
547.914	13489.96698
548.119	13560.83027
548.325	13856.38705
548.531	13396.82541
548.736	13660.03162
548.942	13787.56468
549.147	13708.61711
549.353	13629.66473
549.559	13943.42249
549.764	13728.86053
549.97	13591.1989
550.175	13631.68921
550.381	13773.39494
550.586	13809.83111
550.792	14234.85714
550.997	14109.38403
551.203	14228.78604
551.408	14443.28861
551.614	14319.85079
551.819	14109.38403
552.025	14327.94526
552.23	14382.58223
552.435	14265.21239
552.641	14631.47057
552.846	14433.17097
553.052	14425.07684
553.257	14287.47264
553.462	14453.40621
553.668	14441.26508
553.873	14720.4995
554.078	14526.25189
554.283	14416.98268
554.489	14829.76002
554.694	14447.33565
554.899	14570.76787
555.105	14678.00865
555.31	14856.06317
555.515	14999.71729
555.72	14961.27485
555.925	14866.17973
556.131	15299.16185
556.336	14906.64587
556.541	15200.02141
556.746	14959.25156
556.951	14843.92326
557.156	15133.25348
557.361	14868.20305
557.567	14991.62415
557.772	15034.11306
557.977	14839.87662
558.182	15266.78942
558.387	15384.13982
558.592	15195.97487
558.797	15042.20617
559.002	14975.43787
559.207	14785.24674
559.412	15287.02218
559.617	15256.67304
559.822	15270.83597
560.027	15299.16185
560.232	15380.09324
560.437	15202.04468
560.642	15185.85852
560.847	15289.04546
561.051	15335.58091
561.256	15234.41703
561.461	15382.11653
561.666	15495.42161
561.871	15513.63151
562.076	15161.57927
562.281	15620.86871
562.485	15032.08978
562.69	15139.32329
562.895	15416.51255
563.1	15444.83879
563.305	15620.86871
563.509	15537.91146
563.714	15614.79863
563.919	15641.10239
564.123	15242.51012
564.328	15535.88813
564.533	15699.78053
564.737	15511.60819
564.942	15446.8621
565.147	15760.48288
565.351	16086.2702
565.556	15819.1627
565.761	15760.48288
565.965	15693.71034
566.17	15566.23819
566.374	15720.01455
566.579	15987.11391
566.784	16025.56185
566.988	15622.89208
567.193	16041.75061
567.397	15873.79649
567.602	15778.69376
567.806	15562.19151
568.011	16132.81419
568.215	16151.02728
568.42	16357.45208
568.624	16236.02351
568.828	15928.43117
569.033	15894.03145
569.237	16102.45932
569.442	16282.57035
569.646	16442.45614
569.85	15983.06679
570.055	16472.81558
570.259	16231.976
570.463	16104.48296
570.668	16213.7623
570.872	16100.43567
571.076	16191.50131
571.281	16248.16607
571.485	16450.55194
571.689	16772.3884
571.893	16563.89675
572.098	16661.05486
572.302	16404.00149
572.506	16513.29557
572.71	16335.18967
572.914	16460.67175
573.119	16331.14199
573.323	16416.14498
573.527	16124.71952
573.731	16371.61918
573.935	16321.02281
574.139	16677.24839
574.343	16663.07905
574.547	16719.75711
574.751	16667.12742
574.955	16673.2
575.159	16814.89949
575.364	16778.46135
575.568	16725.82987
575.772	17150.97971
575.976	16887.7782
576.18	16650.93399
576.383	16725.82987
576.587	16814.89949
576.791	16691.41785
576.995	16707.61166
577.199	16691.41785
577.403	16926.24329
577.607	16701.53896
577.811	17003.17632
578.015	16610.45104
578.219	16875.63152
578.422	16889.80265
578.626	17231.97425
578.83	16956.61114
579.034	17019.37324
579.238	17082.13794
579.442	17584.35646
579.645	17276.52323
579.849	17250.19866
580.053	17126.68225
580.257	17331.19894
580.46	17432.45609
580.664	17481.06227
580.868	17199.57588
581.071	17323.09869
581.275	17416.25443
581.479	17153.00452
581.682	17537.77178
581.886	17402.07814
582.09	17440.557
582.293	17695.76161
582.497	17667.40299
582.7	17620.81524
582.904	17711.96683
583.107	17582.33101
583.311	17772.73831
583.515	17564.10204
583.718	17483.08757
583.922	17659.30065
584.125	17351.44976
584.329	17647.14723
584.532	17511.44205
584.735	17957.09731
584.939	17371.70088
585.142	17991.5412
585.346	17707.91551
585.549	17900.36841
585.753	17671.45419
585.956	17878.0828
586.159	17934.81063
586.363	18111.08977
586.566	18115.14248
586.769	17934.81063
586.973	17924.68046
587.176	17896.31645
587.379	18050.3008
587.582	18030.03853
587.786	17940.88877
587.989	18151.61756
588.192	18299.55644
588.395	18563.05883
588.599	18465.75813
588.802	18453.59617
589.005	17938.86272
589.208	17904.42038
589.411	18429.27265
589.615	18222.5447
589.818	18157.69685
590.021	18554.9501
590.224	18427.24572
590.427	18484.00134
590.63	18340.0911
590.833	18356.30538
591.036	18577.24925
591.239	18788.10101
591.442	18526.57003
591.645	18737.4116
591.848	18792.15626
592.051	18842.84834
592.254	18427.24572
592.457	18820.54352
592.66	18295.50306
592.863	18295.50306
593.066	18676.58758
593.269	18735.38408
593.472	18725.24652
593.675	19065.92326
593.878	18603.60341
594.081	18952.35176
594.284	18834.73744
594.486	19183.56431
594.689	19173.4223
594.892	18830.68202
595.095	18883.4038
595.298	18806.3498
595.5	18668.47798
595.703	19244.41853
595.906	18887.45944
596.109	19185.59273
596.311	18921.93297
596.514	19153.13859
596.717	19252.53271
596.92	19469.61141
597.122	19278.90423
597.325	19422.94564
597.528	19183.56431
597.73	19607.59267
597.933	19090.26166
598.136	19362.08053
598.338	19325.56325
598.541	19516.27939
598.743	19406.71458
598.946	19514.2503
599.148	19471.64041
599.351	19475.69842
599.554	19723.26831
599.756	19560.92038
599.959	19534.54137
600.161	19449.32168
600.363	19528.45401
600.566	19256.58982
600.768	19692.82604
600.971	19725.29783
601.173	19441.2059
601.376	19487.87253
601.578	19228.19038
601.78	19128.79867
601.983	19524.39578
602.185	19601.50486
602.388	19812.5711
602.59	19370.19566
602.792	19347.87921
602.995	19370.19566
603.197	19467.58242
603.399	19875.49384
603.601	19475.69842
603.804	19891.73263
604.006	19577.15397
604.208	19451.35063
604.41	19291.07594
604.613	19601.50486
604.815	19926.24094
605.017	20048.04469
605.219	19493.95965
605.421	19337.73553
605.623	19889.70277
605.826	20027.74301
606.028	19920.15115
606.23	19808.5117
606.432	19962.78047
606.634	20048.04469
606.836	20041.95414
607.038	20131.28595
607.24	19711.09129
607.442	20200.32066
607.644	19948.57049
607.846	20364.80528
608.048	20068.34678
608.25	20117.07353
608.452	19836.92781
608.654	19887.67291
608.856	19666.44349
609.058	19664.4141
609.26	19619.76842
609.462	19873.46402
609.664	19755.74111
609.866	19824.74938
610.067	19808.5117
610.269	20090.67957
610.471	19944.51054
610.673	20035.86363
610.875	19910.00158
611.077	20161.74184
611.278	20082.5585
611.48	20117.07353
611.682	19822.71965
611.884	20376.99042
612.085	20305.91256
612.287	20269.36023
612.489	19946.54051
612.69	19863.31493
612.892	20374.95956
613.094	20421.67057
613.295	19771.97791
613.497	20086.61903
613.699	19989.17098
613.9	19979.0207
614.102	20013.53209
614.304	20017.59233
614.505	20171.89402
614.707	20364.80528
614.908	20064.28633
615.11	20072.40725
615.311	20184.07677
615.513	20275.45219
615.714	20230.7787
615.916	20127.22524
616.117	20039.92396
616.319	19865.34474
616.52	19814.6008
616.722	20180.01583
616.923	20397.29933
617.124	20139.40743
617.326	19723.26831
617.527	20318.09697
617.729	20086.61903
617.93	20393.23752
618.131	20464.32169
618.333	20226.71757
618.534	20504.94352
618.735	20131.28595
618.937	20009.47186
619.138	20320.12772
619.339	20115.0432
619.54	20332.31231
619.742	20117.07353
619.943	19954.66046
620.144	20372.92869
620.345	20569.94194
620.546	19918.12123
620.748	20312.00475
620.949	20626.81906
621.15	20236.87042
621.351	20529.31743
621.552	20320.12772
621.753	20155.65059
621.954	20576.03576
622.155	20001.35146
622.356	20169.86358
622.558	20188.13771
622.759	20515.09924
622.96	19952.63047
623.161	20135.34669
623.362	19840.98732
623.563	20088.6493
623.764	19974.96062
623.965	20240.93159
624.166	20358.71277
624.366	20417.60865
624.567	20322.15848
624.768	20448.07343
624.969	20019.62246
625.17	20220.62592
625.371	20222.65646
625.572	20541.50461
625.773	20102.86131
625.973	20419.63961
626.174	20693.857
626.375	20663.38464
626.576	20580.09833
626.777	20525.25507
626.977	20496.81902
627.178	20385.11394
627.379	19910.00158
627.58	20318.09697
627.78	20236.87042
627.981	20165.8027
628.182	20450.10445
628.382	20281.54419
628.583	20293.7283
628.784	20387.14482
628.984	20070.37701
629.185	20234.83984
629.386	20115.0432
629.586	20283.57487
629.787	20446.04241
629.987	20632.91323
630.188	20439.9494
630.388	20488.69459
630.589	19987.14092
630.79	20425.7325
630.99	20135.34669
631.191	20523.2239
631.391	20444.0114
631.591	20330.28153
631.792	20041.95414
631.992	20301.85112
632.193	20504.94352
632.393	20446.04241
632.594	20305.91256
632.794	20606.50542
632.994	20580.09833
633.195	20888.90217
633.395	20283.57487
633.595	20476.50807
633.796	20919.38142
633.996	21075.85614
634.196	20864.51944
634.397	20923.44539
634.597	20771.05781
634.797	21043.33991
634.997	20704.01466
635.198	20740.58309
635.398	20604.47408
635.598	20886.87026
635.798	20616.66219
635.998	20641.03885
636.199	20592.28613
636.399	20732.45666
636.599	20330.28153
636.799	20905.15766
636.999	20366.83613
637.199	20632.91323
637.399	20649.16453
637.599	20626.81906
637.799	20303.88184
637.999	20771.05781
638.199	20312.00475
638.399	20405.42301
638.599	20360.7436
638.799	20472.44592
638.999	20338.40466
639.199	20819.81931
639.399	20616.66219
639.599	20649.16453
639.799	20657.29029
639.999	20882.80643
640.199	20618.69355
640.399	20405.42301
640.599	20204.38168
640.799	21010.82473
640.998	20949.8616
641.198	21116.50289
641.398	20929.54138
641.598	21472.23106
641.798	21240.48554
641.997	21309.59716
642.197	21175.44358
642.397	21209.9966
642.597	20742.61471
642.796	20860.45571
642.996	20693.857
643.196	21063.66243
643.395	20456.19753
643.595	20986.43904
643.795	20811.69223
643.994	20850.29645
644.194	20935.6374
644.394	21000.66395
644.593	20992.5354
644.793	21165.28115
644.992	21037.24323
645.192	21451.90042
645.392	20966.11807
645.591	20949.8616
645.791	21193.73621
645.99	21094.14697
646.19	20689.79396
646.389	20608.53677
646.589	21035.21102
646.788	21246.58344
646.987	20803.56521
647.187	21140.89172
647.386	21094.14697
647.586	21035.21102
647.785	21033.1788
647.984	21374.64764
648.184	21315.69547
648.383	21252.68137
648.582	21275.04077
648.782	21423.4382
648.981	21214.06174
649.18	21260.812
649.38	21616.58997
649.579	21860.62179
649.778	21596.25652
649.977	21514.92669
650.177	21362.45037
650.376	21531.19215
650.575	21181.54108
650.774	21462.06569
650.973	21043.33991
651.173	21317.72825
651.372	21264.87734
651.571	21455.96652
651.77	21234.38768
651.969	21714.19597
652.168	21386.84507
652.367	21309.59716
652.566	21258.77934
652.765	21281.13887
652.964	21244.5508
653.163	21380.74634
653.362	21586.08995
653.561	21266.91002
653.76	21417.33926
653.959	21171.37859
654.158	21435.6362
654.357	20911.25353
654.556	20799.50173
654.755	21665.39184
654.954	21344.15472
655.153	20978.3106
655.352	20903.12571
655.551	21193.73621
655.749	21321.79381
655.948	20827.94646
656.147	21411.24035
656.346	21175.44358
656.545	21201.86637
656.743	21220.15948
656.942	21116.50289
657.141	21435.6362
657.34	21372.61475
657.538	21699.9612
657.737	21606.4232
657.936	22104.70899
658.135	21161.2162
658.333	21285.20429
658.532	21514.92669
658.731	21527.12576
658.929	21140.89172
659.128	21228.28986
659.326	21327.89219
659.525	21643.02404
659.724	21258.77934
659.922	21122.60004
660.121	21411.24035
660.319	21632.85701
660.518	21691.82713
660.716	21411.24035
660.915	21244.5508
661.113	21297.40065
661.312	21325.8594
661.51	21466.13182
661.709	21240.48554
661.907	21484.42963
662.105	21075.85614
662.304	21488.49585
662.502	21693.86065
662.701	21736.56528
662.899	21691.82713
663.097	21789.44007
663.296	21435.6362
663.494	21382.77924
663.692	21207.96404
663.891	21142.92415
664.089	21655.2246
664.287	21482.39652
664.485	21281.13887
664.684	21291.30245
664.882	21057.56563
665.08	21547.45786
665.278	21577.95676
665.476	21293.33518
665.675	21258.77934
665.873	21571.85691
666.071	21303.49889
666.269	21529.15895
666.467	21333.99061
666.665	21523.05938
666.863	21449.86738
667.061	21649.1243
667.259	21246.58344
667.457	21775.20429
667.655	21665.39184
667.853	21638.95722
668.051	21264.87734
668.249	21405.14147
668.447	21551.52433
668.645	21258.77934
668.843	21394.97676
669.041	21246.58344
669.239	21228.28986
669.437	21110.40577
669.635	21110.40577
669.833	21382.77924
670.031	21303.49889
670.229	21376.68054
670.426	21464.09875
670.624	21573.89019
670.822	21545.42463
671.02	21616.58997
671.218	21399.04263
671.415	21309.59716
671.613	20781.21626
671.811	20909.22157
672.009	21016.92125
672.206	21417.33926
672.404	21195.76874
672.602	21327.89219
672.799	21277.07346
672.997	21303.49889
673.195	21419.37223
673.392	21378.71344
673.59	20960.02187
673.788	21273.00807
673.985	21075.85614
674.183	21281.13887
674.38	21063.66243
674.578	20976.2785
674.775	20984.40692
674.973	20931.57338
675.17	21399.04263
675.368	21220.15948
675.565	20984.40692
675.763	21427.50418
675.96	20964.086
676.158	21364.48324
676.355	21098.21165
676.553	21199.83383
676.75	20880.77453
676.947	20754.80451
677.145	20925.47738
677.342	21191.70368
677.539	20980.3427
677.737	21165.28115
677.934	21027.08219
678.131	21242.51817
678.329	20870.61507
678.526	20876.71073
678.723	20762.93113
678.92	20842.16912
679.118	20484.6324
679.315	20714.17242
679.512	20456.19753
679.709	20787.31138
679.906	20756.83616
680.104	20856.39199
680.301	20641.03885
680.498	20368.86698
680.695	20423.70153
680.892	20699.95158
681.089	20531.34861
681.286	20716.20399
681.483	20062.25611
681.68	20899.06182
681.877	20401.36116
682.075	20297.7897
682.272	20344.49705
682.469	21073.82384
682.665	20769.02614
682.862	21041.30768
683.059	20458.22856
683.256	20608.53677
683.453	20710.1093
683.65	20582.12962
683.847	20610.56812
684.044	20563.84815
684.241	20271.39088
684.438	20318.09697
684.635	19910.00158
684.831	20338.40466
685.028	20234.83984
685.225	20897.02988
685.422	20600.41142
685.619	20287.63623
685.815	20238.901
686.012	20456.19753
686.209	20159.71142
686.405	20220.62592
686.602	20149.55938
686.799	20444.0114
686.996	20466.35274
687.192	20458.22856
687.389	20080.52824
687.586	20188.13771
687.782	19976.99066
687.979	20080.52824
688.175	19958.72046
688.372	20553.69193
688.568	20238.901
688.765	20383.08305
688.962	20281.54419
689.158	20259.20705
689.355	20299.82041
689.551	20080.52824
689.748	19544.68706
689.944	19993.23113
690.14	19883.6132
690.337	19932.33077
690.533	20129.2556
690.73	19603.53413
690.926	19690.79658
691.123	19875.49384
691.319	19946.54051
691.515	19711.09129
691.712	19556.86203
691.908	19946.54051
692.104	19759.80029
692.301	19940.4506
692.497	19782.12605
692.693	19962.78047
692.889	19816.63051
693.086	19749.65238
693.282	19871.43419
693.478	19824.74938
693.674	19843.01708
693.87	19824.74938
694.067	20043.98432
694.263	19638.03231
694.459	19747.62281
694.655	19763.85948
694.851	19607.59267
695.047	19498.01775
695.243	19621.79772
695.439	19301.21915
695.635	19396.5703
695.831	19784.15569
696.027	19887.67291
696.224	19804.45233
696.42	19307.30512
696.615	19605.5634
696.811	19498.01775
697.007	19625.85634
697.203	19355.99422
697.399	18976.68744
697.595	18925.98876
697.791	19104.45933
697.987	18911.79357
698.183	19090.26166
698.379	18820.54352
698.575	19155.16694
698.77	18936.12829
698.966	18887.45944
699.162	18745.52174
699.358	18686.72467
699.554	18717.13654
699.749	19049.69798
699.945	18984.79946
700.141	18715.10905
700.337	18974.65945
700.532	19218.04792
700.728	19124.74207
700.924	19193.70643
701.119	19051.72613
701.315	19037.52919
701.511	19151.11024
701.706	19526.42489
701.902	19224.13338
702.097	19333.67809
702.293	19130.82697
702.489	18745.52174
702.684	18656.31369
702.88	19031.44485
703.075	18844.87608
703.271	18897.59859
703.466	18913.82145
703.662	18773.90772
703.857	18603.60341
704.053	18897.59859
704.248	18986.82748
704.443	18773.90772
704.639	18423.19186
704.834	18956.40766
705.03	18717.13654
705.225	18842.84834
705.42	18656.31369
705.616	18721.19152
705.811	18855.01481
706.006	18824.59891
706.202	18814.46047
706.397	18751.60439
706.592	18846.90382
706.787	18834.73744
706.983	18435.35348
707.178	18812.4328
707.373	18733.35656
707.568	18925.98876
707.763	18548.86859
707.959	18585.35815
708.154	18615.76708
708.349	18441.43434
708.544	18366.43943
708.739	18838.79289
708.934	18350.225
709.129	18184.04084
709.324	18406.97658
709.519	18552.92292
709.714	18165.80263
709.909	18463.73113
710.104	18439.40739
710.299	18425.21879
710.494	18650.2316
710.689	18315.77013
710.884	18234.70409
711.079	18980.74344
711.274	18532.65141
711.469	18938.15621
711.664	18676.58758
711.859	18654.28632
712.054	18800.26683
712.249	18409.00347
712.443	18139.45907
712.638	18498.19071
712.833	18066.51088
713.028	18634.01286
713.223	18214.43851
713.417	17948.99301
713.612	18165.80263
713.807	18652.25896
714.002	17991.5412
714.196	18042.19585
714.391	17932.78459
714.586	17942.91483
714.78	17946.96695
714.975	18036.11717
715.17	18011.80279
715.364	17910.49837
715.559	18025.98612
715.754	17521.56881
715.948	17630.94286
716.143	17795.02195
716.337	17910.49837
716.532	18048.27456
716.726	18115.14248
716.921	17944.94088
717.115	17845.66812
717.31	17906.44637
717.504	17634.99394
717.699	18117.16884
717.893	17681.58222
718.088	17904.42038
718.282	17776.78985
718.476	17596.50927
718.671	17493.2141
718.865	18171.882
719.059	17574.22921
719.254	18175.93493
719.448	17780.84141
719.642	17493.2141
719.837	17440.557
720.031	17663.35182
720.225	17310.94842
720.419	17699.8129
720.614	17495.23941
720.808	17847.69402
721.002	17191.4764
721.196	17594.4838
721.39	17665.3774
721.585	17517.5181
721.779	17298.79825
721.973	17076.06382
722.167	17057.84162
722.361	17092.26153
722.555	17349.42466
722.749	17639.04502
722.943	17256.27351
723.137	16989.00416
723.331	17007.22553
723.525	17029.4964
723.719	17067.96504
723.913	17086.18737
724.107	16561.87268
724.301	16901.94944
724.495	17005.20093
724.689	17169.20308
724.883	17221.84968
725.077	17183.37698
725.271	17448.65795
725.465	17284.6232
725.659	17256.27351
725.853	17335.24908
726.046	17043.66894
726.24	17080.11323
726.434	16966.73388
726.628	17092.26153
726.822	16636.76485
727.015	16908.02287
727.209	16701.53896
727.403	17031.52104
727.596	16687.36942
727.79	16845.26522
727.984	16691.41785
728.177	17013.29937
728.371	16991.02875
728.565	17007.22553
728.758	16920.16979
728.952	16871.58265
729.146	16440.43219
729.339	16912.07183
729.533	17065.94035
729.726	17357.52506
729.92	17250.19866
730.113	17233.99917
730.307	17424.35523
730.5	17225.8995
730.694	16845.26522
730.887	16705.58742
731.081	16812.87513
731.274	16665.10323
731.468	16695.46629
731.661	17296.77324
731.854	16701.53896
732.048	16871.58265
732.241	16659.03068
732.435	17130.7318
732.628	17209.70029
732.821	17043.66894
733.014	16857.41167
733.208	16857.41167
733.401	16816.92385
733.594	16918.1453
733.788	16715.70862
733.981	16944.46393
734.174	16707.61166
734.367	16887.7782
734.56	16711.66013
734.754	16610.45104
734.947	16464.71969
735.14	16363.52368
735.333	16628.66825
735.526	16689.39363
735.719	16521.39167
735.912	16691.41785
736.105	16634.7407
736.298	16855.38726
736.491	16699.51473
736.684	16588.1858
736.877	16764.29117
737.07	16547.70423
737.263	16596.28222
737.456	16857.41167
737.649	16590.2099
737.842	16727.85413
738.035	16812.87513
738.228	16889.80265
738.421	16592.234
738.614	16756.19398
738.807	16632.71655
739	16391.85806
739.192	16260.3087
739.385	16151.02728
739.578	16151.02728
739.771	16207.6911
739.964	16290.66555
740.156	16391.85806
740.349	15948.66647
740.542	16507.22352
740.735	16531.51184
740.927	16391.85806
741.12	16335.18967
741.313	16179.35903
741.505	16559.84861
741.698	16446.50404
741.891	16136.86153
742.083	15849.5147
742.276	15823.20962
742.468	15839.39734
742.661	16076.15204
742.854	15960.80771
743.046	16106.50661
743.239	16272.45139
743.431	16256.26115
743.624	15974.97256
743.816	15689.66355
744.009	15513.63151
744.201	15463.04857
744.393	15728.10818
744.586	15877.84348
744.778	15744.2955
744.971	15976.99611
745.163	15916.29005
745.355	15764.52973
745.548	15740.24866
745.74	15811.06888
745.932	15821.18616
746.125	15592.54171
746.317	15661.33614
746.509	15614.79863
746.702	15720.01455
746.894	15594.56506
747.086	15541.95813
747.278	15677.52321
747.471	15960.80771
747.663	15756.43603
747.855	15950.69001
748.047	15728.10818
748.239	15983.06679
748.431	16009.37318
748.623	15843.44428
748.815	15384.13982
749.008	15853.56166
749.2	16037.70341
749.392	15776.67033
749.584	15596.58841
749.776	15693.71034
749.968	15633.00891
750.16	15792.85784
750.352	15327.48778
750.544	15548.02813
750.736	15616.82199
750.928	15724.06136
751.12	15592.54171
751.311	15515.65484
751.503	15736.20183
751.695	15853.56166
751.887	15614.79863
752.079	15687.64016
752.271	15177.76543
752.463	15584.4483
752.654	15568.26153
752.846	15552.07481
753.038	15238.46358
753.23	15218.23085
753.421	15159.556
753.613	15384.13982
753.805	15461.02526
753.997	15436.74557
754.188	15465.07188
754.38	15515.65484
754.572	15305.23169
754.763	15598.61177
754.955	15628.96217
755.146	15582.42496
755.338	15185.85852
755.53	15242.51012
755.721	15110.9975
755.913	15396.27958
756.104	15076.60186
756.296	15329.51106
756.487	15376.04666
756.679	15339.62748
756.87	15003.76385
757.062	15307.25497
757.253	15187.88179
757.445	14896.52936
757.636	14989.60087
757.827	15092.78804
758.019	14906.64587
758.21	14769.06
758.401	14765.01331
758.593	14669.91511
758.784	14627.42375
758.975	14728.59295
759.167	14445.31213
759.358	14562.6741
759.549	14471.61779
759.74	14756.91992
759.932	14495.89974
760.123	14831.78334
760.314	14738.70975
760.505	14386.62936
760.696	14283.42534
760.888	14510.06411
761.079	14329.96888
761.27	14732.63967
761.461	14421.02976
761.652	14295.56722
761.843	14224.73863
762.034	14394.72361
762.225	13923.18213
762.416	14287.47264
762.607	14095.2172
762.798	14508.04063
762.989	14309.73267
763.18	14291.51993
763.371	14184.2641
763.562	14032.47703
763.753	13983.90242
763.944	14046.64436
764.135	13927.23022
764.326	14283.42534
764.517	14050.69215
764.708	14137.71737
764.899	14038.54876
765.089	13878.65241
765.28	14319.85079
765.471	13985.92639
765.662	14014.26172
765.853	13994.02225
766.043	13556.78106
766.234	13793.63738
766.425	13625.61575
766.615	13506.1647
766.806	13819.95209
766.997	14107.3602
767.187	14002.11807
767.378	14246.99929
767.569	13874.60419
767.759	13670.15375
767.95	13710.64147
768.141	13605.37067
768.331	13534.51014
768.522	13398.85031
768.712	13303.67544
768.903	13317.851
769.093	13056.58097
769.284	13313.80086
769.474	13323.92617
769.665	13014.04128
769.855	13095.06741
770.046	13421.124
770.236	13163.93362
770.426	13453.52125
770.617	13437.32275
770.807	13198.36472
770.998	13099.11852
771.188	13137.60306
771.378	13293.54992
771.569	13182.16201
771.759	13226.71877
771.949	13216.59242
772.139	13242.92069
772.33	12839.80758
772.52	12663.50668
772.71	12878.30443
772.9	12953.26645
773.09	13327.97627
773.281	13093.04186
773.471	12985.68026
773.661	12935.03311
773.851	12957.31825
774.041	12884.3827
774.231	12710.11921
774.421	12695.93312
774.611	12677.69344
774.802	12326.98775
774.992	12614.86416
775.182	12503.37829
775.372	12856.01702
775.562	12708.09264
775.752	12797.25613
775.942	12734.43755
776.131	12874.25222
776.321	12290.48671
776.511	12659.45327
776.701	12335.09879
776.891	12191.11108
777.081	12087.66051
777.271	12324.95998
777.461	12051.14381
777.651	12164.74318
777.84	12333.07104
778.03	12418.23056
778.22	12174.88482
778.41	12282.37506
778.599	11984.18997
778.789	11967.95743
778.979	12247.89927
779.169	12324.95998
779.358	12602.70298
779.548	12399.9831
779.738	12191.11108
779.927	12481.07881
780.117	12205.30866
780.307	12387.81782
780.496	11947.66604
780.686	12292.51461
780.875	12000.422
781.065	12059.25885
781.254	12063.31632
781.444	12134.31711
781.633	12026.79795
781.823	11978.10283
782.012	12083.60322
782.202	12095.77499
782.391	11961.8701
782.581	11941.57846
782.77	11456.35232
782.96	11303.97531
783.149	11053.95243
783.338	11649.2857
783.528	11539.62866
783.717	11679.74128
783.906	11659.43778
784.096	11525.41187
784.285	11570.09165
784.474	11704.10429
784.663	11395.40818
784.853	11513.22569
785.042	11381.18661
785.231	11368.99631
785.42	11218.61948
785.61	11417.75538
785.799	11175.93472
785.988	11379.15492
786.177	11003.11494
786.366	11379.15492
786.555	11188.13083
786.744	11354.77384
786.933	11206.4243
787.122	11086.48483
787.312	10978.71049
787.501	11064.1191
787.69	11153.57418
787.879	11545.72142
788.068	10840.38786
788.257	10909.55577
788.445	10645.01685
788.634	11251.13813
788.823	11214.55446
789.012	11342.58277
789.201	11153.57418
789.39	11125.11345
789.579	11070.21898
789.768	10986.84548
789.957	11092.58434
790.145	10891.24791
790.334	10752.89153
790.523	10693.86997
790.712	10410.82934
790.9	10775.27639
791.089	10954.30443
791.278	10893.28216
791.467	10616.51594
791.655	10840.38786
791.844	10476.01143
792.033	10626.69511
792.221	10649.08821
792.41	11023.45076
792.599	10339.52114
792.787	10960.40609
792.976	10803.76414
793.164	10614.48007
793.353	10555.43438
793.541	10836.31875
793.73	10948.20266
793.918	10958.37222
794.107	10339.52114
794.295	10740.681
794.484	10545.25303
794.672	10539.14406
794.861	10382.30799
795.049	10473.97469
795.238	10433.23718
795.426	10588.01261
795.614	10530.9986
795.803	10143.84866
795.991	10418.97783
796.179	10170.35335
796.368	10052.08343
796.556	10154.04305
796.744	9801.1099
796.932	10045.96473
797.121	9805.19255
797.309	10103.06762
797.497	10200.93277
797.685	10473.97469
797.874	10088.79294
798.062	10355.82158
798.25	10052.08343
798.438	10205.0098
798.626	10286.53883
798.814	10050.04387
799.002	9952.12855
799.19	9864.38432
799.378	9805.19255
799.566	9980.69061
799.755	9623.45553
799.943	9831.72834
800.131	9731.69553
800.318	9839.8927
800.506	9919.4827
800.694	9935.80609
800.882	9607.11364
801.07	9829.68722
801.258	9821.52257
801.446	10029.64757
801.634	9833.76946
801.822	9960.28943
802.01	9776.6127
802.197	9917.44221
802.385	9772.52963
802.573	9656.13633
802.761	9731.69553
802.949	9878.67012
803.136	9690.85533
803.324	9792.94441
803.512	10019.44889
803.699	9923.56364
803.887	9782.7372
804.075	9897.03651
804.262	9797.02718
804.45	9821.52257
804.638	9696.98175
804.825	9841.93375
805.013	9523.34564
805.201	10045.96473
805.388	9921.52318
805.576	10072.47817
805.763	10068.39933
805.951	9943.96744
806.138	9972.53031
806.326	9890.91451
806.513	9864.38432
806.701	9888.87382
806.888	9788.86157
807.075	10035.76661
807.263	9707.19215
807.45	9980.69061
807.638	9660.22115
807.825	9731.69553
808.012	9758.23838
808.2	9899.07715
808.387	9888.87382
808.574	10029.64757
808.761	9837.85163
808.949	10082.675
809.136	10096.94999
809.323	10249.85345
809.51	10009.24984
809.698	10147.92646
809.885	9768.44649
810.072	9866.4252
810.259	9952.12855
810.446	9807.23385
810.633	9825.60492
810.82	10184.62413
811.008	10255.96798
811.195	10060.24149
811.382	9827.64608
811.569	9997.01052
811.756	9666.34826
811.943	10005.17013
812.13	9813.35768
812.317	9615.28471
812.504	9537.64938
812.691	9611.19921
812.878	9474.29834
813.064	9839.8927
813.251	9923.56364
813.438	9911.32066
813.625	9545.82259
813.812	9511.08468
813.999	9739.86283
814.186	9758.23838
814.372	9694.93963
814.559	9943.96744
814.746	9658.17875
814.933	9792.94441
815.12	9813.35768
815.306	9741.90462
815.493	9519.25872
815.68	9625.4982
815.866	9273.9248
816.053	9768.44649
816.24	9627.54085
816.426	9717.40216
816.613	9486.56103
816.799	9660.22115
816.986	9656.13633
817.173	9937.84645
817.359	9574.42684
817.546	9678.60207
817.732	9361.86319
817.919	9437.50678
818.105	9502.91038
818.292	9827.64608
818.478	9617.32744
818.665	9868.46605
818.851	9529.47591
819.037	9560.12511
819.224	9666.34826
819.41	9494.73583
819.597	9220.73779
819.783	9639.79643
819.969	9300.51406
820.156	9271.87935
820.342	9468.16677
820.528	9443.63907
820.714	9417.06477
820.901	9713.3182
821.087	9304.60446
821.273	9745.98815
821.459	9388.44322
821.646	9535.60604
821.832	9175.7245
822.018	9441.59499
822.204	8981.25354
822.39	9188.00167
822.576	9333.23545
822.762	9224.8295
822.948	9175.7245
823.134	9331.19048
823.32	8868.59281
823.507	9445.68314
823.693	9081.57912
823.879	9177.77074
824.065	9059.0607
824.25	9267.78841
824.436	9040.63497
824.622	9282.10641
824.808	9273.9248
824.994	9437.50678
825.18	9167.53938
825.366	9298.46883
825.552	8872.69051
825.738	9009.92228
825.923	8811.21747
826.109	8897.2752
826.295	8809.16809
826.481	8884.98318
826.667	8649.26003
826.852	9126.6097
827.038	8778.42519
827.224	8868.59281
827.409	8735.37825
827.595	8868.59281
827.781	8554.90243
827.966	8999.68384
828.152	8571.3153
828.338	9003.77927
828.523	8774.32583
828.709	8880.8857
828.894	8626.69986
829.08	8774.32583
829.266	8653.36164
829.451	8567.21219
829.637	8563.10901
829.822	8677.96972
830.008	8298.29265
830.193	8495.39564
830.378	8696.42404
830.564	8901.3724
830.749	8548.74729
830.935	8757.92765
831.12	8534.38464
831.305	8653.36164
831.491	8384.54712
831.676	8483.08189
831.861	8478.97716
832.047	8651.31084
832.232	8435.87284
832.417	8382.49384
832.602	8183.23289
832.788	8511.8129
832.973	8248.9889
833.158	8290.07615
833.343	8384.54712
833.528	8522.07307
833.714	8288.02197
833.899	8232.5518
834.084	7903.54048
834.269	8111.28893
834.454	8008.4691
834.639	8240.77051
834.824	8074.27961
835.009	8265.42474
835.194	8273.64219
835.379	8520.02107
835.564	8010.526
835.749	8271.58786
835.934	7952.92529
836.119	8008.4691
836.304	7557.51058
836.489	7825.32355
836.674	7592.55263
836.859	7730.5997
837.044	7755.31454
837.228	7617.28448
837.413	7705.88183
837.598	7850.02687
837.783	7617.28448
837.968	8191.4535
838.152	7870.61068
838.337	8111.28893
838.522	8096.89719
838.707	8057.82893
838.891	7870.61068
839.076	7742.9575
839.261	7590.4915
839.445	7895.30852
839.63	7662.61825
839.815	7959.09756
839.999	7588.43035
840.184	7798.55825
840.368	7765.6115
840.553	7870.61068
840.737	7518.3386
840.922	7707.94177
841.106	7582.24678
841.291	7689.40156
841.475	7549.26449
841.66	7870.61068
841.844	7450.28461
842.029	7623.46696
842.213	7452.34719
842.397	7499.78075
842.582	7355.38208
842.766	7532.77128
842.951	7229.46173
843.135	7520.40048
843.319	7188.15851
843.504	7276.9495
843.688	7219.13675
843.872	7233.59156
844.056	7111.72417
844.241	7260.43334
844.425	7252.17473
844.609	7095.19381
844.793	7014.58782
844.977	6921.53841
845.161	6780.84337
845.346	6882.23714
845.53	6857.41106
845.714	6880.16842
845.898	6758.07398
846.082	7039.3933
846.266	6727.02035
846.45	6913.26514
846.634	6797.40119
846.818	6824.30454
847.002	6929.81132
847.186	7010.45326
847.37	6747.72334
847.554	6642.11408
847.738	6640.04272
847.922	6778.77354
848.106	6606.8977
848.29	6706.31506
848.473	6615.18451
848.657	6702.17373
848.841	6687.67834
849.025	6650.39932
849.209	6724.94992
849.392	6710.4563
849.576	6633.82848
849.76	6878.09969
849.944	6478.4049
850.127	6650.39932
850.311	6476.33171
850.495	6654.5418
850.678	6428.64182
850.862	6511.57286
851.046	6241.91069
851.229	6318.70083
851.413	6426.56807
851.596	6565.45813
851.78	6486.69745
851.964	6571.67466
852.147	6376.79103
852.331	6606.8977
852.514	6260.59232
852.698	6167.16517
852.881	6133.93517
853.065	6327.00055
853.248	6250.21387
853.431	6602.75416
853.615	6200.38915
853.798	6316.62585
853.982	6283.42285
854.165	6295.87468
854.348	6160.935
854.532	6302.10027
854.715	6138.08925
854.898	6057.06777
855.081	5869.95839
855.265	5994.71919
855.448	5786.73735
855.631	6063.30146
855.814	5815.86901
855.997	5992.64054
856.181	5876.19845
856.364	6175.47173
856.547	5919.8729
856.73	5880.35837
856.913	5634.7616
857.096	5753.43836
857.279	5747.19413
857.462	5817.94967
857.645	5641.00966
857.828	5726.37848
858.011	5751.35697
858.194	5743.03118
858.377	5636.84431
858.56	5884.5182
858.743	5670.16445
858.926	5797.14205
859.109	5559.76837
859.292	5566.01897
859.475	5438.88173
859.658	5880.35837
859.841	5451.39091
860.023	5551.4339
860.206	5178.08169
860.389	5699.31461
860.572	5342.94987
860.755	5545.18281
860.937	5157.20192
861.12	5420.11636
861.303	5307.48424
861.486	5661.83498
861.668	5317.91601
861.851	5351.29374
862.034	5063.21417
862.216	5418.0312
862.399	5031.87448
862.581	5010.97847
862.764	4824.90266
862.947	5121.70096
863.129	4818.62728
863.312	4964.99913
863.494	4835.36116
863.677	5130.05473
863.859	4850.00211
864.042	5042.32162
864.224	5027.69547
864.406	5175.99382
864.589	4690.98366
864.771	4879.28066
864.954	4483.6465
865.136	4816.53544
865.318	4481.55108
865.501	4908.55471
865.683	4707.7286
865.865	4757.95476
866.048	4682.61065
866.23	4803.98394
866.412	4642.83394
866.594	4921.09936
866.777	4527.64532
866.959	4776.78621
867.141	4623.98951
867.323	4916.91791
867.505	4678.42401
867.687	4950.367
867.869	4657.48946
868.052	4816.53544
868.234	4538.11979
868.416	4881.37181
868.598	4617.70763
868.78	4891.82723
868.962	4609.33148
869.144	4797.70788
869.326	4674.23728
869.508	4718.19346
869.69	4747.49205
869.872	4435.44617
870.054	4372.55878
870.236	4364.17231
870.417	4248.82336
870.599	4594.67235
870.781	4368.36559
870.963	4567.44537
871.145	4301.26277
871.327	4401.90867
871.508	4248.82336
871.69	4359.97895
871.872	4288.67853
872.054	4644.92765
872.235	4393.52342
872.417	4640.7402
872.599	4387.23426
872.78	4515.07522
872.962	4473.16916
873.144	4494.12329
873.325	4393.52342
873.507	4385.13782
873.689	4391.42705
873.87	4659.58301
874.052	4483.6465
874.233	4510.88501
874.415	4292.87336
874.596	4653.30228
874.778	4353.68874
874.959	4661.67655
875.141	4508.78988
875.322	4628.17731
875.503	4229.9419
875.685	4380.9449
875.866	4156.49765
876.048	4521.36037
876.229	4202.66563
876.41	4439.63796
876.592	4299.16545
876.773	4489.93264
876.954	4181.68145
877.136	4548.59371
877.317	4173.28719
877.498	4582.10652
877.679	4290.77596
877.86	4655.39588
878.042	4454.30855
878.223	4571.63438
878.404	4261.41004
878.585	4395.61977
878.766	4187.97693
878.947	4391.42705
879.128	4347.39833
879.309	4053.63246
879.49	4225.74578
879.672	4406.10116
879.853	4112.4187
880.034	4362.07564
880.215	3986.42834
880.396	4309.65183
880.576	4080.9281
880.757	4221.54958
880.938	4074.62942
881.119	4332.71997
881.3	4179.58292
881.481	4255.11679
881.662	4101.92236
881.843	4349.49516
882.023	4062.03149
882.204	4110.31948
882.385	3902.39382
882.566	4315.9434
882.747	4099.82303
882.927	4368.36559
883.108	4223.64769
883.289	4385.13782
883.469	4489.93264
883.65	4615.61362
883.831	4280.28861
884.011	4693.07686
884.192	4437.54208
884.373	4548.59371
884.553	4104.02167
884.734	4414.48589
884.914	4481.55108
885.095	4450.11707
885.275	4280.28861
885.456	4263.50774
885.636	4173.28719
885.817	4326.42892
885.997	4177.48436
886.178	4492.02798
886.358	4246.7255
886.538	4598.86079
886.719	4414.48589
886.899	4523.45538
887.08	4462.69126
887.26	4921.09936
887.44	4378.8484
887.621	4684.70394
887.801	4575.8233
887.981	4816.53544
888.161	4569.53988
888.342	4439.63796
888.522	4213.15693
888.702	4456.40426
888.882	4171.18857
889.062	4200.56731
889.242	4097.72367
889.423	4441.73383
889.603	4521.36037
889.783	4196.3706
889.963	4120.81541
890.143	4383.04137
890.323	4246.7255
890.503	4242.52973
890.683	4213.15693
890.863	4183.77996
891.043	3835.14303
891.223	4278.19108
891.403	4301.26277
891.583	4141.80569
891.763	3940.21337
891.943	3942.31426
892.122	3986.42834
892.302	4435.44617
892.482	4246.7255
892.662	4213.15693
892.842	4192.17381
893.022	4380.9449
893.201	4057.83202
893.381	4468.97806
893.561	4028.43339
893.741	4362.07564
893.92	3904.49508
894.1	4114.51791
894.28	4097.72367
894.459	4313.84623
894.639	4078.82856
894.819	4318.04055
894.998	3999.03072
895.178	3952.81843
895.357	4055.73225
895.537	4146.0035
895.716	3999.03072
895.896	4108.22023
896.075	3868.77098
896.255	3965.42276
896.434	4011.63235
896.614	4238.33387
896.793	3957.01995
896.973	3849.85589
897.152	3801.51002
897.331	3921.30441
897.511	3723.71445
897.69	3971.72465
897.87	3532.26801
898.049	3812.02088
898.228	3521.7445
898.407	3633.27022
898.587	3452.27786
898.766	3494.38121
898.945	3374.3678
899.124	3589.08704
899.304	3424.90683
899.483	3662.72105
899.662	3515.43017
899.841	3603.81568
900.02	3443.85633
900.199	3612.23164
900.378	3237.44109
900.557	3464.90962
900.737	3296.43377
900.916	3528.05866
901.095	3427.0124
901.274	3296.43377
901.453	3290.11376
901.632	3429.11795
901.811	3342.77578
901.989	3424.90683
902.168	3325.9251
902.347	3313.28637
902.526	3060.38563
902.705	3269.04596
902.884	2845.2428
903.063	3224.79809
903.242	3007.66895
903.42	3165.78955
903.599	2813.59142
903.778	3037.19147
903.957	2973.92527
904.135	3087.79446
904.314	3106.76825
904.493	3237.44109
904.672	2773.49522
904.85	2891.65909
905.029	2741.83686
905.207	2819.92195
905.386	2659.5113
905.565	2885.33
905.743	2562.38475
905.922	2834.69269
906.1	2359.60737
906.279	2566.60818
906.457	2384.95994
906.636	2634.17645
906.814	2515.92397
906.993	2518.03595
907.171	2296.21968
907.35	2427.21093
907.528	2125.03203
907.707	2378.62194
907.885	2175.76011
908.063	2480.01867
908.242	2116.5769
908.42	2215.91648
908.598	2046.81757
908.777	2165.19214
908.955	2082.7552
909.133	2203.23585
909.311	2042.58948
909.49	2346.93054
909.668	1894.59019
909.846	2135.60076
910.024	2067.9576
910.202	2317.34988
910.38	1924.19239
910.559	2382.84728
910.737	2211.68964
910.915	2429.32337
911.093	2222.25667
911.271	2380.73462
911.449	2152.51031
911.627	2389.18523
911.805	1913.6203
911.983	2188.4414
912.161	2232.82349
912.339	2325.80169
912.517	2173.64653
912.695	2317.34988
912.872	2279.31484
913.05	2317.34988
913.228	2173.64653
913.406	2300.4458
913.584	2169.41936
913.762	2522.25986
913.939	2338.47912
914.117	2397.63568
914.295	2207.46276
914.473	2304.67187
914.65	2093.32469
914.828	2317.34988
915.006	1981.27916
915.184	2218.02989
915.361	2156.73762
915.539	2503.25188
915.716	2325.80169
915.894	2378.62194
916.072	2086.98301
916.249	2203.23585
916.427	1945.33614
916.604	2093.32469
916.782	1979.16492
916.959	2169.41936
917.137	1987.62186
917.314	2055.27367
917.492	1818.46561
917.669	2106.00783
917.847	1778.28634
918.024	2127.14579
918.201	1843.84117
918.379	2139.82819
918.556	1814.23629
918.733	2025.67685
918.911	1892.4757
919.088	2053.15966
919.265	1824.80956
919.442	2002.42128
919.62	1843.84117
919.797	1985.50763
919.974	1784.63054
920.151	1924.19239
920.328	1636.59117
920.506	1831.15347
920.683	1683.11946
920.86	1784.63054
921.037	1573.14173
921.214	1869.21604
921.391	1676.77477
921.568	1818.46561
921.745	1678.88967
921.922	1839.61195
922.099	1579.48675
922.276	1869.21604
922.453	1693.69389
922.63	1759.25354
922.807	1566.7967
922.984	1634.47622
923.161	1562.56667
923.338	1824.80956
923.514	1522.38116
923.691	1645.05095
923.868	1323.56744
924.045	1456.8147
924.222	1247.42876
924.399	1391.24818
924.575	1389.13314
924.752	1532.95633
924.929	1397.59331
925.105	1619.67149
925.282	1310.87747
925.459	1410.28358
925.635	1209.36068
925.812	1327.79745
925.989	1302.41753
926.165	1420.85882
926.342	1251.65861
926.518	1285.49774
926.695	1145.91634
926.871	1370.09782
927.048	1177.63809
927.224	1268.5781
927.401	1035.95561
927.577	1310.87747
927.754	989.43826
927.93	1162.8345
928.107	1169.17887
928.283	1312.99246
928.459	1124.76903
928.636	1156.49016
928.812	1061.32993
928.988	1088.81965
929.165	1004.23891
929.341	1222.04993
929.517	995.78135
929.693	1116.31023
929.87	909.09773
930.046	864.70372
930.222	845.67884
930.398	1120.53962
930.574	890.07129
930.751	1080.36118
930.927	856.24813
931.103	1035.95561
931.279	947.15248
931.455	1099.39286
931.631	968.29503
931.807	955.60942
931.983	794.94937
932.159	917.55413
932.335	780.15429
932.511	1052.87173
932.687	680.82896
932.863	915.44002
933.039	723.09218
933.215	847.79268
933.391	784.38141
933.566	862.58981
933.742	731.54534
933.918	786.49498
934.094	651.24742
934.27	697.73371
934.445	617.44283
934.621	735.77199
934.797	482.25804
934.973	516.0489
935.148	509.71283
935.324	604.76693
935.5	431.57895
935.675	621.66823
935.851	507.60084
936.027	416.79924
936.202	353.46672
936.378	425.2447
936.553	298.59104
936.729	423.13331
936.904	264.82749
937.08	345.02353
937.255	309.14312
937.431	294.37034
937.606	271.15779
937.782	271.15779
937.957	250.05744
938.133	281.70867
938.308	172.00315
938.483	186.76807
938.659	182.54942
938.834	218.41053
939.009	254.27736
939.185	197.31505
939.36	197.31505
939.535	264.82749
939.71	180.44012
939.886	207.86254
940.061	144.58528
940.236	159.34831
940.411	93.97717
940.586	159.34831
940.761	110.84515
940.937	163.5665
941.112	134.0409
941.287	112.95374
941.462	104.51949
941.637	115.06236
941.812	153.02117
941.987	30.7351
942.162	161.45739
942.337	123.49705
942.512	115.06236
942.687	129.82329
942.862	98.19403
943.037	96.08559
943.212	77.11062
943.386	85.54372
943.561	123.49705
943.736	18.08919
943.911	68.67788
944.086	102.41098
944.26	127.71452
944.435	62.35357
944.61	89.7604
944.785	62.35357
944.959	100.3025
945.134	93.97717
945.309	161.45739
945.483	45.48974
945.658	106.62802
945.833	110.84515
946.007	79.21886
946.182	70.78603
946.357	102.41098
946.531	161.45739
946.706	102.41098
946.88	134.0409
947.055	85.54372
947.229	167.78478
947.404	77.11062
947.578	77.11062
947.752	172.00315
947.927	106.62802
948.101	64.46165
948.276	203.64348
948.45	85.54372
948.624	188.87742
948.799	178.33085
948.973	131.93208
949.147	77.11062
949.321	96.08559
949.496	123.49705
949.67	146.69422
949.844	136.14973
950.018	165.67563
950.193	174.11236
950.367	45.48974
950.541	140.36746
950.715	123.49705
950.889	26.51971
951.063	87.65205
951.237	72.8942
951.411	163.5665
951.585	98.19403
951.759	56.02946
951.933	68.67788
952.107	167.78478
952.281	93.97717
952.455	153.02117
952.629	102.41098
952.803	85.54372
952.977	115.06236
953.151	153.02117
953.325	85.54372
953.499	85.54372
953.672	58.13747
953.846	153.02117
954.02	91.86877
954.194	134.0409
954.368	136.14973
954.541	66.56975
954.715	127.71452
954.889	121.38835
955.062	93.97717
955.236	112.95374
955.41	22.3044
955.583	53.92147
955.757	186.76807
955.93	102.41098
956.104	153.02117
956.278	136.14973
956.451	60.24551
956.625	77.11062
956.798	163.5665
956.972	104.51949
957.145	144.58528
957.319	136.14973
957.492	119.27966
957.665	96.08559
957.839	26.51971
958.012	77.11062
958.185	102.41098
958.359	125.60578
958.532	153.02117
958.705	129.82329
958.879	64.46165
959.052	79.21886
959.225	110.84515
959.398	153.02117
959.572	75.0024
959.745	119.27966
959.918	127.71452
960.091	110.84515
960.264	28.62739
960.438	186.76807
960.611	106.62802
960.784	64.46165
960.957	169.89395
961.13	60.24551
961.303	93.97717
961.476	100.3025
961.649	153.02117
961.822	62.35357
961.995	93.97717
962.168	121.38835
962.341	85.54372
962.514	60.24551
962.686	146.69422
962.859	100.3025
963.032	144.58528
963.205	13.87408
963.378	68.67788
963.551	87.65205
963.723	56.02946
963.896	127.71452
964.069	93.97717
964.242	53.92147
964.414	119.27966
964.587	115.06236
964.76	100.3025
964.932	115.06236
965.105	89.7604
965.278	106.62802
965.45	138.25859
965.623	155.13019
965.795	77.11062
965.968	62.35357
966.14	119.27966
966.313	110.84515
966.485	-2.98542
966.658	138.25859
966.83	127.71452
967.003	85.54372
967.175	51.8135
967.348	83.43541
967.52	136.14973
967.692	22.3044
967.865	115.06236
968.037	102.41098
968.209	110.84515
968.382	178.33085
968.554	9.65906
968.726	13.87408
968.898	81.32712
969.071	157.23924
969.243	51.8135
969.415	34.9506
969.587	112.95374
969.759	79.21886
969.932	85.54372
970.104	110.84515
970.276	26.51971
970.448	60.24551
970.62	39.16618
970.792	5.44413
970.964	34.9506
971.136	43.38186
971.308	104.51949
971.48	32.84284
971.652	60.24551
971.824	89.7604
971.996	159.34831
972.168	56.02946
972.339	37.05838
972.511	22.3044
972.683	47.59764
972.855	123.49705
973.027	72.8942
973.199	58.13747
973.37	45.48974
973.542	56.02946
973.714	110.84515
973.886	68.67788
974.057	110.84515
974.229	39.16618
974.401	125.60578
974.572	79.21886
974.744	77.11062
974.915	87.65205
975.087	79.21886
975.259	102.41098
975.43	28.62739
975.602	24.41204
975.773	51.8135
975.945	56.02946
976.116	20.19678
976.288	3.33671
976.459	70.78603
976.63	60.24551
976.802	64.46165
976.973	64.46165
977.145	70.78603
977.316	140.36746
977.487	68.67788
977.659	127.71452
977.83	98.19403
978.001	56.02946
978.172	51.8135
978.344	24.41204
978.515	28.62739
978.686	37.05838
978.857	127.71452
979.028	26.51971
979.2	53.92147
979.371	22.3044
979.542	115.06236
979.713	18.08919
979.884	83.43541
980.055	20.19678
980.226	49.70556
980.397	68.67788
980.568	30.7351
980.739	77.11062
980.91	53.92147
981.081	9.65906
981.252	34.9506
981.423	20.19678
981.594	85.54372
981.765	43.38186
981.936	53.92147
982.106	98.19403
982.277	45.48974
982.448	-28.27177
982.619	89.7604
982.79	93.97717
982.96	85.54372
983.131	81.32712
983.302	37.05838
983.472	56.02946
983.643	24.41204
983.814	-13.52183
983.984	-45.12736
984.155	112.95374
984.326	70.78603
984.496	51.8135
984.667	43.38186
984.837	-26.16471
985.008	110.84515
985.178	34.9506
985.349	22.3044
985.519	43.38186
985.69	26.51971
985.86	26.51971
986.031	9.65906
986.201	-40.91361
986.371	-11.4146
986.542	85.54372
986.712	3.33671
986.882	79.21886
987.053	45.48974
987.223	89.7604
987.393	5.44413
987.563	18.08919
987.734	110.84515
987.904	43.38186
988.074	81.32712
988.244	96.08559
988.414	68.67788
988.585	20.19678
988.755	-40.91361
988.925	11.76656
989.095	93.97717
989.265	106.62802
989.435	70.78603
989.605	85.54372
989.775	-9.30734
989.945	34.9506
990.115	72.8942
990.285	79.21886
990.455	66.56975
990.625	18.08919
990.795	41.27401
990.965	58.13747
991.134	39.16618
991.304	62.35357
991.474	60.24551
991.644	1.22931
991.814	39.16618
991.984	110.84515
992.153	26.51971
992.323	56.02946
992.493	13.87408
992.662	79.21886
992.832	9.65906
993.002	-28.27177
993.171	37.05838
993.341	87.65205
993.511	-15.62904
993.68	51.8135
993.85	39.16618
994.019	68.67788
994.189	43.38186
994.358	1.22931
994.528	60.24551
994.697	28.62739
994.867	20.19678
995.036	18.08919
995.206	32.84284
995.375	-32.48582
995.544	85.54372
995.714	18.08919
995.883	1.22931
996.052	-9.30734
996.222	72.8942
996.391	-19.84338
996.56	28.62739
996.73	11.76656
996.899	26.51971
997.068	64.46165
997.237	68.67788
997.406	26.51971
997.576	77.11062
997.745	-11.4146
997.914	81.32712
998.083	9.65906
998.252	20.19678
998.421	11.76656
998.59	64.46165
998.759	-17.73622
998.928	81.32712
999.097	-11.4146
999.266	-38.8067
999.435	68.67788
999.604	5.44413
999.773	60.24551
999.942	9.65906
1000.111	-64.08798
1000.28	53.92147
1000.448	11.76656
1000.617	-15.62904
1000.786	79.21886
1000.955	43.38186
1001.124	-15.62904
1001.292	-0.87807
1001.461	-21.95051
1001.63	28.62739
1001.798	-47.2342
1001.967	43.38186
1002.136	-30.3788
1002.304	3.33671
1002.473	9.65906
1002.642	5.44413
1002.81	22.3044
1002.979	7.55158
1003.147	68.67788
1003.316	60.24551
1003.484	-7.20006
1003.653	37.05838
1003.821	-24.05762
1003.99	9.65906
1004.158	20.19678
1004.327	-40.91361
1004.495	47.59764
1004.663	-11.4146
1004.832	28.62739
1005	49.70556
1005.168	34.9506
1005.337	115.06236
1005.505	-28.27177
1005.673	39.16618
1005.842	72.8942
1006.01	24.41204
1006.178	28.62739
1006.346	34.9506
1006.514	-32.48582
1006.683	77.11062
1006.851	9.65906
1007.019	32.84284
1007.187	37.05838
1007.355	3.33671
1007.523	22.3044
1007.691	-40.91361
1007.859	39.16618
1008.027	-36.69976
1008.195	26.51971
1008.363	60.24551
1008.531	53.92147
1008.699	45.48974
1008.867	45.48974
1009.035	39.16618
1009.203	-5.09275
1009.37	-30.3788
1009.538	-21.95051
1009.706	-26.16471
1009.874	-21.95051
1010.042	-34.5928
1010.209	30.7351
1010.377	98.19403
1010.545	11.76656
1010.713	7.55158
1010.88	45.48974
1011.048	-13.52183
1011.216	45.48974
1011.383	89.7604
1011.551	-7.20006
1011.718	-49.34101
1011.886	26.51971
1012.054	22.3044
1012.221	18.08919
1012.389	-15.62904
1012.556	32.84284
1012.724	13.87408
1012.891	-21.95051
1013.058	56.02946
1013.226	-0.87807
1013.393	-5.09275
1013.561	3.33671
1013.728	-24.05762
1013.895	-40.91361
1014.063	68.67788
1014.23	51.8135
1014.397	1.22931
1014.565	-57.768
1014.732	77.11062
1014.899	26.51971
1015.066	-15.62904
1015.233	28.62739
1015.401	-24.05762
1015.568	3.33671
1015.735	70.78603
1015.902	-7.20006
1016.069	-7.20006
1016.236	1.22931
1016.403	-2.98542
1016.57	28.62739
1016.737	28.62739
1016.904	102.41098
1017.071	-66.19459
1017.238	13.87408
1017.405	26.51971
1017.572	1.22931
1017.739	18.08919
1017.906	-11.4146
1018.073	-74.62077
1018.24	49.70556
1018.407	20.19678
1018.573	-83.04654
1018.74	-55.66129
1018.907	-30.3788
1019.074	51.8135
1019.241	47.59764
1019.407	-21.95051
1019.574	-0.87807
1019.741	20.19678
1019.907	34.9506
1020.074	58.13747
1020.241	-36.69976
1020.407	43.38186
1020.574	77.11062
1020.74	-21.95051
1020.907	18.08919
1021.073	9.65906
1021.24	-32.48582
1021.406	51.8135
1021.573	11.76656
1021.739	51.8135
1021.906	5.44413
1022.072	-24.05762
1022.239	11.76656
1022.405	-7.20006
1022.571	34.9506
1022.738	62.35357
1022.904	-19.84338
1023.07	-87.25927
1023.237	-7.20006
1023.403	72.8942
1023.569	-2.98542
1023.735	32.84284
1023.902	9.65906
1024.068	-49.34101
1024.234	41.27401
1024.4	-34.5928
1024.566	60.24551
1024.732	-34.5928
1024.898	13.87408
1025.065	9.65906
1025.231	-38.8067
1025.397	79.21886
1025.563	-24.05762
1025.729	9.65906
1025.895	93.97717
1026.061	5.44413
1026.227	-57.768
1026.392	9.65906
1026.558	-47.2342
1026.724	-15.62904
1026.89	22.3044
1027.056	37.05838
1027.222	47.59764
1027.388	53.92147
1027.553	24.41204
1027.719	5.44413
1027.885	-19.84338
1028.051	62.35357
1028.216	-21.95051
1028.382	26.51971
1028.548	34.9506
1028.713	51.8135
1028.879	-15.62904
1029.045	77.11062
1029.21	3.33671
1029.376	-66.19459
1029.541	-66.19459
1029.707	-64.08798
1029.873	-45.12736
1030.038	-91.4719
1030.204	32.84284
1030.369	62.35357
1030.534	-7.20006
1030.7	9.65906
1030.865	13.87408
1031.031	-51.44779
1031.196	26.51971
1031.361	5.44413
1031.527	39.16618
1031.692	-57.768
1031.857	-15.62904
1032.023	-2.98542
1032.188	-11.4146
1032.353	-24.05762
1032.518	43.38186
1032.684	1.22931
1032.849	41.27401
1033.014	138.25859
1033.179	-49.34101
1033.344	1.22931
1033.509	22.3044
1033.674	-43.0205
1033.839	-7.20006
1034.004	-15.62904
1034.17	-28.27177
1034.335	-57.768
1034.5	37.05838
1034.664	9.65906
1034.829	60.24551
1034.994	43.38186
1035.159	-28.27177
1035.324	30.7351
1035.489	66.56975
1035.654	13.87408
1035.819	-36.69976
1035.984	64.46165
1036.148	-15.62904
1036.313	58.13747
1036.478	68.67788
1036.643	24.41204
1036.807	3.33671
1036.972	-15.62904
1037.137	-32.48582
1037.301	24.41204
1037.466	77.11062
1037.631	22.3044
1037.795	-45.12736
1037.96	34.9506
1038.124	-32.48582
1038.289	-40.91361
1038.454	-30.3788
1038.618	1.22931
1038.783	22.3044
1038.947	11.76656
1039.111	47.59764
1039.276	-28.27177
1039.44	5.44413
1039.605	51.8135
1039.769	-40.91361
1039.933	30.7351
1040.098	43.38186
1040.262	-21.95051
1040.426	24.41204
1040.591	-49.34101
1040.755	-2.98542
1040.919	-19.84338
1041.083	34.9506
1041.248	30.7351
1041.412	-2.98542
1041.576	-32.48582
1041.74	3.33671
1041.904	-32.48582
1042.068	9.65906
1042.232	-59.87469
1042.397	-15.62904
1042.561	39.16618
1042.725	41.27401
1042.889	-40.91361
1043.053	28.62739
1043.217	-57.768
1043.381	43.38186
1043.544	-45.12736
1043.708	39.16618
1043.872	-7.20006
1044.036	30.7351
1044.2	37.05838
1044.364	-28.27177
1044.528	-2.98542
1044.691	5.44413
1044.855	-5.09275
1045.019	43.38186
1045.183	1.22931
1045.346	-57.768
1045.51	-15.62904
1045.674	5.44413
1045.837	51.8135
1046.001	7.55158
1046.165	26.51971
1046.328	-5.09275
1046.492	-0.87807
1046.655	43.38186
1046.819	68.67788
1046.983	-32.48582
1047.146	22.3044
1047.31	9.65906
1047.473	49.70556
1047.636	18.08919
1047.8	58.13747
1047.963	41.27401
1048.127	-49.34101
1048.29	-24.05762
