Data from absorb_only_2.23.25_USB4F045381__68__0173.txt Node

Date: Sun Feb 23 19:25:38 EST 2025
User: ssocol
Spectrometer: USB4F04538
Trigger mode: 4
Integration Time (sec): 2.600000E-3
Scans to average: 1
Electric dark correction enabled: true
Nonlinearity correction enabled: true
Boxcar width: 0
XAxis mode: Wavelengths
Number of Pixels in Spectrum: 3648
>>>>>Begin Spectral Data<<<<<
345.52	-37.57766
345.736	-37.57766
345.952	-37.57766
346.168	15.10348
346.384	-29.1497
346.6	19.31862
346.816	4.56604
347.032	-10.18537
347.248	-27.04265
347.464	-29.1497
347.68	-5.9708
347.896	29.85689
348.112	-22.82848
348.328	-24.93558
348.544	-8.0781
348.76	21.42623
348.975	53.04315
349.191	-58.64579
349.407	-67.07234
349.623	25.64151
349.839	8.78094
350.055	-12.29261
350.27	25.64151
350.486	10.88843
350.702	29.85689
350.918	-39.68458
351.133	8.78094
351.349	-39.68458
351.565	-50.21884
351.781	-16.50703
351.996	-41.79148
352.212	38.28793
352.428	46.71934
352.644	-14.39983
352.859	-33.36373
353.075	-88.13691
353.291	34.07236
353.506	19.31862
353.722	-16.50703
353.938	15.10348
354.153	38.28793
354.369	48.82725
354.584	-10.18537
354.8	-46.00521
355.016	-111.30495
355.231	12.99594
355.447	-16.50703
355.662	-3.86348
355.878	42.50359
356.093	-22.82848
356.309	4.56604
356.524	-14.39983
356.74	25.64151
356.955	-12.29261
357.171	67.79949
357.386	-73.39198
357.602	8.78094
357.817	-24.93558
358.033	46.71934
358.248	-12.29261
358.464	67.79949
358.679	-56.53909
358.895	-1.75614
359.11	2.45862
359.325	-50.21884
359.541	-24.93558
359.756	-8.0781
359.972	38.28793
360.187	-33.36373
360.402	-33.36373
360.618	-16.50703
360.833	-12.29261
361.048	19.31862
361.264	-14.39983
361.479	-71.28546
361.694	-29.1497
361.909	-54.43236
362.125	-3.86348
362.34	-22.82848
362.555	-73.39198
362.77	-5.9708
362.986	-20.72135
363.201	25.64151
363.416	-24.93558
363.631	-67.07234
363.847	8.78094
364.062	-3.86348
364.277	25.64151
364.492	-14.39983
364.707	53.04315
364.922	-62.85911
365.138	-10.18537
365.353	23.53386
365.568	-48.11204
365.783	34.07236
365.998	27.74919
366.213	59.36716
366.428	80.44868
366.643	-92.34952
366.858	-3.86348
367.073	25.64151
367.288	-41.79148
367.503	-29.1497
367.718	-20.72135
367.933	-16.50703
368.148	-5.9708
368.363	8.78094
368.578	-37.57766
368.793	-31.25673
369.008	19.31862
369.223	17.21104
369.438	59.36716
369.653	8.78094
369.868	-31.25673
370.083	-8.0781
370.298	-22.82848
370.513	50.93519
370.728	57.25913
370.943	-16.50703
371.157	-31.25673
371.372	34.07236
371.587	36.18013
371.802	10.88843
372.017	-14.39983
372.232	-41.79148
372.446	-43.89836
372.661	-54.43236
372.876	76.23219
373.091	-58.64579
373.306	46.71934
373.52	29.85689
373.735	-41.79148
373.95	-67.07234
374.165	8.78094
374.379	38.28793
374.594	-5.9708
374.809	-1.75614
375.023	-54.43236
375.238	50.93519
375.453	-37.57766
375.667	4.56604
375.882	-35.47071
376.097	46.71934
376.311	-24.93558
376.526	48.82725
376.741	36.18013
376.955	-62.85911
377.17	19.31862
377.384	-27.04265
377.599	44.61145
377.813	4.56604
378.028	36.18013
378.242	-16.50703
378.457	42.50359
378.672	-35.47071
378.886	17.21104
379.101	-48.11204
379.315	17.21104
379.53	76.23219
379.744	-1.75614
379.958	19.31862
380.173	29.85689
380.387	29.85689
380.602	12.99594
380.816	-39.68458
381.031	-31.25673
381.245	2.45862
381.459	10.88843
381.674	-22.82848
381.888	-22.82848
382.103	-46.00521
382.317	-8.0781
382.531	2.45862
382.746	-22.82848
382.96	23.53386
383.174	-24.93558
383.388	-46.00521
383.603	-24.93558
383.817	53.04315
384.031	65.69137
384.246	-16.50703
384.46	34.07236
384.674	-46.00521
384.888	-67.07234
385.103	0.35123
385.317	4.56604
385.531	-71.28546
385.745	36.18013
385.959	-12.29261
386.174	-41.79148
386.388	6.67348
386.602	-1.75614
386.816	0.35123
387.03	21.42623
387.244	25.64151
387.458	-29.1497
387.672	0.35123
387.887	0.35123
388.101	-41.79148
388.315	38.28793
388.529	-41.79148
388.743	8.78094
388.957	-48.11204
389.171	29.85689
389.385	50.93519
389.599	-77.60495
389.813	-37.57766
390.027	-58.64579
390.241	8.78094
390.455	31.96461
390.669	74.12398
390.883	-48.11204
391.097	53.04315
391.311	-24.93558
391.525	-73.39198
391.738	-16.50703
391.952	-8.0781
392.166	-33.36373
392.38	-33.36373
392.594	-31.25673
392.808	10.88843
393.022	19.31862
393.236	93.09867
393.449	19.31862
393.663	0.35123
393.877	8.78094
394.091	0.35123
394.305	-5.9708
394.518	23.53386
394.732	76.23219
394.946	-29.1497
395.16	10.88843
395.373	15.10348
395.587	31.96461
395.801	-64.96574
396.015	-46.00521
396.228	-16.50703
396.442	2.45862
396.656	-50.21884
396.869	-29.1497
397.083	-8.0781
397.297	-5.9708
397.51	17.21104
397.724	-10.18537
397.938	-50.21884
398.151	34.07236
398.365	25.64151
398.578	-100.77442
398.792	27.74919
399.005	17.21104
399.219	17.21104
399.433	53.04315
399.646	21.42623
399.86	4.56604
400.073	53.04315
400.287	-50.21884
400.5	-16.50703
400.714	29.85689
400.927	-16.50703
401.141	-14.39983
401.354	-5.9708
401.567	-33.36373
401.781	-14.39983
401.994	-22.82848
402.208	6.67348
402.421	-24.93558
402.635	10.88843
402.848	27.74919
403.061	78.34042
403.275	-33.36373
403.488	76.23219
403.701	38.28793
403.915	-56.53909
404.128	-39.68458
404.341	23.53386
404.555	-1.75614
404.768	-1.75614
404.981	-18.61421
405.195	-24.93558
405.408	34.07236
405.621	25.64151
405.834	-75.49848
406.048	-41.79148
406.261	44.61145
406.474	42.50359
406.687	-14.39983
406.9	-16.50703
407.114	-64.96574
407.327	31.96461
407.54	12.99594
407.753	-14.39983
407.966	76.23219
408.179	21.42623
408.392	36.18013
408.605	53.04315
408.819	-24.93558
409.032	112.07516
409.245	15.10348
409.458	-35.47071
409.671	-31.25673
409.884	-5.9708
410.097	36.18013
410.31	19.31862
410.523	6.67348
410.736	8.78094
410.949	-12.29261
411.162	59.36716
411.375	-41.79148
411.588	19.31862
411.801	15.10348
412.014	17.21104
412.227	-8.0781
412.44	-29.1497
412.653	17.21104
412.865	-5.9708
413.078	42.50359
413.291	8.78094
413.504	-35.47071
413.717	90.99028
413.93	93.09867
414.143	23.53386
414.356	-62.85911
414.568	42.50359
414.781	44.61145
414.994	19.31862
415.207	0.35123
415.42	53.04315
415.632	44.61145
415.845	31.96461
416.058	53.04315
416.271	55.15113
416.483	-3.86348
416.696	-12.29261
416.909	25.64151
417.121	-5.9708
417.334	29.85689
417.547	57.25913
417.759	-119.7289
417.972	4.56604
418.185	17.21104
418.397	34.07236
418.61	34.07236
418.823	88.88192
419.035	42.50359
419.248	36.18013
419.46	17.21104
419.673	6.67348
419.885	-41.79148
420.098	8.78094
420.311	17.21104
420.523	-1.75614
420.736	-18.61421
420.948	36.18013
421.161	-12.29261
421.373	42.50359
421.586	36.18013
421.798	25.64151
422.01	29.85689
422.223	6.67348
422.435	21.42623
422.648	12.99594
422.86	50.93519
423.073	-41.79148
423.285	4.56604
423.497	59.36716
423.71	44.61145
423.922	50.93519
424.134	48.82725
424.347	-18.61421
424.559	29.85689
424.771	84.66525
424.984	-24.93558
425.196	-22.82848
425.408	15.10348
425.621	8.78094
425.833	4.56604
426.045	44.61145
426.257	8.78094
426.47	25.64151
426.682	10.88843
426.894	-12.29261
427.106	99.42397
427.318	76.23219
427.531	-12.29261
427.743	8.78094
427.955	-18.61421
428.167	-41.79148
428.379	10.88843
428.591	17.21104
428.804	57.25913
429.016	-29.1497
429.228	55.15113
429.44	57.25913
429.652	59.36716
429.864	67.79949
430.076	46.71934
430.288	4.56604
430.5	-10.18537
430.712	15.10348
430.924	-20.72135
431.136	50.93519
431.348	84.66525
431.56	44.61145
431.772	42.50359
431.984	46.71934
432.196	19.31862
432.408	-29.1497
432.62	-12.29261
432.832	25.64151
433.044	36.18013
433.256	-20.72135
433.468	29.85689
433.679	10.88843
433.891	59.36716
434.103	-29.1497
434.315	55.15113
434.527	25.64151
434.739	17.21104
434.95	8.78094
435.162	-16.50703
435.374	4.56604
435.586	-5.9708
435.798	69.90763
436.009	40.39575
436.221	36.18013
436.433	46.71934
436.645	76.23219
436.856	-50.21884
437.068	63.58328
437.28	-10.18537
437.491	6.67348
437.703	84.66525
437.915	67.79949
438.126	34.07236
438.338	42.50359
438.55	12.99594
438.761	17.21104
438.973	-3.86348
439.184	57.25913
439.396	97.31551
439.608	-3.86348
439.819	27.74919
440.031	69.90763
440.242	34.07236
440.454	-24.93558
440.665	34.07236
440.877	38.28793
441.088	-27.04265
441.3	17.21104
441.511	59.36716
441.723	34.07236
441.934	55.15113
442.146	10.88843
442.357	-5.9708
442.569	6.67348
442.78	10.88843
442.991	53.04315
443.203	97.31551
443.414	-31.25673
443.626	-14.39983
443.837	-22.82848
444.048	74.12398
444.26	101.53244
444.471	36.18013
444.682	78.34042
444.894	86.77357
445.105	27.74919
445.316	53.04315
445.528	86.77357
445.739	86.77357
445.95	86.77357
446.161	55.15113
446.373	17.21104
446.584	88.88192
446.795	93.09867
447.006	53.04315
447.217	128.94464
447.429	-20.72135
447.64	86.77357
447.851	50.93519
448.062	76.23219
448.273	82.55695
448.484	-12.29261
448.695	69.90763
448.907	42.50359
449.118	55.15113
449.329	19.31862
449.54	69.90763
449.751	59.36716
449.962	17.21104
450.173	95.20708
450.384	40.39575
450.595	-1.75614
450.806	74.12398
451.017	82.55695
451.228	46.71934
451.439	118.40105
451.65	78.34042
451.861	10.88843
452.072	42.50359
452.283	34.07236
452.494	59.36716
452.705	152.14241
452.915	50.93519
453.126	76.23219
453.337	84.66525
453.548	93.09867
453.759	175.34274
453.97	69.90763
454.181	103.64094
454.391	69.90763
454.602	48.82725
454.813	147.92445
455.024	166.90597
455.235	135.27105
455.445	118.40105
455.656	154.25143
455.867	74.12398
456.078	114.18377
456.288	145.81549
456.499	135.27105
456.71	137.37989
456.921	72.0158
457.131	95.20708
457.342	88.88192
457.553	38.28793
457.763	120.50972
457.974	206.98356
458.184	103.64094
458.395	72.0158
458.606	124.72714
458.816	162.68771
459.027	135.27105
459.237	135.27105
459.448	137.37989
459.659	118.40105
459.869	63.58328
460.08	105.74946
460.29	152.14241
460.501	103.64094
460.711	109.96657
460.922	162.68771
461.132	126.83588
461.343	152.14241
461.553	164.79683
461.764	175.34274
461.974	175.34274
462.184	162.68771
462.395	187.99852
462.605	289.27042
462.816	211.20268
463.026	124.72714
463.236	314.5952
463.447	304.04289
463.657	278.71921
463.867	160.57861
464.078	240.73873
464.288	160.57861
464.498	238.62888
464.709	202.76452
464.919	325.14796
465.129	213.31227
465.339	272.3887
465.55	202.76452
465.76	181.67054
465.97	266.05836
466.18	223.86052
466.391	371.58532
466.601	388.47368
466.811	333.59049
467.021	323.03738
467.231	396.91826
467.441	289.27042
467.651	426.47635
467.862	363.14154
468.072	437.03357
468.282	342.0333
468.492	371.58532
468.702	481.37812
468.912	498.27303
469.122	437.03357
469.332	456.03755
469.542	415.91952
469.752	519.39299
469.962	464.48416
470.172	548.96331
470.382	629.23887
470.592	557.41247
470.802	574.31144
471.012	658.81867
471.222	584.87373
471.432	692.62699
471.642	576.42387
471.852	684.17464
472.062	785.61432
472.272	705.30587
472.482	764.47908
472.691	789.84149
472.901	728.55149
473.111	815.20529
473.321	855.36735
473.531	870.16469
473.741	887.07645
473.95	958.95698
474.16	861.70902
474.37	971.64266
474.58	1043.53258
474.79	1106.97039
474.999	946.27156
475.209	1102.74106
475.419	1117.5438
475.628	1172.5273
475.838	1047.76162
476.048	1386.13684
476.258	1255.00724
476.467	1394.597
476.677	1208.47949
476.886	1496.11938
477.096	1396.71204
477.306	1373.44662
477.515	1453.81837
477.725	1631.48003
477.935	1570.14547
478.144	1648.3996
478.354	1491.88929
478.563	1737.22446
478.773	1832.387
478.982	1713.96133
479.192	1845.07468
479.401	1900.05258
479.611	1902.16704
479.82	2031.13827
480.03	1878.90764
480.239	2037.48051
480.449	1938.11209
480.658	2130.49256
480.868	2138.94748
481.077	2341.82449
481.287	2181.22015
481.496	2244.62285
481.705	2312.2435
481.915	2432.66805
482.124	2384.07967
482.333	2411.54335
482.543	2346.05019
482.752	2510.81999
482.961	2721.96092
483.171	2810.60197
483.38	2614.29437
483.589	2664.96509
483.799	2671.29842
484.008	2987.80985
484.217	2833.8135
484.426	3089.02428
484.636	2987.80985
484.845	3103.78172
485.054	2894.99939
485.263	3025.76942
485.472	3055.2901
485.682	3236.56313
485.891	3076.37444
486.1	3223.92009
486.309	3228.1345
486.518	3438.76818
486.727	3461.92718
486.936	3421.9239
487.146	3571.37638
487.355	3590.31446
487.564	3544.01873
487.773	3590.31446
487.982	3741.764
488.191	3678.67203
488.4	3815.34921
488.609	3731.24987
488.818	3682.8787
489.027	3926.73215
489.236	3981.35218
489.445	4279.41464
489.654	4023.35821
489.863	4321.36099
490.072	4130.43621
490.281	4271.02434
490.49	4233.26376
490.698	4279.41464
490.907	4289.90203
491.116	4472.29602
491.325	4453.43533
491.534	4639.8678
491.743	4489.05958
491.952	4424.09296
492.16	4407.32396
492.369	4715.22847
492.578	4618.92912
492.787	4759.17537
492.996	4824.03109
493.204	4899.31993
493.413	4798.92824
493.622	5070.7001
493.831	5081.14509
494.039	5033.09335
494.248	4907.68353
494.457	5183.47526
494.665	5062.34369
494.874	5258.62098
495.083	5308.70131
495.291	5258.62098
495.5	5275.31592
495.709	5216.87709
495.917	5294.09594
496.126	5458.86127
496.335	5246.09879
496.543	5600.56709
496.752	5362.93977
496.96	5500.55076
497.169	5494.29793
497.377	5531.81169
497.586	5446.35259
497.794	5783.78925
498.003	5613.06531
498.211	5921.08593
498.42	5862.85141
498.628	5683.87254
498.837	5765.05901
499.045	6029.18672
499.254	5617.2312
499.462	5856.61089
499.671	5842.04888
499.879	5958.51265
500.087	6072.82475
500.296	5896.13054
500.504	6052.04603
500.713	6076.98021
500.921	6116.4524
501.129	6473.39464
501.338	6126.83841
501.546	6407.03909
501.754	6101.911
501.962	6440.21984
502.171	6492.05285
502.379	6427.77776
502.587	6041.65578
502.795	6423.63021
503.004	6390.44648
503.212	6548.01621
503.42	6234.81809
503.628	6699.24023
503.837	6548.01621
504.045	6550.08861
504.253	6817.23416
504.461	6740.65008
504.669	6860.68691
504.877	6784.12056
505.085	6734.43918
505.294	6945.49439
505.502	6666.10574
505.71	6986.85009
505.918	6837.9272
506.126	6889.64985
506.334	7013.72646
506.542	7160.44597
506.75	6895.85561
506.958	7119.12792
507.166	7005.45721
507.374	7401.97947
507.582	6995.12015
507.79	7067.46782
507.998	7098.46556
508.206	7327.69349
508.414	6990.98516
508.622	7517.47948
508.83	7375.15724
509.037	7606.12117
509.245	7181.10166
509.453	7389.60044
509.661	7373.09384
509.869	7511.2937
510.077	7364.84002
510.285	7416.42069
510.492	7387.53719
510.7	7482.42414
510.908	7399.91635
511.116	7550.46706
511.324	7325.62959
511.531	7575.20415
511.739	7618.48664
511.947	7980.87049
512.155	7731.80118
512.362	7939.72287
512.57	7830.64188
512.778	7919.14599
512.985	7556.65162
513.193	7912.97252
513.401	7760.6347
513.608	7919.14599
513.816	7830.64188
514.024	7746.21846
514.231	8100.15255
514.439	8007.61206
514.646	8114.54406
514.854	8005.55514
515.061	7702.96355
515.269	8182.37656
515.477	8046.68971
515.684	8161.82356
515.892	8227.58618
516.099	8508.90576
516.307	8297.43678
516.514	8244.02366
516.722	8153.60179
516.929	8391.90455
517.136	8350.83666
517.344	8307.70701
517.551	8523.27006
517.759	8584.82082
517.966	8580.71796
518.173	8531.47781
518.381	8285.11185
518.588	8724.27356
518.796	8547.8924
519.003	8701.72083
519.21	8381.6383
519.418	8761.17322
519.625	8525.32202
519.832	8720.17323
520.039	8666.86224
520.247	8701.72083
520.454	8898.47022
520.661	8978.35235
520.868	8625.84526
521.076	8826.75802
521.283	8705.8215
521.49	8824.70878
521.697	8855.44555
521.904	9185.10295
522.112	8953.77611
522.319	9285.34489
522.526	8943.53525
522.733	9479.57818
522.94	9228.06873
523.147	9324.2034
523.354	9129.85022
523.561	9403.94695
523.768	9009.06909
523.975	9289.43554
524.183	9150.31564
524.39	9354.87696
524.597	9330.33841
524.804	9600.13398
525.011	9414.16869
525.218	9469.35903
525.425	9346.69771
525.632	9455.05156
525.838	9309.88781
526.045	9559.27379
526.252	9618.51902
526.459	9510.2332
526.666	9547.0145
526.873	9804.342
527.08	9455.05156
527.287	9914.55149
527.494	9575.61862
527.701	9814.54841
527.907	9706.34129
528.114	9963.51971
528.321	9794.13522
528.528	10177.65871
528.735	9847.20639
528.941	10016.55919
529.148	9847.20639
529.355	10057.3522
529.562	9918.6325
529.768	10118.53109
529.975	9757.38769
530.182	10145.03802
530.388	9841.08331
530.595	10310.14424
530.802	9896.18624
531.008	10395.72013
531.215	10399.7946
531.422	10581.05607
531.628	10438.4994
531.835	10469.05251
532.042	10275.49971
532.248	10644.16864
532.455	10501.63932
532.661	10513.85853
532.868	10693.02188
533.074	10764.25372
533.281	10631.95423
533.487	10815.12468
533.694	10640.09722
533.9	11089.70403
534.107	10310.14424
534.313	10715.41062
534.52	10743.90326
534.726	10524.04086
534.933	10672.66722
535.139	10957.52476
535.345	10904.63986
535.552	11158.82563
535.758	11022.60346
535.965	11360.02267
536.171	10971.76171
536.377	11095.80349
536.584	10857.85063
536.79	10988.03182
536.996	11193.38182
537.203	11006.33485
537.409	11134.43118
537.615	11030.7375
537.821	11195.41445
538.028	11345.79989
538.234	11333.60855
538.44	11038.87136
538.646	11238.09711
538.853	11264.51743
539.059	11032.77098
539.265	11563.15304
539.471	11636.25687
539.677	11626.10427
539.883	11559.09136
540.09	11481.91241
540.296	11628.1348
540.502	11650.47012
540.708	11804.75749
540.914	11920.44047
541.12	11689.04674
541.326	11810.84675
541.532	11559.09136
541.738	11676.865
541.944	11343.76803
542.15	11983.34454
542.356	11766.19038
542.562	11747.92067
542.768	11770.25023
542.974	11758.0706
543.18	11965.08287
543.386	12070.58588
543.592	12013.77922
543.798	12157.81294
544.004	12204.46358
544.21	12368.7246
544.415	12070.58588
544.621	12395.08323
544.827	12107.10125
545.033	12413.33083
545.239	12190.26597
545.445	12587.67011
545.651	12397.11076
545.856	12480.23412
546.062	12518.75096
546.268	12528.88659
546.474	12378.86267
546.679	12336.28164
546.885	12366.69697
547.091	12482.26138
547.297	12094.92973
547.502	12547.13031
547.708	12506.588
547.914	12731.56668
548.119	12569.42751
548.325	12536.99497
548.531	12453.87913
548.736	12472.12501
548.942	12186.20945
549.147	12405.22085
549.353	12601.85844
549.559	12942.29273
549.764	12547.13031
549.97	12553.21144
550.175	12755.88429
550.381	12759.93715
550.586	12561.31953
550.792	13001.0426
550.997	12784.2538
551.203	12982.81034
551.408	13003.06838
551.614	13001.0426
551.819	12948.3705
552.025	13031.4288
552.23	12851.12045
552.435	13098.27454
552.641	13590.35534
552.846	13082.07
553.052	12893.66886
553.257	12946.34458
553.462	13223.84965
553.668	13179.29275
553.873	13193.47018
554.078	13428.37972
554.283	13298.78145
554.489	13606.55164
554.694	13513.41985
554.899	13444.57835
555.105	13533.66653
555.31	13570.10966
555.515	13468.87585
555.72	13677.4079
555.925	13562.01128
556.131	13659.1881
556.336	13681.4567
556.541	13968.89123
556.746	13432.4294
556.951	13776.60002
557.156	13606.55164
557.361	13790.76972
557.567	13713.84669
557.772	13815.06029
557.977	13456.72717
558.182	13580.23254
558.387	13562.01128
558.592	13705.74927
558.797	13470.90062
559.002	13808.98769
559.207	13756.35733
559.412	13715.87104
559.617	13881.85724
559.822	13952.69923
560.027	14080.20698
560.232	13800.89084
560.437	13891.97773
560.642	14165.20706
560.847	14059.96829
561.051	14171.27835
561.256	14132.82653
561.461	14149.01686
561.666	14007.34659
561.871	14072.11153
562.076	14365.55046
562.281	14545.6434
562.485	14031.63373
562.69	14007.34659
562.895	13748.26017
563.1	14084.25469
563.305	14142.9455
563.509	14151.04064
563.714	14157.11198
563.919	14383.76264
564.123	14331.14932
564.328	14561.831
564.533	14175.32586
564.737	14120.68369
564.942	14215.80057
565.147	14365.55046
565.351	14298.77132
565.556	14193.53958
565.761	14138.89792
565.965	14634.67429
566.17	14535.52611
566.374	14515.29143
566.579	14620.51043
566.784	14545.6434
566.988	14723.70316
567.193	14685.2591
567.397	14743.93675
567.602	15108.13119
567.806	14416.13953
568.011	14936.1523
568.215	15008.99067
568.42	14828.91696
568.624	14701.44612
568.828	14620.51043
569.033	14693.35262
569.237	15168.82932
569.442	14723.70316
569.646	14786.42702
569.85	14804.63703
570.055	14930.08242
570.259	14620.51043
570.463	15312.48177
570.668	14942.22219
570.872	14917.94263
571.076	14938.1756
571.281	15073.73555
571.485	15308.43521
571.689	15203.22492
571.893	15160.73624
572.098	15071.71228
572.302	14830.94029
572.506	15160.73624
572.71	14968.52497
572.914	15051.47952
573.119	14966.50168
573.323	15182.99222
573.527	15219.4111
573.731	15328.66803
573.935	15197.15511
574.139	15350.92416
574.343	15178.94567
574.547	15650.37618
574.751	15638.23595
574.955	15615.97892
575.159	15533.02174
575.364	15411.62292
575.568	15395.43654
575.772	15306.41193
575.976	15332.71459
576.18	15239.64382
576.383	15397.45984
576.587	15601.81541
576.791	15369.13375
576.995	15567.41847
577.199	15448.04236
577.403	15543.13841
577.607	15585.62859
577.811	15589.67529
578.015	14988.75783
578.219	15547.18508
578.422	15632.16584
578.626	15642.28269
578.83	15571.46516
579.034	15923.54099
579.238	15994.36502
579.442	15794.03818
579.645	15818.3196
579.849	15601.81541
580.053	15866.88291
580.257	15702.98424
580.46	15757.61636
580.664	15796.06163
580.868	15632.16584
581.071	15727.26509
581.275	16020.67151
581.479	15931.63508
581.682	15816.29614
581.886	15846.64811
582.09	16038.88385
582.293	16249.3466
582.497	16419.34953
582.7	15978.17652
582.904	16334.34641
583.107	16233.15652
583.311	15919.49395
583.515	16261.48924
583.718	16188.63437
583.922	15976.15297
584.125	16111.73438
584.329	16247.32284
584.532	16087.45065
584.735	16561.02931
584.939	16180.53953
585.142	16299.94133
585.346	16261.48924
585.549	16538.76466
585.753	16443.63677
585.956	16540.78871
586.159	16480.06819
586.363	16550.90899
586.566	16407.20601
586.769	16508.4042
586.973	16451.73258
587.176	16718.91367
587.379	16451.73258
587.582	16492.21214
587.786	16366.72815
587.989	16650.09058
588.192	16731.05921
588.395	16868.7147
588.599	16587.34242
588.802	16769.52063
589.005	16471.97226
589.208	16947.66943
589.411	16421.37345
589.615	16532.69253
589.818	16678.42918
590.021	16795.83684
590.224	16882.88577
590.427	17150.13605
590.63	16923.37525
590.833	16945.6449
591.036	17036.75137
591.239	17356.68127
591.442	16890.98359
591.645	17089.39317
591.848	17168.3594
592.051	16965.89032
592.254	17156.21047
592.457	17433.63747
592.66	17065.09673
592.863	17028.6528
593.066	17109.64052
593.269	17263.52963
593.472	17221.00597
593.675	17585.53798
593.878	17125.83859
594.081	17022.5789
594.284	17071.1708
594.486	17526.80099
594.689	17399.20915
594.892	17443.76362
595.095	17585.53798
595.298	17553.13103
595.5	17686.81507
595.703	17767.84272
595.906	17743.53386
596.109	17834.6946
596.311	17364.78171
596.514	17170.38424
596.717	17281.75445
596.92	17871.16084
597.122	17703.02018
597.325	17520.72491
597.528	17747.58531
597.73	17840.77223
597.933	17652.37994
598.136	17828.61701
598.338	17648.32881
598.541	17775.94578
598.743	17532.87711
598.946	17225.05578
599.148	17591.61438
599.351	17769.86848
599.554	18010.95855
599.756	17873.18678
599.959	18047.43029
600.161	17978.5402
600.363	17761.76546
600.566	17887.36842
600.768	18002.85388
600.971	17966.38355
601.173	17733.40532
601.376	17966.38355
601.578	17792.15207
601.78	18278.44523
601.983	17921.81026
602.185	18444.6437
602.388	18144.69395
602.59	18282.49855
602.792	18302.76538
602.995	18229.80655
603.197	18280.47189
603.399	18314.92566
603.601	18254.12562
603.804	18053.50903
604.006	17844.824
604.208	17960.30528
604.41	18156.8525
604.613	18195.35543
604.815	18207.51453
605.017	18302.76538
605.219	17972.46186
605.421	17854.95349
605.623	18114.29816
605.826	18781.17331
606.028	18219.67375
606.23	18420.32039
606.432	18209.54105
606.634	18872.41987
606.836	18258.17885
607.038	18410.18583
607.24	18134.56193
607.442	18357.48769
607.644	18479.10267
607.846	18444.6437
608.048	18173.0641
608.25	18272.36528
608.452	18106.19276
608.654	18760.89739
608.856	18290.60524
609.058	18134.56193
609.26	18096.06108
609.462	18205.488
609.664	18375.72906
609.866	18426.40116
610.067	18404.10515
610.269	18623.03157
610.471	17901.55023
610.673	18306.81879
610.875	18543.96962
611.077	18550.0511
611.278	18148.74679
611.48	18258.17885
611.682	18361.5413
611.884	18675.74283
612.085	18201.43496
612.287	18874.44767
612.489	18477.07564
612.69	18440.58978
612.892	18290.60524
613.094	18548.02394
613.295	18223.72686
613.497	18527.75251
613.699	18649.38687
613.9	18511.53565
614.102	18282.49855
614.304	18422.34731
614.505	18343.30016
614.707	18612.89509
614.908	18148.74679
615.11	18499.37317
615.311	18367.62175
615.513	18574.37737
615.714	18438.56282
615.916	18296.68529
616.117	18209.54105
616.319	18395.99762
616.52	18466.94056
616.722	18663.57846
616.923	18693.98965
617.124	18497.3461
617.326	18505.45439
617.527	18600.73145
617.729	18645.33216
617.93	18710.20931
618.131	18521.67116
618.333	18288.57856
618.534	18292.63192
618.735	18509.50856
618.937	18276.41858
619.138	18653.44159
619.339	18594.64968
619.54	18677.77024
619.742	18868.3643
619.943	18693.98965
620.144	18424.37423
620.345	18325.05932
620.546	18357.48769
620.748	18712.23679
620.949	18683.85249
621.15	18983.95446
621.351	18643.30482
621.552	18880.53107
621.753	18623.03157
621.954	18685.87991
622.155	18558.15979
622.356	18967.73049
622.558	18746.70448
622.759	18704.12691
622.96	18643.30482
623.161	18835.92028
623.362	18736.5668
623.563	18661.55107
623.764	18696.01709
623.965	18641.27748
624.166	18606.81325
624.366	18661.55107
624.567	18456.80556
624.768	18477.07564
624.969	18110.24545
625.17	18270.33864
625.371	18487.21082
625.572	18566.26855
625.773	18833.89256
625.973	18831.86485
626.174	18493.29198
626.375	18724.40172
626.576	18862.28097
626.777	19054.93736
626.977	18584.51347
627.178	18677.77024
627.379	18355.46088
627.58	18316.95238
627.78	18132.53554
627.981	18331.13957
628.182	18517.61695
628.382	18655.46895
628.583	18685.87991
628.784	18507.48148
628.984	18229.80655
629.185	19170.54875
629.386	18400.05138
629.586	19221.25969
629.787	18949.47883
629.987	18947.45089
630.188	18803.47728
630.388	18886.61451
630.589	18548.02394
630.79	18996.1226
630.99	18736.5668
631.191	18923.11591
631.391	18990.03851
631.591	19186.77597
631.792	18608.84053
631.992	19158.37851
632.193	18959.6186
632.393	19142.15174
632.594	19207.06037
632.794	19063.05001
632.994	18710.20931
633.195	19030.59981
633.395	18868.3643
633.595	19101.58598
633.796	19002.20673
633.996	19154.32179
634.196	19146.20841
634.397	19892.91672
634.597	19409.92695
634.797	19302.40253
634.997	19349.06264
635.198	18973.81445
635.398	19138.09509
635.598	19383.55196
635.798	19103.61423
635.998	18769.00771
636.199	18572.35016
636.399	19158.37851
636.599	18764.95254
636.799	18641.27748
636.999	18468.96757
637.199	18915.00437
637.399	18927.1717
637.599	19190.83282
637.799	18643.30482
637.999	19259.80171
638.199	18917.03225
638.399	19255.74459
638.599	18675.74283
638.799	19207.06037
638.999	19028.57171
639.199	18880.53107
639.399	19138.09509
639.599	19505.28855
639.799	19077.2473
639.999	19434.27372
640.199	19227.34517
640.399	19178.66233
640.599	18592.62243
640.799	19326.74666
640.998	19379.49433
641.198	19405.86922
641.398	19209.08883
641.598	19472.82399
641.798	19460.65006
641.997	19178.66233
642.197	19046.82478
642.397	19312.54584
642.597	19174.60553
642.796	19714.30466
642.996	19454.56315
643.196	19466.73701
643.395	19198.94656
643.595	19182.71914
643.795	19044.79665
643.994	19292.25931
644.194	19071.16273
644.394	19269.9446
644.593	18945.42295
644.793	19194.88968
644.992	19225.31667
645.192	19411.95583
645.392	19596.60081
645.591	19673.71553
645.791	19819.84422
645.99	19454.56315
646.19	19342.97642
646.389	19509.34669
646.589	19016.40317
646.788	19243.57331
646.987	19205.03191
647.187	19257.77315
647.386	19203.00346
647.586	19677.77437
647.785	19420.07137
647.984	19681.83322
648.184	19647.3335
648.383	19694.00988
648.582	19700.09827
648.782	19665.59791
648.981	19428.18697
649.18	19543.84158
649.38	19590.51307
649.579	19892.91672
649.778	19728.51124
649.977	20014.71632
650.177	19724.4522
650.376	19420.07137
650.575	19730.54077
650.774	19862.46918
650.973	19304.43118
651.173	19353.12015
651.372	19261.83028
651.571	19456.59212
651.77	19405.86922
651.969	19629.06943
652.168	19742.71804
652.367	19673.71553
652.566	19310.51717
652.765	19418.04248
652.964	19271.97319
653.163	19438.33157
653.362	19620.95218
653.561	19888.85699
653.76	19547.89989
653.959	19627.04011
654.158	19612.83499
654.357	19643.27479
654.556	19176.63393
654.755	19612.83499
654.954	19468.766
655.153	19657.48035
655.352	19578.33768
655.551	19882.76743
655.749	19647.3335
655.948	19562.10407
656.147	19482.96905
656.346	19795.48793
656.545	19296.31658
656.743	19458.62109
656.942	19722.42268
657.141	19821.87394
657.34	19961.93463
657.538	19994.41534
657.737	19876.67791
657.936	20173.07845
658.135	19769.10263
658.333	20104.04566
658.532	19635.15742
658.731	19860.43938
658.929	19763.01381
659.128	19651.39223
659.326	19852.32021
659.525	19809.69569
659.724	19708.21618
659.922	19779.25074
660.121	19527.60854
660.319	19795.48793
660.518	19744.7476
660.716	19685.89209
660.915	19838.11183
661.113	20183.23074
661.312	19742.71804
661.51	20116.22756
661.709	19752.86587
661.907	20087.80335
662.105	19864.49899
662.304	19856.37979
662.502	19821.87394
662.701	19957.87462
662.899	19765.04341
663.097	19882.76743
663.296	19797.5176
663.494	19856.37979
663.692	19576.30847
663.891	19754.89545
664.089	19594.57156
664.287	19718.36366
664.485	19586.45459
664.684	20179.16981
664.882	19844.20111
665.08	19641.24544
665.278	19629.06943
665.476	19807.666
665.675	19724.4522
665.873	19846.23088
666.071	19416.01359
666.269	19612.83499
666.467	19489.05614
666.665	19872.61825
666.863	19456.59212
667.061	19744.7476
667.259	19890.88685
667.457	19825.93338
667.655	19811.72539
667.853	19935.54486
668.051	19641.24544
668.249	19732.57031
668.447	19716.33416
668.645	19694.00988
668.843	19996.44542
669.041	19888.85699
669.239	19677.77437
669.437	20166.98712
669.635	19466.73701
669.833	19633.12809
670.031	19775.19148
670.229	19462.67904
670.426	19612.83499
670.624	19691.98043
670.822	19405.86922
671.02	19507.31762
671.218	19365.29276
671.415	19629.06943
671.613	19338.91895
671.811	19276.03038
672.009	19255.74459
672.206	19773.16186
672.404	19547.89989
672.602	19375.43672
672.799	19182.71914
672.997	19562.10407
673.195	19393.69611
673.392	19941.63474
673.59	19529.63766
673.788	19403.84035
673.985	19312.54584
674.183	19513.40485
674.38	19393.69611
674.578	19332.83279
674.775	19269.9446
674.973	19371.37912
675.17	19474.853
675.368	19643.27479
675.565	19616.89357
675.763	19620.95218
675.96	19393.69611
676.158	19440.36051
676.355	19101.58598
676.553	19365.29276
676.75	18939.33917
676.947	19367.32155
677.145	18953.53473
677.342	19123.89695
677.539	19227.34517
677.737	19442.38944
677.934	19164.46361
678.131	19627.04011
678.329	19286.17343
678.526	19523.55032
678.723	19527.60854
678.92	19478.91102
679.118	19063.05001
679.315	18886.61451
679.512	18868.3643
679.709	19044.79665
679.906	18696.01709
680.104	19200.97501
680.301	19071.16273
680.498	19166.49199
680.695	19081.30371
680.892	19093.47302
681.089	18998.15064
681.286	18842.00346
681.483	18860.2532
681.68	19249.65893
681.877	18935.28333
682.075	18708.18184
682.272	18908.92076
682.469	19265.88743
682.665	18923.11591
682.862	18996.1226
683.059	18878.50327
683.256	18825.78173
683.453	18408.15893
683.65	18545.99678
683.847	18663.57846
684.044	18967.73049
684.241	18596.67693
684.438	18781.17331
684.635	18288.57856
684.831	18842.00346
685.028	18375.72906
685.225	18902.83719
685.422	18785.22854
685.619	18969.75847
685.815	18693.98965
686.012	19038.71226
686.209	18537.88818
686.405	18712.23679
686.602	18712.23679
686.799	18410.18583
686.996	18643.30482
687.192	18659.5237
687.389	18910.94863
687.586	18503.42732
687.782	18785.22854
687.979	19061.02184
688.175	18858.22543
688.372	18892.69799
688.568	18481.1297
688.765	18391.94388
688.962	18578.4318
689.158	18428.4281
689.355	18466.94056
689.551	18608.84053
689.748	18264.25873
689.944	18371.6754
690.14	18436.53587
690.337	18262.2321
690.533	18505.45439
690.73	17788.10048
690.926	18031.22049
691.123	17976.51408
691.319	17889.39438
691.515	18288.57856
691.712	17972.46186
691.908	18262.2321
692.104	18179.14351
692.301	17885.34246
692.497	17824.56529
692.693	18037.29914
692.889	18323.03258
693.086	18262.2321
693.282	18221.70031
693.478	18312.89894
693.674	18248.0458
693.87	18203.46148
694.067	18404.10515
694.263	18055.53528
694.459	18363.56811
694.655	18284.52522
694.851	18108.2191
695.047	18213.59412
695.243	18211.56759
695.439	18012.98473
695.635	18254.12562
695.831	18047.43029
696.027	18132.53554
696.224	18144.69395
696.42	18075.798
696.615	18104.16642
696.811	17613.89474
697.007	17682.76383
697.203	17545.02943
697.399	18071.74543
697.595	17733.40532
697.791	17842.79812
697.987	17861.03122
698.183	17970.43575
698.379	17496.42085
698.575	17940.04458
698.77	17470.09197
698.966	17168.3594
699.162	17378.95761
699.358	17346.55578
699.554	16976.01313
699.749	17346.55578
699.945	17204.80682
700.141	17338.45545
700.337	17453.88984
700.532	17626.04783
700.728	17532.87711
700.924	17478.19311
701.119	17636.1755
701.315	17686.81507
701.511	17670.61019
701.706	17767.84272
701.902	17447.8141
702.097	17383.00789
702.293	17322.25492
702.489	17368.83195
702.684	17362.7566
702.88	17409.33503
703.075	17326.30504
703.271	17237.2053
703.466	17411.36022
703.662	17464.01615
703.857	17470.09197
704.053	17587.56344
704.248	17322.25492
704.443	17350.60597
704.639	17445.78886
704.834	17553.13103
705.03	17383.00789
705.225	17553.13103
705.42	17530.85173
705.616	17583.51252
705.811	17459.96562
706.006	17581.48707
706.202	17360.73148
706.397	17374.90734
706.592	17212.90637
706.787	17320.22987
706.983	17216.95616
707.178	17431.61225
707.373	17368.83195
707.568	17488.3196
707.763	17338.45545
707.959	17374.90734
708.154	17075.2202
708.349	17137.98727
708.544	16824.17785
708.739	16682.47758
708.934	16658.18728
709.129	17245.30504
709.324	17085.34374
709.519	17520.72491
709.714	16957.79212
709.909	17113.69002
710.104	16688.55021
710.299	16810.00728
710.494	16609.60765
710.689	16897.05697
710.884	16801.90987
711.079	17016.50502
711.274	16688.55021
711.469	16733.08347
711.664	16641.99392
711.859	16876.81244
712.054	17069.14611
712.249	16874.788
712.443	16465.90034
712.638	16838.34853
712.833	16348.51336
713.028	16579.24604
713.223	16498.28415
713.417	16397.08647
713.612	16668.3082
713.807	16538.76466
714.002	16759.39912
714.196	16886.93467
714.391	16923.37525
714.586	16919.32625
714.78	17083.31902
714.975	16982.08684
715.17	16791.78817
715.364	16587.34242
715.559	16330.29872
715.754	16125.89999
715.948	16214.94282
716.143	16382.9192
716.337	16314.10806
716.532	16870.73913
716.726	16581.27013
716.921	16409.22993
717.115	16473.99624
717.31	16757.37482
717.504	16476.02022
717.699	16650.09058
717.893	16510.42821
718.088	16554.95711
718.282	16419.34953
718.476	16439.58888
718.671	16156.25514
718.865	16366.72815
719.059	16421.37345
719.254	16184.58695
719.448	16243.27531
719.642	16093.52156
719.837	15713.10125
720.031	15945.79979
720.225	15664.53983
720.419	16107.68708
720.614	15850.69506
720.808	16020.67151
721.002	15719.17146
721.196	16065.19076
721.39	15905.32936
721.585	15887.11783
721.779	15763.68664
721.973	16275.65572
722.167	15913.4234
722.361	15893.18833
722.555	15771.78036
722.749	15460.18221
722.943	15624.07237
723.137	15824.38997
723.331	15727.26509
723.525	15957.94103
723.719	15735.35874
723.913	15986.27076
724.107	15622.04901
724.301	15767.7335
724.495	15715.12465
724.689	15757.61636
724.883	15403.52973
725.077	15407.57632
725.271	15132.41045
725.465	15676.68014
725.659	15656.44631
725.853	15739.40557
726.046	15711.07784
726.24	15443.99575
726.434	15259.87656
726.628	15721.19487
726.822	15381.27349
727.015	15852.71854
727.209	15233.574
727.403	15446.01905
727.596	15342.83101
727.79	15393.41325
727.984	15391.38996
728.177	15537.06841
728.371	15336.76116
728.565	15265.94638
728.758	15381.27349
728.952	15561.34845
729.146	15480.41534
729.339	15970.08231
729.533	15727.26509
729.726	15759.63978
729.92	15425.78601
730.113	15830.46036
730.307	15658.46969
730.5	15751.54609
730.694	15361.04059
730.887	15437.92583
731.081	15338.78444
731.274	15719.17146
731.468	15446.01905
731.661	15743.45241
731.854	15686.79708
732.048	15640.25932
732.241	15344.8543
732.435	15632.16584
732.628	15874.97686
732.821	15646.32943
733.014	15387.34337
733.208	15609.90884
733.401	15573.48851
733.594	15743.45241
733.788	15371.15704
733.981	15921.51747
734.174	15480.41534
734.367	15330.69131
734.56	15002.92082
734.754	15330.69131
734.947	15276.06276
735.14	15209.29474
735.333	14946.26877
735.526	15209.29474
735.719	14992.8044
735.912	15051.47952
736.105	14737.86668
736.298	14897.70962
736.491	15324.62146
736.684	15340.80773
736.877	15322.59818
737.07	15215.36455
737.263	14934.12901
737.456	15274.03949
737.649	15573.48851
737.842	15478.39202
738.035	15306.41193
738.228	14998.87425
738.421	15286.17915
738.614	15365.08717
738.807	15316.52833
739	15110.15447
739.192	14932.10571
739.385	15158.71297
739.578	15098.01483
739.771	15132.41045
739.964	15108.13119
740.156	15176.9224
740.349	14917.94263
740.542	15241.66709
740.735	14685.2591
740.927	14980.66469
741.12	14796.5437
741.313	14802.6137
741.505	14869.38331
741.698	14711.56297
741.891	14719.65643
742.083	14762.14691
742.276	15083.85192
742.468	14845.10353
742.661	14557.78411
742.854	14924.01253
743.046	14648.8381
743.239	14511.24448
743.431	14648.8381
743.624	14383.76264
743.816	14470.77467
744.009	14420.18662
744.201	14353.40894
744.393	14434.35136
744.586	14580.04196
744.778	14497.0801
744.971	14446.49252
745.163	14586.11226
745.355	14537.54957
745.548	14525.40878
745.74	14375.66836
745.932	14804.63703
746.125	14397.92758
746.317	14450.53956
746.509	14391.8569
746.702	14515.29143
746.894	14511.24448
747.086	14458.63362
747.278	14410.0689
747.471	14403.99825
747.663	14527.43225
747.855	14371.6212
748.047	14634.67429
748.239	14634.67429
748.431	14240.08502
748.623	14132.82653
748.815	14286.62945
749.008	14713.58634
749.2	14624.55726
749.392	14683.23572
749.584	14319.00762
749.776	14768.21694
749.968	14244.1324
750.16	14695.37599
750.352	14238.06133
750.544	14304.84223
750.736	14333.17293
750.928	14181.39712
751.12	13940.55512
751.311	14031.63373
751.503	14620.51043
751.695	14357.45612
751.887	14118.65987
752.079	14047.82497
752.271	13962.81925
752.463	14284.6058
752.654	14480.89217
752.846	14610.39336
753.038	14082.23084
753.23	14207.7057
753.421	14045.80107
753.613	13962.81925
753.805	14189.4921
753.997	14041.75327
754.188	14203.65825
754.38	14268.41653
754.572	14278.53484
754.763	14335.19654
754.955	13768.50298
755.146	14043.77717
755.338	13578.20797
755.53	14096.39777
755.721	13920.31473
755.913	13916.26662
756.104	13845.42293
756.296	13622.74772
756.487	13393.95679
756.679	13833.27795
756.87	13284.60561
757.062	13258.27851
757.253	13416.23058
757.445	13414.20571
757.636	13367.63259
757.827	13205.62209
758.019	13365.60763
758.21	13592.37989
758.401	13236.00116
758.593	13604.52711
758.784	13553.91286
758.975	13476.97489
759.167	13432.4294
759.358	13383.83218
759.549	13187.39417
759.74	13067.89077
759.932	13278.53019
760.123	13233.97591
760.314	13187.39417
760.505	13221.82438
760.696	12873.40801
760.888	13055.73695
761.079	12646.44842
761.27	13063.83951
761.461	13229.92542
761.652	13001.0426
761.843	13225.87491
762.034	13456.72717
762.225	12964.57767
762.416	12999.01681
762.607	12699.1419
762.798	12780.20108
762.989	13171.19126
763.18	13128.65724
763.371	13098.27454
763.562	13157.01348
763.753	12958.50002
763.944	13233.97591
764.135	12772.09558
764.326	13122.58079
764.517	12652.52864
764.708	12796.41183
764.899	12887.59066
765.089	12656.58209
765.28	12528.88659
765.471	12587.67011
765.662	12518.75096
765.853	12818.70101
766.043	12413.33083
766.234	12664.68892
766.425	12261.25044
766.615	12853.14662
766.806	12662.66223
766.997	12431.5779
767.187	12571.45449
767.378	12520.7781
767.569	12514.69666
767.759	12626.18061
767.95	12757.91072
768.141	12324.11507
768.331	12530.91369
768.522	12322.08728
768.712	12409.27586
768.903	12447.79706
769.093	12180.1246
769.284	11979.28644
769.474	12021.89483
769.665	12352.50334
769.855	11894.05902
770.046	12011.7503
770.236	11855.49899
770.426	11940.73296
770.617	12050.29849
770.807	11944.79136
770.998	11898.11779
771.188	11829.11407
771.378	11806.78725
771.569	12139.55727
771.759	11932.61606
771.949	12224.74525
772.139	12103.04411
772.33	11908.26459
772.52	11790.54892
772.71	11843.32151
772.9	12084.7866
773.09	11965.08287
773.281	12119.27248
773.471	12153.75618
773.661	11760.10056
773.851	11756.04063
774.041	11756.04063
774.231	11745.89065
774.421	11347.83175
774.611	11538.78243
774.802	11477.84998
774.992	11475.81876
775.182	11490.03716
775.372	11713.40927
775.562	11343.76803
775.752	11879.85304
775.942	11321.41685
776.131	11839.26228
776.321	11490.03716
776.511	11668.74366
776.701	11305.16068
776.891	11319.38486
777.081	11457.53726
777.271	11315.32086
777.461	11333.60855
777.651	11091.73719
777.84	11122.23338
778.03	10961.59252
778.22	10880.22884
778.41	11014.46924
778.599	11103.93596
778.789	11203.54483
778.979	11311.25682
779.169	11502.22399
779.358	11301.09654
779.548	11504.25509
779.738	11160.85843
779.927	11189.31655
780.117	11498.16175
780.307	11433.16072
780.496	11110.0352
780.686	11362.05445
780.875	10806.98582
781.065	11144.59572
781.254	10975.8293
781.444	11205.5774
781.633	11246.22663
781.823	10935.15132
782.012	11103.93596
782.202	11211.67505
782.391	10979.89685
782.581	10778.49833
782.77	10957.52476
782.96	10971.76171
783.149	10513.85853
783.338	10695.05728
783.528	10654.34698
783.717	10493.49293
783.906	10579.01998
784.096	10554.58595
784.285	10509.78551
784.474	10369.23485
784.663	10350.89757
784.853	10505.71244
785.042	10289.76557
785.231	10741.86815
785.42	10477.19952
785.61	10591.23632
785.799	10301.99293
785.988	10656.38261
786.177	10273.46167
786.366	10324.40851
786.555	10310.14424
786.744	10340.70974
786.933	10065.51012
787.122	10267.34749
787.312	10155.23237
787.501	10261.23318
787.69	9916.592
787.879	10418.12903
788.068	10008.39991
788.257	10061.43119
788.445	10026.75798
788.634	10452.75788
788.823	10513.85853
789.012	10075.7072
789.201	9955.35892
789.39	10291.8035
789.579	10102.21796
789.768	10206.19892
789.957	10175.62002
790.145	10106.29633
790.334	9969.64015
790.523	9959.43935
790.712	9863.53396
790.9	10098.13954
791.089	9845.16538
791.278	9861.49306
791.467	9645.07296
791.655	9718.5933
791.844	9708.38333
792.033	9790.0524
792.221	9608.30527
792.41	9730.84475
792.599	9448.91954
792.787	9622.60442
792.976	9395.76928
793.164	9683.87785
793.353	9532.71127
793.541	9497.97162
793.73	9457.09553
793.918	9745.13742
794.107	9129.85022
794.295	9547.0145
794.484	9266.93613
794.672	9369.19001
794.861	9698.17298
795.049	9616.4763
795.238	9544.97123
795.426	9814.54841
795.614	9467.31516
795.803	9690.00443
795.991	9262.84511
796.179	9379.41313
796.368	9248.52601
796.556	9219.88534
796.744	9207.60976
796.932	9526.58108
797.121	9064.3493
797.309	9324.2034
797.497	9215.79355
797.685	9183.05677
797.874	9086.86724
798.062	9174.8719
798.25	8623.79422
798.438	9144.1762
798.626	9093.00813
798.814	9111.42987
799.002	8806.26477
799.19	8726.32369
799.378	8773.47179
799.566	8820.61024
799.755	8980.40026
799.943	9266.93613
800.131	9295.57139
800.318	9115.5234
800.506	8986.54387
800.694	8923.05222
800.882	8875.93447
801.07	8998.83062
801.258	9041.82927
801.446	9232.16032
801.634	8966.06455
801.822	8982.44814
802.01	8869.78798
802.197	9099.14886
802.385	9000.87835
802.573	9060.25491
802.761	8841.10223
802.949	8978.35235
803.136	8705.8215
803.324	9043.87663
803.512	9021.35468
803.699	8988.5917
803.887	8955.82422
804.075	8904.61596
804.262	8931.24564
804.45	8683.26695
804.638	8824.70878
804.825	8873.88566
805.013	8636.1002
805.201	8894.37298
805.388	8621.74315
805.576	9019.30713
805.763	8859.54348
805.951	9135.99003
806.138	8986.54387
806.326	9105.28944
806.513	8964.01652
806.701	9007.02143
806.888	8617.64097
807.075	8964.01652
807.263	8816.51162
807.45	9097.10197
807.638	8822.65952
807.825	9088.91422
808.012	8746.82405
808.2	9101.19574
808.387	8867.73912
808.574	8978.35235
808.761	8658.65944
808.949	8908.71303
809.136	8701.72083
809.323	8861.59241
809.51	8800.11644
809.698	8888.22697
809.885	8834.95482
810.072	8855.44555
810.259	8771.42207
810.446	8941.48703
810.633	8629.94729
810.82	9111.42987
811.008	8998.83062
811.195	9172.82564
811.382	8769.37234
811.569	9060.25491
811.756	8892.32433
811.943	8810.36356
812.13	8863.64133
812.317	9043.87663
812.504	8777.57116
812.691	9068.44363
812.878	8709.92208
813.064	8912.81003
813.251	8783.72009
813.438	8990.63952
813.625	8828.80725
813.812	8937.39053
813.999	8808.31418
814.186	8978.35235
814.372	8781.67047
814.559	9002.92606
814.746	8724.27356
814.933	8586.87222
815.12	8595.07763
815.306	8654.55793
815.493	8711.97235
815.68	8699.67048
815.866	8744.7741
816.053	9086.86724
816.24	8890.27566
816.426	8796.01746
816.613	8832.90565
816.799	8724.27356
816.986	8800.11644
817.173	9070.49076
817.359	8740.67414
817.546	8793.96795
817.732	8691.46886
817.919	8953.77611
818.105	8709.92208
818.292	8707.8718
818.478	8777.57116
818.665	8841.10223
818.851	8925.1006
819.037	8994.7351
819.224	8709.92208
819.41	8732.47399
819.597	8404.2234
819.783	8391.90455
819.969	8336.46107
820.156	8631.99828
820.342	8625.84526
820.528	8601.23149
820.714	8644.30382
820.901	8711.97235
821.087	8736.5741
821.273	8703.77117
821.459	8560.20255
821.646	8385.74486
821.832	8340.56848
822.018	8566.35737
822.204	8625.84526
822.39	8590.97496
822.576	8418.59452
822.762	8685.31745
822.948	8504.80151
823.134	8449.38661
823.32	8496.59277
823.507	8748.87399
823.693	8209.09249
823.879	8449.38661
824.065	8377.53167
824.25	8605.33398
824.436	8445.28125
824.622	8363.15784
824.808	8396.01091
824.994	8387.79811
825.18	8112.48819
825.366	8340.56848
825.552	7947.95305
825.738	8244.02366
825.923	8050.80272
826.109	8192.65232
826.295	8034.35019
826.481	7838.87644
826.667	7877.98604
826.852	8256.35095
827.038	7880.04424
827.224	7929.43469
827.409	7952.06802
827.595	8040.52004
827.781	7836.81783
827.966	8176.21087
828.152	7917.08819
828.338	8145.37971
828.523	7886.21869
828.709	8042.57662
828.894	7717.38288
829.08	8001.44123
829.266	7826.52448
829.451	8170.045
829.637	7869.75306
829.822	7807.99514
830.008	7692.66339
830.193	7869.75306
830.378	7766.81278
830.564	8102.20854
830.749	7894.45101
830.935	8001.44123
831.12	7542.22068
831.305	7886.21869
831.491	7525.72689
831.676	7754.45644
831.861	7696.78352
832.047	7789.46411
832.232	7525.72689
832.417	7655.57845
832.602	7569.02017
832.788	7517.47948
832.973	7278.15375
833.158	7498.92155
833.343	7624.66909
833.528	7756.51588
833.714	7298.79685
833.899	7319.43775
834.084	7040.59903
834.269	7515.41758
834.454	7251.31443
834.639	7443.23727
834.824	7426.73519
835.009	7606.12117
835.194	7525.72689
835.379	7482.42414
835.564	7313.24571
835.749	7573.14284
835.934	7251.31443
836.119	7362.77651
836.304	6893.78705
836.489	7030.26388
836.674	6918.60833
836.859	6827.58097
837.044	6833.78877
837.228	6808.95631
837.413	6433.99891
837.598	7040.59903
837.783	6487.90675
837.968	6935.15405
838.152	6759.28152
838.337	7267.83138
838.522	6947.56239
838.707	7129.45827
838.891	6889.64985
839.076	6986.85009
839.261	6738.5798
839.445	7098.46556
839.63	6883.44388
839.815	7156.31457
839.999	6670.24788
840.184	6982.71492
840.368	6922.7449
840.553	7121.19404
840.737	6997.1876
840.922	7214.14615
841.106	6686.81549
841.291	6804.81724
841.475	6581.17172
841.66	6895.85561
841.844	6846.20378
842.029	6935.15405
842.213	6804.81724
842.397	6763.42159
842.582	6514.85478
842.766	6684.74462
842.951	6409.11306
843.135	6808.95631
843.319	6452.66109
843.504	6450.58761
843.688	6355.18223
843.872	6682.67372
844.056	6143.4548
844.241	6577.02761
844.425	6384.22387
844.609	6402.89108
844.793	6305.38592
844.977	6390.44648
845.161	6116.4524
845.346	6276.33186
845.53	6135.14679
845.714	6174.60648
845.898	5929.40364
846.082	6180.83618
846.266	5979.30196
846.45	6295.00999
846.634	6205.75288
846.818	5966.82866
847.002	5977.22314
847.186	6292.93474
847.37	5823.32459
847.554	5998.01034
847.738	6052.04603
847.922	6041.65578
848.106	5981.38077
848.29	6110.22051
848.473	5985.5383
848.657	6147.60866
848.841	6058.27989
849.025	6257.65182
849.209	6018.79518
849.392	6070.74698
849.576	5831.64673
849.76	6008.40305
849.944	5667.21447
850.127	5991.77442
850.311	5700.5291
850.495	5781.7082
850.678	5719.26593
850.862	5954.3545
851.046	5700.5291
851.229	5850.37017
851.413	5383.7965
851.596	5558.90021
851.78	5554.73301
851.964	5642.22453
852.147	5342.0807
852.331	5475.5382
852.514	5233.57577
852.698	5621.39699
852.881	5450.52225
853.065	5771.30263
853.248	5663.04972
853.431	5804.59838
853.615	5281.57613
853.798	5629.72829
853.982	5475.5382
854.165	5602.65019
854.348	5452.60704
854.532	5475.5382
854.715	5250.27295
854.898	5454.69181
855.081	5216.87709
855.265	5429.67303
855.448	5108.29934
855.631	5231.48851
855.814	5012.19747
855.997	5216.87709
856.181	4865.86188
856.364	5051.89766
856.547	5292.00936
856.73	5191.82627
856.913	4890.95597
857.096	5221.0519
857.279	4924.40962
857.462	5218.96451
857.645	4884.68275
857.828	4989.20934
858.011	4886.77385
858.194	5099.9446
858.377	5024.73527
858.56	5410.90673
858.743	5041.45105
858.926	5125.0077
859.109	5202.26452
859.292	5145.89107
859.475	4951.58639
859.658	5122.91924
859.841	4765.45268
860.023	4934.86268
860.206	4821.93931
860.389	5139.6263
860.572	4572.85616
860.755	4734.06408
860.937	4633.58643
861.12	4725.69292
861.303	4673.36503
861.486	4924.40962
861.668	4683.83174
861.851	4551.91034
862.034	4466.00932
862.216	4658.7107
862.399	4401.03522
862.581	4677.55178
862.764	4306.68074
862.947	4748.71273
863.129	4336.04017
863.312	4275.21954
863.494	4220.67536
863.677	4463.91371
863.859	4357.00859
864.042	4518.39241
864.224	4262.6337
864.406	4350.71829
864.589	4082.15282
864.771	4071.65498
864.954	4191.29946
865.136	4315.06958
865.318	4172.41277
865.501	4153.52436
865.683	4308.77799
865.865	4405.22773
866.048	4369.58861
866.23	4438.76468
866.412	4254.24272
866.594	4489.05958
866.777	4321.36099
866.959	4405.22773
867.141	4145.12896
867.323	4262.6337
867.505	4054.85734
867.687	4197.59465
867.869	4021.25811
868.052	4226.96966
868.234	4143.03006
868.416	4195.49627
868.598	4082.15282
868.78	4220.67536
868.962	3918.32785
869.144	4159.82068
869.326	3962.4468
869.508	4075.85418
869.69	3985.55315
869.872	3951.9431
870.054	3884.70744
870.236	4019.15798
870.417	3863.69209
870.599	4111.54403
870.781	3830.06337
870.963	3930.93418
871.145	3804.83851
871.327	4103.14696
871.508	3972.94999
871.69	3939.33799
871.872	3943.53977
872.054	4002.35622
872.235	3926.73215
872.417	4019.15798
872.599	3825.85943
872.78	3895.21437
872.962	3842.67474
873.144	4067.45569
873.325	3809.04285
873.507	4128.33717
873.689	3777.50838
873.87	4086.35182
874.052	3800.63409
874.233	4046.45803
874.415	3859.48878
874.596	3968.74878
874.778	3718.63229
874.959	3912.02442
875.141	3697.60144
875.322	3771.20096
875.503	3699.70461
875.685	3935.13612
875.866	3727.04409
876.048	4063.25632
876.229	3670.25846
876.41	3752.27763
876.592	3693.39504
876.773	3924.6311
876.954	3710.22018
877.136	4170.31414
877.317	3689.18856
877.498	4105.24626
877.679	3731.24987
877.86	3916.22673
878.042	3724.94117
878.223	4031.75843
878.404	3619.77068
878.585	3691.29181
878.766	3724.94117
878.947	3876.30154
879.128	3691.29181
879.309	3832.16531
879.49	3657.63754
879.672	3886.80887
879.853	3869.9969
880.034	3680.77537
880.215	3817.4513
880.396	3865.79371
880.576	3745.96951
880.757	3857.38709
880.938	3697.60144
881.119	3926.73215
881.3	3872.09847
881.481	3783.81563
881.662	3729.14699
881.843	3773.30345
882.023	3699.70461
882.204	4029.65841
882.385	3720.73527
882.566	3691.29181
882.747	3466.13768
882.927	3844.77656
883.108	3653.43041
883.289	3762.79079
883.469	3718.63229
883.65	3884.70744
883.831	3758.58558
884.011	3935.13612
884.192	3657.63754
884.373	3760.68819
884.553	3598.7309
884.734	3773.30345
884.914	3672.36188
885.095	3804.83851
885.275	3518.76275
885.456	3813.24711
885.636	3645.01593
885.817	4019.15798
885.997	3754.3803
886.178	3794.32731
886.358	3527.18171
886.538	3752.27763
886.719	3737.5584
886.899	4038.05838
887.08	3947.74148
887.26	3962.4468
887.44	3607.14704
887.621	3691.29181
887.801	3558.75016
887.981	3769.09844
888.161	3680.77537
888.342	3573.48069
888.522	3809.04285
888.702	3884.70744
888.882	4000.25591
889.062	4090.55073
889.242	3735.45558
889.423	3901.51829
889.603	3951.9431
889.783	3998.15558
889.963	3691.29181
890.143	3783.81563
890.323	3579.79349
890.503	3859.48878
890.683	3727.04409
890.863	3674.46528
891.043	3402.97274
891.223	3720.73527
891.403	3855.28538
891.583	3930.93418
891.763	3487.18907
891.943	3853.18366
892.122	3615.56287
892.302	3701.80776
892.482	3632.39365
892.662	3693.39504
892.842	3682.8787
893.022	3750.17494
893.201	3497.71408
893.381	3752.27763
893.561	3445.08448
893.741	3480.87384
893.92	3514.55316
894.1	3693.39504
894.28	3539.80959
894.459	3800.63409
894.639	3457.71662
894.819	3802.73631
894.998	3632.39365
895.178	3788.02036
895.357	3438.76818
895.537	3362.96002
895.716	3405.07849
895.896	3362.96002
896.075	3318.72812
896.255	3362.96002
896.434	3346.11068
896.614	3339.79189
896.793	3177.55716
896.973	3455.61131
897.152	3327.15383
897.331	3390.33783
897.511	3091.13254
897.69	3341.89817
897.87	3034.20421
898.049	3242.88442
898.228	3135.40218
898.407	3038.42151
898.587	2871.79236
898.766	3223.92009
898.945	3078.48278
899.124	3160.69595
899.304	3076.37444
899.483	3101.67357
899.662	2861.24313
899.841	3067.94089
900.02	3017.33439
900.199	2994.13679
900.378	2886.56067
900.557	3179.66474
900.737	2941.40819
900.916	3006.79026
901.095	2907.65703
901.274	3029.98685
901.453	2797.94042
901.632	3055.2901
901.811	2937.1895
901.989	2911.87613
902.168	2825.37314
902.347	2975.15557
902.526	2641.7419
902.705	2787.38876
902.884	2542.49882
903.063	2698.74153
903.242	2485.47507
903.42	2565.7283
903.599	2356.61426
903.778	2572.06336
903.957	2586.84477
904.135	2941.40819
904.314	2565.7283
904.493	2582.62157
904.672	2468.57757
904.85	2525.60376
905.029	2310.1305
905.207	2491.81145
905.386	2371.40354
905.565	2521.37989
905.743	2257.30244
905.922	2354.50146
906.1	2164.31147
906.279	2295.33923
906.457	1971.94119
906.636	2316.46947
906.814	2073.41866
906.993	2174.87946
907.171	2035.36643
907.35	2248.84941
907.528	2075.53261
907.707	2196.0148
907.885	1988.85516
908.063	2132.6063
908.242	1887.36568
908.42	1976.16972
908.598	1853.53304
908.777	1961.36976
908.955	1963.48406
909.133	2003.65455
909.311	1781.63467
909.49	1935.99772
909.668	1724.53553
909.846	1929.65458
910.024	1741.45408
910.202	1948.68385
910.38	1952.91251
910.559	1912.73928
910.737	1838.73087
910.915	1950.79818
911.093	1809.12583
911.271	2003.65455
911.449	1796.43769
911.627	1910.62485
911.805	1724.53553
911.983	1900.05258
912.161	1796.43769
912.339	1851.41846
912.517	1741.45408
912.695	1940.22645
912.872	1897.93811
913.05	1963.48406
913.228	1826.0431
913.406	1974.05546
913.584	1851.41846
913.762	2048.05076
913.939	1724.53553
914.117	1988.85516
914.295	1758.37239
914.473	1752.02805
914.65	1885.25118
914.828	1881.02216
915.006	1690.69781
915.184	1978.28398
915.361	1658.97426
915.539	1965.59835
915.716	1690.69781
915.894	1847.18928
916.072	1599.75546
916.249	1965.59835
916.427	1752.02805
916.604	2050.16479
916.782	1792.20828
916.959	1809.12583
917.137	1718.19102
917.314	1881.02216
917.492	1551.11032
917.669	1781.63467
917.847	1445.35816
918.024	1771.06097
918.201	1606.10041
918.379	1758.37239
918.556	1551.11032
918.733	1804.89647
918.911	1532.07507
919.088	1703.38705
919.265	1559.5704
919.442	1859.87676
919.62	1407.28726
919.797	1690.69781
919.974	1568.03046
920.151	1548.9953
920.328	1388.25188
920.506	1557.45538
920.683	1405.17222
920.86	1587.0655
921.037	1400.94213
921.214	1565.91545
921.391	1364.9865
921.568	1521.49989
921.745	1293.07638
921.922	1430.5528
922.099	1411.51736
922.276	1341.72126
922.453	1405.17222
922.63	1434.7829
922.807	1200.02006
922.984	1422.0926
923.161	1216.93897
923.338	1474.96889
923.514	1115.42911
923.691	1331.14621
923.868	1235.97299
924.045	1295.19135
924.222	1195.79036
924.399	1411.51736
924.575	1149.26471
924.752	1255.00724
924.929	1250.77739
925.105	1362.87147
925.282	1115.42911
925.459	1159.83855
925.635	1016.04441
925.812	1174.64211
925.989	1024.5022
926.165	1233.85809
926.342	965.29979
926.518	1166.18291
926.695	946.27156
926.871	1060.44886
927.048	895.53252
927.224	1032.96009
927.401	1005.47231
927.577	1039.30357
927.754	870.16469
927.93	988.55727
928.107	963.18551
928.283	1056.21976
928.459	916.67325
928.636	1060.44886
928.812	887.07645
928.988	965.29979
929.165	836.34282
929.341	920.90149
929.517	851.13962
929.693	903.98872
929.87	851.13962
930.046	745.45822
930.222	654.59284
930.398	946.27156
930.574	646.14132
930.751	703.19269
930.927	679.94853
931.103	751.79841
931.279	597.54891
931.455	783.50075
931.631	701.07953
931.807	827.8877
931.983	553.18786
932.159	675.72246
932.335	582.76124
932.511	679.94853
932.687	489.82546
932.863	603.88667
933.039	500.38496
933.215	527.84137
933.391	456.03755
933.566	599.66148
933.742	576.42387
933.918	591.21126
934.094	481.37812
934.27	504.60887
934.445	424.36495
934.621	618.67523
934.797	365.25246
934.973	386.36258
935.148	367.3634
935.324	464.48416
935.5	401.14065
935.675	352.58721
935.851	354.69804
936.027	396.91826
936.202	320.92681
936.378	394.80709
936.553	320.92681
936.729	342.0333
936.904	223.86052
937.08	276.60902
937.255	244.95848
937.431	230.1897
937.606	141.59765
937.782	255.50818
937.957	211.20268
938.133	126.83588
938.308	156.36047
938.483	213.31227
938.659	215.42188
938.834	156.36047
939.009	187.99852
939.185	187.99852
939.36	152.14241
939.535	232.29947
939.71	156.36047
939.886	118.40105
940.061	88.88192
940.236	67.79949
940.411	181.67054
940.586	88.88192
940.761	80.44868
940.937	53.04315
941.112	101.53244
941.287	97.31551
941.462	46.71934
941.637	145.81549
941.812	145.81549
941.987	95.20708
942.162	88.88192
942.337	126.83588
942.512	101.53244
942.687	88.88192
942.862	107.85801
943.037	10.88843
943.212	34.07236
943.386	48.82725
943.561	131.05342
943.736	8.78094
943.911	59.36716
944.086	105.74946
944.26	76.23219
944.435	42.50359
944.61	95.20708
944.785	19.31862
944.959	86.77357
945.134	72.0158
945.309	59.36716
945.483	93.09867
945.658	109.96657
945.833	116.2924
946.007	135.27105
946.182	120.50972
946.357	120.50972
946.531	-3.86348
946.706	84.66525
946.88	90.99028
947.055	55.15113
947.229	177.45199
947.404	114.18377
947.578	84.66525
947.752	55.15113
947.927	84.66525
948.101	101.53244
948.276	12.99594
948.45	59.36716
948.624	162.68771
948.799	118.40105
948.973	46.71934
949.147	101.53244
949.321	84.66525
949.496	34.07236
949.67	103.64094
949.844	38.28793
950.018	95.20708
950.193	122.61842
950.367	40.39575
950.541	84.66525
950.715	10.88843
950.889	97.31551
951.063	84.66525
951.237	101.53244
951.411	61.47521
951.585	65.69137
951.759	93.09867
951.933	59.36716
952.107	69.90763
952.281	120.50972
952.455	97.31551
952.629	10.88843
952.803	93.09867
952.977	99.42397
953.151	143.70656
953.325	88.88192
953.499	69.90763
953.672	120.50972
953.846	118.40105
954.02	36.18013
954.194	171.12431
954.368	53.04315
954.541	17.21104
954.715	38.28793
954.889	17.21104
955.062	53.04315
955.236	107.85801
955.41	95.20708
955.583	97.31551
955.757	78.34042
955.93	166.90597
956.104	17.21104
956.278	152.14241
956.451	88.88192
956.625	59.36716
956.798	139.48876
956.972	76.23219
957.145	101.53244
957.319	152.14241
957.492	105.74946
957.665	103.64094
957.839	84.66525
958.012	147.92445
958.185	40.39575
958.359	86.77357
958.532	2.45862
958.705	120.50972
958.879	196.43612
959.052	101.53244
959.225	63.58328
959.398	103.64094
959.572	29.85689
959.745	177.45199
959.918	114.18377
960.091	126.83588
960.264	63.58328
960.438	88.88192
960.611	101.53244
960.784	112.07516
960.957	44.61145
961.13	145.81549
961.303	135.27105
961.476	76.23219
961.649	67.79949
961.822	97.31551
961.995	93.09867
962.168	93.09867
962.341	34.07236
962.514	88.88192
962.686	53.04315
962.859	74.12398
963.032	67.79949
963.205	101.53244
963.378	93.09867
963.551	120.50972
963.723	42.50359
963.896	29.85689
964.069	105.74946
964.242	139.48876
964.414	76.23219
964.587	118.40105
964.76	101.53244
964.932	21.42623
965.105	169.01513
965.278	143.70656
965.45	72.0158
965.623	50.93519
965.795	76.23219
965.968	107.85801
966.14	53.04315
966.313	78.34042
966.485	10.88843
966.658	38.28793
966.83	61.47521
967.003	166.90597
967.175	103.64094
967.348	23.53386
967.52	34.07236
967.692	31.96461
967.865	72.0158
968.037	61.47521
968.209	50.93519
968.382	69.90763
968.554	88.88192
968.726	69.90763
968.898	103.64094
969.071	80.44868
969.243	17.21104
969.415	69.90763
969.587	-10.18537
969.759	25.64151
969.932	50.93519
970.104	19.31862
970.276	63.58328
970.448	82.55695
970.62	44.61145
970.792	42.50359
970.964	131.05342
971.136	-12.29261
971.308	84.66525
971.48	80.44868
971.652	27.74919
971.824	53.04315
971.996	76.23219
972.168	76.23219
972.339	88.88192
972.511	109.96657
972.683	46.71934
972.855	8.78094
973.027	72.0158
973.199	0.35123
973.37	88.88192
973.542	17.21104
973.714	55.15113
973.886	50.93519
974.057	76.23219
974.229	-8.0781
974.401	86.77357
974.572	133.16222
974.744	53.04315
974.915	29.85689
975.087	25.64151
975.259	50.93519
975.43	72.0158
975.602	97.31551
975.773	46.71934
975.945	72.0158
976.116	65.69137
976.288	44.61145
976.459	40.39575
976.63	67.79949
976.802	27.74919
976.973	36.18013
977.145	97.31551
977.316	44.61145
977.487	0.35123
977.659	97.31551
977.83	25.64151
978.001	25.64151
978.172	59.36716
978.344	-16.50703
978.515	29.85689
978.686	99.42397
978.857	101.53244
979.028	50.93519
979.2	15.10348
979.371	46.71934
979.542	61.47521
979.713	69.90763
979.884	63.58328
980.055	19.31862
980.226	38.28793
980.397	74.12398
980.568	128.94464
980.739	25.64151
980.91	105.74946
981.081	53.04315
981.252	76.23219
981.423	10.88843
981.594	-58.64579
981.765	-18.61421
981.936	0.35123
982.106	-3.86348
982.277	21.42623
982.448	50.93519
982.619	-22.82848
982.79	-29.1497
982.96	44.61145
983.131	-31.25673
983.302	34.07236
983.472	-20.72135
983.643	82.55695
983.814	25.64151
983.984	128.94464
984.155	-16.50703
984.326	42.50359
984.496	25.64151
984.667	67.79949
984.837	-3.86348
985.008	59.36716
985.178	65.69137
985.349	-12.29261
985.519	59.36716
985.69	44.61145
985.86	46.71934
986.031	44.61145
986.201	-64.96574
986.371	42.50359
986.542	29.85689
986.712	122.61842
986.882	97.31551
987.053	48.82725
987.223	21.42623
987.393	25.64151
987.563	44.61145
987.734	12.99594
987.904	29.85689
988.074	59.36716
988.244	42.50359
988.414	42.50359
988.585	25.64151
988.755	-58.64579
988.925	46.71934
989.095	27.74919
989.265	29.85689
989.435	19.31862
989.605	2.45862
989.775	10.88843
989.945	-16.50703
990.115	19.31862
990.285	-56.53909
990.455	0.35123
990.625	21.42623
990.795	50.93519
990.965	4.56604
991.134	0.35123
991.304	2.45862
991.474	69.90763
991.644	-48.11204
991.814	34.07236
991.984	23.53386
992.153	88.88192
992.323	-64.96574
992.493	27.74919
992.662	27.74919
992.832	101.53244
993.002	44.61145
993.171	88.88192
993.341	67.79949
993.511	19.31862
993.68	19.31862
993.85	101.53244
994.019	27.74919
994.189	8.78094
994.358	0.35123
994.528	36.18013
994.697	17.21104
994.867	78.34042
995.036	-16.50703
995.206	44.61145
995.375	34.07236
995.544	82.55695
995.714	-8.0781
995.883	59.36716
996.052	-39.68458
996.222	48.82725
996.391	53.04315
996.56	-24.93558
996.73	34.07236
996.899	-8.0781
997.068	-37.57766
997.237	4.56604
997.406	97.31551
997.576	-62.85911
997.745	-41.79148
997.914	90.99028
998.083	0.35123
998.252	25.64151
998.421	57.25913
998.59	6.67348
998.759	36.18013
998.928	-14.39983
999.097	-22.82848
999.266	34.07236
999.435	-12.29261
999.604	-22.82848
999.773	21.42623
999.942	-29.1497
1000.111	25.64151
1000.28	17.21104
1000.448	63.58328
1000.617	46.71934
1000.786	65.69137
1000.955	17.21104
1001.124	2.45862
1001.292	-20.72135
1001.461	23.53386
1001.63	10.88843
1001.798	-5.9708
1001.967	29.85689
1002.136	27.74919
1002.304	40.39575
1002.473	12.99594
1002.642	61.47521
1002.81	-58.64579
1002.979	57.25913
1003.147	21.42623
1003.316	29.85689
1003.484	48.82725
1003.653	-16.50703
1003.821	0.35123
1003.99	-54.43236
1004.158	8.78094
1004.327	21.42623
1004.495	40.39575
1004.663	10.88843
1004.832	19.31862
1005	109.96657
1005.168	-31.25673
1005.337	50.93519
1005.505	-41.79148
1005.673	93.09867
1005.842	12.99594
1006.01	46.71934
1006.178	34.07236
1006.346	67.79949
1006.514	46.71934
1006.683	-22.82848
1006.851	-5.9708
1007.019	-50.21884
1007.187	8.78094
1007.355	-31.25673
1007.523	44.61145
1007.691	10.88843
1007.859	-98.66823
1008.027	48.82725
1008.195	-58.64579
1008.363	10.88843
1008.531	-31.25673
1008.699	40.39575
1008.867	0.35123
1009.035	27.74919
1009.203	-54.43236
1009.37	2.45862
1009.538	31.96461
1009.706	17.21104
1009.874	78.34042
1010.042	-8.0781
1010.209	36.18013
1010.377	74.12398
1010.545	6.67348
1010.713	-31.25673
1010.88	-3.86348
1011.048	-8.0781
1011.216	-3.86348
1011.383	27.74919
1011.551	-3.86348
1011.718	-33.36373
1011.886	50.93519
1012.054	-3.86348
1012.221	-39.68458
1012.389	-20.72135
1012.556	38.28793
1012.724	42.50359
1012.891	27.74919
1013.058	-16.50703
1013.226	25.64151
1013.393	42.50359
1013.561	-12.29261
1013.728	-18.61421
1013.895	-22.82848
1014.063	0.35123
1014.23	-54.43236
1014.397	57.25913
1014.565	19.31862
1014.732	29.85689
1014.899	-41.79148
1015.066	25.64151
1015.233	76.23219
1015.401	-1.75614
1015.568	25.64151
1015.735	63.58328
1015.902	-41.79148
1016.069	59.36716
1016.236	4.56604
1016.403	17.21104
1016.57	31.96461
1016.737	-46.00521
1016.904	72.0158
1017.071	-8.0781
1017.238	0.35123
1017.405	-41.79148
1017.572	-33.36373
1017.739	-22.82848
1017.906	34.07236
1018.073	-18.61421
1018.24	-75.49848
1018.407	0.35123
1018.573	-39.68458
1018.74	-67.07234
1018.907	42.50359
1019.074	-52.32561
1019.241	19.31862
1019.407	-33.36373
1019.574	-31.25673
1019.741	46.71934
1019.907	19.31862
1020.074	78.34042
1020.241	-10.18537
1020.407	-54.43236
1020.574	-96.56202
1020.74	8.78094
1020.907	-3.86348
1021.073	-50.21884
1021.24	17.21104
1021.406	-14.39983
1021.573	-14.39983
1021.739	19.31862
1021.906	34.07236
1022.072	-14.39983
1022.239	-52.32561
1022.405	-10.18537
1022.571	8.78094
1022.738	44.61145
1022.904	-16.50703
1023.07	42.50359
1023.237	53.04315
1023.403	-24.93558
1023.569	-16.50703
1023.735	-31.25673
1023.902	17.21104
1024.068	78.34042
1024.234	-39.68458
1024.4	38.28793
1024.566	2.45862
1024.732	36.18013
1024.898	-31.25673
1025.065	-29.1497
1025.231	12.99594
1025.397	-10.18537
1025.563	-41.79148
1025.729	65.69137
1025.895	-8.0781
1026.061	17.21104
1026.227	-58.64579
1026.392	46.71934
1026.558	36.18013
1026.724	29.85689
1026.89	-3.86348
1027.056	-46.00521
1027.222	76.23219
1027.388	0.35123
1027.553	25.64151
1027.719	-62.85911
1027.885	-54.43236
1028.051	38.28793
1028.216	-1.75614
1028.382	40.39575
1028.548	8.78094
1028.713	69.90763
1028.879	-37.57766
1029.045	-16.50703
1029.21	6.67348
1029.376	-48.11204
1029.541	0.35123
1029.707	-5.9708
1029.873	-35.47071
1030.038	-50.21884
1030.204	-92.34952
1030.369	-33.36373
1030.534	25.64151
1030.7	-41.79148
1030.865	63.58328
1031.031	36.18013
1031.196	76.23219
1031.361	17.21104
1031.527	-58.64579
1031.692	10.88843
1031.857	27.74919
1032.023	31.96461
1032.188	25.64151
1032.353	-90.24323
1032.518	-16.50703
1032.684	88.88192
1032.849	21.42623
1033.014	-54.43236
1033.179	-50.21884
1033.344	-64.96574
1033.509	-58.64579
1033.674	4.56604
1033.839	-3.86348
1034.004	34.07236
1034.17	-22.82848
1034.335	-75.49848
1034.5	-67.07234
1034.664	76.23219
1034.829	-29.1497
1034.994	-29.1497
1035.159	17.21104
1035.324	-5.9708
1035.489	-24.93558
1035.654	-24.93558
1035.819	44.61145
1035.984	50.93519
1036.148	-14.39983
1036.313	-5.9708
1036.478	-29.1497
1036.643	25.64151
1036.807	2.45862
1036.972	-22.82848
1037.137	-16.50703
1037.301	-22.82848
1037.466	55.15113
1037.631	17.21104
1037.795	0.35123
1037.96	50.93519
1038.124	-8.0781
1038.289	8.78094
1038.454	40.39575
1038.618	-46.00521
1038.783	-5.9708
1038.947	55.15113
1039.111	-24.93558
1039.276	-29.1497
1039.44	4.56604
1039.605	2.45862
1039.769	59.36716
1039.933	17.21104
1040.098	42.50359
1040.262	-24.93558
1040.426	-50.21884
1040.591	-5.9708
1040.755	-8.0781
1040.919	19.31862
1041.083	-12.29261
1041.248	69.90763
1041.412	8.78094
1041.576	-22.82848
1041.74	-8.0781
1041.904	-16.50703
1042.068	17.21104
1042.232	-18.61421
1042.397	-29.1497
1042.561	44.61145
1042.725	97.31551
1042.889	0.35123
1043.053	-69.17891
1043.217	-14.39983
1043.381	21.42623
1043.544	4.56604
1043.708	63.58328
1043.872	-39.68458
1044.036	80.44868
1044.2	0.35123
1044.364	12.99594
1044.528	-90.24323
1044.691	-75.49848
1044.855	69.90763
1045.019	12.99594
1045.183	8.78094
1045.346	-14.39983
1045.51	31.96461
1045.674	-81.81781
1045.837	25.64151
1046.001	-33.36373
1046.165	21.42623
1046.328	29.85689
1046.492	-33.36373
1046.655	15.10348
1046.819	-12.29261
1046.983	27.74919
1047.146	-88.13691
1047.31	-92.34952
1047.473	-69.17891
1047.636	-31.25673
1047.8	-16.50703
1047.963	-18.61421
1048.127	-12.29261
1048.29	-75.49848
