Data from absorb_only_2.23.25_USB4F045381__53__0158.txt Node

Date: Sun Feb 23 19:22:17 EST 2025
User: ssocol
Spectrometer: USB4F04538
Trigger mode: 4
Integration Time (sec): 2.600000E-3
Scans to average: 1
Electric dark correction enabled: true
Nonlinearity correction enabled: true
Boxcar width: 0
XAxis mode: Wavelengths
Number of Pixels in Spectrum: 3648
>>>>>Begin Spectral Data<<<<<
345.52	43.55752
345.736	43.55752
345.952	43.55752
346.168	-7.02445
346.384	20.37242
346.6	-32.31023
346.816	-82.87101
347.032	28.80304
347.248	41.44967
347.464	64.63732
347.68	-2.80981
347.896	-25.98912
348.112	-19.66778
348.328	85.71941
348.544	3.51233
348.76	-19.66778
348.975	-40.73804
349.191	14.04971
349.407	-0.70246
349.623	-21.77492
349.839	3.51233
350.055	26.69535
350.27	-99.72133
350.486	-7.02445
350.702	43.55752
350.918	-91.29638
351.133	-59.69913
351.349	11.94218
351.565	1.40492
351.781	24.58768
351.996	-40.73804
352.212	7.72721
352.428	-38.63112
352.644	-2.80981
352.859	26.69535
353.075	28.80304
353.291	-17.56062
353.506	-2.80981
353.722	43.55752
353.938	-49.16544
354.153	28.80304
354.369	1.40492
354.584	60.42118
354.8	-19.66778
355.016	-19.66778
355.231	-13.34623
355.447	-108.14586
355.662	28.80304
355.878	-51.27223
356.093	3.51233
356.309	-38.63112
356.524	-36.52418
356.74	30.91075
356.955	-76.55171
357.171	-21.77492
357.386	-32.31023
357.602	-2.80981
357.817	-38.63112
358.033	26.69535
358.248	30.91075
358.464	-21.77492
358.679	-4.91714
358.895	1.40492
359.11	-11.23899
359.325	14.04971
359.541	16.15725
359.756	51.98916
359.972	9.83468
360.187	-11.23899
360.402	-108.14586
360.618	43.55752
360.833	-49.16544
361.048	3.51233
361.264	11.94218
361.479	-13.34623
361.694	-17.56062
361.909	-32.31023
362.125	14.04971
362.34	39.34183
362.555	26.69535
362.77	-21.77492
362.986	81.50281
363.201	30.91075
363.416	-66.01904
363.631	54.09713
363.847	-89.19007
364.062	-57.59244
364.277	-66.01904
364.492	51.98916
364.707	41.44967
364.922	35.12624
365.138	-7.02445
365.353	-0.70246
365.568	-38.63112
365.783	35.12624
365.998	-19.66778
366.213	-23.88203
366.428	-49.16544
366.643	26.69535
366.858	-2.80981
367.073	35.12624
367.288	22.48004
367.503	-19.66778
367.718	-28.09618
367.933	16.15725
368.148	-36.52418
368.363	39.34183
368.578	-78.65817
368.793	54.09713
369.008	14.04971
369.223	-21.77492
369.438	-11.23899
369.653	-53.37899
369.868	26.69535
370.083	-51.27223
370.298	-15.45344
370.513	45.6654
370.728	-34.41722
370.943	14.04971
371.157	-23.88203
371.372	-30.20322
371.587	-49.16544
371.802	83.6111
372.017	-19.66778
372.232	-36.52418
372.446	33.01848
372.661	-47.05863
372.876	1.40492
373.091	43.55752
373.306	18.26482
373.52	-44.95179
373.735	1.40492
373.95	-36.52418
374.165	37.23403
374.379	-21.77492
374.594	-72.33872
374.809	37.23403
375.023	-9.13173
375.238	-70.23219
375.453	-51.27223
375.667	-55.48573
375.882	35.12624
376.097	-44.95179
376.311	39.34183
376.526	9.83468
376.741	-21.77492
376.955	-19.66778
377.17	-61.80579
377.384	-74.44523
377.599	3.51233
377.813	-44.95179
378.028	-21.77492
378.242	-34.41722
378.457	1.40492
378.672	54.09713
378.886	18.26482
379.101	-34.41722
379.315	5.61975
379.53	28.80304
379.744	-19.66778
379.958	-32.31023
380.173	-30.20322
380.387	37.23403
380.602	-55.48573
380.816	-4.91714
381.031	-36.52418
381.245	-19.66778
381.459	-15.45344
381.674	-49.16544
381.888	18.26482
382.103	-74.44523
382.317	37.23403
382.531	-11.23899
382.746	9.83468
382.96	26.69535
383.174	20.37242
383.388	-9.13173
383.603	20.37242
383.817	-13.34623
384.031	-32.31023
384.246	39.34183
384.46	14.04971
384.674	24.58768
384.888	-47.05863
385.103	-4.91714
385.317	3.51233
385.531	26.69535
385.745	-30.20322
385.959	33.01848
386.174	-19.66778
386.388	64.63732
386.602	-76.55171
386.816	-30.20322
387.03	-32.31023
387.244	60.42118
387.458	35.12624
387.672	-38.63112
387.887	-97.61513
388.101	-7.02445
388.315	-44.95179
388.529	-30.20322
388.743	-23.88203
388.957	-51.27223
389.171	73.06989
389.385	30.91075
389.599	-30.20322
389.813	5.61975
390.027	37.23403
390.241	-28.09618
390.455	-13.34623
390.669	-0.70246
390.883	-11.23899
391.097	-38.63112
391.311	54.09713
391.525	-44.95179
391.738	1.40492
391.952	56.20513
392.166	-40.73804
392.38	58.31314
392.594	-55.48573
392.808	-40.73804
393.022	-7.02445
393.236	-40.73804
393.449	-57.59244
393.663	5.61975
393.877	-23.88203
394.091	-70.23219
394.305	-49.16544
394.518	-25.98912
394.732	-23.88203
394.946	70.96171
395.16	-23.88203
395.373	-4.91714
395.587	-23.88203
395.801	-23.88203
396.015	-2.80981
396.228	-23.88203
396.442	-40.73804
396.656	68.85356
396.869	-9.13173
397.083	-55.48573
397.297	70.96171
397.51	26.69535
397.724	-15.45344
397.938	-7.02445
398.151	-2.80981
398.365	-80.7646
398.578	43.55752
398.792	-0.70246
399.005	-49.16544
399.219	-11.23899
399.433	-28.09618
399.646	11.94218
399.86	-15.45344
400.073	5.61975
400.287	-36.52418
400.5	64.63732
400.714	-70.23219
400.927	51.98916
401.141	-47.05863
401.354	35.12624
401.567	-74.44523
401.781	-25.98912
401.994	30.91075
402.208	-19.66778
402.421	-2.80981
402.635	9.83468
402.848	-2.80981
403.061	37.23403
403.275	5.61975
403.488	14.04971
403.701	28.80304
403.915	-7.02445
404.128	51.98916
404.341	-47.05863
404.555	9.83468
404.768	64.63732
404.981	9.83468
405.195	24.58768
405.408	7.72721
405.621	-23.88203
405.834	9.83468
406.048	-53.37899
406.261	3.51233
406.474	64.63732
406.687	-40.73804
406.9	1.40492
407.114	54.09713
407.327	9.83468
407.54	-66.01904
407.753	-0.70246
407.966	26.69535
408.179	37.23403
408.392	-80.7646
408.605	-30.20322
408.819	33.01848
409.032	-4.91714
409.245	-59.69913
409.458	35.12624
409.671	-106.03976
409.884	-13.34623
410.097	1.40492
410.31	-4.91714
410.523	-23.88203
410.736	30.91075
410.949	-7.02445
411.162	-23.88203
411.375	-13.34623
411.588	1.40492
411.801	9.83468
412.014	16.15725
412.227	7.72721
412.44	37.23403
412.653	-36.52418
412.865	-15.45344
413.078	-19.66778
413.291	22.48004
413.504	-53.37899
413.717	11.94218
413.93	-47.05863
414.143	73.06989
414.356	20.37242
414.568	-2.80981
414.781	-57.59244
414.994	26.69535
415.207	-13.34623
415.42	-55.48573
415.632	16.15725
415.845	3.51233
416.058	-32.31023
416.271	-40.73804
416.483	-44.95179
416.696	-49.16544
416.909	-84.97739
417.121	1.40492
417.334	54.09713
417.547	-13.34623
417.759	85.71941
417.972	-49.16544
418.185	-9.13173
418.397	22.48004
418.61	-70.23219
418.823	47.77329
419.035	-21.77492
419.248	30.91075
419.46	-82.87101
419.673	-51.27223
419.885	39.34183
420.098	22.48004
420.311	-23.88203
420.523	35.12624
420.736	-44.95179
420.948	-21.77492
421.161	60.42118
421.373	26.69535
421.586	-13.34623
421.798	-38.63112
422.01	-7.02445
422.223	-30.20322
422.435	-36.52418
422.648	1.40492
422.86	-7.02445
423.073	18.26482
423.285	45.6654
423.497	-32.31023
423.71	-9.13173
423.922	-40.73804
424.134	-30.20322
424.347	54.09713
424.559	-13.34623
424.771	-7.02445
424.984	-7.02445
425.196	5.61975
425.408	-72.33872
425.621	26.69535
425.833	54.09713
426.045	-32.31023
426.257	-0.70246
426.47	-15.45344
426.682	-30.20322
426.894	7.72721
427.106	28.80304
427.318	-2.80981
427.531	5.61975
427.743	111.02086
427.955	11.94218
428.167	-15.45344
428.379	1.40492
428.591	1.40492
428.804	24.58768
429.016	-7.02445
429.228	-2.80981
429.44	11.94218
429.652	73.06989
429.864	-19.66778
430.076	18.26482
430.288	35.12624
430.5	-61.80579
430.712	30.91075
430.924	-23.88203
431.136	30.91075
431.348	-40.73804
431.56	-74.44523
431.772	-32.31023
431.984	-9.13173
432.196	-7.02445
432.408	5.61975
432.62	-2.80981
432.832	-15.45344
433.044	-66.01904
433.256	7.72721
433.468	-53.37899
433.679	-11.23899
433.891	16.15725
434.103	-11.23899
434.315	-25.98912
434.527	9.83468
434.739	16.15725
434.95	3.51233
435.162	37.23403
435.374	-40.73804
435.586	-19.66778
435.798	81.50281
436.009	-40.73804
436.221	33.01848
436.433	7.72721
436.645	-25.98912
436.856	-68.12563
437.068	-7.02445
437.28	-61.80579
437.491	43.55752
437.703	43.55752
437.915	1.40492
438.126	-21.77492
438.338	-9.13173
438.55	-32.31023
438.761	28.80304
438.973	-4.91714
439.184	20.37242
439.396	-40.73804
439.608	-38.63112
439.819	14.04971
440.031	-49.16544
440.242	1.40492
440.454	20.37242
440.665	3.51233
440.877	-44.95179
441.088	37.23403
441.3	-23.88203
441.511	-17.56062
441.723	43.55752
441.934	5.61975
442.146	-7.02445
442.357	-4.91714
442.569	-13.34623
442.78	-21.77492
442.991	-15.45344
443.203	-17.56062
443.414	3.51233
443.626	73.06989
443.837	-23.88203
444.048	37.23403
444.26	28.80304
444.471	-44.95179
444.682	-0.70246
444.894	26.69535
445.105	39.34183
445.316	5.61975
445.528	-21.77492
445.739	3.51233
445.95	-23.88203
446.161	-59.69913
446.373	35.12624
446.584	-32.31023
446.795	9.83468
447.006	-17.56062
447.217	39.34183
447.429	-15.45344
447.64	3.51233
447.851	-9.13173
448.062	41.44967
448.273	28.80304
448.484	56.20513
448.695	11.94218
448.907	-0.70246
449.118	-2.80981
449.329	18.26482
449.54	-7.02445
449.751	26.69535
449.962	64.63732
450.173	-4.91714
450.384	37.23403
450.595	11.94218
450.806	41.44967
451.017	30.91075
451.228	18.26482
451.439	-55.48573
451.65	-0.70246
451.861	-2.80981
452.072	35.12624
452.283	-23.88203
452.494	-19.66778
452.705	-11.23899
452.915	18.26482
453.126	1.40492
453.337	30.91075
453.548	24.58768
453.759	56.20513
453.97	-4.91714
454.181	-47.05863
454.391	-2.80981
454.602	68.85356
454.813	49.88122
455.024	20.37242
455.235	-47.05863
455.445	-40.73804
455.656	-15.45344
455.867	41.44967
456.078	-17.56062
456.288	-4.91714
456.499	-4.91714
456.71	-40.73804
456.921	39.34183
457.131	70.96171
457.342	-2.80981
457.553	-2.80981
457.763	73.06989
457.974	5.61975
458.184	47.77329
458.395	11.94218
458.606	1.40492
458.816	-11.23899
459.027	-23.88203
459.237	24.58768
459.448	37.23403
459.659	51.98916
459.869	1.40492
460.08	-49.16544
460.29	-11.23899
460.501	5.61975
460.711	47.77329
460.922	64.63732
461.132	-32.31023
461.343	73.06989
461.553	51.98916
461.764	-7.02445
461.974	18.26482
462.184	-40.73804
462.395	43.55752
462.605	-17.56062
462.816	98.36974
463.026	-36.52418
463.236	56.20513
463.447	16.15725
463.657	-23.88203
463.867	35.12624
464.078	60.42118
464.288	85.71941
464.498	119.45538
464.709	1.40492
464.919	77.2863
465.129	60.42118
465.339	-78.65817
465.55	20.37242
465.76	39.34183
465.97	85.71941
466.18	62.52924
466.391	68.85356
466.601	20.37242
466.811	22.48004
467.021	56.20513
467.231	45.6654
467.441	5.61975
467.651	70.96171
467.862	-13.34623
468.072	1.40492
468.282	-7.02445
468.492	18.26482
468.702	3.51233
468.912	9.83468
469.122	79.39455
469.332	43.55752
469.542	87.82774
469.752	51.98916
469.962	49.88122
470.172	5.61975
470.382	28.80304
470.592	11.94218
470.802	-4.91714
471.012	73.06989
471.222	9.83468
471.432	56.20513
471.642	45.6654
471.852	-15.45344
472.062	-7.02445
472.272	28.80304
472.482	81.50281
472.691	43.55752
472.901	18.26482
473.111	87.82774
473.321	-2.80981
473.531	111.02086
473.741	127.89025
473.95	9.83468
474.16	37.23403
474.37	26.69535
474.58	102.58669
474.79	51.98916
474.999	60.42118
475.209	87.82774
475.419	68.85356
475.628	43.55752
475.838	1.40492
476.048	94.15287
476.258	94.15287
476.467	134.21663
476.677	111.02086
476.886	77.2863
477.096	77.2863
477.306	98.36974
477.515	5.61975
477.725	43.55752
477.935	102.58669
478.144	104.6952
478.354	87.82774
478.563	87.82774
478.773	85.71941
478.982	144.76102
479.192	73.06989
479.401	165.85139
479.611	115.23808
479.82	94.15287
480.03	94.15287
480.239	111.02086
480.449	68.85356
480.658	64.63732
480.868	104.6952
481.077	106.80373
481.287	159.52406
481.496	239.6838
481.705	129.99903
481.915	127.89025
482.124	189.0532
482.333	163.74226
482.543	163.74226
482.752	161.63315
482.961	193.27198
483.171	170.06972
483.38	138.43433
483.589	153.19692
483.799	119.45538
484.008	180.61589
484.217	218.58633
484.426	212.25747
484.636	153.19692
484.845	163.74226
485.054	127.89025
485.263	144.76102
485.472	113.12946
485.682	218.58633
485.891	203.81928
486.1	176.39736
486.309	161.63315
486.518	170.06972
486.727	248.12334
486.936	313.53995
487.146	229.13482
487.355	214.36707
487.564	229.13482
487.773	250.23327
487.982	163.74226
488.191	273.44377
488.4	313.53995
488.609	235.46415
488.818	239.6838
489.027	315.65046
489.236	241.79366
489.445	305.0981
489.654	212.25747
489.863	338.86722
490.072	296.65654
490.281	400.08505
490.49	302.98769
490.698	338.86722
490.907	275.55393
491.116	391.64037
491.325	330.42451
491.534	351.5318
491.743	340.97794
491.952	374.75181
492.16	353.64262
492.369	332.53516
492.578	372.64081
492.787	425.42065
492.996	406.41873
493.204	406.41873
493.413	484.54585
493.622	368.41887
493.831	397.97385
494.039	552.13172
494.248	383.19595
494.457	452.87013
494.665	419.08653
494.874	566.91803
495.083	484.54585
495.291	554.24401
495.5	528.89743
495.709	478.21043
495.917	459.205
496.126	638.7464
496.335	537.34607
496.543	541.57047
496.752	552.13172
496.96	550.01944
497.169	473.9869
497.377	630.29525
497.586	541.57047
497.794	630.29525
498.003	550.01944
498.211	634.5208
498.42	550.01944
498.628	708.47565
498.837	657.76221
499.045	681.00505
499.254	541.57047
499.462	609.16823
499.671	634.5208
499.879	653.53639
500.087	590.155
500.296	636.6336
500.504	613.39353
500.713	613.39353
500.921	714.81528
501.129	704.24928
501.338	630.29525
501.546	845.85499
501.754	714.81528
501.962	841.62734
502.171	668.32696
502.379	784.55754
502.587	727.49485
502.795	907.15983
503.004	790.89829
503.212	773.98982
503.42	647.19775
503.628	820.48959
503.837	799.35276
504.045	852.19655
504.253	860.65207
504.461	786.67111
504.669	869.10773
504.877	797.23912
505.085	761.30888
505.294	909.27391
505.502	831.05835
505.71	1025.55943
505.918	666.21399
506.126	854.31041
506.334	930.41514
506.542	924.07269
506.75	856.42429
506.958	1023.44497
507.166	934.64348
507.374	993.84318
507.582	913.50209
507.79	1048.81888
507.998	955.7856
508.206	1137.63359
508.414	983.27141
508.622	1120.71585
508.83	985.38575
509.037	1101.68373
509.245	924.07269
509.453	972.69981
509.661	932.52931
509.869	1074.1936
510.077	1074.1936
510.285	1108.02773
510.492	1057.27703
510.7	1260.29458
510.908	1048.81888
511.116	1118.60115
511.324	943.10024
511.531	1184.15878
511.739	964.24265
511.947	1209.53692
512.155	1065.73527
512.362	1192.6181
512.57	1048.81888
512.778	1237.03044
512.985	1034.01733
513.193	1205.3072
513.401	1167.24031
513.608	1241.26026
513.816	1298.36382
514.024	1217.99641
514.231	1086.88125
514.439	1334.31872
514.646	1171.4699
514.854	1332.20371
515.061	1215.88153
515.269	1327.9737
515.477	1224.34106
515.684	1277.21415
515.892	1167.24031
516.099	1378.73421
516.307	1353.35386
516.514	1294.13387
516.722	1158.78116
516.929	1399.88461
517.136	1285.67399
517.344	1264.52445
517.551	1311.05372
517.759	1389.3094
517.966	1279.3291
518.173	1461.22106
518.381	1378.73421
518.588	1380.84924
518.796	1349.12382
519.003	1537.36265
519.21	1446.41569
519.418	1660.03172
519.625	1406.22974
519.832	1421.03508
520.039	1471.79631
520.247	1698.09988
520.454	1473.91137
520.661	1702.32962
520.868	1389.3094
521.076	1727.70778
521.283	1550.05281
521.49	1598.69796
521.697	1480.25652
521.904	1547.93778
522.112	1444.30064
522.319	1780.57731
522.526	1573.31798
522.733	1717.1336
522.94	1649.45707
523.147	1674.83611
523.354	1518.32733
523.561	1837.67356
523.768	1609.27288
523.975	1666.37647
524.183	1649.45707
524.39	1691.75525
524.597	1770.00359
524.804	1698.09988
525.011	1649.45707
525.218	1875.73586
525.425	1770.00359
525.632	1915.91093
525.838	1814.41251
526.045	1879.9649
526.252	1793.26563
526.459	2044.8797
526.666	1780.57731
526.873	1854.59033
527.08	1734.05224
527.287	1924.36859
527.494	1723.47812
527.701	2004.71163
527.907	1738.28187
528.114	1865.16316
528.321	1979.3411
528.528	2034.30939
528.735	1903.22427
528.941	1983.56959
529.148	1827.10042
529.355	1937.05491
529.562	1953.96967
529.768	2066.0198
529.975	1924.36859
530.182	2063.90582
530.388	1913.7965
530.595	1983.56959
530.802	1947.62668
531.008	2089.27307
531.215	2080.81744
531.422	1924.36859
531.628	2061.79183
531.835	2148.45911
532.042	2061.79183
532.248	2232.99961
532.455	1945.51234
532.661	2173.82267
532.868	2049.10778
533.074	2296.39577
533.281	2123.09441
533.487	2332.31652
533.694	2066.0198
533.9	2309.074
534.107	2232.99961
534.313	2408.37455
534.52	2112.52545
534.726	2380.91067
534.933	2194.95805
535.139	2296.39577
535.345	1987.79805
535.552	2347.1066
535.758	2262.5855
535.965	2657.57606
536.171	2241.4529
536.377	2376.6853
536.584	2292.16962
536.79	2292.16962
536.996	2325.97777
537.203	2524.5478
537.409	2182.27692
537.615	2452.73552
537.821	2334.42942
538.028	2727.23783
538.234	2385.136
538.44	2632.24107
538.646	2465.40921
538.853	2596.34678
539.059	2389.36128
539.265	2596.34678
539.471	2469.63369
539.677	2478.0825
539.883	2344.99377
540.09	2490.7554
540.296	2697.68607
540.502	2731.4593
540.708	2480.19468
540.914	2596.34678
541.12	2587.90056
541.326	2756.78702
541.532	2539.33105
541.738	2877.06683
541.944	2689.24224
542.15	3028.9325
542.356	2615.35008
542.562	2763.11864
542.768	2590.01213
542.974	2723.01631
543.18	2727.23783
543.386	2775.78154
543.592	2817.98764
543.798	2843.30864
544.004	2750.45527
544.21	2917.14993
544.415	2613.23865
544.621	3047.91022
544.827	2773.67109
545.033	2862.29807
545.239	2807.43663
545.445	2978.31919
545.651	2832.75847
545.856	3132.2403
546.062	2784.22319
546.268	3058.45285
546.474	2881.28635
546.679	2912.9309
546.885	2807.43663
547.091	2830.64839
547.297	2843.30864
547.502	3159.64209
547.708	2862.29807
547.914	2944.57217
548.119	3037.36719
548.325	3052.12732
548.531	2974.10103
548.736	3140.67191
548.942	2798.99557
549.147	2925.5878
549.353	2938.24418
549.559	3138.56403
549.764	2946.68147
549.97	3203.90071
550.175	3054.23584
550.381	3155.42661
550.586	3005.73582
550.792	3395.60245
550.997	3180.71852
551.203	3321.8878
551.408	3151.21106
551.614	2997.30021
551.819	3197.57849
552.025	3283.96916
552.23	3132.2403
552.435	3460.87455
552.641	3243.93796
552.846	3345.05756
553.052	3111.16015
553.257	3382.96717
553.462	3288.18261
553.668	3471.40069
553.873	3121.70043
554.078	3359.80086
554.283	3309.24887
554.489	3524.02463
554.694	3288.18261
554.899	3300.82257
555.105	3323.99422
555.31	3507.18621
555.515	3355.58857
555.72	3515.60557
555.925	3248.15206
556.131	3635.54928
556.336	3456.66396
556.541	3612.40697
556.746	3435.60996
556.951	3589.26238
557.156	3296.60932
557.361	3694.44664
557.567	3332.41977
557.772	3393.49662
557.977	3460.87455
558.182	3700.75619
558.387	3507.18621
558.592	3574.53284
558.797	3302.92917
559.002	3566.11554
559.207	3473.50587
559.412	3521.91989
559.617	3467.19029
559.822	3688.13693
560.027	3414.55418
560.232	3675.51698
560.437	3585.05404
560.642	3715.47778
560.847	3578.74137
561.051	3707.06556
561.256	3629.23797
561.461	3747.02088
561.666	3608.19903
561.871	3805.8896
562.076	3549.28006
562.281	3717.58079
562.485	3635.54928
562.69	3885.75816
562.895	3742.81538
563.1	3856.33624
563.305	3709.16864
563.509	3875.25078
563.714	3709.16864
563.919	3843.72565
564.123	3797.48072
564.328	3883.65672
564.533	3776.45715
564.737	3810.09392
564.942	3646.06776
565.147	3852.13279
565.351	3589.26238
565.556	3858.43793
565.761	3801.6852
565.965	3770.1497
566.17	3868.94611
566.374	3894.1637
566.579	3959.29574
566.784	3898.36635
566.988	3957.19501
567.193	4137.78272
567.397	3824.80843
567.602	4020.20804
567.806	3763.84207
568.011	4074.80438
568.215	3839.52196
568.42	4074.80438
568.624	3742.81538
568.828	4024.40826
569.033	3852.13279
569.237	4240.60664
569.442	3696.54984
569.646	3974.00028
569.85	3995.00504
570.055	4303.53484
570.259	3908.87263
570.463	4049.60781
570.668	3898.36635
570.872	3969.79909
571.076	4129.38669
571.281	4152.47495
571.485	3997.1054
571.689	4081.10306
571.893	4030.70842
572.098	4162.96878
572.302	4034.90843
572.506	4148.27728
572.71	3946.69106
572.914	3902.56893
573.119	4120.99033
573.323	4223.82253
573.527	3858.43793
573.731	4339.18557
573.935	4167.16616
574.139	4307.72937
574.343	4039.10836
574.547	4343.37936
574.751	4234.31276
574.955	4228.01869
575.159	4282.56092
575.364	4366.44368
575.568	4236.41074
575.772	4368.5403
575.976	4215.42997
576.18	4146.17841
576.383	4209.13533
576.587	4253.19382
576.791	4255.29161
576.995	4462.8659
577.199	4225.92062
577.403	4355.96022
577.607	4129.38669
577.811	4464.96152
578.015	4221.72442
578.219	4316.11816
578.422	4272.07315
578.626	4414.66057
578.83	4141.9806
579.034	4578.09226
579.238	4427.23699
579.442	4452.38747
579.645	4322.40953
579.849	4538.29436
580.053	4410.46825
580.257	4448.19594
580.46	4318.21531
580.664	4590.65835
580.868	4272.07315
581.071	4360.15367
581.275	4393.69812
581.479	4584.37541
581.682	4494.2979
581.886	4427.23699
582.09	4334.99169
582.293	4822.9852
582.497	4431.42895
582.7	4728.83215
582.904	4492.20259
583.107	4739.29587
583.311	4460.77026
583.515	4779.05283
583.718	4544.57878
583.922	4567.61991
584.125	4630.44567
584.329	4726.73934
584.532	4492.20259
584.735	4613.6941
584.939	4433.5249
585.142	4709.99604
585.346	4636.72714
585.549	4858.54215
585.753	4647.19581
585.956	4787.42167
586.159	4799.97426
586.363	4856.45075
586.566	4599.0353
586.769	4599.0353
586.973	4684.87838
587.176	4937.99849
587.379	4506.86931
587.582	4758.12913
587.786	4722.55365
587.989	4887.81939
588.192	4879.45492
588.395	4892.00148
588.599	4707.90302
588.802	4994.43416
589.005	4548.76827
589.208	4906.6381
589.411	4548.76827
589.615	4866.90753
589.818	4766.49888
590.021	4944.26995
590.224	4714.182
590.427	4887.81939
590.63	4850.1764
590.833	4917.09214
591.036	4912.91059
591.239	5084.27847
591.442	4845.99339
591.645	4927.5456
591.848	4835.53547
592.051	5075.92266
592.254	4917.09214
592.457	5094.7227
592.66	4795.79015
592.863	5128.14036
593.066	4975.62414
593.269	5163.6401
593.472	5149.02337
593.675	5274.27253
593.878	4925.45495
594.081	5205.39588
594.284	5084.27847
594.486	5293.05265
594.689	5082.18955
594.892	5270.09891
595.095	5334.77947
595.298	5301.39876
595.5	5055.03153
595.703	5309.7445
595.906	5265.9252
596.109	5268.01207
596.311	5119.7865
596.514	5075.92266
596.717	5113.52087
596.92	5401.52287
597.122	5019.51129
597.325	5307.6581
597.528	5151.11154
597.73	5075.92266
597.933	5130.22876
598.136	5468.24223
598.338	5215.83337
598.541	5301.39876
598.743	5232.53214
598.946	5441.14039
599.148	5359.81106
599.351	5357.72522
599.554	5343.12371
599.756	5336.86556
599.959	5341.03768
600.161	5295.13921
600.363	5228.35759
600.566	5501.59287
600.768	5328.52104
600.971	5351.46757
601.173	5509.92959
601.376	5434.88556
601.578	5593.27607
601.78	5349.38164
601.983	5501.59287
602.185	5528.68584
602.388	5313.91723
602.59	5516.18189
602.792	5605.77479
602.995	5434.88556
603.197	5288.87945
603.399	5493.25578
603.601	5278.44605
603.804	5376.49691
604.006	5524.51795
604.208	5630.76968
604.41	5449.47984
604.613	5584.94312
604.815	5528.68584
605.017	5559.942
605.219	5534.93749
605.421	5522.43397
605.623	5526.6019
605.826	5626.6041
606.028	5436.97053
606.23	5630.76968
606.432	5422.37526
606.634	5662.00851
606.836	5472.41139
607.038	5691.15997
607.24	5776.50549
607.442	5626.6041
607.644	5459.90362
607.846	5607.85782
608.048	5487.00271
608.25	5570.35955
608.452	5188.69469
608.654	5797.31545
608.856	5343.12371
609.058	5678.66706
609.26	5432.80057
609.462	5403.60822
609.664	5426.54545
609.866	5593.27607
610.067	5370.23989
610.269	5543.27271
610.471	5436.97053
610.673	5595.35925
610.875	5576.60979
611.077	5645.34846
611.278	5422.37526
611.48	5578.69316
611.682	5405.69354
611.884	5676.58482
612.085	5466.15761
612.287	5647.43105
612.489	5472.41139
612.69	5591.19286
612.892	5612.02383
613.094	5722.38854
613.295	5455.73418
613.497	5551.60754
613.699	5167.81609
613.9	5674.50256
614.102	5489.08709
614.304	5755.69317
614.505	5443.22529
614.707	5614.10679
614.908	5343.12371
615.11	5770.26204
615.311	5645.34846
615.513	5605.77479
615.714	5584.94312
615.916	5603.69172
616.117	5528.68584
616.319	5917.96669
616.52	5876.37178
616.722	5830.60648
616.923	5603.69172
617.124	6005.2853
617.326	5478.66495
617.527	5614.10679
617.729	5545.35645
617.93	5824.36487
618.131	5662.00851
618.333	5587.02639
618.534	5468.24223
618.735	5651.59616
618.937	5559.942
619.138	5711.97961
619.339	5459.90362
619.54	5662.00851
619.742	5630.76968
619.943	5555.77482
620.144	5326.43485
620.345	5741.12314
620.546	5676.58482
620.748	5876.37178
620.949	5568.27608
621.15	5674.50256
621.351	5728.63362
621.552	5857.65099
621.753	5576.60979
621.954	5855.57079
622.155	5607.85782
622.356	5664.09091
622.558	5695.32409
622.759	5718.22504
622.96	5680.74927
623.161	5736.96006
623.362	5534.93749
623.563	5716.14325
623.764	5568.27608
623.965	5707.81587
624.166	5639.10055
624.366	5672.42028
624.567	5543.27271
624.768	5664.09091
624.969	5562.02556
625.17	5714.06144
625.371	5695.32409
625.572	5637.01787
625.773	5580.7765
625.973	5695.32409
626.174	5653.67868
626.375	5953.31495
626.576	5528.68584
626.777	5926.28454
626.977	5568.27608
627.178	5922.12566
627.379	5813.96172
627.58	5938.76061
627.78	5778.58659
627.981	5940.83987
628.182	5580.7765
628.382	5728.63362
628.583	5591.19286
628.784	5736.96006
628.984	5545.35645
629.185	5936.68132
629.386	5726.55195
629.586	6030.22584
629.787	5793.15365
629.987	5863.89147
630.188	5630.76968
630.388	5801.47716
630.589	5714.06144
630.79	6044.77292
630.99	5803.55798
631.191	5988.65639
631.391	5668.25564
631.591	5917.96669
631.792	5684.91362
631.992	5909.64847
632.193	5689.07788
632.393	5853.49056
632.594	5703.65204
632.794	5922.12566
632.994	6026.06932
633.195	6144.49327
633.395	5911.72806
633.595	6048.92902
633.796	5947.07752
633.996	5944.99832
634.196	5776.50549
634.397	5726.55195
634.597	5736.96006
634.797	5886.77139
634.997	5822.28429
635.198	5886.77139
635.398	5662.00851
635.598	5872.21177
635.798	5922.12566
635.998	5880.5317
636.199	5807.71955
636.399	5788.99175
636.599	5678.66706
636.799	5834.76744
636.999	5711.97961
637.199	5813.96172
637.399	5801.47716
637.599	5745.28612
637.799	5607.85782
637.999	5944.99832
638.199	5793.15365
638.399	6011.52075
638.599	5774.42436
638.799	6007.36381
638.999	5915.88717
639.199	6005.2853
639.399	5924.20511
639.599	6192.25675
639.799	5786.91077
639.999	5967.86813
640.199	5986.57767
640.399	5905.48921
640.599	5801.47716
640.799	6252.46259
640.998	6046.85098
641.198	6084.25204
641.398	6055.16298
641.598	6200.56218
641.798	6063.47461
641.997	5992.81376
642.197	5947.07752
642.397	6177.72136
642.597	5855.57079
642.796	5770.26204
642.996	5988.65639
643.196	6171.49155
643.395	6009.44229
643.595	5936.68132
643.795	6073.86362
643.994	6115.41377
644.194	5901.32986
644.394	5984.49893
644.593	5759.85582
644.793	6051.00703
644.992	5953.31495
645.192	6127.87698
645.392	6258.68965
645.591	6001.12821
645.791	5961.63119
645.99	6264.9165
646.19	5861.81133
646.389	6057.24093
646.589	5801.47716
646.788	5761.93711
646.987	5730.71527
647.187	6015.6776
647.386	5843.08906
647.586	6136.18531
647.785	6138.26234
647.984	6086.32965
648.184	5982.42016
648.383	6071.78587
648.582	6075.94135
648.782	6352.07035
648.981	5955.39404
649.18	6237.93195
649.38	6343.77176
649.579	6260.76529
649.778	6121.64548
649.977	6233.78013
650.177	6109.18184
650.376	6144.49327
650.575	5936.68132
650.774	6323.02365
650.973	6175.64478
651.173	6011.52075
651.372	6071.78587
651.571	6447.47734
651.77	6233.78013
651.969	6258.68965
652.168	6146.5702
652.367	6129.9541
652.566	6019.83436
652.765	6302.2732
652.964	6198.48586
653.163	6119.56826
653.362	6100.87229
653.561	6279.44501
653.76	6028.14759
653.959	6109.18184
654.158	6156.95451
654.357	5982.42016
654.556	5934.60201
654.755	6408.07608
654.954	5951.23583
655.153	6017.75599
655.352	6107.10449
655.551	6136.18531
655.749	6075.94135
655.948	6250.38685
656.147	6100.87229
656.346	6233.78013
656.545	6013.59919
656.743	6316.79876
656.942	6036.46044
657.141	6204.71475
657.34	6200.56218
657.538	6138.26234
657.737	6034.38226
657.936	6262.84091
658.135	6123.72267
658.333	6192.25675
658.532	5895.09066
658.731	6221.3241
658.929	5990.73509
659.128	6254.5383
659.326	6044.77292
659.525	6304.34835
659.724	6026.06932
659.922	6277.36958
660.121	6073.86362
660.319	6042.69483
660.518	6154.87769
660.716	6084.25204
660.915	6337.54758
661.113	6530.39994
661.312	5974.10486
661.51	6360.36857
661.709	6217.1719
661.907	6387.3352
662.105	6121.64548
662.304	6517.96392
662.502	6383.18675
662.701	6318.87375
662.899	6217.1719
663.097	6563.5586
663.296	6256.61398
663.494	6515.89116
663.692	6333.398
663.891	6333.398
664.089	6217.1719
664.287	6260.76529
664.485	5928.36395
664.684	6285.67116
664.882	6123.72267
665.08	6300.19803
665.278	6217.1719
665.476	6273.21865
665.675	6175.64478
665.873	6030.22584
666.071	6134.10826
666.269	6327.17346
666.467	6159.0313
666.665	6161.10807
666.863	5880.5317
667.061	6352.07035
667.259	6119.56826
667.457	6242.08368
667.655	6134.10826
667.853	6167.33823
668.051	5984.49893
668.249	6204.71475
668.447	5913.80763
668.645	6154.87769
668.843	6223.40016
669.041	6370.74082
669.239	6144.49327
669.437	6233.78013
669.635	6057.24093
669.833	6102.94971
670.031	6067.63029
670.229	6061.39674
670.426	6167.33823
670.624	6055.16298
670.822	6244.1595
671.02	6281.52042
671.218	6266.99207
671.415	6223.40016
671.613	6142.41632
671.811	6159.0313
672.009	6032.30406
672.206	6194.33315
672.404	5996.97103
672.602	6219.24801
672.799	6111.25917
672.997	6443.33023
673.195	6165.26153
673.392	6264.9165
673.59	6154.87769
673.788	6237.93195
673.985	6121.64548
674.183	6188.1039
674.38	6125.79983
674.578	6109.18184
674.775	6084.25204
674.973	6136.18531
675.17	6246.23531
675.368	6105.02711
675.565	6092.56235
675.763	6053.08502
675.96	6051.00703
676.158	6030.22584
676.355	5741.12314
676.553	5944.99832
676.75	5695.32409
676.947	6123.72267
677.145	5886.77139
677.342	6071.78587
677.539	6017.75599
677.737	6260.76529
677.934	5930.44333
678.131	6092.56235
678.329	6229.62821
678.526	6277.36958
678.723	5938.76061
678.92	6167.33823
679.118	5809.8003
679.315	5972.02597
679.512	5984.49893
679.709	6084.25204
679.906	5813.96172
680.104	5984.49893
680.301	6129.9541
680.498	6040.61673
680.695	5726.55195
680.892	6061.39674
681.089	5861.81133
681.286	6123.72267
681.483	5791.07271
681.68	6013.59919
681.877	5905.48921
682.075	5807.71955
682.272	5820.20368
682.469	5986.57767
682.665	5915.88717
682.862	5859.73118
683.059	5743.20464
683.256	5728.63362
683.453	5549.52387
683.65	6009.44229
683.847	6009.44229
684.044	6026.06932
684.241	5940.83987
684.438	6242.08368
684.635	5926.28454
684.831	6063.47461
685.028	5801.47716
685.225	5992.81376
685.422	5809.8003
685.619	5859.73118
685.815	5720.3068
686.012	5905.48921
686.209	5682.83146
686.405	5940.83987
686.602	5459.90362
686.799	5726.55195
686.996	5584.94312
687.192	5932.52268
687.389	5764.01838
687.586	5959.55217
687.782	5705.73397
687.979	5836.84788
688.175	5349.38164
688.372	5786.91077
688.568	5647.43105
688.765	5895.09066
688.962	5693.24204
689.158	5940.83987
689.355	5609.94084
689.551	5751.53042
689.748	5587.02639
689.944	5876.37178
690.14	5718.22504
690.337	5859.73118
690.533	5609.94084
690.73	5726.55195
690.926	5555.77482
691.123	5759.85582
691.319	5680.74927
691.515	5755.69317
691.712	5355.63936
691.908	5676.58482
692.104	5368.15417
692.301	5605.77479
692.497	5420.29012
692.693	5668.25564
692.889	5426.54545
693.086	5520.34996
693.282	5564.10909
693.478	5736.96006
693.674	5545.35645
693.87	5822.28429
694.067	5497.42437
694.263	5826.44543
694.459	5576.60979
694.655	5736.96006
694.851	5368.15417
695.047	5259.66446
695.243	5464.07297
695.439	5361.89687
695.635	5326.43485
695.831	5680.74927
696.027	5522.43397
696.224	5739.04161
696.42	5343.12371
696.615	5655.76117
696.811	5334.77947
697.007	5401.52287
697.203	5184.51915
697.399	5509.92959
697.595	5480.74943
697.791	5607.85782
697.987	5201.22072
698.183	5426.54545
698.379	5353.55348
698.575	5259.66446
698.77	5293.05265
698.966	5407.77883
699.162	5213.74592
699.358	5451.56464
699.554	5376.49691
699.749	5503.67709
699.945	4896.18349
700.141	5401.52287
700.337	5259.66446
700.532	5382.75372
700.728	5386.92481
700.924	5509.92959
701.119	5320.17615
701.315	5376.49691
701.511	5084.27847
701.706	5509.92959
701.902	5238.7938
702.097	5655.76117
702.293	5453.64942
702.489	5336.86556
702.684	5222.09559
702.88	5378.58254
703.075	5247.14234
703.271	5188.69469
703.466	5167.81609
703.662	5341.03768
703.857	5293.05265
704.053	5451.56464
704.248	5052.94229
704.443	5305.57168
704.639	5105.16636
704.834	5238.7938
705.03	5270.09891
705.225	5411.94936
705.42	5234.61938
705.616	5514.09781
705.811	4988.16436
706.006	5215.83337
706.202	5142.75871
706.397	5213.74592
706.592	5080.10061
706.787	5186.60693
706.983	5274.27253
707.178	5405.69354
707.373	5048.76374
707.568	5341.03768
707.763	5052.94229
707.959	5345.20971
708.154	5265.9252
708.349	5201.22072
708.544	5100.98897
708.739	5163.6401
708.934	5021.6009
709.129	4919.18287
709.324	4956.81224
709.519	5136.49384
709.714	5004.88337
709.909	5171.992
710.104	5107.25502
710.299	5178.25568
710.494	5169.90406
710.689	5293.05265
710.884	5167.81609
711.079	5265.9252
711.274	4942.17948
711.469	5209.57095
711.664	5080.10061
711.859	5234.61938
712.054	4839.71871
712.249	5184.51915
712.443	4946.36039
712.638	5361.89687
712.833	5188.69469
713.028	5313.91723
713.223	4950.5412
713.417	5142.75871
713.612	5059.20994
713.807	5272.18573
714.002	5009.06289
714.196	5155.28782
714.391	4917.09214
714.586	4986.07438
714.78	4919.18287
714.975	5082.18955
715.17	4969.35371
715.364	4854.35932
715.559	4868.99882
715.754	4879.45492
715.948	4720.46077
716.143	4774.86827
716.337	4663.94452
716.532	5161.55206
716.726	4626.25791
716.921	5100.98897
717.115	4825.07697
717.31	5036.22753
717.504	4908.72895
717.699	4896.18349
717.893	4852.26787
718.088	4753.94412
718.282	4733.0177
718.476	4712.08903
718.671	4737.20317
718.865	4969.35371
719.059	4695.34446
719.254	4799.97426
719.448	4674.41173
719.642	5021.6009
719.837	4622.07007
720.031	4762.31405
720.225	4550.86299
720.419	4640.91468
720.614	4712.08903
720.808	4743.4812
721.002	4799.97426
721.196	4701.62384
721.39	4737.20317
721.585	4720.46077
721.779	4584.37541
721.973	4776.96056
722.167	4582.28105
722.361	4820.89341
722.555	4594.84687
722.749	4599.0353
722.943	4609.50598
723.137	4586.46975
723.331	4223.82253
723.525	4540.38919
723.719	4456.5789
723.913	4523.62996
724.107	4448.19594
724.301	4590.65835
724.495	4376.92659
724.689	4686.97164
724.883	4305.63212
725.077	4611.60005
725.271	4504.77413
725.465	4674.41173
725.659	4515.24981
725.853	4624.164
726.046	4586.46975
726.24	4676.5051
726.434	4536.19952
726.628	4699.53074
726.822	4643.00841
727.015	4674.41173
727.209	4573.90339
727.403	4693.25129
727.596	4557.147
727.79	4573.90339
727.984	4376.92659
728.177	4599.0353
728.371	4599.0353
728.565	4659.75748
728.758	4544.57878
728.952	4496.39319
729.146	4427.23699
729.339	4532.00975
729.533	4483.82112
729.726	4617.88213
729.92	4542.48399
730.113	4699.53074
730.307	4439.81262
730.5	4517.34488
730.694	4410.46825
730.887	4611.60005
731.081	4393.69812
731.274	4578.09226
731.468	4536.19952
731.661	4582.28105
731.854	4555.05235
732.048	4492.20259
732.241	4492.20259
732.435	4532.00975
732.628	4527.8199
732.821	4404.17961
733.014	4402.08336
733.208	4544.57878
733.401	4389.50537
733.594	4381.1196
733.788	4261.58485
733.981	4613.6941
734.174	4330.79773
734.367	4425.14097
734.56	4481.72569
734.754	4242.70455
734.947	4454.4832
735.14	4284.65841
735.333	4362.25036
735.526	4326.60367
735.719	4095.79925
735.912	4324.50661
736.105	4276.26832
736.298	4397.89078
736.491	4332.89472
736.684	4429.33298
736.877	4263.68255
737.07	4498.48846
737.263	4412.56442
737.456	4458.67459
737.649	4532.00975
737.842	4649.28948
738.035	4309.8266
738.228	4467.05712
738.421	4477.53478
738.614	4433.5249
738.807	4672.31833
739	4339.18557
739.192	4238.5087
739.385	4376.92659
739.578	4284.65841
739.771	4473.34378
739.964	4150.37612
740.156	4387.40896
740.349	4171.36345
740.542	4364.34703
740.735	4146.17841
740.927	4278.36587
741.12	4116.79203
741.313	4305.63212
741.505	4230.11673
741.698	4133.58475
741.891	4114.69284
742.083	4295.14553
742.276	4248.99818
742.468	4341.28248
742.661	4307.72937
742.854	4385.31253
743.046	4435.62083
743.239	4326.60367
743.431	4280.46341
743.624	4137.78272
743.816	4225.92062
744.009	4049.60781
744.201	4114.69284
744.393	4120.99033
744.586	3921.4795
744.778	4108.39517
744.971	4037.0084
745.163	4089.50101
745.355	4110.49441
745.548	4179.7578
745.74	4041.20829
745.932	4372.73349
746.125	4179.7578
746.317	4334.99169
746.509	4051.70764
746.702	4127.28763
746.894	4137.78272
747.086	4192.34867
747.278	4196.54546
747.471	4156.67254
747.663	3942.48933
747.855	4171.36345
748.047	4097.89862
748.239	4162.96878
748.431	4041.20829
748.623	4372.73349
748.815	4213.33178
749.008	4148.27728
749.2	4028.60839
749.392	3938.28753
749.584	4070.60516
749.776	4087.40155
749.968	3961.39645
750.16	4064.30617
750.352	3984.50292
750.544	4095.79925
750.736	4070.60516
750.928	4097.89862
751.12	4158.77131
751.311	3982.40243
751.503	3936.1866
751.695	4097.89862
751.887	4032.80844
752.079	3971.8997
752.271	3833.21628
752.463	4099.99797
752.654	4120.99033
752.846	4219.62629
753.038	3952.99349
753.23	4095.79925
753.421	3812.19605
753.613	4064.30617
753.805	3929.88368
753.997	4091.60044
754.188	3910.97383
754.38	3786.96918
754.572	4141.9806
754.763	4095.79925
754.955	3913.075
755.146	3713.37475
755.338	3856.33624
755.53	3889.96097
755.721	3826.91042
755.913	3879.45379
756.104	3810.09392
756.296	3732.30131
756.487	3738.60981
756.679	3894.1637
756.87	3683.93035
757.062	3810.09392
757.253	3641.86043
757.445	3650.27502
757.636	3772.25221
757.827	3822.70641
758.019	3677.62035
758.21	3713.37475
758.401	3433.50446
758.593	3620.82262
758.784	3545.07101
758.975	3717.58079
759.167	3669.20674
759.358	3656.58577
759.549	3521.91989
759.74	3553.48904
759.932	3774.35469
760.123	3568.21989
760.314	3570.32423
760.505	3629.23797
760.696	3492.45163
760.888	3593.47066
761.079	3524.02463
761.27	3528.23405
761.461	3412.4485
761.652	3683.93035
761.843	3431.39895
762.034	3500.8715
762.225	3305.03575
762.416	3532.4434
762.607	3197.57849
762.798	3406.13136
762.989	3364.01307
763.18	3667.1033
763.371	3545.07101
763.562	3519.81514
763.753	3241.83089
763.944	3481.92639
764.135	3307.14232
764.326	3378.75527
764.517	3001.51805
764.708	3199.68592
764.899	3250.25908
765.089	3427.18786
765.28	3292.396
765.471	3359.80086
765.662	3102.72765
765.853	3505.08133
766.043	3305.03575
766.234	3281.86241
766.425	3113.26824
766.615	3349.27002
766.806	3250.25908
766.997	3283.96916
767.187	3187.04114
767.378	3292.396
767.569	3203.90071
767.759	3149.10326
767.95	3098.5113
768.141	3050.01877
768.331	2931.91606
768.522	3191.25613
768.712	2855.96839
768.903	3128.0244
769.093	3132.2403
769.284	3199.68592
769.474	3062.6698
769.665	3300.82257
769.855	3012.06237
770.046	3068.9951
770.236	3024.71506
770.426	3064.77825
770.617	3041.58445
770.807	3102.72765
770.998	2879.1766
771.188	2942.46286
771.378	2879.1766
771.569	3052.12732
771.759	3197.57849
771.949	2969.8828
772.139	2877.06683
772.33	2921.3689
772.52	2908.71182
772.71	2936.13482
772.9	2836.97858
773.09	3018.38878
773.281	3039.47583
773.471	2832.75847
773.661	2893.94456
773.851	2995.19127
774.041	2815.87746
774.231	2993.08231
774.421	2746.23404
774.611	2904.49267
774.802	2744.1234
774.992	3119.5924
775.182	2803.21613
775.372	2925.5878
775.562	2900.27347
775.752	2868.62763
775.942	2716.68393
776.131	3033.14988
776.321	2754.67645
776.511	2754.67645
776.701	2794.77496
776.891	2917.14993
777.081	2731.4593
777.271	2670.24288
777.461	2731.4593
777.651	2758.89757
777.84	2604.79282
778.03	2767.33966
778.22	2530.88355
778.41	2596.34678
778.599	2638.57499
778.789	2634.35239
778.979	2520.32391
779.169	2733.57002
779.358	2463.29696
779.548	2934.02545
779.738	2596.34678
779.927	2792.66463
780.117	2714.57311
780.307	2672.35397
780.496	2359.78343
780.686	2302.73493
780.875	2353.44506
781.065	2486.53114
781.254	2562.56073
781.444	2579.45414
781.633	2418.93711
781.823	2524.5478
782.012	2640.68627
782.202	2710.35143
782.391	2378.79799
782.581	2516.09997
782.77	2395.69913
782.96	2699.797
783.149	2659.68723
783.338	2710.35143
783.528	2522.43586
783.717	2537.21919
783.906	2294.2827
784.096	2359.78343
784.285	2418.93711
784.474	2494.97961
784.663	2313.3
784.853	2364.00896
785.042	2239.33959
785.231	2342.88092
785.42	2241.4529
785.61	2469.63369
785.799	2169.59549
785.988	2444.28618
786.177	2404.14945
786.366	2336.54231
786.555	2108.29781
786.744	2309.074
786.933	2292.16962
787.122	2180.16337
787.312	2342.88092
787.501	2393.58653
787.69	2232.99961
787.879	2414.71212
788.068	2226.65954
788.257	2372.4599
788.445	2418.93711
788.634	2440.06144
788.823	2355.55786
789.012	2268.92511
789.201	2245.67949
789.39	2325.97777
789.579	1998.36909
789.768	2258.35906
789.957	2144.23174
790.145	2163.25466
790.334	2110.41163
790.523	2275.26463
790.712	2142.11804
790.9	2156.91376
791.089	2148.45911
791.278	1996.25489
791.467	2093.50084
791.655	2080.81744
791.844	1831.32969
792.033	2063.90582
792.221	1922.25418
792.41	2190.73104
792.599	1818.64183
792.787	2068.13377
792.976	1915.91093
793.164	1996.25489
793.353	2152.68645
793.541	2184.39047
793.73	2106.18398
793.918	1996.25489
794.107	1854.59033
794.295	2004.71163
794.484	1911.68206
794.672	2042.76566
794.861	2021.6248
795.049	2068.13377
795.238	1903.22427
795.426	1964.54121
795.614	1981.45535
795.803	1966.6555
795.991	1871.50679
796.179	2097.72859
796.368	2008.93996
796.556	2074.47563
796.744	1689.64037
796.932	1882.07942
797.121	1742.51148
797.309	1877.85038
797.497	1837.67356
797.685	1863.0486
797.874	1738.28187
798.062	2040.6516
798.25	1755.20022
798.438	1979.3411
798.626	1810.18317
798.814	1824.98578
799.002	1757.315
799.19	1831.32969
799.378	1710.78906
799.566	1740.39667
799.755	1685.4106
799.943	1996.25489
800.131	1835.55894
800.318	1852.47575
800.506	1704.44448
800.694	1784.80677
800.882	1700.21475
801.07	1674.83611
801.258	1846.13198
801.446	1835.55894
801.634	1734.05224
801.822	1647.34213
802.01	1687.52549
802.197	1869.39225
802.385	1564.85794
802.573	1729.8226
802.761	1738.28187
802.949	1924.36859
803.136	1734.05224
803.324	1901.10981
803.512	1767.88883
803.699	1894.76639
803.887	1786.92149
804.075	1865.16316
804.262	1772.11834
804.45	1687.52549
804.638	1511.98221
804.825	1890.53742
805.013	1719.24844
805.201	1920.13977
805.388	1793.26563
805.576	1801.72443
805.763	1829.21506
805.951	1926.48299
806.138	1558.51289
806.326	1793.26563
806.513	1695.98501
806.701	1736.16705
806.888	1854.59033
807.075	1945.51234
807.263	1742.51148
807.45	2006.8258
807.638	1841.90278
807.825	1820.75648
808.012	1731.93742
808.2	1930.71177
808.387	1784.80677
808.574	1903.22427
808.761	1725.59295
808.949	1721.36328
809.136	1632.53751
809.323	1837.67356
809.51	1531.01755
809.698	1750.97066
809.885	1662.14664
810.072	1820.75648
810.259	1596.58297
810.446	1778.46257
810.633	1734.05224
810.82	1827.10042
811.008	1657.91679
811.195	1892.65191
811.382	1808.06849
811.569	1905.33873
811.756	1746.74107
811.943	1941.28363
812.13	1827.10042
812.317	1784.80677
812.504	1636.76741
812.691	1837.67356
812.878	1750.97066
813.064	1856.70491
813.251	1797.49504
813.438	1803.83912
813.625	1575.43299
813.812	1886.30843
813.999	1602.92793
814.186	1662.14664
814.372	1573.31798
814.559	1827.10042
814.746	1617.73277
814.933	1683.29571
815.12	1721.36328
815.306	1814.41251
815.493	1653.68694
815.68	1700.21475
815.866	1670.6063
816.053	1736.16705
816.24	1717.1336
816.426	1822.87113
816.613	1640.99731
816.799	1789.03621
816.986	1719.24844
817.173	1882.07942
817.359	1829.21506
817.546	1725.59295
817.732	1706.55934
817.919	1922.25418
818.105	1822.87113
818.292	1759.42978
818.478	1844.01738
818.665	1841.90278
818.851	1649.45707
819.037	1829.21506
819.224	1734.05224
819.41	1723.47812
819.597	1657.91679
819.783	1672.72121
819.969	1734.05224
820.156	1653.68694
820.342	1539.47768
820.528	1615.6178
820.714	1632.53751
820.901	1526.78748
821.087	1541.59271
821.273	1564.85794
821.459	1526.78748
821.646	1645.22719
821.832	1482.37157
822.018	1770.00359
822.204	1535.24762
822.39	1725.59295
822.576	1482.37157
822.762	1882.07942
822.948	1611.38785
823.134	1655.80187
823.32	1516.21229
823.507	1676.95101
823.693	1374.50414
823.879	1583.893
824.065	1448.53074
824.25	1615.6178
824.436	1501.40699
824.622	1535.24762
824.808	1416.80498
824.994	1531.01755
825.18	1266.6394
825.366	1550.05281
825.552	1387.19436
825.738	1448.53074
825.923	1431.61033
826.109	1607.1579
826.295	1296.24884
826.481	1480.25652
826.667	1327.9737
826.852	1522.55741
827.038	1423.15012
827.224	1590.238
827.409	1429.49528
827.595	1564.85794
827.781	1378.73421
827.966	1397.76956
828.152	1294.13387
828.338	1344.89378
828.523	1205.3072
828.709	1315.28371
828.894	1387.19436
829.08	1429.49528
829.266	1325.8587
829.451	1306.82375
829.637	1285.67399
829.822	1543.70773
830.008	1260.29458
830.193	1497.1769
830.378	1239.14535
830.564	1452.76085
830.749	1336.43373
830.935	1592.35299
831.12	1148.20733
831.305	1442.18558
831.491	1262.40951
831.676	1440.07053
831.861	1194.73294
832.047	1315.28371
832.232	1268.75434
832.417	1304.70876
832.602	1196.84779
832.788	1270.86929
832.973	1074.1936
833.158	1228.57084
833.343	1084.76663
833.528	1304.70876
833.714	1194.73294
833.899	1260.29458
834.084	1124.94526
834.269	1285.67399
834.454	1053.04795
834.639	1245.49009
834.824	1266.6394
835.009	1163.01073
835.194	1029.78837
835.379	1340.66375
835.564	1091.1105
835.749	1156.66639
835.934	1184.15878
836.119	1260.29458
836.304	1154.55162
836.489	1338.54874
836.674	1175.69951
836.859	1198.96263
837.044	976.92843
837.228	1084.76663
837.413	1006.52951
837.598	1260.29458
837.783	989.61445
837.968	1112.25708
838.152	1133.40413
838.337	1048.81888
838.522	1169.3551
838.707	1048.81888
838.891	921.95856
839.076	1027.6739
839.261	1097.45443
839.445	1171.4699
839.63	1078.42279
839.815	1179.92914
839.999	1000.18632
840.184	1086.88125
840.368	1004.41511
840.553	1040.36082
840.737	1078.42279
840.922	1014.98719
841.106	1063.6207
841.291	1019.21607
841.475	983.27141
841.66	1137.63359
841.844	943.10024
842.029	1057.27703
842.213	960.01411
842.397	1025.55943
842.582	930.41514
842.766	1046.70436
842.951	877.56352
843.135	1023.44497
843.319	932.52931
843.504	964.24265
843.688	888.13345
843.872	1002.30071
844.056	879.67749
844.241	951.55712
844.425	837.39972
844.609	888.13345
844.793	835.28592
844.977	951.55712
845.161	883.90545
845.346	913.50209
845.53	761.30888
845.714	888.13345
845.898	761.30888
846.082	888.13345
846.266	752.85512
846.45	661.98807
846.634	738.06144
846.818	875.44956
847.002	788.78469
847.186	769.7628
847.37	761.30888
847.554	875.44956
847.738	748.6283
847.922	917.73031
848.106	795.1255
848.29	972.69981
848.473	837.39972
848.657	913.50209
848.841	773.98982
849.025	947.32867
849.209	771.8763
849.392	862.76597
849.576	767.6493
849.76	702.13611
849.944	812.03474
850.127	864.87988
850.311	710.58885
850.495	862.76597
850.678	695.79667
850.862	822.60332
851.046	702.13611
851.229	795.1255
851.413	685.23117
851.596	693.68355
851.78	689.45734
851.964	661.98807
852.147	670.43995
852.331	786.67111
852.514	634.5208
852.698	735.9481
852.881	577.48009
853.065	642.97205
853.248	628.18249
853.431	708.47565
853.615	575.36765
853.798	691.57044
853.982	628.18249
854.165	685.23117
854.348	710.58885
854.532	740.1748
854.715	564.80566
854.898	581.70501
855.081	431.75491
855.265	583.81748
855.448	469.76342
855.631	651.4235
855.814	461.31665
855.997	596.49263
856.181	645.0849
856.364	617.61889
856.547	569.03042
856.73	609.16823
856.913	526.78531
857.096	598.60519
857.279	482.43403
857.462	602.83037
857.645	583.81748
857.828	514.11286
858.011	562.6933
858.194	575.36765
858.377	526.78531
858.56	558.46863
858.743	550.01944
858.926	645.0849
859.109	543.68269
859.292	588.04248
859.475	505.66485
859.658	526.78531
859.841	541.57047
860.023	495.10517
860.206	516.2249
860.389	492.99327
860.572	537.34607
860.755	492.99327
860.937	501.44093
861.12	566.91803
861.303	448.64696
861.486	630.29525
861.668	397.97385
861.851	469.76342
862.034	440.20081
862.216	480.32222
862.399	368.41887
862.581	431.75491
862.764	478.21043
862.947	583.81748
863.129	366.30793
863.312	516.2249
863.494	343.08867
863.677	340.97794
863.859	400.08505
864.042	416.97519
864.224	389.52924
864.406	357.86432
864.589	408.52999
864.771	429.64347
864.954	433.86636
865.136	414.86386
865.318	347.3102
865.501	423.30926
865.683	359.9752
865.865	397.97385
866.048	372.64081
866.23	452.87013
866.412	374.75181
866.594	366.30793
866.777	448.64696
866.959	482.43403
867.141	393.75151
867.323	309.31899
867.505	383.19595
867.687	364.197
867.869	402.19626
868.052	509.88883
868.234	374.75181
868.416	391.64037
868.598	376.86282
868.78	370.52983
868.962	427.53205
869.144	366.30793
869.326	317.76099
869.508	421.19789
869.69	372.64081
869.872	330.42451
870.054	290.32557
870.236	482.43403
870.417	275.55393
870.599	412.75256
870.781	362.08609
870.963	419.08653
871.145	319.87153
871.327	416.97519
871.508	307.20854
871.69	419.08653
871.872	338.86722
872.054	438.08931
872.235	317.76099
872.417	351.5318
872.599	459.205
872.78	355.75346
872.962	416.97519
873.144	349.42099
873.325	372.64081
873.507	402.19626
873.689	353.64262
873.87	366.30793
874.052	317.76099
874.233	397.97385
874.415	313.53995
874.596	340.97794
874.778	330.42451
874.959	321.98209
875.141	281.88452
875.322	321.98209
875.503	305.0981
875.685	355.75346
875.866	279.77431
876.048	347.3102
876.229	224.91537
876.41	408.52999
876.592	313.53995
876.773	330.42451
876.954	237.57397
877.136	330.42451
877.317	317.76099
877.498	311.42946
877.679	305.0981
877.86	355.75346
878.042	326.20327
878.223	296.65654
878.404	305.0981
878.585	372.64081
878.766	298.76691
878.947	254.45319
879.128	246.01343
879.309	317.76099
879.49	279.77431
879.672	410.64126
879.853	269.22351
880.034	364.197
880.215	300.87729
880.396	406.41873
880.576	281.88452
880.757	286.10501
880.938	317.76099
881.119	279.77431
881.3	334.64583
881.481	387.41813
881.662	296.65654
881.843	307.20854
882.023	372.64081
882.204	334.64583
882.385	317.76099
882.566	286.10501
882.747	357.86432
882.927	237.57397
883.108	254.45319
883.289	347.3102
883.469	296.65654
883.65	334.64583
883.831	305.0981
884.011	330.42451
884.192	237.57397
884.373	311.42946
884.553	241.79366
884.734	383.19595
884.914	328.31388
885.095	414.86386
885.275	271.33363
885.456	317.76099
885.636	357.86432
885.817	372.64081
885.997	340.97794
886.178	340.97794
886.358	256.56318
886.538	343.08867
886.719	271.33363
886.899	366.30793
887.08	378.97385
887.26	315.65046
887.44	368.41887
887.621	340.97794
887.801	254.45319
887.981	305.0981
888.161	357.86432
888.342	347.3102
888.522	317.76099
888.702	319.87153
888.882	347.3102
889.062	408.52999
889.242	271.33363
889.423	402.19626
889.603	347.3102
889.783	376.86282
889.963	370.52983
890.143	372.64081
890.323	351.5318
890.503	326.20327
890.683	359.9752
890.863	321.98209
891.043	294.5462
891.223	391.64037
891.403	313.53995
891.583	324.09267
891.763	288.21528
891.943	340.97794
892.122	353.64262
892.302	383.19595
892.482	174.28813
892.662	381.08489
892.842	220.69599
893.022	254.45319
893.201	305.0981
893.381	349.42099
893.561	254.45319
893.741	349.42099
893.92	355.75346
894.1	288.21528
894.28	359.9752
894.459	279.77431
894.639	283.99475
894.819	372.64081
894.998	254.45319
895.178	288.21528
895.357	302.98769
895.537	256.56318
895.716	265.00332
895.896	294.5462
896.075	224.91537
896.255	267.11341
896.434	233.35436
896.614	313.53995
896.793	237.57397
896.973	305.0981
897.152	269.22351
897.331	214.36707
897.511	328.31388
897.69	321.98209
897.87	229.13482
898.049	231.24458
898.228	246.01343
898.407	254.45319
898.587	357.86432
898.766	315.65046
898.945	233.35436
899.124	167.96055
899.304	237.57397
899.483	216.47669
899.662	170.06972
899.841	189.0532
900.02	267.11341
900.199	338.86722
900.378	197.49084
900.557	283.99475
900.737	212.25747
900.916	233.35436
901.095	165.85139
901.274	210.14789
901.453	182.72519
901.632	279.77431
901.811	218.58633
901.989	203.81928
902.168	186.94385
902.347	296.65654
902.526	144.76102
902.705	246.01343
902.884	222.80567
903.063	216.47669
903.242	174.28813
903.42	178.50662
903.599	94.15287
903.778	288.21528
903.957	167.96055
904.135	127.89025
904.314	174.28813
904.493	250.23327
904.672	157.41499
904.85	153.19692
905.029	161.63315
905.207	262.89326
905.386	174.28813
905.565	250.23327
905.743	157.41499
905.922	136.32547
906.1	197.49084
906.279	275.55393
906.457	115.23808
906.636	144.76102
906.814	146.86997
906.993	49.88122
907.171	111.02086
907.35	159.52406
907.528	127.89025
907.707	127.89025
907.885	153.19692
908.063	138.43433
908.242	155.30595
908.42	113.12946
908.598	148.97893
908.777	81.50281
908.955	83.6111
909.133	136.32547
909.311	119.45538
909.49	250.23327
909.668	132.10782
909.846	129.99903
910.024	108.91229
910.202	170.06972
910.38	96.26129
910.559	136.32547
910.737	138.43433
910.915	85.71941
911.093	201.70978
911.271	39.34183
911.449	153.19692
911.627	136.32547
911.805	153.19692
911.983	153.19692
912.161	153.19692
912.339	178.50662
912.517	121.56407
912.695	136.32547
912.872	129.99903
913.05	161.63315
913.228	96.26129
913.406	113.12946
913.584	87.82774
913.762	182.72519
913.939	123.67278
914.117	94.15287
914.295	132.10782
914.473	102.58669
914.65	176.39736
914.828	136.32547
915.006	96.26129
915.184	104.6952
915.361	191.16258
915.539	35.12624
915.716	129.99903
915.894	81.50281
916.072	102.58669
916.249	117.34672
916.427	96.26129
916.604	98.36974
916.782	123.67278
916.959	64.63732
917.137	60.42118
917.314	100.4782
917.492	136.32547
917.669	136.32547
917.847	85.71941
918.024	89.9361
918.201	113.12946
918.379	37.23403
918.556	140.5432
918.733	153.19692
918.911	161.63315
919.088	127.89025
919.265	96.26129
919.442	104.6952
919.62	35.12624
919.797	115.23808
919.974	16.15725
920.151	89.9361
920.328	138.43433
920.506	104.6952
920.683	144.76102
920.86	54.09713
921.037	83.6111
921.214	106.80373
921.391	77.2863
921.568	92.04447
921.745	121.56407
921.922	136.32547
922.099	96.26129
922.276	77.2863
922.453	85.71941
922.63	70.96171
922.807	89.9361
922.984	161.63315
923.161	47.77329
923.338	125.7815
923.514	70.96171
923.691	121.56407
923.868	62.52924
924.045	70.96171
924.222	26.69535
924.399	39.34183
924.575	1.40492
924.752	127.89025
924.929	5.61975
925.105	37.23403
925.282	51.98916
925.459	186.94385
925.635	79.39455
925.812	127.89025
925.989	89.9361
926.165	-15.45344
926.342	62.52924
926.518	35.12624
926.695	138.43433
926.871	30.91075
927.048	26.69535
927.224	140.5432
927.401	66.74543
927.577	-4.91714
927.754	96.26129
927.93	54.09713
928.107	54.09713
928.283	89.9361
928.459	37.23403
928.636	79.39455
928.812	60.42118
928.988	43.55752
929.165	66.74543
929.341	119.45538
929.517	102.58669
929.693	85.71941
929.87	79.39455
930.046	62.52924
930.222	94.15287
930.398	165.85139
930.574	58.31314
930.751	146.86997
930.927	54.09713
931.103	39.34183
931.279	-0.70246
931.455	79.39455
931.631	51.98916
931.807	1.40492
931.983	26.69535
932.159	35.12624
932.335	-7.02445
932.511	35.12624
932.687	-23.88203
932.863	96.26129
933.039	-2.80981
933.215	96.26129
933.391	60.42118
933.566	70.96171
933.742	56.20513
933.918	75.17808
934.094	70.96171
934.27	56.20513
934.445	81.50281
934.621	18.26482
934.797	62.52924
934.973	51.98916
935.148	22.48004
935.324	83.6111
935.5	68.85356
935.675	77.2863
935.851	22.48004
936.027	-32.31023
936.202	5.61975
936.378	60.42118
936.553	47.77329
936.729	49.88122
936.904	87.82774
937.08	85.71941
937.255	9.83468
937.431	51.98916
937.606	20.37242
937.782	43.55752
937.957	20.37242
938.133	-15.45344
938.308	-11.23899
938.483	-2.80981
938.659	68.85356
938.834	-0.70246
939.009	14.04971
939.185	-78.65817
939.36	-21.77492
939.535	39.34183
939.71	51.98916
939.886	37.23403
940.061	14.04971
940.236	9.83468
940.411	37.23403
940.586	-63.91243
940.761	39.34183
940.937	-40.73804
941.112	1.40492
941.287	-47.05863
941.462	-11.23899
941.637	-95.5089
941.812	26.69535
941.987	-66.01904
942.162	33.01848
942.337	26.69535
942.512	54.09713
942.687	-38.63112
942.862	-19.66778
943.037	18.26482
943.212	35.12624
943.386	-2.80981
943.561	9.83468
943.736	-13.34623
943.911	-15.45344
944.086	81.50281
944.26	35.12624
944.435	-74.44523
944.61	14.04971
944.785	28.80304
944.959	7.72721
945.134	51.98916
945.309	14.04971
945.483	30.91075
945.658	43.55752
945.833	-15.45344
946.007	39.34183
946.182	-28.09618
946.357	-34.41722
946.531	-57.59244
946.706	-7.02445
946.88	73.06989
947.055	51.98916
947.229	47.77329
947.404	51.98916
947.578	-7.02445
947.752	-32.31023
947.927	-4.91714
948.101	9.83468
948.276	-108.14586
948.45	-7.02445
948.624	-21.77492
948.799	60.42118
948.973	56.20513
949.147	9.83468
949.321	58.31314
949.496	35.12624
949.67	-23.88203
949.844	20.37242
950.018	-11.23899
950.193	26.69535
950.367	54.09713
950.541	3.51233
950.715	18.26482
950.889	-28.09618
951.063	68.85356
951.237	18.26482
951.411	-30.20322
951.585	9.83468
951.759	-28.09618
951.933	-40.73804
952.107	3.51233
952.281	-19.66778
952.455	39.34183
952.629	119.45538
952.803	-2.80981
952.977	144.76102
953.151	9.83468
953.325	33.01848
953.499	14.04971
953.672	-13.34623
953.846	-13.34623
954.02	20.37242
954.194	-7.02445
954.368	7.72721
954.541	41.44967
954.715	9.83468
954.889	35.12624
955.062	-15.45344
955.236	-7.02445
955.41	37.23403
955.583	43.55752
955.757	18.26482
955.93	18.26482
956.104	24.58768
956.278	-23.88203
956.451	30.91075
956.625	24.58768
956.798	77.2863
956.972	47.77329
957.145	-4.91714
957.319	-11.23899
957.492	-15.45344
957.665	20.37242
957.839	89.9361
958.012	-38.63112
958.185	64.63732
958.359	68.85356
958.532	11.94218
958.705	-15.45344
958.879	-36.52418
959.052	-7.02445
959.225	-36.52418
959.398	60.42118
959.572	11.94218
959.745	-36.52418
959.918	70.96171
960.091	-40.73804
960.264	-13.34623
960.438	60.42118
960.611	33.01848
960.784	-23.88203
960.957	22.48004
961.13	47.77329
961.303	-2.80981
961.476	5.61975
961.649	89.9361
961.822	98.36974
961.995	9.83468
962.168	-28.09618
962.341	-40.73804
962.514	35.12624
962.686	-23.88203
962.859	-17.56062
963.032	37.23403
963.205	-34.41722
963.378	7.72721
963.551	-2.80981
963.723	30.91075
963.896	1.40492
964.069	-23.88203
964.242	-51.27223
964.414	18.26482
964.587	70.96171
964.76	-7.02445
964.932	18.26482
965.105	-2.80981
965.278	-23.88203
965.45	-15.45344
965.623	104.6952
965.795	-2.80981
965.968	-63.91243
966.14	3.51233
966.313	22.48004
966.485	26.69535
966.658	39.34183
966.83	-13.34623
967.003	-19.66778
967.175	-11.23899
967.348	24.58768
967.52	123.67278
967.692	-19.66778
967.865	1.40492
968.037	-7.02445
968.209	28.80304
968.382	-28.09618
968.554	1.40492
968.726	14.04971
968.898	-28.09618
969.071	-13.34623
969.243	22.48004
969.415	18.26482
969.587	-40.73804
969.759	35.12624
969.932	16.15725
970.104	-2.80981
970.276	-2.80981
970.448	51.98916
970.62	-2.80981
970.792	-21.77492
970.964	-15.45344
971.136	22.48004
971.308	-4.91714
971.48	43.55752
971.652	111.02086
971.824	45.6654
971.996	1.40492
972.168	9.83468
972.339	26.69535
972.511	60.42118
972.683	37.23403
972.855	-66.01904
973.027	-40.73804
973.199	-7.02445
973.37	-19.66778
973.542	-13.34623
973.714	-17.56062
973.886	-70.23219
974.057	-7.02445
974.229	43.55752
974.401	-53.37899
974.572	30.91075
974.744	-40.73804
974.915	5.61975
975.087	11.94218
975.259	1.40492
975.43	-11.23899
975.602	3.51233
975.773	-53.37899
975.945	22.48004
976.116	-4.91714
976.288	-57.59244
976.459	54.09713
976.63	1.40492
976.802	35.12624
976.973	47.77329
977.145	1.40492
977.316	22.48004
977.487	-47.05863
977.659	-15.45344
977.83	-13.34623
978.001	-34.41722
978.172	1.40492
978.344	30.91075
978.515	-91.29638
978.686	33.01848
978.857	81.50281
979.028	-15.45344
979.2	11.94218
979.371	-28.09618
979.542	20.37242
979.713	39.34183
979.884	41.44967
980.055	-7.02445
980.226	22.48004
980.397	33.01848
980.568	39.34183
980.739	-11.23899
980.91	22.48004
981.081	22.48004
981.252	35.12624
981.423	66.74543
981.594	-23.88203
981.765	-21.77492
981.936	-28.09618
982.106	9.83468
982.277	-21.77492
982.448	-47.05863
982.619	43.55752
982.79	14.04971
982.96	-21.77492
983.131	-7.02445
983.302	43.55752
983.472	1.40492
983.643	-34.41722
983.814	47.77329
983.984	1.40492
984.155	-7.02445
984.326	5.61975
984.496	-19.66778
984.667	60.42118
984.837	-47.05863
985.008	7.72721
985.178	-63.91243
985.349	-30.20322
985.519	-84.97739
985.69	-32.31023
985.86	-49.16544
986.031	-17.56062
986.201	-28.09618
986.371	43.55752
986.542	-32.31023
986.712	-28.09618
986.882	-30.20322
987.053	20.37242
987.223	-7.02445
987.393	-4.91714
987.563	-4.91714
987.734	-13.34623
987.904	-30.20322
988.074	35.12624
988.244	-38.63112
988.414	-21.77492
988.585	43.55752
988.755	58.31314
988.925	-7.02445
989.095	-15.45344
989.265	-47.05863
989.435	5.61975
989.605	64.63732
989.775	35.12624
989.945	-4.91714
990.115	60.42118
990.285	-40.73804
990.455	-19.66778
990.625	30.91075
990.795	41.44967
990.965	-40.73804
991.134	87.82774
991.304	-47.05863
991.474	70.96171
991.644	-57.59244
991.814	14.04971
991.984	-2.80981
992.153	70.96171
992.323	22.48004
992.493	5.61975
992.662	-21.77492
992.832	-53.37899
993.002	30.91075
993.171	-19.66778
993.341	62.52924
993.511	26.69535
993.68	-38.63112
993.85	9.83468
994.019	-4.91714
994.189	30.91075
994.358	18.26482
994.528	-11.23899
994.697	-7.02445
994.867	-11.23899
995.036	-2.80981
995.206	5.61975
995.375	16.15725
995.544	-38.63112
995.714	-19.66778
995.883	-11.23899
996.052	1.40492
996.222	9.83468
996.391	-30.20322
996.56	28.80304
996.73	-9.13173
996.899	-11.23899
997.068	-19.66778
997.237	11.94218
997.406	30.91075
997.576	18.26482
997.745	-7.02445
997.914	26.69535
998.083	1.40492
998.252	-7.02445
998.421	-40.73804
998.59	62.52924
998.759	-11.23899
998.928	7.72721
999.097	-2.80981
999.266	33.01848
999.435	-61.80579
999.604	-21.77492
999.773	-53.37899
999.942	-36.52418
1000.111	-15.45344
1000.28	14.04971
1000.448	-11.23899
1000.617	-2.80981
1000.786	7.72721
1000.955	-7.02445
1001.124	-57.59244
1001.292	20.37242
1001.461	-53.37899
1001.63	43.55752
1001.798	9.83468
1001.967	49.88122
1002.136	-32.31023
1002.304	-15.45344
1002.473	9.83468
1002.642	-21.77492
1002.81	-55.48573
1002.979	-13.34623
1003.147	20.37242
1003.316	43.55752
1003.484	33.01848
1003.653	68.85356
1003.821	-66.01904
1003.99	-11.23899
1004.158	-4.91714
1004.327	16.15725
1004.495	47.77329
1004.663	22.48004
1004.832	-15.45344
1005	22.48004
1005.168	-19.66778
1005.337	68.85356
1005.505	60.42118
1005.673	-7.02445
1005.842	30.91075
1006.01	-40.73804
1006.178	11.94218
1006.346	41.44967
1006.514	3.51233
1006.683	-19.66778
1006.851	-70.23219
1007.019	-30.20322
1007.187	-0.70246
1007.355	1.40492
1007.523	-19.66778
1007.691	-15.45344
1007.859	1.40492
1008.027	-25.98912
1008.195	-82.87101
1008.363	-7.02445
1008.531	11.94218
1008.699	9.83468
1008.867	35.12624
1009.035	-7.02445
1009.203	68.85356
1009.37	-19.66778
1009.538	-11.23899
1009.706	-28.09618
1009.874	26.69535
1010.042	-4.91714
1010.209	-2.80981
1010.377	-19.66778
1010.545	-15.45344
1010.713	35.12624
1010.88	77.2863
1011.048	-11.23899
1011.216	-49.16544
1011.383	56.20513
1011.551	9.83468
1011.718	-17.56062
1011.886	-40.73804
1012.054	28.80304
1012.221	-36.52418
1012.389	14.04971
1012.556	11.94218
1012.724	-38.63112
1012.891	37.23403
1013.058	26.69535
1013.226	18.26482
1013.393	-44.95179
1013.561	51.98916
1013.728	1.40492
1013.895	-21.77492
1014.063	9.83468
1014.23	-9.13173
1014.397	28.80304
1014.565	-2.80981
1014.732	26.69535
1014.899	-99.72133
1015.066	-2.80981
1015.233	3.51233
1015.401	-63.91243
1015.568	26.69535
1015.735	-15.45344
1015.902	-40.73804
1016.069	-80.7646
1016.236	-40.73804
1016.403	-70.23219
1016.57	-70.23219
1016.737	-44.95179
1016.904	9.83468
1017.071	20.37242
1017.238	-57.59244
1017.405	26.69535
1017.572	9.83468
1017.739	24.58768
1017.906	14.04971
1018.073	26.69535
1018.24	-11.23899
1018.407	-57.59244
1018.573	14.04971
1018.74	9.83468
1018.907	-15.45344
1019.074	11.94218
1019.241	18.26482
1019.407	5.61975
1019.574	-66.01904
1019.741	9.83468
1019.907	-28.09618
1020.074	5.61975
1020.241	26.69535
1020.407	1.40492
1020.574	-19.66778
1020.74	9.83468
1020.907	-2.80981
1021.073	22.48004
1021.24	20.37242
1021.406	-38.63112
1021.573	-61.80579
1021.739	37.23403
1021.906	-38.63112
1022.072	33.01848
1022.239	43.55752
1022.405	-55.48573
1022.571	35.12624
1022.738	-11.23899
1022.904	-15.45344
1023.07	-28.09618
1023.237	30.91075
1023.403	-7.02445
1023.569	-19.66778
1023.735	9.83468
1023.902	9.83468
1024.068	1.40492
1024.234	9.83468
1024.4	-9.13173
1024.566	66.74543
1024.732	79.39455
1024.898	-49.16544
1025.065	-42.84492
1025.231	-32.31023
1025.397	-7.02445
1025.563	-49.16544
1025.729	-40.73804
1025.895	-53.37899
1026.061	-32.31023
1026.227	-2.80981
1026.392	-32.31023
1026.558	-15.45344
1026.724	-13.34623
1026.89	28.80304
1027.056	85.71941
1027.222	18.26482
1027.388	-40.73804
1027.553	-61.80579
1027.719	-13.34623
1027.885	1.40492
1028.051	-21.77492
1028.216	22.48004
1028.382	18.26482
1028.548	1.40492
1028.713	-57.59244
1028.879	-36.52418
1029.045	-47.05863
1029.21	-36.52418
1029.376	-40.73804
1029.541	-32.31023
1029.707	-40.73804
1029.873	-2.80981
1030.038	30.91075
1030.204	7.72721
1030.369	-36.52418
1030.534	39.34183
1030.7	-70.23219
1030.865	-19.66778
1031.031	26.69535
1031.196	-13.34623
1031.361	-13.34623
1031.527	9.83468
1031.692	-7.02445
1031.857	-19.66778
1032.023	5.61975
1032.188	-70.23219
1032.353	-28.09618
1032.518	-124.99365
1032.684	1.40492
1032.849	11.94218
1033.014	30.91075
1033.179	3.51233
1033.344	41.44967
1033.509	35.12624
1033.674	51.98916
1033.839	30.91075
1034.004	14.04971
1034.17	87.82774
1034.335	-21.77492
1034.5	30.91075
1034.664	43.55752
1034.829	47.77329
1034.994	-4.91714
1035.159	-47.05863
1035.324	-11.23899
1035.489	-49.16544
1035.654	-57.59244
1035.819	58.31314
1035.984	-30.20322
1036.148	-42.84492
1036.313	30.91075
1036.478	73.06989
1036.643	68.85356
1036.807	-4.91714
1036.972	9.83468
1037.137	-78.65817
1037.301	-7.02445
1037.466	-82.87101
1037.631	3.51233
1037.795	-2.80981
1037.96	39.34183
1038.124	-30.20322
1038.289	43.55752
1038.454	-47.05863
1038.618	-7.02445
1038.783	-15.45344
1038.947	47.77329
1039.111	35.12624
1039.276	43.55752
1039.44	-49.16544
1039.605	16.15725
1039.769	-32.31023
1039.933	47.77329
1040.098	62.52924
1040.262	26.69535
1040.426	9.83468
1040.591	-21.77492
1040.755	-11.23899
1040.919	43.55752
1041.083	-57.59244
1041.248	-32.31023
1041.412	-9.13173
1041.576	1.40492
1041.74	-36.52418
1041.904	-36.52418
1042.068	-19.66778
1042.232	-7.02445
1042.397	35.12624
1042.561	18.26482
1042.725	-57.59244
1042.889	24.58768
1043.053	35.12624
1043.217	24.58768
1043.381	-40.73804
1043.544	1.40492
1043.708	-36.52418
1043.872	-13.34623
1044.036	-72.33872
1044.2	-28.09618
1044.364	-9.13173
1044.528	-55.48573
1044.691	-74.44523
1044.855	-11.23899
1045.019	47.77329
1045.183	-32.31023
1045.346	102.58669
1045.51	41.44967
1045.674	-13.34623
1045.837	5.61975
1046.001	-17.56062
1046.165	16.15725
1046.328	18.26482
1046.492	20.37242
1046.655	11.94218
1046.819	-49.16544
1046.983	-4.91714
1047.146	-42.84492
1047.31	-30.20322
1047.473	-21.77492
1047.636	-42.84492
1047.8	-28.09618
1047.963	3.51233
1048.127	22.48004
1048.29	22.48004
