Data from absorb_only_2.23.25_USB4F045381__87__0192.txt Node

Date: Sun Feb 23 19:30:46 EST 2025
User: ssocol
Spectrometer: USB4F04538
Trigger mode: 4
Integration Time (sec): 2.600000E-3
Scans to average: 1
Electric dark correction enabled: true
Nonlinearity correction enabled: true
Boxcar width: 0
XAxis mode: Wavelengths
Number of Pixels in Spectrum: 3648
>>>>>Begin Spectral Data<<<<<
345.52	-37.57766
345.736	-37.57766
345.952	-37.57766
346.168	-39.68458
346.384	-35.47071
346.6	38.28793
346.816	44.61145
347.032	-14.39983
347.248	21.42623
347.464	6.67348
347.68	2.45862
347.896	-33.36373
348.112	-12.29261
348.328	8.78094
348.544	-16.50703
348.76	-39.68458
348.975	-5.9708
349.191	0.35123
349.407	57.25913
349.623	-33.36373
349.839	-18.61421
350.055	-5.9708
350.27	-16.50703
350.486	2.45862
350.702	-41.79148
350.918	-35.47071
351.133	6.67348
351.349	84.66525
351.565	-60.75247
351.781	-8.0781
351.996	10.88843
352.212	-12.29261
352.428	-27.04265
352.644	61.47521
352.859	25.64151
353.075	17.21104
353.291	23.53386
353.506	31.96461
353.722	74.12398
353.938	-107.09281
354.153	-52.32561
354.369	-86.03057
354.584	-27.04265
354.8	8.78094
355.016	34.07236
355.231	-5.9708
355.447	10.88843
355.662	-35.47071
355.878	27.74919
356.093	17.21104
356.309	25.64151
356.524	-1.75614
356.74	67.79949
356.955	-39.68458
357.171	-35.47071
357.386	-35.47071
357.602	57.25913
357.817	86.77357
358.033	-41.79148
358.248	6.67348
358.464	-1.75614
358.679	-39.68458
358.895	48.82725
359.11	-41.79148
359.325	21.42623
359.541	-14.39983
359.756	-1.75614
359.972	65.69137
360.187	-22.82848
360.402	46.71934
360.618	2.45862
360.833	57.25913
361.048	-12.29261
361.264	44.61145
361.479	-29.1497
361.694	-12.29261
361.909	2.45862
362.125	10.88843
362.34	-10.18537
362.555	29.85689
362.77	42.50359
362.986	25.64151
363.201	-62.85911
363.416	36.18013
363.631	0.35123
363.847	-43.89836
364.062	-92.34952
364.277	17.21104
364.492	31.96461
364.707	-22.82848
364.922	-41.79148
365.138	-1.75614
365.353	23.53386
365.568	-43.89836
365.783	-1.75614
365.998	23.53386
366.213	-12.29261
366.428	65.69137
366.643	65.69137
366.858	40.39575
367.073	-1.75614
367.288	23.53386
367.503	17.21104
367.718	31.96461
367.933	-12.29261
368.148	29.85689
368.363	-39.68458
368.578	23.53386
368.793	-10.18537
369.008	-10.18537
369.223	69.90763
369.438	-35.47071
369.653	-27.04265
369.868	31.96461
370.083	19.31862
370.298	31.96461
370.513	55.15113
370.728	-8.0781
370.943	-8.0781
371.157	44.61145
371.372	67.79949
371.587	-50.21884
371.802	27.74919
372.017	-5.9708
372.232	25.64151
372.446	-35.47071
372.661	-43.89836
372.876	17.21104
373.091	-1.75614
373.306	-18.61421
373.52	17.21104
373.735	-48.11204
373.95	-33.36373
374.165	-56.53909
374.379	-24.93558
374.594	48.82725
374.809	25.64151
375.023	8.78094
375.238	-22.82848
375.453	63.58328
375.667	19.31862
375.882	-69.17891
376.097	84.66525
376.311	-64.96574
376.526	74.12398
376.741	-10.18537
376.955	74.12398
377.17	31.96461
377.384	-71.28546
377.599	-46.00521
377.813	29.85689
378.028	48.82725
378.242	-5.9708
378.457	36.18013
378.672	-3.86348
378.886	-33.36373
379.101	36.18013
379.315	-18.61421
379.53	4.56604
379.744	34.07236
379.958	48.82725
380.173	44.61145
380.387	12.99594
380.602	-20.72135
380.816	40.39575
381.031	8.78094
381.245	0.35123
381.459	34.07236
381.674	48.82725
381.888	-1.75614
382.103	-48.11204
382.317	-5.9708
382.531	-35.47071
382.746	6.67348
382.96	4.56604
383.174	-14.39983
383.388	-27.04265
383.603	-67.07234
383.817	-3.86348
384.031	15.10348
384.246	-14.39983
384.46	-16.50703
384.674	44.61145
384.888	-33.36373
385.103	-83.9242
385.317	-16.50703
385.531	-39.68458
385.745	59.36716
385.959	27.74919
386.174	-35.47071
386.388	31.96461
386.602	17.21104
386.816	17.21104
387.03	-22.82848
387.244	74.12398
387.458	59.36716
387.672	42.50359
387.887	-1.75614
388.101	-60.75247
388.315	6.67348
388.529	42.50359
388.743	67.79949
388.957	15.10348
389.171	65.69137
389.385	65.69137
389.599	-10.18537
389.813	31.96461
390.027	40.39575
390.241	-52.32561
390.455	0.35123
390.669	78.34042
390.883	23.53386
391.097	-75.49848
391.311	-69.17891
391.525	-3.86348
391.738	36.18013
391.952	44.61145
392.166	109.96657
392.38	-27.04265
392.594	15.10348
392.808	38.28793
393.022	19.31862
393.236	34.07236
393.449	59.36716
393.663	2.45862
393.877	57.25913
394.091	8.78094
394.305	-58.64579
394.518	34.07236
394.732	-22.82848
394.946	53.04315
395.16	-37.57766
395.373	59.36716
395.587	48.82725
395.801	101.53244
396.015	10.88843
396.228	6.67348
396.442	6.67348
396.656	23.53386
396.869	-31.25673
397.083	-1.75614
397.297	-46.00521
397.51	40.39575
397.724	84.66525
397.938	-50.21884
398.151	42.50359
398.365	21.42623
398.578	-39.68458
398.792	2.45862
399.005	-1.75614
399.219	-35.47071
399.433	-67.07234
399.646	93.09867
399.86	-27.04265
400.073	74.12398
400.287	40.39575
400.5	36.18013
400.714	-18.61421
400.927	44.61145
401.141	-35.47071
401.354	57.25913
401.567	-5.9708
401.781	57.25913
401.994	23.53386
402.208	65.69137
402.421	74.12398
402.635	23.53386
402.848	2.45862
403.061	31.96461
403.275	-50.21884
403.488	-10.18537
403.701	34.07236
403.915	42.50359
404.128	-35.47071
404.341	27.74919
404.555	34.07236
404.768	10.88843
404.981	42.50359
405.195	-39.68458
405.408	-12.29261
405.621	-27.04265
405.834	-22.82848
406.048	12.99594
406.261	40.39575
406.474	40.39575
406.687	19.31862
406.9	-1.75614
407.114	0.35123
407.327	-18.61421
407.54	36.18013
407.753	-8.0781
407.966	-5.9708
408.179	-29.1497
408.392	84.66525
408.605	-10.18537
408.819	6.67348
409.032	21.42623
409.245	-31.25673
409.458	48.82725
409.671	-18.61421
409.884	-18.61421
410.097	10.88843
410.31	-60.75247
410.523	-5.9708
410.736	27.74919
410.949	31.96461
411.162	17.21104
411.375	59.36716
411.588	44.61145
411.801	21.42623
412.014	17.21104
412.227	65.69137
412.44	112.07516
412.653	-43.89836
412.865	44.61145
413.078	82.55695
413.291	57.25913
413.504	-14.39983
413.717	-52.32561
413.93	6.67348
414.143	-1.75614
414.356	-16.50703
414.568	-18.61421
414.781	-52.32561
414.994	2.45862
415.207	6.67348
415.42	34.07236
415.632	76.23219
415.845	-39.68458
416.058	-24.93558
416.271	23.53386
416.483	74.12398
416.696	-1.75614
416.909	53.04315
417.121	-22.82848
417.334	10.88843
417.547	15.10348
417.759	48.82725
417.972	57.25913
418.185	84.66525
418.397	8.78094
418.61	-10.18537
418.823	-46.00521
419.035	4.56604
419.248	-18.61421
419.46	0.35123
419.673	21.42623
419.885	-35.47071
420.098	46.71934
420.311	-18.61421
420.523	-5.9708
420.736	-8.0781
420.948	36.18013
421.161	76.23219
421.373	31.96461
421.586	-39.68458
421.798	12.99594
422.01	-1.75614
422.223	44.61145
422.435	48.82725
422.648	-5.9708
422.86	-92.34952
423.073	93.09867
423.285	-29.1497
423.497	-27.04265
423.71	-18.61421
423.922	65.69137
424.134	-1.75614
424.347	-27.04265
424.559	-24.93558
424.771	-3.86348
424.984	48.82725
425.196	-16.50703
425.408	-56.53909
425.621	90.99028
425.833	8.78094
426.045	-18.61421
426.257	21.42623
426.47	6.67348
426.682	2.45862
426.894	31.96461
427.106	19.31862
427.318	107.85801
427.531	42.50359
427.743	-41.79148
427.955	57.25913
428.167	40.39575
428.379	78.34042
428.591	48.82725
428.804	0.35123
429.016	-22.82848
429.228	23.53386
429.44	25.64151
429.652	74.12398
429.864	95.20708
430.076	-24.93558
430.288	72.0158
430.5	-18.61421
430.712	63.58328
430.924	-18.61421
431.136	74.12398
431.348	-43.89836
431.56	29.85689
431.772	40.39575
431.984	-43.89836
432.196	8.78094
432.408	36.18013
432.62	36.18013
432.832	31.96461
433.044	8.78094
433.256	-10.18537
433.468	-62.85911
433.679	25.64151
433.891	-1.75614
434.103	-35.47071
434.315	-22.82848
434.527	27.74919
434.739	15.10348
434.95	-18.61421
435.162	6.67348
435.374	59.36716
435.586	74.12398
435.798	61.47521
436.009	44.61145
436.221	31.96461
436.433	61.47521
436.645	-10.18537
436.856	48.82725
437.068	31.96461
437.28	48.82725
437.491	-20.72135
437.703	59.36716
437.915	57.25913
438.126	34.07236
438.338	-27.04265
438.55	2.45862
438.761	23.53386
438.973	-5.9708
439.184	-3.86348
439.396	-20.72135
439.608	-22.82848
439.819	-5.9708
440.031	57.25913
440.242	10.88843
440.454	95.20708
440.665	97.31551
440.877	78.34042
441.088	-33.36373
441.3	78.34042
441.511	-27.04265
441.723	36.18013
441.934	69.90763
442.146	101.53244
442.357	-33.36373
442.569	55.15113
442.78	-5.9708
442.991	-1.75614
443.203	27.74919
443.414	15.10348
443.626	34.07236
443.837	44.61145
444.048	23.53386
444.26	-18.61421
444.471	21.42623
444.682	50.93519
444.894	-18.61421
445.105	90.99028
445.316	-1.75614
445.528	-20.72135
445.739	-39.68458
445.95	-35.47071
446.161	29.85689
446.373	-31.25673
446.584	17.21104
446.795	-10.18537
447.006	99.42397
447.217	-22.82848
447.429	86.77357
447.64	31.96461
447.851	38.28793
448.062	23.53386
448.273	23.53386
448.484	-52.32561
448.695	-56.53909
448.907	31.96461
449.118	25.64151
449.329	-52.32561
449.54	-22.82848
449.751	-8.0781
449.962	17.21104
450.173	84.66525
450.384	19.31862
450.595	48.82725
450.806	-5.9708
451.017	-18.61421
451.228	-18.61421
451.439	55.15113
451.65	-18.61421
451.861	55.15113
452.072	-31.25673
452.283	27.74919
452.494	40.39575
452.705	10.88843
452.915	59.36716
453.126	10.88843
453.337	42.50359
453.548	-31.25673
453.759	-46.00521
453.97	15.10348
454.181	-50.21884
454.391	40.39575
454.602	25.64151
454.813	31.96461
455.024	8.78094
455.235	48.82725
455.445	42.50359
455.656	57.25913
455.867	90.99028
456.078	29.85689
456.288	31.96461
456.499	65.69137
456.71	8.78094
456.921	6.67348
457.131	25.64151
457.342	105.74946
457.553	-12.29261
457.763	69.90763
457.974	19.31862
458.184	31.96461
458.395	44.61145
458.606	-31.25673
458.816	-1.75614
459.027	99.42397
459.237	29.85689
459.448	55.15113
459.659	-41.79148
459.869	90.99028
460.08	23.53386
460.29	-1.75614
460.501	84.66525
460.711	46.71934
460.922	36.18013
461.132	48.82725
461.343	23.53386
461.553	40.39575
461.764	27.74919
461.974	93.09867
462.184	40.39575
462.395	82.55695
462.605	90.99028
462.816	55.15113
463.026	-1.75614
463.236	48.82725
463.447	57.25913
463.657	38.28793
463.867	69.90763
464.078	74.12398
464.288	114.18377
464.498	90.99028
464.709	42.50359
464.919	118.40105
465.129	48.82725
465.339	57.25913
465.55	88.88192
465.76	-1.75614
465.97	57.25913
466.18	90.99028
466.391	4.56604
466.601	48.82725
466.811	48.82725
467.021	23.53386
467.231	38.28793
467.441	65.69137
467.651	61.47521
467.862	-22.82848
468.072	19.31862
468.282	59.36716
468.492	74.12398
468.702	19.31862
468.912	19.31862
469.122	158.46953
469.332	-1.75614
469.542	34.07236
469.752	82.55695
469.962	53.04315
470.172	154.25143
470.382	59.36716
470.592	74.12398
470.802	53.04315
471.012	99.42397
471.222	99.42397
471.432	76.23219
471.642	53.04315
471.852	107.85801
472.062	-10.18537
472.272	84.66525
472.482	63.58328
472.691	95.20708
472.901	135.27105
473.111	8.78094
473.321	76.23219
473.531	82.55695
473.741	6.67348
473.95	67.79949
474.16	103.64094
474.37	82.55695
474.58	118.40105
474.79	103.64094
474.999	107.85801
475.209	40.39575
475.419	107.85801
475.628	80.44868
475.838	112.07516
476.048	101.53244
476.258	141.59765
476.467	131.05342
476.677	128.94464
476.886	107.85801
477.096	99.42397
477.306	40.39575
477.515	126.83588
477.725	131.05342
477.935	133.16222
478.144	202.76452
478.354	158.46953
478.563	185.88917
478.773	196.43612
478.982	162.68771
479.192	141.59765
479.401	162.68771
479.611	211.20268
479.82	156.36047
480.03	192.21728
480.239	164.79683
480.449	242.84859
480.658	263.94829
480.868	150.03342
481.077	225.97022
481.287	318.81625
481.496	209.09311
481.705	259.7282
481.915	160.57861
482.124	247.06838
482.333	312.48471
482.543	124.72714
482.752	287.16014
482.961	291.38072
483.171	244.95848
483.38	289.27042
483.589	274.49885
483.799	325.14796
484.008	363.14154
484.217	272.3887
484.426	369.47435
484.636	356.80889
484.845	327.25857
485.054	276.60902
485.263	335.70117
485.472	344.14405
485.682	386.36258
485.891	280.82941
486.1	386.36258
486.309	327.25857
486.518	329.36919
486.727	306.15332
486.936	373.69631
487.146	352.58721
487.355	386.36258
487.564	428.58776
487.773	462.37249
487.982	472.93102
488.191	394.80709
488.4	437.03357
488.609	565.86185
488.818	475.04277
489.027	339.92257
489.236	475.04277
489.445	462.37249
489.654	508.83283
489.863	515.16888
490.072	466.59585
490.281	563.74948
490.49	601.77407
490.698	610.22455
490.907	610.22455
491.116	616.56254
491.325	665.1575
491.534	648.25418
491.743	758.1387
491.952	574.31144
492.16	732.77811
492.369	679.94853
492.578	660.9316
492.787	648.25418
492.996	722.21165
493.204	781.38719
493.413	709.53225
493.622	827.8877
493.831	758.1387
494.039	768.70605
494.248	705.30587
494.457	903.98872
494.665	806.75054
494.874	855.36735
495.083	914.55914
495.291	834.22902
495.5	865.93684
495.709	834.22902
495.917	861.70902
496.126	935.70057
496.335	779.27365
496.543	931.47222
496.752	874.39258
496.96	937.81475
497.169	859.59512
497.377	893.41849
497.586	853.25348
497.794	980.09991
498.003	880.73448
498.211	1136.57623
498.42	961.07124
498.628	1016.04441
498.837	906.10279
499.045	1087.93856
499.254	973.75696
499.462	1051.99068
499.671	999.12912
499.879	1140.8057
500.087	1115.42911
500.296	1153.49423
500.504	1242.31771
500.713	1092.16782
500.921	1121.7732
501.129	1168.2977
501.338	1195.79036
501.546	1195.79036
501.754	1178.87173
501.962	1157.72378
502.171	1185.21619
502.379	1223.28361
502.587	1100.6264
502.795	1303.65127
503.004	1235.97299
503.212	1364.9865
503.42	1180.98655
503.628	1430.5528
503.837	1352.29635
504.045	1443.24311
504.253	1278.27162
504.461	1504.57956
504.669	1386.13684
504.877	1504.57956
505.085	1333.26121
505.294	1426.3227
505.502	1405.17222
505.71	1504.57956
505.918	1333.26121
506.126	1436.89795
506.334	1392.48196
506.542	1570.14547
506.75	1405.17222
506.958	1510.92469
507.166	1360.75644
507.374	1637.82489
507.582	1510.92469
507.79	1741.45408
507.998	1485.54414
508.206	1532.07507
508.414	1405.17222
508.622	1790.09357
508.83	1616.67529
509.037	1654.7444
509.245	1426.3227
509.453	1766.83146
509.661	1460.16353
509.869	1707.61677
510.077	1697.04245
510.285	1817.5845
510.492	1747.79847
510.7	1777.4052
510.908	1654.7444
511.116	1798.55239
511.324	1629.36507
511.531	1864.10588
511.739	1616.67529
511.947	1878.90764
512.155	1690.69781
512.362	1779.51994
512.57	1665.31902
512.778	1893.70915
512.985	1768.94621
513.193	1842.96008
513.401	1864.10588
513.608	1857.76219
513.816	1823.92846
514.024	1984.62671
514.231	1842.96008
514.439	1796.43769
514.646	1722.4207
514.854	1897.93811
515.061	1942.34081
515.269	1872.56406
515.477	1919.08256
515.684	2081.8744
515.892	1988.85516
516.099	2054.39283
516.307	2088.21612
516.514	2090.33002
516.722	1984.62671
516.929	2221.3761
517.136	1868.33498
517.344	2250.96268
517.551	2111.46854
517.759	1997.31199
517.966	2060.73484
518.173	2115.69616
518.381	2221.3761
518.588	2204.4687
518.796	2183.33369
519.003	2272.09488
519.21	2196.0148
519.418	2250.96268
519.625	2267.86851
519.832	2223.48948
520.039	2324.9213
520.247	2390.4176
520.454	2354.50146
520.661	2352.38866
520.868	2147.40227
521.076	2451.67936
521.283	2356.61426
521.49	2510.81999
521.697	2288.99998
521.904	2472.80201
522.112	2407.31828
522.319	2449.56704
522.526	2265.75532
522.733	2517.15596
522.94	2371.40354
523.147	2468.57757
523.354	2508.70797
523.561	2639.63063
523.768	2474.91422
523.975	2434.78046
524.183	2381.96701
524.39	2645.96441
524.597	2477.02641
524.804	2673.40951
525.011	2544.61065
525.218	2618.5172
525.425	2580.50995
525.632	2563.61659
525.838	2584.73317
526.045	2686.07575
526.252	2681.85372
526.459	2793.7198
526.666	2686.07575
526.873	2825.37314
527.08	2721.96092
527.287	2770.50539
527.494	2652.29809
527.701	2804.27126
527.907	2778.94718
528.114	2960.39156
528.321	2671.29842
528.528	2973.04647
528.735	2905.54746
528.941	2922.42363
529.148	2736.73607
529.355	3040.53014
529.562	2770.50539
529.768	2954.06391
529.975	2766.28441
530.182	2956.17314
530.388	2757.8423
530.595	2930.86136
530.802	2738.84675
531.008	3057.39861
531.215	3070.0493
531.422	3044.74735
531.628	2894.99939
531.835	3067.94089
532.042	2814.82237
532.248	3244.99149
532.455	2882.34122
532.661	3112.2142
532.868	3067.94089
533.074	3360.85392
533.281	3141.72584
533.487	3261.84741
533.694	3107.99799
533.9	3369.27824
534.107	3207.06176
534.313	3379.80825
534.52	3143.8337
534.726	3539.80959
534.933	3114.32228
535.139	3293.44934
535.345	3110.1061
535.552	3200.73962
535.758	3217.59834
535.965	3569.27206
536.171	3386.12605
536.377	3386.12605
536.584	3080.59112
536.79	3266.06122
536.996	3171.23433
537.203	3413.50134
537.409	3417.71266
537.615	3512.44834
537.821	3546.12328
538.028	3619.77068
538.234	3449.29527
538.44	3386.12605
538.646	3478.76873
538.853	3579.79349
539.059	3377.70229
539.265	3655.53399
539.471	3424.0295
539.677	3539.80959
539.883	3672.36188
540.09	3676.56867
540.296	3655.53399
540.502	3718.63229
540.708	3577.68924
540.914	3891.01166
541.12	3516.65797
541.326	3684.982
541.532	3628.18607
541.738	3846.87836
541.944	3621.87456
542.15	3966.64814
542.356	3647.11958
542.562	3844.77656
542.768	3607.14704
542.974	3872.09847
543.18	3960.3461
543.386	4088.45128
543.592	3869.9969
543.798	3907.82203
544.004	3979.25166
544.21	4101.04764
544.415	3943.53977
544.621	4056.95712
544.827	3937.23706
545.033	4180.80706
545.239	3954.04388
545.445	4235.36175
545.651	3884.70744
545.856	4101.04764
546.062	4155.62315
546.268	4235.36175
546.474	4136.73323
546.679	4038.05838
546.885	3825.85943
547.091	4004.45651
547.297	3920.42896
547.502	4336.04017
547.708	4086.35182
547.914	4241.6556
548.119	4088.45128
548.325	4271.02434
548.531	4014.95766
548.736	4075.85418
548.942	4092.65015
549.147	4315.06958
549.353	4277.3171
549.559	4520.48745
549.764	4260.53599
549.97	4243.7535
550.175	4222.77348
550.381	4239.55767
550.586	4268.92671
550.792	4537.24694
550.997	4203.88964
551.203	4463.91371
551.408	4396.84262
551.614	4459.72243
551.819	4340.23403
552.025	4396.84262
552.23	4245.85139
552.435	4491.15492
552.641	4746.62013
552.846	4539.34178
553.052	4512.10717
553.257	4524.67745
553.462	4566.57264
553.668	4583.32823
553.873	4407.32396
554.078	4604.27071
554.283	4434.57287
554.489	4754.99038
554.694	4497.44083
554.899	4736.15681
555.105	4566.57264
555.31	4608.45894
555.515	4629.39874
555.72	4746.62013
555.925	4694.29788
556.131	4698.48418
556.336	4817.75568
556.541	4757.08289
556.746	4556.09968
556.951	4807.29622
557.156	4610.55302
557.361	4708.94953
557.567	4775.91442
557.772	5031.00386
557.977	4796.83619
558.182	4813.57197
558.387	4807.29622
558.592	4763.36027
558.797	4566.57264
559.002	4991.29929
559.207	4842.85607
559.412	5001.74867
559.617	4842.85607
559.822	5035.18281
560.027	4713.13552
560.232	5037.27225
560.437	4683.83174
560.642	5001.74867
560.847	4909.77437
561.051	5141.71458
561.256	4819.84751
561.461	5206.43966
561.666	5024.73527
561.871	5200.17692
562.076	4688.01826
562.281	5005.92826
562.485	4821.93931
562.69	5039.36166
562.895	4909.77437
563.1	5141.71458
563.305	4976.66919
563.509	5106.21069
563.714	5099.9446
563.919	5139.6263
564.123	5035.18281
564.328	5235.663
564.533	4936.95323
564.737	5252.35999
564.942	5137.538
565.147	5235.663
565.351	5031.00386
565.556	5158.41997
565.761	4985.02938
565.965	5289.92276
566.17	5005.92826
566.374	5381.71093
566.579	4989.20934
566.784	5283.66283
566.988	5323.30553
567.193	5419.24755
567.397	5258.62098
567.602	5504.71919
567.806	5014.28716
568.011	5323.30553
568.215	5371.28274
568.42	5544.31458
568.624	5279.48942
568.828	5523.47596
569.033	5285.7495
569.237	5481.79165
569.442	5256.53401
569.646	5498.46651
569.85	5421.33269
570.055	5379.62534
570.259	5367.1113
570.463	5423.41781
570.668	5241.92454
570.872	5490.12927
571.076	5531.81169
571.281	5600.56709
571.485	5244.01168
571.689	5638.05921
571.893	5677.62594
572.098	5713.02053
572.302	5463.03064
572.506	5598.48397
572.71	5365.02555
572.914	5685.95469
573.119	5552.64937
573.323	5567.23434
573.527	5558.90021
573.731	5617.2312
573.935	5531.81169
574.139	5783.78925
574.343	5356.6823
574.547	5715.10235
574.751	5679.70816
574.955	5891.97098
575.159	5490.12927
575.364	5669.29681
575.568	5765.05901
575.772	5912.76784
575.976	5685.95469
576.18	5623.47985
576.383	5717.18415
576.587	5802.51757
576.791	5506.80337
576.995	5812.92137
577.199	5727.59279
577.403	5702.61106
577.607	5727.59279
577.811	6020.87353
578.015	5575.5681
578.219	5802.51757
578.422	5835.80766
578.626	6130.99265
578.83	5740.08238
579.034	5862.85141
579.238	5667.21447
579.442	5881.57166
579.645	5808.75993
579.849	6006.32456
580.053	5908.60866
580.257	6056.20196
580.46	5852.45044
580.664	6068.66919
580.868	5733.83769
581.071	6025.03017
581.275	5896.13054
581.479	6054.124
581.682	5902.36971
581.886	6049.96802
582.09	5673.46142
582.293	6153.83928
582.497	6120.60687
582.7	6047.89
582.904	5983.45955
583.107	6020.87353
583.311	6116.4524
583.515	6216.13384
583.718	5998.01034
583.922	6251.42472
584.125	6106.0658
584.329	6330.28576
584.532	5979.30196
584.735	6178.75964
584.939	5769.22145
585.142	6454.73455
585.346	5879.49173
585.549	6095.67862
585.753	5931.48301
585.956	6139.30084
586.159	6170.45323
586.363	6425.704
586.566	6292.93474
586.769	6550.08861
586.973	6218.20996
587.176	6151.76243
587.379	6133.06973
587.582	6330.28576
587.786	6068.66919
587.989	6313.68624
588.192	6195.37133
588.395	6637.10824
588.599	6319.91123
588.802	6581.17172
589.005	6247.2732
589.208	6508.63635
589.411	6214.05769
589.615	6313.68624
589.818	6413.26094
590.021	6481.68741
590.224	6270.10539
590.427	6568.7391
590.63	6317.83626
590.833	6554.23332
591.036	6363.48031
591.239	6899.99267
591.442	6541.7989
591.645	6581.17172
591.848	6653.67879
592.051	6612.24964
592.254	6612.24964
592.457	6742.72033
592.66	6541.7989
592.863	6839.99638
593.066	6550.08861
593.269	6686.81549
593.472	6295.00999
593.675	6606.03447
593.878	6463.02816
594.081	6639.17964
594.284	6612.24964
594.486	6618.4646
594.689	6690.95716
594.892	6765.49159
595.095	6606.03447
595.298	6902.06117
595.5	6653.67879
595.703	6794.46919
595.906	6753.07124
596.109	6891.71846
596.311	6450.58761
596.514	6722.01678
596.717	6798.60848
596.92	6784.12056
597.122	6707.52293
597.325	6798.60848
597.528	6856.54899
597.73	7112.92945
597.933	6392.52064
598.136	6893.78705
598.338	6906.1981
598.541	7154.24883
598.743	6860.68691
598.946	6978.57967
599.148	6744.79056
599.351	7038.53205
599.554	6844.13467
599.756	7003.38984
599.959	6804.81724
600.161	7110.86324
600.363	6839.99638
600.566	6943.42636
600.768	6817.23416
600.971	7034.39801
601.173	6978.57967
601.376	7084.00057
601.578	7034.39801
601.78	7046.79986
601.983	6990.98516
602.185	7160.44597
602.388	7154.24883
602.59	7092.26641
602.792	7224.47139
602.995	7172.83965
603.197	7055.06731
603.399	7344.20393
603.601	6902.06117
603.804	7125.3262
604.006	6798.60848
604.208	7017.86095
604.41	6962.03775
604.613	7224.47139
604.815	6895.85561
605.017	7276.08932
605.219	7050.93363
605.421	7017.86095
605.623	6918.60833
605.826	7129.45827
606.028	7110.86324
606.23	7282.28254
606.432	7061.26766
606.634	7430.86084
606.836	7053.00048
607.038	7234.79608
607.24	7278.15375
607.442	7150.1173
607.644	6852.41097
607.846	7463.86291
608.048	6920.67663
608.25	7195.55932
608.452	7065.40112
608.654	7304.98935
608.856	7092.26641
609.058	7280.21816
609.26	7065.40112
609.462	7329.75737
609.664	7251.31443
609.866	7294.6684
610.067	6848.27287
610.269	7110.86324
610.471	7034.39801
610.673	7067.46782
610.875	7352.45863
611.077	7335.94889
611.278	7185.23253
611.48	7249.24972
611.682	7172.83965
611.884	7366.90351
612.085	7282.28254
612.287	7451.48778
612.489	7222.40639
612.69	7292.60415
612.892	7282.28254
613.094	7595.81603
613.295	7249.24972
613.497	7472.11256
613.699	7234.79608
613.9	7507.16973
614.102	7176.9707
614.304	7366.90351
614.505	7129.45827
614.707	7296.73264
614.908	7218.27631
615.11	7362.77651
615.311	7286.41125
615.513	7548.4055
615.714	7191.42867
615.916	7348.33133
616.117	7327.69349
616.319	7484.4864
616.52	7457.67545
616.722	7517.47948
616.923	7439.11188
617.124	7459.73796
617.326	7100.53189
617.527	7550.46706
617.729	7319.43775
617.93	7492.73518
618.131	7298.79685
618.333	7187.29794
618.534	7317.37375
618.735	7319.43775
618.937	7286.41125
619.138	7331.82123
619.339	7117.06179
619.54	7191.42867
619.742	7265.76684
619.943	7401.97947
620.144	7263.70227
620.345	7542.22068
620.546	7418.48363
620.748	7414.35772
620.949	7315.30974
621.15	7647.33642
621.351	7358.64942
621.552	7546.34392
621.753	7228.60133
621.954	7451.48778
622.155	7331.82123
622.356	7533.97396
622.558	7311.18165
622.759	7342.14021
622.96	7158.38028
623.161	7356.58585
623.362	7274.02487
623.563	7550.46706
623.764	7399.91635
623.965	7523.66507
624.166	7416.42069
624.366	7344.20393
624.567	7323.56566
624.768	7546.34392
624.969	7251.31443
625.17	7243.05543
625.371	7616.42578
625.572	7678.24228
625.773	7232.73119
625.973	7432.92363
626.174	7195.55932
626.375	7135.65621
626.576	7401.97947
626.777	7498.92155
626.977	7381.34731
627.178	7867.69477
627.379	7331.82123
627.58	7463.86291
627.78	7282.28254
627.981	7546.34392
628.182	7307.05347
628.382	7612.304
628.583	7224.47139
628.784	7439.11188
628.984	7529.85047
629.185	7670.00119
629.386	7474.17492
629.586	7579.3267
629.787	7300.86103
629.987	7538.09736
630.188	7589.63269
630.388	7451.48778
630.589	7393.72687
630.79	7630.85134
630.99	7480.36187
631.191	7661.75975
631.391	7470.05018
631.591	7474.17492
631.792	7500.98363
631.992	7641.15468
632.193	7472.11256
632.393	7626.72986
632.594	7472.11256
632.794	7577.26543
632.994	7554.59013
633.195	7470.05018
633.395	7474.17492
633.595	7721.5025
633.796	7397.85321
633.996	7641.15468
634.196	7828.58319
634.397	7867.69477
634.597	7672.06149
634.797	7791.5232
634.997	7729.74149
635.198	7785.34587
635.398	7583.44916
635.598	7884.16056
635.798	7583.44916
635.998	7463.86291
636.199	7496.85945
636.399	7688.54318
636.599	7632.91205
636.799	7952.06802
636.999	7546.34392
637.199	7785.34587
637.399	7562.83599
637.599	7653.51798
637.799	7529.85047
637.999	7746.21846
638.199	7657.63891
638.399	7972.64162
638.599	7476.23726
638.799	7915.03036
638.999	7787.405
639.199	7830.64188
639.399	7542.22068
639.599	7801.81832
639.799	7694.72346
639.999	7772.99066
640.199	7754.45644
640.399	7933.55002
640.599	7282.28254
640.799	7826.52448
640.998	7606.12117
641.198	7785.34587
641.398	7801.81832
641.598	7888.2768
641.798	7688.54318
641.997	7781.22755
642.197	7525.72689
642.397	7810.05404
642.597	7752.39697
642.796	7894.45101
642.996	7696.78352
643.196	7906.79887
643.395	7694.72346
643.595	7785.34587
643.795	7597.8771
643.994	7861.51975
644.194	7768.87209
644.394	7830.64188
644.593	7791.5232
644.793	7702.96355
644.992	7709.14339
645.192	7954.12547
645.392	7777.10915
645.591	8052.85919
645.791	7925.31927
645.99	8102.20854
646.19	7803.87728
646.389	7744.15891
646.589	7566.9588
646.788	7789.46411
646.987	7910.91466
647.187	7902.683
647.386	7686.48304
647.586	7904.74094
647.785	7762.69408
647.984	7787.405
648.184	7552.52861
648.383	8059.0285
648.582	7803.87728
648.782	8007.61206
648.981	7927.37699
649.18	8071.36656
649.38	7925.31927
649.579	8130.99031
649.778	7991.15612
649.977	8172.10031
650.177	7810.05404
650.376	7925.31927
650.575	7744.15891
650.774	8063.14127
650.973	8044.63317
651.173	7991.15612
651.372	7978.8133
651.571	8147.43526
651.77	7929.43469
651.969	8005.55514
652.168	8223.47661
652.367	8110.4323
652.566	7962.35507
652.765	8291.27441
652.964	7950.01054
653.163	8264.56874
653.362	7995.27022
653.561	8085.76005
653.76	7970.58435
653.959	8005.55514
654.158	7927.37699
654.357	7795.64131
654.556	7978.8133
654.755	8217.31211
654.954	7861.51975
655.153	8128.9346
655.352	7984.9848
655.551	8050.80272
655.749	8122.76734
655.948	8052.85919
656.147	7966.46975
656.346	8044.63317
656.545	7803.87728
656.743	7892.39296
656.942	8038.46344
657.141	8122.76734
657.34	8100.15255
657.538	8219.36696
657.737	7925.31927
657.936	8246.07826
658.135	8036.40683
658.333	8225.5314
658.532	7991.15612
658.731	8157.71271
658.929	7974.69887
659.128	8028.18016
659.326	7750.33749
659.525	8455.54451
659.724	7999.38425
659.922	8196.76248
660.121	7801.81832
660.319	8011.72584
660.518	7875.92783
660.716	8254.29645
660.915	7984.9848
661.113	8026.12344
661.312	7830.64188
661.51	8283.05763
661.709	8223.47661
661.907	7859.46137
662.105	8085.76005
662.304	8309.761
662.502	8065.19762
662.701	8133.046
662.899	7972.64162
663.097	8071.36656
663.296	8040.52004
663.494	8276.89485
663.692	8221.42179
663.891	8098.09654
664.089	7952.06802
664.287	8102.20854
664.485	7888.2768
664.684	8371.37157
664.882	8046.68971
665.08	8163.87895
665.278	8034.35019
665.476	8009.66896
665.675	8038.46344
665.873	8172.10031
666.071	7999.38425
666.269	7925.31927
666.467	7795.64131
666.665	8283.05763
666.863	7900.62503
667.061	8338.51478
667.259	8272.78622
667.457	8188.54207
667.655	8017.89636
667.853	8133.046
668.051	7890.33489
668.249	8270.73188
668.447	7970.58435
668.645	8141.26855
668.843	8089.87229
669.041	8225.5314
669.239	7777.10915
669.437	8059.0285
669.635	7931.49236
669.833	8034.35019
670.031	7966.46975
670.229	8159.76814
670.426	8114.54406
670.624	7966.46975
670.822	7931.49236
671.02	7871.81134
671.218	7882.10241
671.415	8182.37656
671.613	7974.69887
671.811	8042.57662
672.009	7890.33489
672.206	7999.38425
672.404	7756.51588
672.602	7863.57811
672.799	7847.11066
672.997	8141.26855
673.195	7966.46975
673.392	8361.10436
673.59	8141.26855
673.788	8106.32046
673.985	8040.52004
674.183	8040.52004
674.38	8050.80272
674.578	8194.70741
674.775	7941.78045
674.973	7954.12547
675.17	7725.62204
675.368	8011.72584
675.565	7702.96355
675.763	7900.62503
675.96	7748.27798
676.158	7630.85134
676.355	7593.75494
676.553	8352.89024
676.75	7760.6347
676.947	8019.95316
677.145	7797.70033
677.342	8182.37656
677.539	7921.20377
677.737	8258.40542
677.934	7982.92766
678.131	8026.12344
678.329	8108.37639
678.526	8102.20854
678.723	7768.87209
678.92	7859.46137
679.118	7604.06019
679.315	7884.16056
679.512	8071.36656
679.709	7822.40699
679.906	7727.68177
680.104	7884.16056
680.301	7818.28943
680.498	7727.68177
680.695	7531.91223
680.892	7723.56228
681.089	7659.69934
681.286	7991.15612
681.483	7760.6347
681.68	7740.03975
681.877	7422.60945
682.075	7670.00119
682.272	7579.3267
682.469	7793.58226
682.665	7480.36187
682.862	7538.09736
683.059	7511.2937
683.256	7826.52448
683.453	7571.08151
683.65	7571.08151
683.847	7612.304
684.044	7599.93815
684.241	7513.35565
684.438	7731.80118
684.635	7587.57154
684.831	7795.64131
685.028	7430.86084
685.225	7772.99066
685.422	7589.63269
685.619	7684.42289
685.815	7422.60945
686.012	7748.27798
686.209	7455.61291
686.405	7579.3267
686.602	7538.09736
686.799	7517.47948
686.996	7447.36257
687.192	7727.68177
687.389	7393.72687
687.586	7618.48664
687.782	7628.79061
687.979	7694.72346
688.175	7333.88507
688.372	7641.15468
688.568	7476.23726
688.765	7546.34392
688.962	7589.63269
689.158	7455.61291
689.355	7401.97947
689.551	7540.15904
689.748	7292.60415
689.944	7397.85321
690.14	7531.91223
690.337	7399.91635
690.533	7500.98363
690.73	7467.98778
690.926	7232.73119
691.123	7410.23173
691.319	7395.79005
691.515	7397.85321
691.712	7224.47139
691.908	7174.90519
692.104	7325.62959
692.301	7618.48664
692.497	7216.21124
692.693	7346.26764
692.889	7224.47139
693.086	7548.4055
693.282	7480.36187
693.478	7449.42519
693.674	7401.97947
693.87	7496.85945
694.067	7315.30974
694.263	7476.23726
694.459	7189.36332
694.655	7457.67545
694.851	7317.37375
695.047	7455.61291
695.243	7150.1173
695.439	7243.05543
695.635	7129.45827
695.831	7350.39499
696.027	7030.26388
696.224	7517.47948
696.42	7315.30974
696.615	7414.35772
696.811	7127.39225
697.007	7406.10564
697.203	7088.13354
697.399	7216.21124
697.595	7065.40112
697.791	7294.6684
697.987	7302.9252
698.183	7280.21816
698.379	7274.02487
698.575	7527.78869
698.77	7216.21124
698.966	7350.39499
699.162	7028.19678
699.358	7034.39801
699.554	6784.12056
699.749	7232.73119
699.945	6988.91764
700.141	7135.65621
700.337	6904.12965
700.532	7381.34731
700.728	7123.26013
700.924	7397.85321
701.119	6976.51201
701.315	7048.86676
701.511	6922.7449
701.706	7170.7741
701.902	7071.60114
702.097	7335.94889
702.293	7092.26641
702.489	7222.40639
702.684	6893.78705
702.88	7185.23253
703.075	6957.90204
703.271	7284.34691
703.466	7154.24883
703.662	7344.20393
703.857	6850.34193
704.053	6988.91764
704.248	6982.71492
704.443	7278.15375
704.639	6794.46919
704.834	7026.12966
705.03	7127.39225
705.225	6980.64731
705.42	6889.64985
705.616	7098.46556
705.811	6732.36884
706.006	6918.60833
706.202	6744.79056
706.397	6906.1981
706.592	6918.60833
706.787	6854.47999
706.983	6732.36884
707.178	7086.06706
707.373	6771.70145
707.568	7207.95074
707.763	6972.37662
707.959	6995.12015
708.154	6833.78877
708.349	6978.57967
708.544	6835.858
708.739	6864.82475
708.934	6581.17172
709.129	6935.15405
709.324	6641.25102
709.519	6916.54002
709.714	6661.96352
709.909	6877.23771
710.104	6632.96537
710.299	6581.17172
710.494	6603.9627
710.689	6724.08724
710.884	6885.51256
711.079	6740.65008
711.274	6765.49159
711.469	7117.06179
711.664	6688.88634
711.859	7079.86752
712.054	6984.78252
712.249	6815.16473
712.443	6798.60848
712.638	6798.60848
712.833	6666.10574
713.028	7013.72646
713.223	6492.05285
713.417	6864.82475
713.612	6672.31891
713.807	6628.82241
714.002	6595.6754
714.196	6854.47999
714.391	6730.29847
714.586	6817.23416
714.78	6744.79056
714.975	6881.37518
715.17	6463.02816
715.364	6757.21145
715.559	6574.95552
715.754	6579.09968
715.948	6332.36059
716.143	6670.24788
716.337	6373.85238
716.532	6819.30357
716.726	6589.45968
716.921	6661.96352
717.115	6581.17172
717.31	6703.38163
717.504	6373.85238
717.699	6775.84124
717.893	6639.17964
718.088	6935.15405
718.282	6699.24023
718.476	6591.53161
718.671	6255.57614
718.865	6724.08724
719.059	6400.81704
719.254	6794.46919
719.448	6471.32139
719.642	6512.78199
719.837	6282.55811
720.031	6278.4073
720.225	6361.40582
720.419	6433.99891
720.614	6382.14962
720.808	6628.82241
721.002	6564.59471
721.196	6529.36364
721.39	6259.72747
721.585	6554.23332
721.779	6301.23562
721.973	6591.53161
722.167	6162.14644
722.361	6382.14962
722.555	6286.70883
722.749	6278.4073
722.943	6274.25639
723.137	6400.81704
723.331	6209.90533
723.525	6290.85946
723.719	6348.95843
723.913	6068.66919
724.107	6400.81704
724.301	6423.63021
724.495	6268.02985
724.689	6288.78416
724.883	6116.4524
725.077	6137.22383
725.271	6095.67862
725.465	6093.60111
725.659	5889.89116
725.853	6477.54107
726.046	6224.43819
726.24	6160.06969
726.434	6106.0658
726.628	6380.07534
726.822	6076.98021
727.015	6135.14679
727.209	6209.90533
727.403	6093.60111
727.596	5998.01034
727.79	5931.48301
727.984	6099.83356
728.177	6218.20996
728.371	6029.18672
728.565	6243.12159
728.758	6012.55997
728.952	6259.72747
729.146	6299.16043
729.339	6151.76243
729.533	6029.18672
729.726	6178.75964
729.92	6097.7561
730.113	6290.85946
730.307	6263.87871
730.5	6305.38592
730.694	6174.60648
730.887	6226.51421
731.081	6106.0658
731.274	6207.82912
731.468	6037.49952
731.661	6429.8515
731.854	5991.77442
732.048	6222.36213
732.241	6016.7168
732.435	6045.81195
732.628	6247.2732
732.821	6268.02985
733.014	6182.9127
733.208	6035.42136
733.401	6000.08893
733.594	5835.80766
733.788	6047.89
733.981	6093.60111
734.174	6060.3578
734.367	5989.69574
734.56	5887.81132
734.754	6133.06973
734.947	5935.64167
735.14	6064.51354
735.333	6016.7168
735.526	6037.49952
735.719	5941.87949
735.912	6052.04603
736.105	6035.42136
736.298	6022.95186
736.491	6006.32456
736.684	6035.42136
736.877	5960.59168
737.07	6241.04575
737.263	6033.34317
737.456	5983.45955
737.649	5964.74969
737.842	6153.83928
738.035	6184.9892
738.228	5952.27539
738.421	6006.32456
738.614	6087.36845
738.807	6130.99265
739	5842.04888
739.192	5710.93868
739.385	5925.24483
739.578	5856.61089
739.771	5973.06542
739.964	5777.54604
740.156	5825.40516
740.349	5765.05901
740.542	5694.28307
740.735	5694.28307
740.927	5883.65157
741.12	5939.80024
741.313	5796.27501
741.505	5943.95872
741.698	5742.16389
741.891	5783.78925
742.083	6049.96802
742.276	5735.91928
742.468	5894.05077
742.661	5742.16389
742.854	5856.61089
743.046	5729.67445
743.239	5773.38379
743.431	5975.14429
743.624	5885.73146
743.816	5613.06531
744.009	5756.73384
744.201	5688.03682
744.393	5623.47985
744.586	5767.14024
744.778	5631.81106
744.971	5742.16389
745.163	5758.81517
745.355	5446.35259
745.548	5431.75806
745.74	5640.14188
745.932	5815.00206
746.125	5629.72829
746.317	5829.56623
746.509	5669.29681
746.702	5594.31766
746.894	5527.64387
747.086	5702.61106
747.278	5660.9673
747.471	5483.87609
747.663	5475.5382
747.855	5837.88809
748.047	5535.97942
748.239	5798.35589
748.431	5756.73384
748.623	5658.88487
748.815	5452.60704
749.008	5658.88487
749.2	5581.81816
749.392	5767.14024
749.584	5623.47985
749.776	5760.89647
749.968	5554.73301
750.16	5700.5291
750.352	5610.98233
750.544	5598.48397
750.736	5715.10235
750.928	5675.54369
751.12	5556.81662
751.311	5442.18284
751.503	5519.30795
751.695	5765.05901
751.887	5281.57613
752.079	5556.81662
752.271	5402.56555
752.463	5652.63742
752.654	5494.29793
752.846	5565.15085
753.038	5452.60704
753.23	5627.6455
753.421	5540.14705
753.613	5225.22661
753.805	5440.09793
753.997	5404.65088
754.188	5373.36843
754.38	5450.52225
754.572	5456.77655
754.763	5423.41781
754.955	5310.78769
755.146	5648.47234
755.338	5300.35552
755.53	5535.97942
755.721	5381.71093
755.913	5460.94597
756.104	5221.0519
756.296	5356.6823
756.487	5252.35999
756.679	5412.99197
756.87	5223.13927
757.062	5208.52719
757.253	5099.9446
757.445	5139.6263
757.636	5183.47526
757.827	5356.6823
758.019	5005.92826
758.21	5204.3521
758.401	5041.45105
758.593	5076.96716
758.784	5283.66283
758.975	5271.14232
759.167	5089.50066
759.358	4897.22897
759.549	5114.56515
759.74	5097.85586
759.932	5043.54042
760.123	5072.78914
760.314	5131.27296
760.505	5152.15562
760.696	4924.40962
760.888	4934.86268
761.079	4922.31894
761.27	5154.24376
761.461	5005.92826
761.652	5189.73856
761.843	5164.6841
762.034	5003.83847
762.225	4748.71273
762.416	5020.5561
762.607	4740.34221
762.798	4677.55178
762.989	4759.17537
763.18	4930.68153
763.371	4543.53139
763.562	4903.50177
763.753	4780.09896
763.944	4847.03915
764.135	4614.74112
764.326	5016.37683
764.517	4788.46775
764.708	4993.38921
764.899	4631.4926
765.089	4754.99038
765.28	4763.36027
765.471	4855.40504
765.662	4669.17819
765.853	4754.99038
766.043	4495.34555
766.234	4635.68025
766.425	4635.68025
766.615	4708.94953
766.806	4610.55302
766.997	4688.01826
767.187	4556.09968
767.378	4537.24694
767.569	4426.18898
767.759	4566.57264
767.95	4618.92912
768.141	4566.57264
768.331	4396.84262
768.522	4637.77404
768.712	4388.45716
768.903	4514.20227
769.093	4453.43533
769.284	4585.42258
769.474	4549.81563
769.665	4271.02434
769.855	4294.09684
770.046	4445.05223
770.236	4159.82068
770.426	4352.81508
770.617	4302.4862
770.807	4466.00932
770.998	4294.09684
771.188	4319.26387
771.378	4401.03522
771.569	4377.97485
771.759	4214.38088
771.949	4419.90084
772.139	4369.58861
772.33	4092.65015
772.52	4327.65219
772.71	4621.02309
772.9	4149.3267
773.09	4428.28499
773.281	4287.8046
773.471	4279.41464
773.661	4199.693
773.851	4459.72243
774.041	4252.14492
774.231	4415.70863
774.421	4176.60996
774.611	4281.51216
774.802	4161.91942
774.992	4413.6125
775.182	4052.75754
775.372	4277.3171
775.562	3956.14464
775.752	4107.34553
775.942	4088.45128
776.131	4069.55534
776.321	3985.55315
776.511	4193.39788
776.701	4048.55789
776.891	4109.44479
777.081	3981.35218
777.271	4119.94076
777.461	4094.74955
777.651	3823.75742
777.84	3941.43889
778.03	4021.25811
778.22	3891.01166
778.41	4252.14492
778.599	3937.23706
778.789	4046.45803
778.979	3966.64814
779.169	4077.95375
779.358	3945.64063
779.548	4092.65015
779.738	3943.53977
779.927	3996.05522
780.117	3798.53185
780.307	3991.85446
780.496	3832.16531
780.686	3983.45268
780.875	3716.52929
781.065	3806.94069
781.254	3668.15502
781.444	3846.87836
781.633	3724.94117
781.823	3773.30345
782.012	3645.01593
782.202	3964.54748
782.391	3674.46528
782.581	3859.48878
782.77	3598.7309
782.96	3666.05156
783.149	3348.21691
783.338	3581.89772
783.528	3647.11958
783.717	3466.13768
783.906	3615.56287
784.096	3756.48295
784.285	3617.66679
784.474	3592.4186
784.663	3548.22781
784.853	3621.87456
785.042	3609.25102
785.231	3445.08448
785.42	3516.65797
785.61	3424.0295
785.799	3459.82191
785.988	3495.60912
786.177	3194.41733
786.366	3371.38428
786.555	3196.52478
786.744	3436.6627
786.933	3192.30987
787.122	3544.01873
787.312	3407.18423
787.501	3424.0295
787.69	3333.47294
787.879	3579.79349
788.068	3306.08904
788.257	3525.07699
788.445	3386.12605
788.634	3693.39504
788.823	3375.5963
789.012	3421.9239
789.201	3360.85392
789.39	3381.9142
789.579	3487.18907
789.768	3470.3481
789.957	3285.02253
790.145	3537.70499
790.334	3228.1345
790.523	3411.39565
790.712	3327.15383
790.9	3464.03244
791.089	3369.27824
791.278	3504.02888
791.467	3228.1345
791.655	3310.30213
791.844	3251.31258
792.033	3261.84741
792.221	2975.15557
792.41	3129.07838
792.599	3139.61797
792.787	3105.88987
792.976	3036.31287
793.164	3048.9645
793.353	2985.70084
793.541	3327.15383
793.73	3110.1061
793.918	3238.67024
794.107	3032.09554
794.295	3114.32228
794.484	2981.48278
794.672	3084.80773
794.861	3032.09554
795.049	3040.53014
795.238	2789.49912
795.426	3082.69943
795.614	2816.93255
795.803	3194.41733
795.991	3112.2142
796.179	3356.64165
796.368	3011.00796
796.556	3183.87985
796.744	2745.17872
796.932	2989.91885
797.121	2812.71218
797.309	2871.79236
797.497	2903.43788
797.685	2700.85245
797.874	2821.15287
798.062	2878.12172
798.25	2842.25364
798.438	2973.04647
798.626	2660.74281
798.814	2899.21866
799.002	2717.73933
799.19	2935.08014
799.378	2854.91343
799.566	2939.29886
799.755	2755.73173
799.943	2951.95466
800.131	2823.26301
800.318	2766.28441
800.506	2658.63165
800.694	2650.18687
800.882	2601.62558
801.07	2715.62852
801.258	2702.96336
801.446	2918.20467
801.634	2618.5172
801.822	2838.0336
802.01	2576.28668
802.197	2724.0717
802.385	2631.18541
802.573	2658.63165
802.761	2707.18513
802.949	2838.0336
803.136	2850.69356
803.324	3044.74735
803.512	2757.8423
803.699	3084.80773
803.887	2656.52047
804.075	2890.78006
804.262	2719.85013
804.45	2848.5836
804.638	2876.01195
804.825	3086.91602
805.013	2762.06338
805.201	2736.73607
805.388	2905.54746
805.576	3025.76942
805.763	2800.05071
805.951	2930.86136
806.138	2802.16099
806.326	2951.95466
806.513	2715.62852
806.701	2905.54746
806.888	2829.59335
807.075	2945.62682
807.263	2639.63063
807.45	2840.14363
807.638	2631.18541
807.825	2918.20467
808.012	2557.28138
808.2	2884.45095
808.387	2749.39997
808.574	2947.73612
808.761	2574.17503
808.949	2802.16099
809.136	2576.28668
809.323	2702.96336
809.51	2536.16326
809.698	2755.73173
809.885	2415.76837
810.072	2757.8423
810.259	2694.51966
810.446	2707.18513
810.633	2848.5836
810.82	2755.73173
811.008	2918.20467
811.195	2892.88973
811.382	2745.17872
811.569	3002.57249
811.756	2643.85316
811.943	2785.27839
812.13	2823.26301
812.317	2992.02783
812.504	2814.82237
812.691	2848.5836
812.878	2747.28935
813.064	3011.00796
813.251	2764.1739
813.438	2894.99939
813.625	2705.07425
813.812	2939.29886
813.999	2677.63164
814.186	3023.66069
814.372	2696.6306
814.559	2932.97076
814.746	2593.17947
814.933	2882.34122
815.12	2753.62116
815.306	2821.15287
815.493	2643.85316
815.68	2757.8423
815.866	2553.05785
816.053	2825.37314
816.24	2563.61659
816.426	2660.74281
816.613	2698.74153
816.799	2747.28935
816.986	2920.31416
817.173	2816.93255
817.359	2555.16962
817.546	2842.25364
817.732	2652.29809
817.919	2787.38876
818.105	2804.27126
818.292	2800.05071
818.478	2764.1739
818.665	2749.39997
818.851	2787.38876
819.037	2650.18687
819.224	2584.73317
819.41	2603.73707
819.597	2396.75543
819.783	2637.51934
819.969	2403.09317
820.156	2656.52047
820.342	2500.2598
820.528	2831.70343
820.714	2542.49882
820.901	2694.51966
821.087	2563.61659
821.273	2740.95742
821.459	2455.90398
821.646	2559.39313
821.832	2620.6286
822.018	2510.81999
822.204	2479.13859
822.39	2740.95742
822.576	2487.58721
822.762	2728.29321
822.948	2462.24082
823.134	2778.94718
823.32	2468.57757
823.507	2629.07407
823.693	2371.40354
823.879	2658.63165
824.065	2417.88087
824.25	2614.29437
824.436	2436.89286
824.622	2544.61065
824.808	2536.16326
824.994	2525.60376
825.18	2375.62896
825.366	2734.62537
825.552	2365.06534
825.738	2641.7419
825.923	2265.75532
826.109	2415.76837
826.295	2356.61426
826.481	2428.44319
826.667	2324.9213
826.852	2466.46533
827.038	2305.90447
827.224	2523.49183
827.409	2255.1892
827.595	2466.46533
827.781	2181.22015
827.966	2413.65586
828.152	2257.30244
828.338	2559.39313
828.523	2369.29081
828.709	2502.37186
828.894	2280.5475
829.08	2479.13859
829.266	2242.50955
829.451	2291.11307
829.637	2181.22015
829.822	2356.61426
830.008	2305.90447
830.193	2333.37297
830.378	2191.7878
830.564	2324.9213
830.749	2160.08422
830.935	2288.99998
831.12	2130.49256
831.305	2263.64211
831.491	2098.78552
831.676	2261.5289
831.861	2176.99303
832.047	2305.90447
832.232	2077.64654
832.417	2274.20805
832.602	1959.25546
832.788	2060.73484
832.973	1878.90764
833.158	2145.28859
833.343	2009.99704
833.528	2113.58235
833.714	2054.39283
833.899	2221.3761
834.084	2115.69616
834.269	2206.58216
834.454	1874.67859
834.639	2090.33002
834.824	2005.76872
835.009	2196.0148
835.194	2096.67165
835.379	2174.87946
835.564	1993.08359
835.749	2153.74328
835.934	2092.4439
836.119	2094.55778
836.304	1946.56951
836.489	2035.36643
836.674	1938.11209
836.859	1923.31138
837.044	1849.30387
837.228	2060.73484
837.413	1732.99483
837.598	1895.82363
837.783	1800.66709
837.968	2094.55778
838.152	1855.64762
838.337	1971.94119
838.522	1942.34081
838.707	1997.31199
838.891	1732.99483
839.076	1760.48716
839.261	1775.29046
839.445	1961.36976
839.63	1796.43769
839.815	1881.02216
839.999	1633.59499
840.184	1927.54019
840.368	1798.55239
840.553	1912.73928
840.737	1739.33927
840.922	1798.55239
841.106	1830.27237
841.291	1798.55239
841.475	1587.0655
841.66	1815.46984
841.844	1642.05478
842.029	1819.69916
842.213	1690.69781
842.397	1766.83146
842.582	1587.0655
842.766	1908.5104
842.951	1720.30586
843.135	1878.90764
843.319	1720.30586
843.504	1726.65036
843.688	1612.44534
843.872	1587.0655
844.056	1680.12336
844.241	1730.88001
844.425	1506.69461
844.609	1578.6055
844.793	1519.38485
844.977	1561.68542
845.161	1527.845
845.346	1667.43393
845.53	1519.38485
845.714	1544.76525
845.898	1436.89795
846.082	1445.35816
846.266	1536.30513
846.45	1443.24311
846.634	1426.3227
846.818	1576.49049
847.002	1411.51736
847.186	1409.40231
847.37	1367.10153
847.554	1496.11938
847.738	1295.19135
847.922	1455.93342
848.106	1290.96141
848.29	1447.47322
848.473	1364.9865
848.657	1428.43775
848.841	1333.26121
849.025	1487.65919
849.209	1324.8012
849.392	1536.30513
849.576	1419.97755
849.76	1534.1901
849.944	1261.35204
850.127	1443.24311
850.311	1191.56068
850.495	1358.64142
850.678	1176.75692
850.862	1320.5712
851.046	1240.2028
851.229	1394.597
851.413	1259.23711
851.596	1407.28726
851.78	1356.52639
851.964	1305.76625
852.147	1115.42911
852.331	1221.16873
852.514	1176.75692
852.698	1360.75644
852.881	1248.66247
853.065	1210.59435
853.248	1096.3971
853.431	1189.44585
853.615	1121.7732
853.798	1121.7732
853.982	1111.19974
854.165	1299.42131
854.348	1045.6471
854.532	1364.9865
854.715	1170.4125
854.898	1299.42131
855.081	1238.08789
855.265	1225.3985
855.448	1130.23204
855.631	1331.14621
855.814	1134.46149
855.997	1252.89232
856.181	1102.74106
856.364	1164.06812
856.547	1073.1363
856.73	1333.26121
856.913	1100.6264
857.096	1113.31442
857.279	935.70057
857.462	1073.1363
857.645	1062.56342
857.828	1149.26471
858.011	1104.85572
858.194	1240.2028
858.377	893.41849
858.56	1138.69096
858.743	1049.87614
858.926	1104.85572
859.109	1081.5947
859.292	1126.00261
859.475	903.98872
859.658	1109.08506
859.841	918.78737
860.023	1104.85572
860.206	887.07645
860.389	1147.14995
860.572	939.92894
860.755	944.15735
860.937	870.16469
861.12	977.98559
861.303	842.68425
861.486	1032.96009
861.668	1022.38774
861.851	901.87466
862.034	897.64656
862.216	969.52836
862.399	783.50075
862.581	855.36735
862.764	745.45822
862.947	838.45662
863.129	859.59512
863.312	903.98872
863.494	779.27365
863.677	944.15735
863.859	749.685
864.042	916.67325
864.224	768.70605
864.406	948.38578
864.589	791.95509
864.771	800.40958
864.954	724.32492
865.136	969.52836
865.318	644.02847
865.501	791.95509
865.683	804.63688
865.865	810.9779
866.048	720.09839
866.23	851.13962
866.412	570.08662
866.594	775.04658
866.777	760.25215
866.959	768.70605
867.141	622.90065
867.323	711.64545
867.505	580.64877
867.687	969.52836
867.869	791.95509
868.052	817.319
868.234	684.17464
868.416	884.96245
868.598	682.06158
868.78	781.38719
868.962	682.06158
869.144	844.79808
869.326	605.99929
869.508	622.90065
869.69	669.38345
869.872	737.00477
870.054	730.6648
870.236	819.43272
870.417	703.19269
870.599	762.36561
870.781	726.4382
870.963	730.6648
871.145	671.49644
871.327	737.00477
871.508	567.97422
871.69	758.1387
871.872	584.87373
872.054	720.09839
872.235	677.83549
872.417	785.61432
872.599	673.60945
872.78	770.81955
872.962	574.31144
873.144	673.60945
873.325	741.23147
873.507	660.9316
873.689	648.25418
873.87	677.83549
874.052	563.74948
874.233	715.8719
874.415	593.3238
874.596	737.00477
874.778	559.52479
874.959	622.90065
875.141	601.77407
875.322	633.46441
875.503	582.76124
875.685	690.51389
875.866	673.60945
876.048	677.83549
876.229	521.50506
876.41	654.59284
876.592	572.19902
876.773	692.62699
876.954	631.35163
877.136	633.46441
877.317	605.99929
877.498	686.28771
877.679	542.62658
877.86	622.90065
878.042	620.78794
878.223	701.07953
878.404	631.35163
878.585	584.87373
878.766	652.47994
878.947	707.41905
879.128	529.9535
879.309	625.01338
879.49	565.86185
879.672	631.35163
879.853	441.25656
880.034	648.25418
880.215	652.47994
880.396	586.98623
880.576	677.83549
880.757	720.09839
880.938	660.9316
881.119	673.60945
881.3	565.86185
881.481	722.21165
881.662	720.09839
881.843	711.64545
882.023	563.74948
882.204	665.1575
882.385	557.41247
882.566	694.74011
882.747	652.47994
882.927	703.19269
883.108	743.34484
883.289	614.44987
883.469	582.76124
883.65	593.3238
883.831	557.41247
884.011	694.74011
884.192	648.25418
884.373	665.1575
884.553	688.40079
884.734	766.59256
884.914	673.60945
885.095	675.72246
885.275	424.36495
885.456	654.59284
885.636	523.61715
885.817	625.01338
885.997	574.31144
886.178	650.36706
886.358	513.05685
886.538	625.01338
886.719	538.40216
886.899	614.44987
887.08	608.11191
887.26	760.25215
887.44	633.46441
887.621	804.63688
887.801	686.28771
887.981	635.5772
888.161	546.85105
888.342	794.0687
888.522	618.67523
888.702	650.36706
888.882	667.27047
889.062	722.21165
889.242	605.99929
889.423	639.80281
889.603	605.99929
889.783	627.12612
889.963	593.3238
890.143	694.74011
890.323	532.06565
890.503	667.27047
890.683	627.12612
890.863	637.69
891.043	521.50506
891.223	654.59284
891.403	610.22455
891.583	620.78794
891.763	565.86185
891.943	631.35163
892.122	582.76124
892.302	595.43635
892.482	561.63713
892.662	658.81867
892.842	597.54891
893.022	612.3372
893.201	559.52479
893.381	548.96331
893.561	513.05685
893.741	614.44987
893.92	515.16888
894.1	682.06158
894.28	529.9535
894.459	603.88667
894.639	555.30016
894.819	650.36706
894.998	513.05685
895.178	578.53632
895.357	555.30016
895.537	481.37812
895.716	443.36809
895.896	487.7136
896.075	521.50506
896.255	567.97422
896.434	466.59585
896.614	567.97422
896.793	466.59585
896.973	631.35163
897.152	513.05685
897.331	682.06158
897.511	496.16112
897.69	595.43635
897.87	403.25187
898.049	466.59585
898.228	483.48993
898.407	496.16112
898.587	453.92593
898.766	447.59118
898.945	396.91826
899.124	386.36258
899.304	346.25481
899.483	439.14506
899.662	420.14221
899.841	565.86185
900.02	498.27303
900.199	555.30016
900.378	418.03086
900.557	445.47962
900.737	456.03755
900.916	451.81433
901.095	466.59585
901.274	439.14506
901.453	365.25246
901.632	424.36495
901.811	388.47368
901.989	418.03086
902.168	348.36559
902.347	443.36809
902.526	363.14154
902.705	373.69631
902.884	337.81186
903.063	377.91833
903.242	394.80709
903.42	472.93102
903.599	354.69804
903.778	453.92593
903.957	352.58721
904.135	369.47435
904.314	289.27042
904.493	358.91976
904.672	356.80889
904.85	394.80709
905.029	369.47435
905.207	424.36495
905.386	242.84859
905.565	223.86052
905.743	312.48471
905.922	320.92681
906.1	289.27042
906.279	306.15332
906.457	346.25481
906.636	375.80731
906.814	234.40925
906.993	236.51906
907.171	223.86052
907.35	263.94829
907.528	278.71921
907.707	278.71921
907.885	251.28824
908.063	276.60902
908.242	261.83823
908.42	194.32669
908.598	238.62888
908.777	225.97022
908.955	251.28824
909.133	225.97022
909.311	202.76452
909.49	270.27857
909.668	194.32669
909.846	209.09311
910.024	217.53151
910.202	293.49103
910.38	217.53151
910.559	251.28824
910.737	196.43612
910.915	242.84859
911.093	238.62888
911.271	306.15332
911.449	234.40925
911.627	314.5952
911.805	251.28824
911.983	306.15332
912.161	244.95848
912.339	268.16846
912.517	295.60137
912.695	331.47983
912.872	365.25246
913.05	291.38072
913.228	259.7282
913.406	263.94829
913.584	251.28824
913.762	261.83823
913.939	177.45199
914.117	244.95848
914.295	183.77985
914.473	221.75083
914.65	171.12431
914.828	278.71921
915.006	278.71921
915.184	238.62888
915.361	187.99852
915.539	236.51906
915.716	225.97022
915.894	253.3982
916.072	185.88917
916.249	268.16846
916.427	211.20268
916.604	312.48471
916.782	232.29947
916.959	147.92445
917.137	217.53151
917.314	211.20268
917.492	183.77985
917.669	234.40925
917.847	181.67054
918.024	219.64116
918.201	147.92445
918.379	263.94829
918.556	194.32669
918.733	219.64116
918.911	183.77985
919.088	152.14241
919.265	217.53151
919.442	133.16222
919.62	209.09311
919.797	213.31227
919.974	158.46953
920.151	217.53151
920.328	181.67054
920.506	150.03342
920.683	204.87403
920.86	171.12431
921.037	238.62888
921.214	179.56125
921.391	116.2924
921.568	183.77985
921.745	143.70656
921.922	204.87403
922.099	236.51906
922.276	217.53151
922.453	99.42397
922.63	158.46953
922.807	169.01513
922.984	179.56125
923.161	171.12431
923.338	175.34274
923.514	135.27105
923.691	152.14241
923.868	124.72714
924.045	78.34042
924.222	145.81549
924.399	118.40105
924.575	141.59765
924.752	160.57861
924.929	166.90597
925.105	109.96657
925.282	185.88917
925.459	126.83588
925.635	209.09311
925.812	112.07516
925.989	86.77357
926.165	133.16222
926.342	107.85801
926.518	128.94464
926.695	50.93519
926.871	65.69137
927.048	135.27105
927.224	86.77357
927.401	124.72714
927.577	40.39575
927.754	116.2924
927.93	147.92445
928.107	112.07516
928.283	107.85801
928.459	109.96657
928.636	160.57861
928.812	133.16222
928.988	74.12398
929.165	150.03342
929.341	65.69137
929.517	101.53244
929.693	194.32669
929.87	112.07516
930.046	124.72714
930.222	99.42397
930.398	118.40105
930.574	177.45199
930.751	59.36716
930.927	86.77357
931.103	116.2924
931.279	131.05342
931.455	99.42397
931.631	50.93519
931.807	99.42397
931.983	74.12398
932.159	109.96657
932.335	69.90763
932.511	67.79949
932.687	31.96461
932.863	48.82725
933.039	105.74946
933.215	84.66525
933.391	131.05342
933.566	48.82725
933.742	84.66525
933.918	99.42397
934.094	137.37989
934.27	21.42623
934.445	139.48876
934.621	-16.50703
934.797	86.77357
934.973	15.10348
935.148	21.42623
935.324	31.96461
935.5	118.40105
935.675	48.82725
935.851	76.23219
936.027	40.39575
936.202	133.16222
936.378	57.25913
936.553	53.04315
936.729	6.67348
936.904	23.53386
937.08	57.25913
937.255	101.53244
937.431	31.96461
937.606	55.15113
937.782	25.64151
937.957	57.25913
938.133	78.34042
938.308	40.39575
938.483	61.47521
938.659	46.71934
938.834	63.58328
939.009	74.12398
939.185	57.25913
939.36	-18.61421
939.535	137.37989
939.71	19.31862
939.886	4.56604
940.061	128.94464
940.236	42.50359
940.411	-18.61421
940.586	95.20708
940.761	84.66525
940.937	17.21104
941.112	4.56604
941.287	44.61145
941.462	27.74919
941.637	40.39575
941.812	36.18013
941.987	-8.0781
942.162	17.21104
942.337	31.96461
942.512	-52.32561
942.687	12.99594
942.862	27.74919
943.037	31.96461
943.212	8.78094
943.386	42.50359
943.561	29.85689
943.736	-43.89836
943.911	-1.75614
944.086	-8.0781
944.26	15.10348
944.435	-12.29261
944.61	-22.82848
944.785	72.0158
944.959	99.42397
945.134	19.31862
945.309	10.88843
945.483	107.85801
945.658	-1.75614
945.833	46.71934
946.007	40.39575
946.182	42.50359
946.357	8.78094
946.531	57.25913
946.706	131.05342
946.88	48.82725
947.055	53.04315
947.229	-8.0781
947.404	-8.0781
947.578	-46.00521
947.752	40.39575
947.927	65.69137
948.101	36.18013
948.276	17.21104
948.45	31.96461
948.624	27.74919
948.799	65.69137
948.973	6.67348
949.147	2.45862
949.321	27.74919
949.496	17.21104
949.67	44.61145
949.844	50.93519
950.018	10.88843
950.193	72.0158
950.367	0.35123
950.541	82.55695
950.715	19.31862
950.889	8.78094
951.063	59.36716
951.237	48.82725
951.411	74.12398
951.585	40.39575
951.759	2.45862
951.933	2.45862
952.107	34.07236
952.281	-16.50703
952.455	-10.18537
952.629	44.61145
952.803	44.61145
952.977	-14.39983
953.151	84.66525
953.325	6.67348
953.499	50.93519
953.672	36.18013
953.846	40.39575
954.02	-35.47071
954.194	48.82725
954.368	-27.04265
954.541	50.93519
954.715	8.78094
954.889	0.35123
955.062	-86.03057
955.236	-20.72135
955.41	48.82725
955.583	10.88843
955.757	-62.85911
955.93	17.21104
956.104	69.90763
956.278	0.35123
956.451	46.71934
956.625	29.85689
956.798	23.53386
956.972	0.35123
957.145	34.07236
957.319	61.47521
957.492	23.53386
957.665	25.64151
957.839	15.10348
958.012	25.64151
958.185	53.04315
958.359	50.93519
958.532	69.90763
958.705	53.04315
958.879	65.69137
959.052	57.25913
959.225	23.53386
959.398	17.21104
959.572	55.15113
959.745	61.47521
959.918	65.69137
960.091	10.88843
960.264	61.47521
960.438	0.35123
960.611	-8.0781
960.784	40.39575
960.957	44.61145
961.13	120.50972
961.303	40.39575
961.476	69.90763
961.649	8.78094
961.822	27.74919
961.995	31.96461
962.168	0.35123
962.341	29.85689
962.514	-18.61421
962.686	-14.39983
962.859	10.88843
963.032	48.82725
963.205	61.47521
963.378	2.45862
963.551	19.31862
963.723	21.42623
963.896	57.25913
964.069	0.35123
964.242	53.04315
964.414	95.20708
964.587	-1.75614
964.76	8.78094
964.932	10.88843
965.105	15.10348
965.278	-27.04265
965.45	-14.39983
965.623	40.39575
965.795	65.69137
965.968	90.99028
966.14	-1.75614
966.313	-35.47071
966.485	4.56604
966.658	88.88192
966.83	31.96461
967.003	6.67348
967.175	38.28793
967.348	6.67348
967.52	50.93519
967.692	-39.68458
967.865	-10.18537
968.037	27.74919
968.209	99.42397
968.382	103.64094
968.554	-5.9708
968.726	31.96461
968.898	-18.61421
969.071	10.88843
969.243	10.88843
969.415	-8.0781
969.587	80.44868
969.759	74.12398
969.932	-35.47071
970.104	78.34042
970.276	107.85801
970.448	27.74919
970.62	40.39575
970.792	-16.50703
970.964	59.36716
971.136	93.09867
971.308	78.34042
971.48	-5.9708
971.652	21.42623
971.824	0.35123
971.996	25.64151
972.168	-5.9708
972.339	65.69137
972.511	6.67348
972.683	-1.75614
972.855	76.23219
973.027	74.12398
973.199	31.96461
973.37	97.31551
973.542	78.34042
973.714	31.96461
973.886	10.88843
974.057	15.10348
974.229	44.61145
974.401	65.69137
974.572	27.74919
974.744	55.15113
974.915	46.71934
975.087	34.07236
975.259	40.39575
975.43	6.67348
975.602	69.90763
975.773	29.85689
975.945	40.39575
976.116	74.12398
976.288	8.78094
976.459	-18.61421
976.63	-16.50703
976.802	42.50359
976.973	-5.9708
977.145	67.79949
977.316	59.36716
977.487	84.66525
977.659	48.82725
977.83	40.39575
978.001	31.96461
978.172	67.79949
978.344	57.25913
978.515	158.46953
978.686	6.67348
978.857	57.25913
979.028	50.93519
979.2	2.45862
979.371	57.25913
979.542	-3.86348
979.713	65.69137
979.884	126.83588
980.055	-27.04265
980.226	-24.93558
980.397	34.07236
980.568	21.42623
980.739	67.79949
980.91	90.99028
981.081	99.42397
981.252	101.53244
981.423	-18.61421
981.594	8.78094
981.765	84.66525
981.936	0.35123
982.106	2.45862
982.277	-14.39983
982.448	6.67348
982.619	27.74919
982.79	-60.75247
982.96	48.82725
983.131	74.12398
983.302	-43.89836
983.472	19.31862
983.643	59.36716
983.814	55.15113
983.984	23.53386
984.155	0.35123
984.326	23.53386
984.496	-10.18537
984.667	74.12398
984.837	23.53386
985.008	46.71934
985.178	40.39575
985.349	8.78094
985.519	48.82725
985.69	31.96461
985.86	-10.18537
986.031	2.45862
986.201	21.42623
986.371	2.45862
986.542	-52.32561
986.712	25.64151
986.882	-39.68458
987.053	99.42397
987.223	-48.11204
987.393	19.31862
987.563	-35.47071
987.734	50.93519
987.904	78.34042
988.074	8.78094
988.244	-5.9708
988.414	44.61145
988.585	17.21104
988.755	53.04315
988.925	57.25913
989.095	50.93519
989.265	8.78094
989.435	90.99028
989.605	-27.04265
989.775	88.88192
989.945	44.61145
990.115	-8.0781
990.285	42.50359
990.455	4.56604
990.625	-10.18537
990.795	65.69137
990.965	118.40105
991.134	-1.75614
991.304	-69.17891
991.474	40.39575
991.644	2.45862
991.814	-22.82848
991.984	27.74919
992.153	31.96461
992.323	0.35123
992.493	25.64151
992.662	25.64151
992.832	36.18013
993.002	-10.18537
993.171	53.04315
993.341	31.96461
993.511	38.28793
993.68	40.39575
993.85	-52.32561
994.019	19.31862
994.189	-16.50703
994.358	46.71934
994.528	-50.21884
994.697	36.18013
994.867	97.31551
995.036	2.45862
995.206	38.28793
995.375	-8.0781
995.544	-50.21884
995.714	-10.18537
995.883	0.35123
996.052	-77.60495
996.222	4.56604
996.391	6.67348
996.56	-52.32561
996.73	-67.07234
996.899	63.58328
997.068	10.88843
997.237	34.07236
997.406	-24.93558
997.576	48.82725
997.745	19.31862
997.914	-5.9708
998.083	40.39575
998.252	15.10348
998.421	2.45862
998.59	67.79949
998.759	21.42623
998.928	-10.18537
999.097	-69.17891
999.266	27.74919
999.435	31.96461
999.604	50.93519
999.773	4.56604
999.942	-18.61421
1000.111	48.82725
1000.28	40.39575
1000.448	40.39575
1000.617	-1.75614
1000.786	-3.86348
1000.955	-16.50703
1001.124	74.12398
1001.292	2.45862
1001.461	23.53386
1001.63	0.35123
1001.798	2.45862
1001.967	40.39575
1002.136	15.10348
1002.304	-20.72135
1002.473	-1.75614
1002.642	-33.36373
1002.81	-10.18537
1002.979	-14.39983
1003.147	34.07236
1003.316	-5.9708
1003.484	112.07516
1003.653	17.21104
1003.821	19.31862
1003.99	72.0158
1004.158	-62.85911
1004.327	67.79949
1004.495	53.04315
1004.663	65.69137
1004.832	101.53244
1005	-18.61421
1005.168	65.69137
1005.337	2.45862
1005.505	21.42623
1005.673	-24.93558
1005.842	10.88843
1006.01	-24.93558
1006.178	15.10348
1006.346	72.0158
1006.514	48.82725
1006.683	2.45862
1006.851	6.67348
1007.019	57.25913
1007.187	25.64151
1007.355	23.53386
1007.523	2.45862
1007.691	40.39575
1007.859	31.96461
1008.027	65.69137
1008.195	38.28793
1008.363	-43.89836
1008.531	-29.1497
1008.699	-86.03057
1008.867	25.64151
1009.035	25.64151
1009.203	23.53386
1009.37	-22.82848
1009.538	-50.21884
1009.706	59.36716
1009.874	0.35123
1010.042	-69.17891
1010.209	17.21104
1010.377	69.90763
1010.545	53.04315
1010.713	15.10348
1010.88	44.61145
1011.048	84.66525
1011.216	74.12398
1011.383	25.64151
1011.551	19.31862
1011.718	31.96461
1011.886	17.21104
1012.054	23.53386
1012.221	-5.9708
1012.389	69.90763
1012.556	-5.9708
1012.724	-43.89836
1012.891	25.64151
1013.058	25.64151
1013.226	-69.17891
1013.393	-92.34952
1013.561	-8.0781
1013.728	4.56604
1013.895	6.67348
1014.063	38.28793
1014.23	15.10348
1014.397	23.53386
1014.565	-39.68458
1014.732	-22.82848
1014.899	57.25913
1015.066	25.64151
1015.233	31.96461
1015.401	-1.75614
1015.568	-14.39983
1015.735	-60.75247
1015.902	15.10348
1016.069	-60.75247
1016.236	8.78094
1016.403	-5.9708
1016.57	48.82725
1016.737	61.47521
1016.904	34.07236
1017.071	19.31862
1017.238	10.88843
1017.405	34.07236
1017.572	44.61145
1017.739	-33.36373
1017.906	63.58328
1018.073	-24.93558
1018.24	10.88843
1018.407	15.10348
1018.573	19.31862
1018.74	-18.61421
1018.907	-60.75247
1019.074	42.50359
1019.241	-48.11204
1019.407	-1.75614
1019.574	-86.03057
1019.741	-14.39983
1019.907	23.53386
1020.074	6.67348
1020.241	-16.50703
1020.407	12.99594
1020.574	0.35123
1020.74	-43.89836
1020.907	46.71934
1021.073	15.10348
1021.24	23.53386
1021.406	-8.0781
1021.573	48.82725
1021.739	-52.32561
1021.906	15.10348
1022.072	42.50359
1022.239	-64.96574
1022.405	-20.72135
1022.571	-1.75614
1022.738	-16.50703
1022.904	4.56604
1023.07	-18.61421
1023.237	-16.50703
1023.403	44.61145
1023.569	-69.17891
1023.735	59.36716
1023.902	2.45862
1024.068	-18.61421
1024.234	65.69137
1024.4	-43.89836
1024.566	46.71934
1024.732	29.85689
1024.898	-24.93558
1025.065	44.61145
1025.231	46.71934
1025.397	19.31862
1025.563	-18.61421
1025.729	-16.50703
1025.895	-16.50703
1026.061	-27.04265
1026.227	97.31551
1026.392	15.10348
1026.558	-54.43236
1026.724	10.88843
1026.89	65.69137
1027.056	0.35123
1027.222	-10.18537
1027.388	-22.82848
1027.553	15.10348
1027.719	42.50359
1027.885	-14.39983
1028.051	74.12398
1028.216	-8.0781
1028.382	2.45862
1028.548	23.53386
1028.713	112.07516
1028.879	21.42623
1029.045	-18.61421
1029.21	36.18013
1029.376	15.10348
1029.541	-14.39983
1029.707	2.45862
1029.873	-33.36373
1030.038	4.56604
1030.204	27.74919
1030.369	53.04315
1030.534	36.18013
1030.7	4.56604
1030.865	17.21104
1031.031	48.82725
1031.196	-20.72135
1031.361	99.42397
1031.527	10.88843
1031.692	21.42623
1031.857	-20.72135
1032.023	-1.75614
1032.188	31.96461
1032.353	44.61145
1032.518	2.45862
1032.684	-8.0781
1032.849	72.0158
1033.014	29.85689
1033.179	-62.85911
1033.344	-8.0781
1033.509	72.0158
1033.674	38.28793
1033.839	-27.04265
1034.004	-3.86348
1034.17	-14.39983
1034.335	31.96461
1034.5	-5.9708
1034.664	27.74919
1034.829	93.09867
1034.994	12.99594
1035.159	-16.50703
1035.324	34.07236
1035.489	25.64151
1035.654	-10.18537
1035.819	-39.68458
1035.984	-35.47071
1036.148	-67.07234
1036.313	-58.64579
1036.478	40.39575
1036.643	-24.93558
1036.807	15.10348
1036.972	57.25913
1037.137	65.69137
1037.301	15.10348
1037.466	-5.9708
1037.631	15.10348
1037.795	-81.81781
1037.96	-41.79148
1038.124	48.82725
1038.289	8.78094
1038.454	-46.00521
1038.618	44.61145
1038.783	74.12398
1038.947	25.64151
1039.111	-41.79148
1039.276	109.96657
1039.44	61.47521
1039.605	76.23219
1039.769	2.45862
1039.933	42.50359
1040.098	-50.21884
1040.262	17.21104
1040.426	61.47521
1040.591	-10.18537
1040.755	44.61145
1040.919	23.53386
1041.083	65.69137
1041.248	6.67348
1041.412	-24.93558
1041.576	69.90763
1041.74	31.96461
1041.904	17.21104
1042.068	17.21104
1042.232	-35.47071
1042.397	44.61145
1042.561	-33.36373
1042.725	50.93519
1042.889	0.35123
1043.053	44.61145
1043.217	59.36716
1043.381	19.31862
1043.544	-60.75247
1043.708	15.10348
1043.872	40.39575
1044.036	-41.79148
1044.2	-5.9708
1044.364	-22.82848
1044.528	40.39575
1044.691	-37.57766
1044.855	-10.18537
1045.019	-5.9708
1045.183	-56.53909
1045.346	27.74919
1045.51	23.53386
1045.674	38.28793
1045.837	86.77357
1046.001	6.67348
1046.165	-5.9708
1046.328	15.10348
1046.492	-1.75614
1046.655	-22.82848
1046.819	31.96461
1046.983	10.88843
1047.146	67.79949
1047.31	-8.0781
1047.473	10.88843
1047.636	23.53386
1047.8	-52.32561
1047.963	17.21104
1048.127	-8.0781
1048.29	17.21104
