Data from absorb_only_2.23.25_USB4F045381__37__0142.txt Node

Date: Sun Feb 23 19:18:44 EST 2025
User: ssocol
Spectrometer: USB4F04538
Trigger mode: 4
Integration Time (sec): 2.600000E-3
Scans to average: 1
Electric dark correction enabled: true
Nonlinearity correction enabled: true
Boxcar width: 0
XAxis mode: Wavelengths
Number of Pixels in Spectrum: 3648
>>>>>Begin Spectral Data<<<<<
345.52	-32.13465
345.736	-32.13465
345.952	-32.13465
346.168	-34.24164
346.384	50.05688
346.6	-17.38502
346.816	24.76332
347.032	31.08639
347.248	-48.98987
347.464	16.33288
347.68	14.22533
347.896	-2.6342
348.112	-13.17063
348.328	-2.6342
348.544	16.33288
348.76	-23.70644
348.975	5.79537
349.191	-55.31017
349.407	18.44046
349.623	-32.13465
349.839	41.62532
350.055	18.44046
350.27	3.68794
350.486	-13.17063
350.702	-13.17063
350.918	73.24557
351.133	56.38079
351.349	39.51749
351.565	92.22017
351.781	3.68794
351.996	22.65567
352.212	7.90283
352.428	41.62532
352.644	-13.17063
352.859	24.76332
353.075	-4.74153
353.291	12.11781
353.506	-76.37618
353.722	-84.80186
353.938	56.38079
354.153	-6.84884
354.369	62.70491
354.584	56.38079
354.8	18.44046
355.016	7.90283
355.231	20.54805
355.447	45.84105
355.662	-34.24164
355.878	-2.6342
356.093	-21.59933
356.309	18.44046
356.524	16.33288
356.74	22.65567
356.955	-27.92059
357.171	20.54805
357.386	-8.95613
357.602	-15.27784
357.817	-27.92059
358.033	-30.02763
358.248	-13.17063
358.464	-4.74153
358.679	43.73317
358.895	5.79537
359.11	54.2728
359.325	-4.74153
359.541	5.79537
359.756	-19.49219
359.972	45.84105
360.187	-27.92059
360.402	73.24557
360.618	20.54805
360.833	54.2728
361.048	-13.17063
361.264	33.19413
361.479	-95.33338
361.694	-21.59933
361.909	14.22533
362.125	-15.27784
362.34	45.84105
362.555	73.24557
362.77	-4.74153
362.986	94.32857
363.201	-48.98987
363.416	5.79537
363.631	28.97868
363.847	56.38079
364.062	-11.06339
364.277	28.97868
364.492	7.90283
364.707	37.40968
364.922	-2.6342
365.138	12.11781
365.353	31.08639
365.568	71.13739
365.783	1.58054
365.998	45.84105
366.213	-0.52684
366.428	5.79537
366.643	37.40968
366.858	16.33288
367.073	-21.59933
367.288	73.24557
367.503	-13.17063
367.718	28.97868
367.933	62.70491
368.148	20.54805
368.363	81.6785
368.578	52.16483
368.793	-6.84884
369.008	83.78679
369.223	35.30189
369.438	45.84105
369.653	81.6785
369.868	28.97868
370.083	-11.06339
370.298	14.22533
370.513	22.65567
370.728	54.2728
370.943	7.90283
371.157	14.22533
371.372	64.813
371.587	24.76332
371.802	37.40968
372.017	31.08639
372.232	20.54805
372.446	-4.74153
372.661	-0.52684
372.876	5.79537
373.091	-0.52684
373.306	-40.56246
373.52	66.92111
373.735	-2.6342
373.95	20.54805
374.165	-38.45555
374.379	50.05688
374.594	-51.09666
374.809	90.11179
375.023	-13.17063
375.238	45.84105
375.453	43.73317
375.667	22.65567
375.882	-11.06339
376.097	24.76332
376.311	81.6785
376.526	-19.49219
376.741	12.11781
376.955	-44.77622
377.17	-61.63024
377.384	37.40968
377.599	-27.92059
377.813	22.65567
378.028	39.51749
378.242	28.97868
378.457	83.78679
378.672	56.38079
378.886	-30.02763
379.101	12.11781
379.315	31.08639
379.53	-6.84884
379.744	39.51749
379.958	71.13739
380.173	-42.66935
380.387	45.84105
380.602	-27.92059
380.816	-4.74153
381.031	-13.17063
381.245	-8.95613
381.459	-11.06339
381.674	47.94895
381.888	5.79537
382.103	-21.59933
382.317	5.79537
382.531	16.33288
382.746	-25.81353
382.96	54.2728
383.174	71.13739
383.388	24.76332
383.603	-30.02763
383.817	56.38079
384.031	-8.95613
384.246	58.48881
384.46	28.97868
384.674	104.87091
384.888	1.58054
385.103	75.35377
385.317	-21.59933
385.531	45.84105
385.745	56.38079
385.959	-30.02763
386.174	-34.24164
386.388	52.16483
386.602	-13.17063
386.816	96.437
387.03	73.24557
387.244	3.68794
387.458	37.40968
387.672	-2.6342
387.887	22.65567
388.101	-13.17063
388.315	-21.59933
388.529	54.2728
388.743	-25.81353
388.957	28.97868
389.171	47.94895
389.385	7.90283
389.599	-34.24164
389.813	-0.52684
390.027	12.11781
390.241	-4.74153
390.455	-17.38502
390.669	5.79537
390.883	37.40968
391.097	45.84105
391.311	-95.33338
391.525	22.65567
391.738	-11.06339
391.952	39.51749
392.166	-38.45555
392.38	83.78679
392.594	-19.49219
392.808	-19.49219
393.022	-19.49219
393.236	47.94895
393.449	52.16483
393.663	14.22533
393.877	28.97868
394.091	71.13739
394.305	128.06598
394.518	39.51749
394.732	7.90283
394.946	39.51749
395.16	-13.17063
395.373	5.79537
395.587	37.40968
395.801	-13.17063
396.015	43.73317
396.228	58.48881
396.442	56.38079
396.656	5.79537
396.869	37.40968
397.083	1.58054
397.297	-6.84884
397.51	77.46199
397.724	22.65567
397.938	24.76332
398.151	-51.09666
398.365	12.11781
398.578	12.11781
398.792	-30.02763
399.005	-8.95613
399.219	98.54544
399.433	50.05688
399.646	66.92111
399.86	-21.59933
400.073	28.97868
400.287	24.76332
400.5	54.2728
400.714	-4.74153
400.927	7.90283
401.141	62.70491
401.354	28.97868
401.567	-4.74153
401.781	45.84105
401.994	26.87099
402.208	3.68794
402.421	-23.70644
402.635	58.48881
402.848	41.62532
403.061	-13.17063
403.275	28.97868
403.488	-27.92059
403.701	62.70491
403.915	37.40968
404.128	75.35377
404.341	5.79537
404.555	54.2728
404.768	-46.88306
404.981	22.65567
405.195	7.90283
405.408	-46.88306
405.621	41.62532
405.834	-21.59933
406.048	14.22533
406.261	20.54805
406.474	22.65567
406.687	14.22533
406.9	39.51749
407.114	-15.27784
407.327	66.92111
407.54	20.54805
407.753	7.90283
407.966	26.87099
408.179	37.40968
408.392	66.92111
408.605	20.54805
408.819	88.00344
409.032	-13.17063
409.245	-74.26969
409.458	14.22533
409.671	66.92111
409.884	130.17476
410.097	14.22533
410.31	56.38079
410.523	5.79537
410.736	-21.59933
410.949	5.79537
411.162	22.65567
411.375	71.13739
411.588	37.40968
411.801	88.00344
412.014	16.33288
412.227	16.33288
412.44	41.62532
412.653	35.30189
412.865	45.84105
413.078	-95.33338
413.291	45.84105
413.504	-19.49219
413.717	5.79537
413.93	-25.81353
414.143	79.57023
414.356	5.79537
414.568	5.79537
414.781	77.46199
414.994	33.19413
415.207	12.11781
415.42	-0.52684
415.632	-30.02763
415.845	35.30189
416.058	12.11781
416.271	20.54805
416.483	-42.66935
416.696	-13.17063
416.909	-8.95613
417.121	54.2728
417.334	83.78679
417.547	22.65567
417.759	73.24557
417.972	-8.95613
418.185	20.54805
418.397	52.16483
418.61	45.84105
418.823	3.68794
419.035	5.79537
419.248	1.58054
419.46	24.76332
419.673	3.68794
419.885	28.97868
420.098	18.44046
420.311	-42.66935
420.523	-25.81353
420.736	-19.49219
420.948	-6.84884
421.161	77.46199
421.373	52.16483
421.586	115.4138
421.798	-21.59933
422.01	20.54805
422.223	-34.24164
422.435	39.51749
422.648	-30.02763
422.86	45.84105
423.073	-4.74153
423.285	-8.95613
423.497	28.97868
423.71	16.33288
423.922	64.813
424.134	28.97868
424.347	41.62532
424.559	-6.84884
424.771	37.40968
424.984	52.16483
425.196	12.11781
425.408	7.90283
425.621	-0.52684
425.833	47.94895
426.045	45.84105
426.257	60.59685
426.47	31.08639
426.682	62.70491
426.894	71.13739
427.106	58.48881
427.318	79.57023
427.531	47.94895
427.743	71.13739
427.955	79.57023
428.167	71.13739
428.379	54.2728
428.591	115.4138
428.804	54.2728
429.016	56.38079
429.228	41.62532
429.44	79.57023
429.652	113.30518
429.864	43.73317
430.076	41.62532
430.288	109.088
430.5	71.13739
430.712	52.16483
430.924	66.92111
431.136	45.84105
431.348	10.01031
431.56	39.51749
431.772	-13.17063
431.984	35.30189
432.196	71.13739
432.408	58.48881
432.62	54.2728
432.832	90.11179
433.044	20.54805
433.256	104.87091
433.468	33.19413
433.679	12.11781
433.891	37.40968
434.103	54.2728
434.315	33.19413
434.527	75.35377
434.739	22.65567
434.95	24.76332
435.162	39.51749
435.374	98.54544
435.586	31.08639
435.798	1.58054
436.009	56.38079
436.221	31.08639
436.433	104.87091
436.645	7.90283
436.856	64.813
437.068	24.76332
437.28	22.65567
437.491	92.22017
437.703	62.70491
437.915	5.79537
438.126	104.87091
438.338	12.11781
438.55	20.54805
438.761	54.2728
438.973	41.62532
439.184	-19.49219
439.396	100.65391
439.608	172.35468
439.819	37.40968
440.031	113.30518
440.242	73.24557
440.454	43.73317
440.665	121.73979
440.877	28.97868
441.088	54.2728
441.3	71.13739
441.511	71.13739
441.723	71.13739
441.934	71.13739
442.146	134.39237
442.357	90.11179
442.569	64.813
442.78	35.30189
442.991	31.08639
443.203	56.38079
443.414	102.7624
443.626	45.84105
443.837	83.78679
444.048	20.54805
444.26	81.6785
444.471	102.7624
444.682	28.97868
444.894	35.30189
445.105	26.87099
445.316	62.70491
445.528	41.62532
445.739	14.22533
445.95	31.08639
446.161	39.51749
446.373	104.87091
446.584	128.06598
446.795	111.19658
447.006	98.54544
447.217	37.40968
447.429	45.84105
447.64	96.437
447.851	71.13739
448.062	138.61006
448.273	-17.38502
448.484	71.13739
448.695	100.65391
448.907	24.76332
449.118	24.76332
449.329	54.2728
449.54	79.57023
449.751	66.92111
449.962	111.19658
450.173	157.59075
450.384	66.92111
450.595	140.71894
450.806	47.94895
451.017	33.19413
451.228	130.17476
451.439	88.00344
451.65	90.11179
451.861	45.84105
452.072	81.6785
452.283	43.73317
452.494	88.00344
452.705	117.52244
452.915	20.54805
453.126	100.65391
453.337	140.71894
453.548	31.08639
453.759	104.87091
453.97	47.94895
454.181	66.92111
454.391	75.35377
454.602	52.16483
454.813	113.30518
455.024	71.13739
455.235	130.17476
455.445	79.57023
455.656	130.17476
455.867	77.46199
456.078	155.4817
456.288	62.70491
456.499	96.437
456.71	37.40968
456.921	117.52244
457.131	45.84105
457.342	128.06598
457.553	33.19413
457.763	58.48881
457.974	37.40968
458.184	125.95723
458.395	45.84105
458.606	159.69982
458.816	166.02716
459.027	66.92111
459.237	147.04571
459.448	96.437
459.659	54.2728
459.869	125.95723
460.08	140.71894
460.29	121.73979
460.501	185.01029
460.711	73.24557
460.922	96.437
461.132	113.30518
461.343	159.69982
461.553	100.65391
461.764	130.17476
461.974	168.13631
462.184	115.4138
462.395	161.80891
462.605	208.21413
462.816	155.4817
463.026	163.91802
463.236	218.76214
463.447	138.61006
463.657	218.76214
463.867	216.6525
464.078	191.33836
464.288	212.43327
464.498	159.69982
464.709	250.4091
464.919	197.66663
465.129	239.85962
465.339	147.04571
465.55	201.88557
465.76	157.59075
465.97	185.01029
466.18	231.42039
466.391	292.61173
466.601	231.42039
466.811	222.98148
467.021	324.26855
467.231	324.26855
467.441	294.72206
467.651	311.60534
467.862	339.04311
468.072	362.262
468.282	286.28086
468.492	265.17916
468.702	370.70575
468.912	370.70575
469.122	326.37915
469.332	431.93086
469.542	341.15383
469.752	286.28086
469.962	402.37219
470.172	415.03981
470.382	429.81942
470.592	425.5966
470.802	444.59982
471.012	501.61693
471.222	410.8172
471.432	495.28116
471.642	415.03981
471.852	450.9345
472.062	431.93086
472.272	577.65613
472.482	603.00642
472.691	693.85964
472.901	484.72183
473.111	603.00642
473.321	672.72903
473.531	695.97277
473.741	645.26097
473.95	729.78425
474.16	731.89756
474.37	803.75619
474.58	719.21786
474.79	881.96763
474.999	712.87816
475.209	850.25884
475.419	774.16594
475.628	949.61908
475.838	939.04803
476.048	1017.27783
476.258	1021.50672
476.467	1032.07905
476.677	1095.516
476.886	1245.66633
477.096	1072.25523
477.306	1169.53134
477.515	1186.44984
477.725	1228.74708
477.935	1249.89617
478.144	1311.22997
478.354	1330.26495
478.563	1359.87518
478.773	1355.64513
478.982	1406.406
479.192	1326.03495
479.401	1554.4591
479.611	1450.82205
479.82	1558.68914
480.03	1410.63609
480.239	1795.55657
480.449	1721.53952
480.658	1679.24216
480.868	1658.09304
481.077	1880.14111
481.287	1772.29457
481.496	1871.683
481.705	1846.3082
481.915	1939.34547
482.124	1863.22481
482.333	2091.56312
482.543	1958.3745
482.752	2165.54441
482.961	2176.11237
483.171	2319.81501
483.38	2146.52157
483.589	2224.72229
483.799	2226.83566
484.008	2362.07226
484.217	2412.77565
484.426	2486.70716
484.636	2286.00641
484.845	2623.97162
485.054	2455.02385
485.263	2695.75104
485.472	2564.84842
485.682	2900.44927
485.891	2742.18864
486.1	2746.40992
486.309	2792.8405
486.518	2820.27364
486.727	2801.28171
486.936	2997.47595
487.146	2851.92436
487.355	2936.3106
487.564	2959.51273
487.773	3126.09209
487.982	3022.78205
488.191	3115.55198
488.4	3098.68698
488.609	3265.18335
488.818	3311.53094
489.027	3416.83531
489.236	3482.10181
489.445	3507.36162
489.654	3345.23308
489.863	3642.03573
490.072	3479.99671
490.281	3694.62191
490.49	3576.81247
490.698	3536.82806
490.907	3629.41329
491.116	3867.01965
491.325	3801.86039
491.534	3812.37123
491.743	3684.10563
491.952	3997.28043
492.16	3930.05876
492.369	3940.56352
492.578	3917.45239
492.787	4156.84744
492.996	4032.98344
493.204	4393.87281
493.413	4182.03121
493.622	4341.45722
493.831	4085.47703
494.039	4226.09546
494.248	4207.21192
494.457	4626.43241
494.665	4408.54674
494.874	4502.85353
495.083	4383.39078
495.291	4645.2766
495.5	4689.23931
495.709	4492.3772
495.917	4387.58366
496.126	4588.73859
496.335	4701.79827
496.543	4649.46395
496.752	4511.2342
496.96	4804.3326
497.169	4787.59602
497.377	4877.53801
497.586	4584.54994
497.794	5190.95639
498.003	4846.16769
498.211	4800.14859
498.42	4848.2592
498.628	5224.35689
498.837	4996.69821
499.045	5111.60632
499.254	5030.13324
499.462	5341.21152
499.671	5167.99009
499.879	5222.26953
500.087	5063.56236
500.296	5391.26959
500.504	5295.31309
500.713	5591.36647
500.921	5199.30708
501.129	5245.22917
501.338	5157.54993
501.546	5691.33348
501.754	5280.70667
501.962	5655.93471
502.171	5420.46388
502.379	5778.76002
502.587	5510.10327
502.795	5639.27411
503.004	5299.48615
503.212	5553.86483
503.42	5520.52363
503.628	5737.13352
503.837	5530.9434
504.045	5859.90452
504.253	5639.27411
504.461	5805.81217
504.669	5949.32995
504.877	6009.6155
505.085	6057.41409
505.294	5849.50339
505.502	5803.73138
505.71	6028.32078
505.918	5861.98468
506.126	6194.50618
506.334	5988.82961
506.542	6161.28113
506.75	6152.97393
506.958	6107.2776
507.166	6024.16421
507.374	6287.91944
507.582	6231.87718
507.79	6323.19656
507.998	6254.71127
508.206	6424.83992
508.414	6283.76875
508.622	6493.26212
508.83	6260.93826
509.037	6449.72365
509.245	6343.94465
509.453	6538.86287
509.661	6501.554
509.869	6652.81578
510.077	6372.98806
510.285	6837.06504
510.492	6482.89674
510.7	6627.95928
510.908	6412.3968
511.116	6435.20855
511.324	6580.30837
511.531	6708.7308
511.739	6484.96986
511.947	6553.36985
512.155	6561.65904
512.362	6580.30837
512.57	6683.88175
512.778	6824.64943
512.985	6727.36542
513.193	6721.15408
513.401	6824.64943
513.608	6685.95263
513.816	6961.17615
514.024	6880.51321
514.231	6957.04043
514.439	6882.58192
514.646	6899.13079
514.854	7244.25989
515.061	6661.10054
515.269	6923.95138
515.477	6882.58192
515.684	7095.53821
515.892	7072.80668
516.099	7231.87081
516.307	7335.08897
516.514	7386.6775
516.722	7281.42239
516.929	7269.03568
517.136	7178.17557
517.344	7388.74075
517.551	7221.54596
517.759	7399.05671
517.966	7504.24854
518.173	7493.9381
518.381	7320.64173
518.588	7454.75352
518.796	7330.9613
519.003	7498.06234
519.21	7487.75158
519.418	7502.1865
519.625	7483.62713
519.832	7584.65153
520.039	7667.08238
520.247	7778.31036
520.454	7786.54703
520.661	7903.88347
520.868	7634.11412
521.076	7827.7254
521.283	7660.90125
521.49	7947.09576
521.697	7695.92516
521.904	8078.73478
522.112	7578.46784
522.319	8136.3008
522.526	8004.69808
522.733	8128.07804
522.94	8175.35451
523.147	8144.52323
523.354	8097.23986
523.561	8302.74313
523.768	8148.63433
523.975	8265.76714
524.183	8056.11524
524.39	8294.52679
524.597	8308.90518
524.804	8399.26172
525.011	8047.88934
525.218	8218.51077
525.425	8086.95946
525.632	8296.58091
525.838	8185.6306
526.045	8261.65831
526.252	8399.26172
526.459	8655.75421
526.666	8288.36433
526.873	8493.68544
527.08	8292.47266
527.287	8698.81616
527.494	8372.56938
527.701	8733.66987
527.907	8557.29605
528.114	8559.3477
528.321	8649.60183
528.528	9055.30742
528.735	8944.73004
528.941	8774.66745
529.148	8618.83745
529.355	8784.9157
529.562	8657.80496
529.768	8907.85948
529.975	8719.31898
530.182	9106.48343
530.388	8918.10188
530.595	8881.22716
530.802	8499.8421
531.008	9126.95081
531.215	9081.92029
531.422	9284.49266
531.628	9171.97302
531.835	9300.85493
532.042	9178.11178
532.248	9382.65037
532.455	9034.83398
532.661	9294.7192
532.868	9124.90415
533.074	9370.38273
533.281	9241.53663
533.487	9476.68279
533.694	9309.03566
533.9	9619.7106
534.107	9266.08384
534.313	9752.45362
534.52	9460.33179
534.726	9601.32565
534.933	9617.66789
535.139	9576.81039
535.345	9664.6463
535.552	9629.92392
535.758	9746.32845
535.965	9825.94512
536.171	9803.49145
536.377	9834.10964
536.584	9482.81415
536.79	9748.37019
536.996	9832.06853
537.203	9911.66075
537.409	9868.8062
537.615	9836.15073
537.821	9927.98458
538.028	10087.09352
538.234	9864.72447
538.44	10011.62965
538.646	9889.21393
538.853	9995.31057
539.059	9660.56155
539.265	10054.46289
539.471	9987.15068
539.677	9972.87033
539.883	10023.86836
540.09	10301.14383
540.296	10029.98752
540.502	10431.53967
540.708	10286.87849
540.914	10549.66499
541.12	10244.0785
541.326	10637.21327
541.532	10411.16886
541.738	10417.28024
541.944	10231.84884
542.15	10696.2446
542.356	10804.10326
542.562	10795.96415
542.768	10403.02018
542.974	10360.23613
543.18	10374.49812
543.386	10936.33782
543.592	10657.57006
543.798	10844.79602
544.004	10789.85969
544.21	10899.72388
544.415	10755.26575
544.621	11021.75615
544.827	10918.03131
545.033	10977.01568
545.239	10842.76149
545.445	11082.7573
545.651	10816.31158
545.856	11113.2542
546.062	10867.17505
546.268	11237.25028
546.474	10891.58695
546.679	10765.44079
546.885	10765.44079
547.091	11023.78968
547.297	10708.4567
547.502	11235.21787
547.708	11206.76306
547.914	10964.81279
548.119	10871.24382
548.325	11111.22115
548.531	10738.98506
548.736	11013.62192
548.942	11023.78968
549.147	11135.61706
549.353	11105.12193
549.559	11070.55785
549.764	11306.34605
549.97	11216.92573
550.175	11101.05573
550.381	11444.50276
550.586	11377.46184
550.792	11371.36668
550.997	11422.15697
551.203	11611.04416
551.408	11428.25139
551.614	11615.10536
551.819	11647.59367
552.025	11623.22765
552.23	11572.4609
552.435	11759.25474
552.641	11939.88745
552.846	11556.21432
553.052	11716.62367
553.257	11669.92803
553.462	11700.38224
553.668	11856.68289
553.873	11580.58397
554.078	12065.68317
554.283	11755.1948
554.489	11919.59493
554.694	12012.93383
554.899	12242.15311
555.105	12041.33798
555.31	11992.64421
555.515	11950.03341
555.72	11915.53633
555.925	11854.65334
556.131	12152.91102
556.336	12002.78912
556.541	12349.63078
556.746	12146.82581
556.951	12106.25601
557.156	11937.85824
557.361	12260.40544
557.567	12234.04078
557.772	12019.02057
557.977	12290.8247
558.182	12163.05288
558.387	12098.14169
558.592	12110.31313
558.797	12288.7968
559.002	12298.93623
559.207	12410.45856
559.412	12501.68896
559.617	12087.99861
559.822	12396.26596
560.027	12416.541
560.232	12266.48942
560.437	12154.9394
560.642	12292.85259
560.847	12669.92454
561.051	12489.52567
561.256	12515.87917
561.461	12440.87018
561.666	12477.36215
561.871	12582.77168
562.076	12564.52895
562.281	12560.47494
562.485	12250.26533
562.69	12631.41652
562.895	12371.93501
563.1	12755.03995
563.305	12540.20451
563.509	12669.92454
563.714	12633.44331
563.919	12692.21767
564.123	12609.12141
564.328	12746.93416
564.533	12475.33488
564.737	12694.24428
564.942	12671.95121
565.147	12609.12141
565.351	12953.6041
565.556	12576.69082
565.761	12718.56317
565.965	12540.20451
566.17	12615.20197
566.374	12627.36292
566.579	12639.52365
566.784	12957.6559
566.988	12848.25004
567.193	13188.57562
567.397	12935.37077
567.602	13277.68638
567.806	12748.96061
568.011	13115.66033
568.215	13125.78781
568.42	13034.63616
568.624	13324.26368
568.828	13046.79028
569.033	12979.94041
569.237	13190.60096
569.442	13344.51399
569.646	12937.39671
569.85	12886.74646
570.055	13083.25159
570.259	13054.89293
570.463	13172.37273
570.668	12996.14694
570.872	13204.77821
571.076	13180.47421
571.281	13050.84162
571.485	13208.82882
571.689	13516.6256
571.893	13139.96609
572.098	13370.83878
572.302	13030.58475
572.506	13435.63539
572.71	13291.86232
572.914	13362.73892
573.119	13571.29066
573.323	13429.56088
573.527	13433.61055
573.731	13520.67495
573.935	13423.48633
574.139	13696.80831
574.343	13277.68638
574.547	13710.97886
574.751	13650.24681
574.955	13455.88351
575.159	13557.11849
575.364	13447.78431
575.568	13378.93858
575.772	13759.56244
575.976	13666.44231
576.18	13498.40332
576.383	13621.90418
576.587	13530.79828
576.791	13589.51178
576.995	13743.36811
577.199	13787.90205
577.403	13644.17345
577.607	13824.33783
577.811	13874.94154
578.015	13579.38897
578.219	13802.07163
578.422	13838.50705
578.626	13791.95052
578.83	13706.93015
579.034	14111.74516
579.238	13974.11987
579.442	13737.29519
579.645	13980.19181
579.849	14142.10226
580.053	14397.08443
580.257	14180.55389
580.46	14192.69636
580.664	14154.24496
580.868	13733.24656
581.071	14004.47934
581.275	14119.84043
581.479	14101.62602
581.682	13876.96565
581.886	13905.30293
582.09	14362.68372
582.293	14425.41409
582.497	14055.07724
582.7	14532.65953
582.904	14635.85461
583.107	14445.64938
583.311	14526.58914
583.515	14322.21168
583.718	14372.80162
583.922	14310.06994
584.125	14534.683
584.329	14478.02555
584.532	14148.17362
584.735	14892.81997
584.939	14502.30744
585.142	14585.26917
585.346	14393.03731
585.549	14589.31603
585.753	14397.08443
585.956	14552.8941
586.159	14411.2493
586.363	14512.42484
586.566	14583.24573
586.769	14666.20557
586.973	14437.55528
587.176	14767.37388
587.379	14771.42057
587.582	14834.14388
587.786	14702.62642
587.989	15058.7296
588.192	14374.8252
588.395	14971.72851
588.599	14751.1871
588.802	14805.81731
589.005	14625.73758
589.208	15259.03353
589.411	14670.25234
589.615	14728.93018
589.818	14904.95979
590.021	14925.19278
590.224	14761.30384
590.427	15083.00889
590.63	14937.33256
590.833	15064.79942
591.036	15080.98562
591.239	14989.93808
591.442	14880.68013
591.645	14943.40244
591.848	15004.10107
592.051	15323.77843
592.254	15072.89252
592.457	15313.66202
592.66	14925.19278
592.863	15184.17246
593.066	15097.1718
593.269	15337.94141
593.472	15327.82499
593.675	15485.64224
593.878	15305.5689
594.081	15259.03353
594.284	15196.31208
594.486	15548.36536
594.689	15186.19573
594.892	15313.66202
595.095	15400.66339
595.298	15287.35939
595.5	15540.27202
595.703	15825.57033
595.906	15370.314
596.109	15546.34202
596.311	15479.57229
596.514	15315.6853
596.717	15230.7077
596.92	15609.06578
597.122	15491.71219
597.325	15590.85558
597.528	15843.78153
597.73	15979.35693
597.933	15868.06328
598.136	15997.569
598.338	15700.11776
598.541	16141.24616
598.743	15730.46883
598.946	15669.7669
599.148	15880.20422
599.351	15766.8904
599.554	15959.12143
599.756	15849.85195
599.959	15649.53311
600.161	15833.66418
600.363	15742.60932
600.566	15831.64072
600.768	15781.05444
600.971	16044.11148
601.173	15619.18258
601.376	15876.15723
601.578	15787.12476
601.78	16114.9385
601.983	16029.9463
602.185	16121.00947
602.388	15902.46272
602.59	16017.80477
602.792	16159.45932
602.995	16044.11148
603.197	15702.14116
603.399	16139.22249
603.601	15973.28626
603.804	16197.90975
604.006	16029.9463
604.208	16084.58383
604.41	16025.89912
604.613	15845.805
604.815	15997.569
605.017	16157.43563
605.219	15748.67957
605.421	15868.06328
605.623	16118.98581
605.826	16250.52713
606.028	16161.48301
606.23	16193.86231
606.432	16153.38825
606.634	16869.89562
606.836	15995.54543
607.038	16402.3149
607.24	16023.87553
607.442	16353.74166
607.644	16325.40778
607.846	16687.70679
608.048	16469.10496
608.25	16531.84918
608.452	16359.81325
608.654	16420.53015
608.856	16066.3712
609.058	16236.3608
609.26	16076.48932
609.462	16258.62222
609.664	16355.76552
609.866	16203.98093
610.067	16125.0568
610.269	16118.98581
610.471	15955.07434
610.673	16418.50623
610.875	16616.86078
611.077	16604.71602
611.278	16145.29352
611.48	16321.36011
611.682	16218.14707
611.884	16631.02976
612.085	16076.48932
612.287	16568.28225
612.489	16015.78119
612.69	16181.72002
612.892	16351.7178
613.094	16505.53684
613.295	16046.13508
613.497	16371.95649
613.699	16208.02839
613.9	16463.03304
614.102	16436.72162
614.304	16232.31329
614.505	15801.28887
614.707	16406.36272
614.908	16303.14571
615.11	16562.21002
615.311	16080.53657
615.513	16171.6015
615.714	16268.74112
615.916	16463.03304
616.117	16533.87322
616.319	16918.48272
616.52	16491.36881
616.722	16871.92005
616.923	16794.99337
617.124	16657.34387
617.326	16272.78869
617.527	16592.57135
617.729	16728.1915
617.93	16728.1915
618.131	16408.38663
618.333	16517.68095
618.534	16404.33881
618.735	16681.63416
618.937	16080.53657
619.138	16386.12369
619.339	16268.74112
619.54	16748.43421
619.742	16509.58487
619.943	16337.55083
620.144	16260.64599
620.345	16679.60996
620.546	16673.53736
620.748	16653.29552
620.949	16647.22301
621.15	16412.43446
621.351	16222.19455
621.552	16701.87633
621.753	16361.83712
621.954	16819.28562
622.155	16234.33704
622.356	16667.46478
622.558	16422.55408
622.759	16560.18595
622.96	16343.62238
623.161	16398.26708
623.362	16333.50314
623.563	16517.68095
623.764	16572.33041
623.965	16272.78869
624.166	16533.87322
624.366	16371.95649
624.567	16402.3149
624.768	16845.60262
624.969	16537.92131
625.17	16645.19885
625.371	16673.53736
625.572	16629.00561
625.773	16301.12189
625.973	16491.36881
626.174	16260.64599
626.375	16495.41681
626.576	16274.81248
626.777	16639.12636
626.977	16760.57996
627.178	17114.87113
627.379	16568.28225
627.58	16543.99346
627.78	16841.55382
627.981	16333.50314
628.182	16378.02814
628.382	16499.46481
628.583	16420.53015
628.784	16618.88491
628.984	16299.09808
629.185	16454.93719
629.386	16507.56086
629.586	16880.01781
629.787	16554.11375
629.987	16829.40749
630.188	16643.17468
630.388	16639.12636
630.589	16450.88927
630.79	16898.23791
630.99	16952.89948
631.191	16956.94856
631.391	16819.28562
631.591	16794.99337
631.792	16833.45626
631.992	16837.50504
632.193	16960.99765
632.393	16612.81252
632.594	16823.33436
632.794	17052.10504
632.994	16657.34387
633.195	16531.84918
633.395	16750.4585
633.595	16853.70025
633.796	16880.01781
633.996	17311.28593
634.196	17078.42598
634.397	17309.26089
634.597	16722.11874
634.797	16920.50721
634.997	16788.92036
635.198	16971.12043
635.398	16754.50707
635.598	16948.85041
635.798	16823.33436
635.998	16790.9447
636.199	16815.23688
636.399	17157.39161
636.599	17147.26758
636.799	16841.55382
636.999	16736.28856
637.199	16663.41641
637.399	16746.40993
637.599	17365.96303
637.799	16922.53171
637.999	16983.26785
638.199	17031.85848
638.399	17177.63991
638.599	16926.58071
638.799	17074.37657
638.999	17013.63681
639.199	17062.22842
639.399	16942.77682
639.599	16944.80135
639.799	16790.9447
639.999	17124.99494
640.199	16918.48272
640.399	16827.38311
640.599	16151.36457
640.799	16831.43187
640.998	16859.77349
641.198	17066.27779
641.398	16877.99337
641.598	17270.78578
641.798	17135.11882
641.997	17289.0107
642.197	17019.71068
642.397	17185.7393
642.597	17082.47539
642.796	17023.75993
642.996	17124.99494
643.196	17098.67317
643.395	16821.30999
643.595	17270.78578
643.795	17315.33601
643.994	17382.16408
644.194	16954.92402
644.394	17050.08037
644.593	17037.93242
644.793	17044.00638
644.992	17278.88571
645.192	17212.06266
645.392	17240.41145
645.591	17649.51039
645.791	17228.2619
645.99	17252.5611
646.19	17321.41115
646.389	17446.97025
646.589	17074.37657
646.788	17100.6979
646.987	16971.12043
647.187	17289.0107
647.386	16950.87494
647.586	17094.62371
647.785	17333.56152
647.984	17305.21083
648.184	17384.18923
648.383	17479.37453
648.582	17442.91977
648.782	17665.715
648.981	17147.26758
649.18	17548.23631
649.38	17483.42512
649.579	17552.28711
649.778	17505.7036
649.977	17679.89421
650.177	17690.02232
650.376	17493.55165
650.575	17218.13735
650.774	17736.61268
650.973	17218.13735
651.173	17325.46126
651.372	17187.76416
651.571	17254.58605
651.77	17220.16226
651.969	17527.98246
652.168	17594.82137
652.367	18014.16667
652.566	17661.66383
652.765	17542.16012
652.964	17151.31718
653.163	16817.26125
653.362	17446.97025
653.561	17434.81885
653.76	17485.45042
653.959	17396.34016
654.158	17556.33793
654.357	17284.96069
654.556	17068.30249
654.755	17681.91983
654.954	17135.11882
655.153	17179.66475
655.352	17074.37657
655.551	17408.4912
655.749	17507.72893
655.948	17329.51138
656.147	17139.16839
656.346	17404.44084
656.545	17023.75993
656.743	17396.34016
656.942	17313.31097
657.141	17420.64236
657.34	17414.56677
657.538	17420.64236
657.737	17734.58697
657.936	17580.64313
658.135	17615.07629
658.333	17363.93791
658.532	17525.95709
658.731	17811.56613
658.929	17363.93791
659.128	17380.13894
659.326	17333.56152
659.525	17922.9921
659.724	17568.49047
659.922	17532.0332
660.121	17649.51039
660.319	17432.79363
660.518	17307.23586
660.716	17582.66858
660.915	17280.9107
661.113	17402.41567
661.312	17284.96069
661.51	17463.17229
661.709	17234.33666
661.907	17495.57697
662.105	17485.45042
662.304	17564.43961
662.502	17457.0965
662.701	17754.84417
662.899	17540.13473
663.097	17619.12731
663.296	17633.30599
663.494	17550.26171
663.692	17481.39982
663.891	17783.20482
664.089	17333.56152
664.287	17653.56152
664.485	17627.22939
664.684	17430.76841
664.882	17301.16078
665.08	17333.56152
665.278	17483.42512
665.476	17523.93173
665.675	17238.38651
665.873	17218.13735
666.071	17023.75993
666.269	17357.86258
666.467	17372.0384
666.665	17534.05858
666.863	17163.46607
667.061	17685.97106
667.259	17301.16078
667.457	17410.51639
667.655	17386.21437
667.853	17250.53615
668.051	17293.06071
668.249	17594.82137
668.447	17289.0107
668.645	17112.84637
668.843	17594.82137
669.041	17347.73708
669.239	17430.76841
669.437	17600.89781
669.635	17519.88101
669.833	17355.83747
670.031	16967.07131
670.229	17347.73708
670.426	17157.39161
670.624	17345.71199
670.822	17250.53615
671.02	17129.04448
671.218	17274.83574
671.415	17313.31097
671.613	17181.6896
671.811	17054.12971
672.009	17092.59898
672.206	17116.89588
672.404	17147.26758
672.602	17588.74496
672.799	17179.66475
672.997	17572.54135
673.195	17167.51572
673.392	17685.97106
673.59	17446.97025
673.788	17679.89421
673.985	17323.4362
674.183	17752.81844
674.38	17424.69277
674.578	17673.81739
674.775	17446.97025
674.973	17511.77961
675.17	17343.68691
675.368	17181.6896
675.565	17094.62371
675.763	17641.40816
675.96	17214.08756
676.158	17165.4909
676.355	16916.45822
676.553	17173.59023
676.75	16762.60426
676.947	16588.52315
677.145	16543.99346
677.342	16969.09587
677.539	17092.59898
677.737	17380.13894
677.934	17070.32718
678.131	16940.7523
678.329	16989.34159
678.526	16912.40925
678.723	16922.53171
678.92	16894.18898
679.118	16434.69768
679.315	16750.4585
679.512	16657.34387
679.709	16936.70326
679.906	16817.26125
680.104	16956.94856
680.301	16950.87494
680.498	16900.26238
680.695	16718.07024
680.892	16979.2187
681.089	16819.28562
681.286	17163.46607
681.483	16493.39281
681.68	16608.76427
681.877	16667.46478
682.075	16855.72466
682.272	16531.84918
682.469	16894.18898
682.665	16841.55382
682.862	16590.54725
683.059	16649.24718
683.256	16880.01781
683.453	16707.94903
683.65	16631.02976
683.847	16592.57135
684.044	16734.26429
684.241	16673.53736
684.438	16718.07024
684.635	16159.45932
684.831	16748.43421
685.028	16467.08099
685.225	16242.43207
685.422	16596.61957
685.619	16485.29682
685.815	16353.74166
686.012	16438.74557
686.209	16220.17081
686.405	16819.28562
686.602	16402.3149
686.799	16537.92131
686.996	16784.8717
687.192	16584.47495
687.389	16418.50623
687.586	16513.63291
687.782	16157.43563
687.979	16388.14759
688.175	16408.38663
688.372	16507.56086
688.568	16319.33628
688.765	16286.95525
688.962	16244.45584
689.158	16501.48882
689.355	16363.86099
689.551	16315.28863
689.748	15894.3687
689.944	16060.30035
690.14	16590.54725
690.337	16288.97905
690.533	16208.02839
690.73	16293.02665
690.926	16159.45932
691.123	16398.26708
691.319	16418.50623
691.515	16568.28225
691.712	16066.3712
691.908	16280.88385
692.104	15754.74984
692.301	16145.29352
692.497	15916.6273
692.693	16017.80477
692.889	16137.19881
693.086	16327.43162
693.282	16238.38456
693.478	16260.64599
693.674	16345.64623
693.87	16179.69631
694.067	15787.12476
694.263	16116.96216
694.459	15835.68765
694.655	16098.7493
694.851	15866.03979
695.047	16118.98581
695.243	16082.5602
695.439	15637.39287
695.635	15714.28156
695.831	15910.55676
696.027	15981.38049
696.224	16048.15869
696.42	16052.2059
696.615	16027.92271
696.811	15789.1482
697.007	15653.57986
697.203	15509.92208
697.399	15793.19508
697.595	15550.38869
697.791	15542.29535
697.987	15570.6221
698.183	15987.45117
698.379	15558.48205
698.575	15528.13203
698.77	15714.28156
698.966	15758.79669
699.162	15398.64009
699.358	15556.45871
699.554	15319.73186
699.749	15479.57229
699.945	15165.96302
700.141	15392.57021
700.337	15439.10609
700.532	15574.66879
700.728	15489.68887
700.924	15518.01538
701.119	15511.94541
701.315	15876.15723
701.511	15485.64224
701.706	15878.18072
701.902	15738.56248
702.097	15592.87893
702.293	15499.80547
702.489	15511.94541
702.684	15167.98629
702.88	15520.03871
703.075	15629.2994
703.271	15576.69214
703.466	15004.10107
703.662	15461.36247
703.857	15261.0568
704.053	15619.18258
704.248	15277.24301
704.443	15479.57229
704.639	15285.33612
704.834	15214.52152
705.03	15372.33729
705.225	15364.24413
705.42	15465.4091
705.616	15609.06578
705.811	15277.24301
706.006	15402.68669
706.202	15291.40595
706.397	15309.61546
706.592	15188.219
706.787	15439.10609
706.983	15129.54415
707.178	15463.38578
707.373	15198.33535
707.568	15348.05783
707.763	15279.26628
707.959	15392.57021
708.154	15078.96234
708.349	15602.9957
708.544	15327.82499
708.739	15139.6605
708.934	15048.61322
709.129	15344.01126
709.324	15032.42699
709.519	15507.89876
709.714	15091.10198
709.909	15222.61461
710.104	14767.37388
710.299	14747.14039
710.494	14737.02362
710.689	15034.45027
710.884	14785.58396
711.079	15135.61396
711.274	14961.61206
711.469	15176.07937
711.664	15006.12435
711.859	15218.56807
712.054	15125.49761
712.249	15358.17427
712.443	14892.81997
712.638	15200.35862
712.833	14684.41603
713.028	14949.47232
713.223	14548.8472
713.417	14467.90804
713.612	14633.83121
713.807	14977.79837
714.002	14763.32719
714.196	14935.30926
714.391	14769.39723
714.586	14767.37388
714.78	14868.54027
714.975	14629.7844
715.17	14407.2022
715.364	14801.77065
715.559	14567.05823
715.754	14605.50343
715.948	14453.74346
716.143	14494.2135
716.337	14306.02268
716.532	14354.58936
716.726	14552.8941
716.921	14350.54218
717.115	14743.09368
717.31	14643.94822
717.504	14589.31603
717.699	14393.03731
717.893	14391.01375
718.088	14666.20557
718.282	14518.49526
718.476	14605.50343
718.671	14453.74346
718.865	14753.21045
719.059	14595.38631
719.254	14670.25234
719.448	14407.2022
719.642	14429.46116
719.837	13961.97592
720.031	14391.01375
720.225	14006.50328
720.419	14303.99905
720.614	14071.26826
720.808	14188.64888
721.002	14129.95948
721.196	14295.90449
721.39	14168.41135
721.585	14178.53014
721.779	13994.35958
721.973	14127.93567
722.167	14061.14889
722.361	13789.92628
722.555	13747.41671
722.749	14111.74516
722.943	13984.23975
723.137	14036.86217
723.331	13842.55537
723.525	14044.95778
723.719	13820.28946
723.913	13980.19181
724.107	13504.47745
724.301	13976.14385
724.495	13793.97475
724.689	13634.0511
724.883	13828.38619
725.077	13816.24107
725.271	13690.73517
725.465	13439.68504
725.659	13660.36902
725.853	13963.99992
726.046	13810.16847
726.24	13917.44732
726.434	13710.97886
726.628	14101.62602
726.822	14065.19664
727.015	13937.68775
727.209	13838.50705
727.403	13561.1677
727.596	13654.29571
727.79	13781.82933
727.984	13605.70809
728.177	13824.33783
728.371	13751.4653
728.565	13731.22224
728.758	13123.76232
728.952	13931.61565
729.146	13476.13125
729.339	13453.85871
729.533	13516.6256
729.726	13437.66022
729.92	13472.08173
730.113	13164.27118
730.307	13453.85871
730.5	13613.80616
730.694	13690.73517
730.887	13779.80508
731.081	13435.63539
731.274	13656.32015
731.468	13480.18075
731.661	13593.56088
731.854	13581.41354
732.048	13826.36201
732.241	13619.87968
732.435	13937.68775
732.628	13828.38619
732.821	13698.83268
733.014	13593.56088
733.208	13710.97886
733.401	13642.14898
733.594	13502.45274
733.788	13289.8372
733.981	13575.33982
734.174	13453.85871
734.367	13423.48633
734.56	13275.66123
734.754	13077.17481
734.947	13188.57562
735.14	13160.22038
735.333	13261.48505
735.526	13206.80352
735.719	13324.26368
735.912	13312.1133
736.105	13425.51118
736.298	13419.43661
736.491	13263.51023
736.684	13713.00321
736.877	13528.77362
737.07	13366.78886
737.263	13354.63899
737.456	13231.10682
737.649	13239.20778
737.842	13382.98846
738.035	13297.93766
738.228	13166.29658
738.421	13216.92997
738.614	13036.66186
738.807	13356.66398
739	13115.66033
739.192	13174.39811
739.385	13030.58475
739.578	12858.38086
739.771	13164.27118
739.964	13014.3789
740.156	13316.16344
740.349	13188.57562
740.542	13382.98846
740.735	13164.27118
740.927	13204.77821
741.12	13097.43056
741.313	13194.65162
741.505	13135.91518
741.698	13093.37945
741.891	13054.89293
742.083	13113.63482
742.276	12994.12114
742.468	13158.19497
742.661	13200.72759
742.854	13441.70986
743.046	13103.50719
743.239	12931.31886
743.431	13182.49957
743.624	12953.6041
743.816	13180.47421
744.009	12909.03298
744.201	12724.64276
744.393	12866.48543
744.586	12785.43584
744.778	13042.73893
744.971	12647.63069
745.163	12830.0142
745.355	12712.48353
745.548	12457.0891
745.74	12653.7109
745.932	12623.30929
746.125	12645.60394
746.317	12467.22571
746.509	12418.56847
746.702	12580.74473
746.894	12827.98797
747.086	12594.93322
747.278	12866.48543
747.471	12953.6041
747.663	12574.66386
747.855	12574.66386
748.047	12592.90631
748.239	12667.89785
748.431	12815.83047
748.623	12546.28571
748.815	12582.77168
749.008	12704.37725
749.2	12734.7753
749.392	12523.98772
749.584	12505.74334
749.776	12870.53768
749.968	12607.09454
750.16	12627.36292
750.352	12580.74473
750.544	12629.38972
750.736	12753.01351
750.928	12611.14827
751.12	12394.23842
751.311	12268.5174
751.503	12611.14827
751.695	12349.63078
751.887	12282.71305
752.079	12898.90282
752.271	12315.15896
752.463	12696.27088
752.654	12767.19846
752.846	12667.89785
753.038	12177.25118
753.23	12384.10061
753.421	12307.04765
753.613	12142.76896
753.805	12250.26533
753.997	12252.29336
754.188	12272.57333
754.38	12232.01267
754.572	12203.61849
754.763	12238.09696
754.955	11935.82901
755.146	12199.56206
755.338	12148.85422
755.53	11941.91666
755.721	12118.42727
755.913	12163.05288
756.104	12108.28457
756.296	12148.85422
756.487	12152.91102
756.679	12183.33606
756.87	11858.71244
757.062	11960.17916
757.253	11960.17916
757.445	11803.91175
757.636	12035.25151
757.827	11840.44623
758.019	11966.26651
758.21	11771.43434
758.401	11885.09577
758.593	11834.35734
758.784	11836.38698
758.975	11414.03093
759.167	11491.222
759.358	11820.14964
759.549	11765.34458
759.74	11832.32769
759.932	11753.16482
760.123	11753.16482
760.314	11765.34458
760.505	11887.1252
760.696	11566.3685
760.888	11493.25316
761.079	11277.89628
761.27	11521.68836
761.461	11377.46184
761.652	11692.26132
761.843	11241.31506
762.034	11574.49168
762.225	11720.68394
762.416	11389.65189
762.607	11503.4088
762.798	11411.9994
762.989	11704.44265
763.18	11881.03689
763.371	11505.4399
763.562	11072.59112
763.753	11210.82816
763.944	11062.42467
764.135	11286.02499
764.326	11320.57019
764.517	11247.41217
764.708	11673.98871
764.899	11259.60609
765.089	11442.47137
765.28	11306.34605
765.471	11403.87317
765.662	11243.34744
765.853	11251.47685
766.043	11306.34605
766.234	11330.72999
766.425	10964.81279
766.615	11294.15354
766.806	11033.95717
766.997	11139.6829
767.187	10901.75809
767.378	10938.37182
767.569	11058.35802
767.759	11078.69086
767.95	10928.20171
768.141	10915.9972
768.331	10655.53443
768.522	10783.75513
768.712	10596.496
768.903	10698.27998
769.093	10543.5561
769.284	10565.95478
769.474	10521.1559
769.665	10907.86063
769.855	10850.89953
770.046	10661.64127
770.236	10413.206
770.426	10521.1559
770.617	10698.27998
770.807	10606.67578
770.998	10458.01978
771.188	10612.7835
771.378	10199.234
771.569	10549.66499
771.759	10618.89111
771.949	10494.68096
772.139	10407.09455
772.33	10439.68763
772.52	10309.29516
772.71	10543.5561
772.9	10354.12365
773.09	10191.07974
773.281	10529.30161
773.471	10288.91643
773.661	10594.46
773.851	10217.58028
774.041	10050.3838
774.231	10201.27253
774.421	10054.46289
774.611	10056.50241
774.802	10299.10596
774.992	10366.34849
775.182	10117.68147
775.372	10437.65066
775.562	9917.78229
775.752	10150.30514
775.942	9664.6463
776.131	10029.98752
776.321	9921.86325
776.511	10015.70928
776.701	9907.57964
776.891	10070.77866
777.081	9634.00914
777.271	9840.23287
777.461	9703.44838
777.651	9807.57407
777.84	9783.07745
778.03	10103.40749
778.22	9750.41191
778.41	9676.90019
778.599	9505.29458
778.789	9807.57407
778.979	9546.16314
779.169	9750.41191
779.358	9617.66789
779.548	10227.77217
779.738	9819.82157
779.927	9923.90371
780.117	9840.23287
780.307	10023.86836
780.496	9476.68279
780.686	9738.16133
780.875	9654.4343
781.065	9589.0683
781.254	9237.44519
781.444	9521.64277
781.633	9351.98017
781.823	9830.02741
782.012	9548.2064
782.202	9423.53825
782.391	9311.0808
782.581	9327.44134
782.77	9212.89516
782.96	9141.27696
783.149	9055.30742
783.338	9206.75727
783.528	9374.47201
783.717	9227.2163
783.906	9223.12463
784.096	8981.59486
784.285	9104.43659
784.474	9161.74143
784.663	9190.38882
784.853	8983.64274
785.042	9088.06131
785.231	8895.56801
785.42	8989.78627
785.61	8957.01895
785.799	8780.81645
785.988	8676.26092
786.177	8758.26929
786.366	8834.101
786.555	8729.56971
786.744	8766.46851
786.933	8629.09271
787.122	8721.36916
787.312	8967.25922
787.501	8997.97739
787.69	9202.66526
787.879	9112.62382
788.068	8807.46026
788.257	8651.65264
788.445	8629.09271
788.634	8891.47072
788.823	8817.70706
789.012	8694.71537
789.201	8961.11511
789.39	8969.30722
789.579	8764.41874
789.768	8678.31148
789.957	8649.60183
790.145	8856.64078
790.334	8830.00262
790.523	8768.51828
790.712	8690.61451
790.9	8903.7624
791.089	8647.551
791.278	8707.01751
791.467	8253.4404
791.655	8347.92739
791.844	8450.58399
792.033	8610.6329
792.221	8473.16199
792.41	8522.41506
792.599	8251.38588
792.787	8612.68407
792.976	8374.62276
793.164	8436.21497
793.353	8655.75421
793.541	8735.71992
793.73	8308.90518
793.918	8540.88215
794.107	8070.50977
794.295	8280.14745
794.484	8401.31485
794.672	8298.635
794.861	8121.91077
795.049	8243.16757
795.238	7951.21074
795.426	8091.07168
795.614	7973.84168
795.803	8136.3008
795.991	8160.96714
796.179	8025.26647
796.368	8045.83282
796.556	8158.91172
796.744	8029.3799
796.932	8185.6306
797.121	7877.12846
797.309	8097.23986
797.497	7889.47736
797.685	7926.51961
797.874	8029.3799
798.062	8035.5499
798.25	7782.42874
798.438	7893.59349
798.626	7881.24484
798.814	7840.07728
799.002	7840.07728
799.19	7817.43159
799.378	7955.32564
799.566	8068.45347
799.755	7790.66525
799.943	7998.52717
800.131	7726.82355
800.318	7848.31146
800.506	7625.87121
800.694	7815.37276
800.882	7700.04522
801.07	7817.43159
801.258	7782.42874
801.446	8160.96714
801.634	7677.38385
801.822	7856.5453
802.01	7897.70955
802.197	7947.09576
802.385	7570.22262
802.573	7660.90125
802.761	7710.345
802.949	7677.38385
803.136	7535.17663
803.324	7805.07833
803.512	7557.85416
803.699	7592.89615
803.887	7551.66963
804.075	7868.89544
804.262	7770.07335
804.45	7792.72432
804.638	7792.72432
804.825	8105.46382
805.013	7800.96041
805.201	8021.15295
805.388	7807.13726
805.576	7811.25505
805.763	7679.44408
805.951	7858.60371
806.138	7875.07023
806.326	7980.01333
806.513	7545.48492
806.701	7662.96165
806.888	7448.56577
807.075	7776.25114
807.263	7759.77662
807.45	7749.47936
807.638	7650.59893
807.825	7932.69267
808.012	7638.23545
808.2	7873.01199
808.387	7858.60371
808.574	7963.5552
808.761	7627.93197
808.949	7697.9852
809.136	7324.76962
809.323	7580.52909
809.51	7491.87595
809.698	7551.66963
809.885	7182.30651
810.072	7568.16126
810.259	7353.66241
810.446	7477.44028
810.633	7458.87858
810.82	7625.87121
811.008	7603.20144
811.195	7518.68225
811.382	7594.95725
811.569	7930.635
811.756	7710.345
811.943	7953.2682
812.13	7821.54917
812.317	7720.64426
812.504	7761.83601
812.691	7949.15326
812.878	7792.72432
813.064	7691.80502
813.251	7496.00023
813.438	8019.09616
813.625	7790.66525
813.812	7807.13726
813.999	7792.72432
814.186	7881.24484
814.372	7295.87254
814.559	7823.60794
814.746	7485.68937
814.933	7619.6888
815.12	7469.19085
815.306	7572.28396
815.493	7601.14042
815.68	7693.8651
815.866	7491.87595
816.053	7675.3236
816.24	7833.90143
816.426	7957.38306
816.613	7846.25294
816.799	7763.89538
816.986	7574.34527
817.173	7737.12196
817.359	7485.68937
817.546	7733.00266
817.732	7586.71271
817.919	7737.12196
818.105	7733.00266
818.292	7741.24118
818.478	7844.19441
818.665	8023.20972
818.851	7572.28396
819.037	7337.15277
819.224	7425.87567
819.41	7551.66963
819.597	7403.18295
819.783	7469.19085
819.969	7211.22057
820.156	7345.40777
820.342	7233.93571
820.528	7411.43515
820.714	7357.7896
820.901	7559.91562
821.087	7427.93851
821.273	7564.03848
821.459	7316.51375
821.646	7322.70569
821.832	7444.44049
822.018	7394.9304
822.204	7107.93609
822.39	7524.8678
822.576	7140.99317
822.762	7551.66963
822.948	7107.93609
823.134	7330.9613
823.32	7238.06545
823.507	7471.25324
823.693	7227.74094
823.879	7116.20089
824.065	7110.00232
824.25	7066.6067
824.436	7002.52843
824.622	7225.67597
824.808	7147.19074
824.994	7246.32466
825.18	7163.71661
825.366	7126.5314
825.552	6814.30246
825.738	6915.67821
825.923	6952.90461
826.109	7037.6708
826.295	6849.47982
826.481	7155.45385
826.667	6907.40468
826.852	6834.99582
827.038	6915.67821
827.224	7132.72943
827.409	6766.69908
827.595	6977.71815
827.781	6669.38494
827.966	7126.5314
828.152	6905.33625
828.338	7014.93236
828.523	6708.7308
828.709	7019.06683
828.894	6849.47982
829.08	7174.04455
829.266	6781.18834
829.451	6948.76871
829.637	6646.60197
829.822	6928.08783
830.008	6534.71781
830.193	6727.36542
830.378	6509.84551
830.564	6820.51071
830.749	6451.79714
830.935	6621.74464
831.12	6567.87569
831.305	6601.02766
831.491	6435.20855
831.676	6785.32793
831.861	6410.32287
832.047	6563.73128
832.232	6159.20436
832.417	6497.4081
832.602	6179.97096
832.788	6404.10093
832.973	6489.11604
833.158	6453.87061
833.343	6480.8236
833.528	6576.16424
833.714	6165.43459
833.899	6337.72047
834.084	6030.39902
834.269	6632.10226
834.454	6119.74137
834.639	6231.87718
834.824	5789.16517
835.009	6111.43228
835.194	6260.93826
835.379	6379.21105
835.564	6057.41409
835.749	6219.42102
835.934	6148.82019
836.119	6325.27148
836.304	5988.82961
836.489	6182.04749
836.674	5868.22501
836.859	5847.42309
837.044	5911.90136
837.228	6121.81858
837.413	5809.97369
837.598	5970.12031
837.783	5961.80444
837.968	6165.43459
838.152	5857.82434
838.337	6383.3596
838.522	5990.90831
838.707	6198.65889
838.891	5988.82961
839.076	6215.26878
839.261	5995.06563
839.445	6150.89707
839.63	6123.89576
839.815	6379.21105
839.999	6076.11449
840.184	6078.1922
840.368	5820.37707
840.553	5872.38511
840.737	5547.61381
840.922	5655.93471
841.106	5524.69161
841.291	5597.616
841.475	5468.41594
841.66	5920.21948
841.844	5880.70503
842.029	5876.54511
842.213	5728.80709
842.397	6109.35496
842.582	5528.8595
842.766	5849.50339
842.951	5337.0394
843.135	5670.5115
843.319	5460.07735
843.504	5422.54902
843.688	5397.5259
843.872	5628.86046
844.056	5585.11672
844.241	5603.86531
844.425	5312.00474
844.609	5330.78105
844.793	5445.4839
844.977	5286.96671
845.161	5128.31439
845.346	5322.43626
845.53	5113.69491
845.714	5395.44048
845.898	5257.75141
846.082	5403.78199
846.266	5370.4137
846.45	5437.14427
846.634	5071.91871
846.818	5080.27469
847.002	5307.83197
847.186	5255.66443
847.37	5036.40165
847.554	5161.72607
847.738	4791.7803
847.922	4975.79831
848.106	4915.1756
848.29	4802.24061
848.473	5082.36363
848.657	4902.63056
848.841	4977.8884
849.025	4917.26636
849.209	4831.52644
849.392	5009.23704
849.576	4973.70819
849.76	5140.84447
849.944	4844.07615
850.127	5059.38404
850.311	4829.43475
850.495	4990.42848
850.678	4672.49278
850.862	4971.61806
851.046	4636.90163
851.229	4701.79827
851.413	4525.89952
851.596	4754.1185
851.78	4754.1185
851.964	4770.85798
852.147	4693.42572
852.331	4927.71982
852.514	4534.27922
852.698	4662.02547
852.881	4425.31564
853.065	4672.49278
853.248	4605.49229
853.431	4705.98441
853.615	4358.23169
853.798	4739.47026
853.982	4595.02139
854.165	4814.79223
854.348	4563.60536
854.532	4806.42457
854.715	4469.32733
854.898	4626.43241
855.081	4538.46893
855.265	4714.35641
855.448	4167.34105
855.631	4456.75355
855.814	4211.40841
855.997	4509.13907
856.181	4215.60482
856.364	4335.16644
856.547	4408.54674
856.73	4259.66193
856.913	4085.47703
857.096	4391.77645
857.279	4053.98243
857.462	4563.60536
857.645	4360.3284
857.828	4284.8332
858.011	4121.16526
858.194	4316.29293
858.377	4190.42512
858.56	4525.89952
858.743	4226.09546
858.926	4557.32155
859.109	4209.31018
859.292	4291.12553
859.475	4337.26339
859.658	4152.64985
859.841	3850.20618
860.023	4068.68049
860.206	3896.44015
860.389	4108.5701
860.572	4081.27802
860.755	4398.06547
860.937	4081.27802
861.12	3942.66441
861.303	3955.26933
861.486	3974.17533
861.668	3559.97774
861.851	3820.77955
862.034	3538.93267
862.216	3923.75566
862.399	3808.16695
862.581	3913.2501
862.764	3610.47834
862.947	3871.22282
863.129	3705.13771
863.312	3808.16695
863.494	3669.38203
863.677	3736.68223
863.859	3745.09337
864.042	3475.78646
864.224	3576.81247
864.406	3629.41329
864.589	3334.70163
864.771	3583.12518
864.954	3463.15525
865.136	3827.08558
865.318	3519.99053
865.501	3557.87332
865.683	3444.20723
865.865	3591.54188
866.048	3282.03797
866.23	3633.62084
866.412	3435.78542
866.594	3357.87024
866.777	3406.30684
866.959	3547.35092
867.141	3425.25776
867.323	3511.57133
867.505	3372.61279
867.687	3484.2069
867.869	3223.04207
868.052	3399.98955
868.234	3463.15525
868.416	3589.43773
868.598	3220.93484
868.78	3362.08248
868.962	3248.32764
869.144	3593.646
869.326	3225.1493
869.508	3319.95689
869.69	3164.03315
869.872	3378.93077
870.054	3134.52389
870.236	3399.98955
870.417	3121.87609
870.599	3458.94471
870.781	3109.22773
870.963	3284.14472
871.145	3117.66003
871.327	3366.29466
871.508	3138.73969
871.69	3334.70163
871.872	3191.43175
872.054	3166.14083
872.235	2961.62193
872.417	3210.39839
872.599	3071.2792
872.78	3334.70163
872.962	3235.68516
873.144	3433.67992
873.325	3161.92545
873.507	3142.95543
873.689	3117.66003
873.87	3303.10472
874.052	3265.18335
874.233	3431.57441
874.415	3138.73969
874.596	3431.57441
874.778	3067.06238
874.959	3448.41803
875.141	3227.2565
875.322	3223.04207
875.503	2991.14909
875.685	3195.64668
875.866	3020.67329
876.048	3176.679
876.229	2885.68162
876.41	3303.10472
876.592	2997.47595
876.773	3092.36234
876.954	2961.62193
877.136	3193.53922
877.317	3105.01148
877.498	3052.30303
877.679	2792.8405
877.86	2913.10669
878.042	2630.30568
878.223	3039.65155
878.404	2702.08382
878.585	3001.69379
878.766	2778.06784
878.947	3216.72031
879.128	2982.71306
879.309	3271.50396
879.49	3064.95395
879.672	3275.71761
879.853	3039.65155
880.034	3332.59529
880.215	2898.33965
880.396	3214.61302
880.576	2946.85725
880.757	2917.32572
880.938	2961.62193
881.119	3119.76807
881.3	2894.12037
881.481	3096.57878
881.662	2938.41996
881.843	3115.55198
882.023	2919.43521
882.204	3067.06238
882.385	2927.87302
882.566	3134.52389
882.747	2940.5293
882.927	3092.36234
883.108	2913.10669
883.289	3054.41155
883.469	3031.21692
883.65	3048.08593
883.831	2953.18506
884.011	3311.53094
884.192	3183.00171
884.373	3269.3971
884.553	2965.84027
884.734	3113.44391
884.914	3138.73969
885.095	3307.31787
885.275	2978.49495
885.456	3183.00171
885.636	3077.60431
885.817	3225.1493
885.997	3050.19449
886.178	3064.95395
886.358	3130.30802
886.538	3223.04207
886.719	3039.65155
886.899	3134.52389
887.08	3132.41596
887.26	3178.78658
887.44	2839.26445
887.621	3054.41155
887.801	2894.12037
887.981	3064.95395
888.161	2957.40352
888.342	3132.41596
888.522	3026.99951
888.702	3269.3971
888.882	3012.23811
889.062	3189.32426
889.242	3123.9841
889.423	3102.90333
889.603	3123.9841
889.783	3343.12682
889.963	2995.36701
890.143	3172.46378
890.323	3071.2792
890.503	3003.80268
890.683	2775.95741
890.863	2974.27678
891.043	2822.38379
891.223	3098.68698
891.403	2959.51273
891.583	3206.1837
891.763	2894.12037
891.943	3119.76807
892.122	2801.28171
892.302	3041.76017
892.482	2712.63818
892.662	3026.99951
892.842	2773.84696
893.022	2904.66847
893.201	2818.16348
893.381	2841.37447
893.561	2961.62193
893.741	3210.39839
893.92	2780.17826
894.1	2940.5293
894.28	2828.71414
894.459	2839.26445
894.639	2725.30298
894.819	2970.05856
894.998	2657.75199
895.178	2970.05856
895.357	2761.18399
895.537	2902.55888
895.716	2845.59447
895.896	2805.50224
896.075	2645.08473
896.255	2826.60404
896.434	2602.85728
896.614	2769.62603
896.793	2640.86221
896.973	2769.62603
897.152	2507.82796
897.331	2668.3077
897.511	2501.49184
897.69	2638.75093
897.87	2594.41121
898.049	2604.96877
898.228	2607.08025
898.407	2801.28171
898.587	2440.23747
898.766	2780.17826
898.945	2302.91101
899.124	2495.15561
899.304	2201.47463
899.483	2497.2677
899.662	2359.9595
899.841	2718.97063
900.02	2239.5157
900.199	2560.62498
900.378	2302.91101
900.557	2617.63745
900.737	2324.04091
900.916	2372.63596
901.095	2146.52157
901.274	2349.3955
901.453	2142.29418
901.632	2404.3255
901.811	1981.63154
901.989	2269.10121
902.168	1894.9426
902.347	2385.31205
902.526	2144.40788
902.705	2260.64839
902.884	2026.0292
903.063	2157.0899
903.242	2017.57273
903.42	2169.77162
903.599	1861.11025
903.778	2127.49808
903.957	1947.80287
904.135	2045.05587
904.314	1865.33937
904.493	2218.38212
904.672	1846.3082
904.85	2125.38432
905.029	1761.72078
905.207	1960.4888
905.386	1810.35939
905.565	1960.4888
905.743	1694.04637
905.922	1763.83554
906.1	1744.80251
906.279	1740.57291
906.457	1592.52924
906.636	1823.04736
906.814	1592.52924
906.993	1571.37923
907.171	1518.50359
907.35	1535.42387
907.528	1474.08762
907.707	1558.68914
907.885	1448.707
908.063	1596.75922
908.242	1431.78658
908.42	1491.00802
908.598	1378.91046
908.777	1541.76896
908.955	1374.68039
909.133	1313.34496
909.311	1290.08017
909.49	1385.25557
909.668	1218.17265
909.846	1366.22027
910.024	1103.97461
910.202	1275.27544
910.38	1317.57495
910.559	1448.707
910.737	1118.77737
910.915	1383.14053
911.093	1237.20668
911.271	1463.51236
911.449	1406.406
911.627	1552.34408
911.805	1364.10524
911.983	1402.1759
912.161	1258.35589
912.339	1588.29925
912.517	1230.86198
912.695	1622.13896
912.872	1268.93059
913.05	1600.9892
913.228	1355.64513
913.406	1404.29095
913.584	1313.34496
913.762	1524.8487
913.939	1385.25557
914.117	1304.88501
914.295	1190.6795
914.473	1359.87518
914.65	1220.28753
914.828	1302.77003
915.006	1137.80982
915.184	1457.16721
915.361	1142.0393
915.539	1290.08017
915.716	1125.12148
915.894	1296.42509
916.072	1266.81564
916.249	1355.64513
916.427	1273.16048
916.604	1482.54782
916.782	1347.18505
916.959	1404.29095
917.137	1323.91994
917.314	1349.30007
917.492	1103.97461
917.669	1315.45996
917.847	1129.35091
918.024	1148.38356
918.201	1146.2688
918.379	1245.66633
918.556	1177.99056
918.733	1205.48343
918.911	1173.76094
919.088	1330.26495
919.265	1118.77737
919.442	1277.39039
919.62	1021.50672
919.797	1044.76605
919.974	892.53765
920.151	1110.31863
920.328	909.45008
920.506	1175.87575
920.683	1023.62118
920.86	1167.41654
921.037	1000.36252
921.214	1146.2688
921.391	932.70549
921.568	1232.97688
921.745	1010.93454
921.922	1241.4365
922.099	890.42363
922.276	1112.43331
922.453	1002.47691
922.63	1106.08928
922.807	913.67827
922.984	924.24887
923.161	797.41526
923.338	932.70549
923.514	848.14499
923.691	793.18802
923.868	816.43829
924.045	854.48657
924.222	687.52034
924.399	812.21088
924.575	820.66573
924.752	894.65167
924.929	782.6201
925.105	903.10786
925.282	687.52034
925.459	700.19905
925.635	649.48669
925.812	801.64253
925.989	632.58408
926.165	822.77947
926.342	674.84204
926.518	704.42538
926.695	564.98169
926.871	714.99138
927.048	666.39007
927.224	875.62572
927.401	679.06809
927.577	763.59846
927.754	609.34428
927.93	734.01088
928.107	588.21852
928.283	791.07442
928.459	662.16415
928.636	797.41526
928.812	676.95506
928.988	657.93829
929.165	681.18114
929.341	704.42538
929.517	630.47131
929.693	666.39007
929.87	594.55612
930.046	714.99138
930.222	581.88105
930.398	535.4099
930.574	499.50499
930.751	641.03529
930.927	552.30774
931.103	662.16415
931.279	476.27464
931.455	562.86933
931.631	383.37188
931.807	480.4982
931.983	444.59982
932.159	453.0461
932.335	484.72183
932.511	482.61001
932.687	404.48342
932.863	469.9394
933.039	377.03874
933.215	431.93086
933.391	317.93686
933.566	429.81942
933.742	391.8163
933.918	431.93086
934.094	374.92772
934.27	400.26098
934.445	351.7077
934.621	404.48342
934.797	277.83996
934.973	366.48384
935.148	326.37915
935.324	343.26457
935.5	309.49486
935.675	307.38441
935.851	265.17916
936.027	313.71583
936.202	250.4091
936.378	225.09118
936.553	163.91802
936.729	151.26366
936.904	185.01029
937.08	208.21413
937.255	244.07936
937.431	166.02716
937.606	172.35468
937.782	180.79167
937.957	231.42039
938.133	191.33836
938.308	88.00344
938.483	182.90097
938.659	161.80891
938.834	147.04571
939.009	113.30518
939.185	96.437
939.36	75.35377
939.535	130.17476
939.71	132.28355
939.886	81.6785
940.061	81.6785
940.236	73.24557
940.411	66.92111
940.586	138.61006
940.761	90.11179
940.937	100.65391
941.112	106.97945
941.287	121.73979
941.462	56.38079
941.637	73.24557
941.812	62.70491
941.987	56.38079
942.162	54.2728
942.337	201.88557
942.512	79.57023
942.687	79.57023
942.862	111.19658
943.037	98.54544
943.212	18.44046
943.386	54.2728
943.561	54.2728
943.736	81.6785
943.911	20.54805
944.086	142.82785
944.26	134.39237
944.435	104.87091
944.61	75.35377
944.785	45.84105
944.959	20.54805
945.134	66.92111
945.309	100.65391
945.483	54.2728
945.658	83.78679
945.833	88.00344
946.007	182.90097
946.182	85.8951
946.357	73.24557
946.531	56.38079
946.706	121.73979
946.88	41.62532
947.055	100.65391
947.229	10.01031
947.404	111.19658
947.578	85.8951
947.752	62.70491
947.927	77.46199
948.101	24.76332
948.276	100.65391
948.45	90.11179
948.624	39.51749
948.799	113.30518
948.973	83.78679
949.147	81.6785
949.321	140.71894
949.496	96.437
949.67	90.11179
949.844	20.54805
950.018	117.52244
950.193	3.68794
950.367	83.78679
950.541	73.24557
950.715	52.16483
950.889	100.65391
951.063	113.30518
951.237	96.437
951.411	88.00344
951.585	104.87091
951.759	64.813
951.933	100.65391
952.107	41.62532
952.281	73.24557
952.455	123.8485
952.629	83.78679
952.803	90.11179
952.977	90.11179
953.151	66.92111
953.325	31.08639
953.499	22.65567
953.672	132.28355
953.846	62.70491
954.02	85.8951
954.194	77.46199
954.368	100.65391
954.541	189.22898
954.715	88.00344
954.889	12.11781
955.062	60.59685
955.236	56.38079
955.41	24.76332
955.583	77.46199
955.757	79.57023
955.93	79.57023
956.104	104.87091
956.278	123.8485
956.451	90.11179
956.625	92.22017
956.798	-38.45555
956.972	81.6785
957.145	109.088
957.319	56.38079
957.492	142.82785
957.665	20.54805
957.839	77.46199
958.012	58.48881
958.185	151.26366
958.359	109.088
958.532	77.46199
958.705	66.92111
958.879	81.6785
959.052	75.35377
959.225	75.35377
959.398	52.16483
959.572	64.813
959.745	41.62532
959.918	125.95723
960.091	88.00344
960.264	113.30518
960.438	66.92111
960.611	83.78679
960.784	90.11179
960.957	50.05688
961.13	45.84105
961.303	128.06598
961.476	109.088
961.649	83.78679
961.822	138.61006
961.995	64.813
962.168	136.50121
962.341	16.33288
962.514	147.04571
962.686	81.6785
962.859	33.19413
963.032	155.4817
963.205	28.97868
963.378	163.91802
963.551	92.22017
963.723	96.437
963.896	121.73979
964.069	24.76332
964.242	123.8485
964.414	45.84105
964.587	37.40968
964.76	54.2728
964.932	62.70491
965.105	56.38079
965.278	54.2728
965.45	69.02924
965.623	62.70491
965.795	140.71894
965.968	98.54544
966.14	-4.74153
966.313	96.437
966.485	64.813
966.658	96.437
966.83	113.30518
967.003	147.04571
967.175	62.70491
967.348	-17.38502
967.52	45.84105
967.692	113.30518
967.865	117.52244
968.037	64.813
968.209	88.00344
968.382	66.92111
968.554	47.94895
968.726	52.16483
968.898	50.05688
969.071	58.48881
969.243	37.40968
969.415	20.54805
969.587	79.57023
969.759	58.48881
969.932	69.02924
970.104	79.57023
970.276	106.97945
970.448	132.28355
970.62	22.65567
970.792	109.088
970.964	62.70491
971.136	104.87091
971.308	28.97868
971.48	22.65567
971.652	66.92111
971.824	28.97868
971.996	73.24557
972.168	39.51749
972.339	18.44046
972.511	66.92111
972.683	62.70491
972.855	56.38079
973.027	28.97868
973.199	123.8485
973.37	123.8485
973.542	64.813
973.714	138.61006
973.886	147.04571
974.057	56.38079
974.229	45.84105
974.401	47.94895
974.572	79.57023
974.744	54.2728
974.915	54.2728
975.087	64.813
975.259	138.61006
975.43	31.08639
975.602	16.33288
975.773	3.68794
975.945	62.70491
976.116	73.24557
976.288	123.8485
976.459	62.70491
976.63	14.22533
976.802	96.437
976.973	62.70491
977.145	47.94895
977.316	37.40968
977.487	5.79537
977.659	47.94895
977.83	-23.70644
978.001	71.13739
978.172	-13.17063
978.344	138.61006
978.515	39.51749
978.686	-23.70644
978.857	79.57023
979.028	75.35377
979.2	81.6785
979.371	56.38079
979.542	-40.56246
979.713	69.02924
979.884	113.30518
980.055	33.19413
980.226	26.87099
980.397	5.79537
980.568	81.6785
980.739	37.40968
980.91	-2.6342
981.081	43.73317
981.252	45.84105
981.423	45.84105
981.594	66.92111
981.765	-36.3486
981.936	43.73317
982.106	60.59685
982.277	58.48881
982.448	85.8951
982.619	39.51749
982.79	96.437
982.96	60.59685
983.131	31.08639
983.302	62.70491
983.472	66.92111
983.643	31.08639
983.814	60.59685
983.984	58.48881
984.155	28.97868
984.326	12.11781
984.496	62.70491
984.667	136.50121
984.837	3.68794
985.008	-17.38502
985.178	-23.70644
985.349	37.40968
985.519	41.62532
985.69	81.6785
985.86	-11.06339
986.031	104.87091
986.201	92.22017
986.371	18.44046
986.542	12.11781
986.712	52.16483
986.882	66.92111
987.053	37.40968
987.223	7.90283
987.393	60.59685
987.563	50.05688
987.734	45.84105
987.904	31.08639
988.074	104.87091
988.244	39.51749
988.414	69.02924
988.585	94.32857
988.755	22.65567
988.925	-13.17063
989.095	71.13739
989.265	52.16483
989.435	50.05688
989.605	10.01031
989.775	60.59685
989.945	7.90283
990.115	54.2728
990.285	83.78679
990.455	94.32857
990.625	-2.6342
990.795	73.24557
990.965	69.02924
991.134	-48.98987
991.304	-27.92059
991.474	71.13739
991.644	14.22533
991.814	45.84105
991.984	66.92111
992.153	-0.52684
992.323	54.2728
992.493	24.76332
992.662	37.40968
992.832	79.57023
993.002	88.00344
993.171	20.54805
993.341	-32.13465
993.511	117.52244
993.68	52.16483
993.85	28.97868
994.019	-57.41689
994.189	24.76332
994.358	88.00344
994.528	64.813
994.697	-30.02763
994.867	7.90283
995.036	104.87091
995.206	71.13739
995.375	3.68794
995.544	64.813
995.714	12.11781
995.883	142.82785
996.052	83.78679
996.222	18.44046
996.391	71.13739
996.56	71.13739
996.73	24.76332
996.899	39.51749
997.068	58.48881
997.237	37.40968
997.406	3.68794
997.576	37.40968
997.745	-2.6342
997.914	-8.95613
998.083	45.84105
998.252	18.44046
998.421	45.84105
998.59	-0.52684
998.759	106.97945
998.928	66.92111
999.097	88.00344
999.266	20.54805
999.435	1.58054
999.604	14.22533
999.773	41.62532
999.942	90.11179
1000.111	18.44046
1000.28	-17.38502
1000.448	39.51749
1000.617	113.30518
1000.786	-27.92059
1000.955	39.51749
1001.124	-21.59933
1001.292	28.97868
1001.461	35.30189
1001.63	28.97868
1001.798	-2.6342
1001.967	-42.66935
1002.136	75.35377
1002.304	3.68794
1002.473	47.94895
1002.642	-0.52684
1002.81	31.08639
1002.979	81.6785
1003.147	14.22533
1003.316	121.73979
1003.484	3.68794
1003.653	35.30189
1003.821	35.30189
1003.99	33.19413
1004.158	-21.59933
1004.327	-0.52684
1004.495	-15.27784
1004.663	24.76332
1004.832	3.68794
1005	81.6785
1005.168	56.38079
1005.337	33.19413
1005.505	37.40968
1005.673	3.68794
1005.842	43.73317
1006.01	14.22533
1006.178	-0.52684
1006.346	-44.77622
1006.514	37.40968
1006.683	26.87099
1006.851	22.65567
1007.019	47.94895
1007.187	-17.38502
1007.355	85.8951
1007.523	22.65567
1007.691	-8.95613
1007.859	14.22533
1008.027	41.62532
1008.195	3.68794
1008.363	79.57023
1008.531	64.813
1008.699	45.84105
1008.867	-65.84349
1009.035	12.11781
1009.203	-11.06339
1009.37	1.58054
1009.538	39.51749
1009.706	26.87099
1009.874	-0.52684
1010.042	22.65567
1010.209	37.40968
1010.377	66.92111
1010.545	-48.98987
1010.713	20.54805
1010.88	5.79537
1011.048	31.08639
1011.216	-11.06339
1011.383	16.33288
1011.551	-38.45555
1011.718	28.97868
1011.886	37.40968
1012.054	20.54805
1012.221	-13.17063
1012.389	35.30189
1012.556	41.62532
1012.724	-13.17063
1012.891	47.94895
1013.058	39.51749
1013.226	20.54805
1013.393	5.79537
1013.561	71.13739
1013.728	-8.95613
1013.895	-25.81353
1014.063	54.2728
1014.23	28.97868
1014.397	16.33288
1014.565	90.11179
1014.732	62.70491
1014.899	3.68794
1015.066	-2.6342
1015.233	56.38079
1015.401	5.79537
1015.568	37.40968
1015.735	-38.45555
1015.902	45.84105
1016.069	54.2728
1016.236	-15.27784
1016.403	24.76332
1016.57	31.08639
1016.737	22.65567
1016.904	41.62532
1017.071	28.97868
1017.238	28.97868
1017.405	47.94895
1017.572	-38.45555
1017.739	37.40968
1017.906	22.65567
1018.073	50.05688
1018.24	3.68794
1018.407	-34.24164
1018.573	5.79537
1018.74	60.59685
1018.907	-4.74153
1019.074	7.90283
1019.241	-19.49219
1019.407	47.94895
1019.574	31.08639
1019.741	3.68794
1019.907	73.24557
1020.074	47.94895
1020.241	-27.92059
1020.407	45.84105
1020.574	117.52244
1020.74	43.73317
1020.907	88.00344
1021.073	64.813
1021.24	-17.38502
1021.406	50.05688
1021.573	20.54805
1021.739	22.65567
1021.906	-25.81353
1022.072	54.2728
1022.239	20.54805
1022.405	31.08639
1022.571	-13.17063
1022.738	5.79537
1022.904	39.51749
1023.07	58.48881
1023.237	31.08639
1023.403	12.11781
1023.569	41.62532
1023.735	-4.74153
1023.902	10.01031
1024.068	3.68794
1024.234	37.40968
1024.4	45.84105
1024.566	45.84105
1024.732	-19.49219
1024.898	-19.49219
1025.065	18.44046
1025.231	45.84105
1025.397	71.13739
1025.563	18.44046
1025.729	88.00344
1025.895	-38.45555
1026.061	79.57023
1026.227	-30.02763
1026.392	26.87099
1026.558	73.24557
1026.724	83.78679
1026.89	14.22533
1027.056	-17.38502
1027.222	26.87099
1027.388	12.11781
1027.553	41.62532
1027.719	12.11781
1027.885	-27.92059
1028.051	-21.59933
1028.216	-11.06339
1028.382	50.05688
1028.548	28.97868
1028.713	16.33288
1028.879	64.813
1029.045	22.65567
1029.21	-30.02763
1029.376	62.70491
1029.541	64.813
1029.707	3.68794
1029.873	22.65567
1030.038	47.94895
1030.204	-13.17063
1030.369	-8.95613
1030.534	64.813
1030.7	66.92111
1030.865	-13.17063
1031.031	12.11781
1031.196	33.19413
1031.361	31.08639
1031.527	-13.17063
1031.692	16.33288
1031.857	-6.84884
1032.023	37.40968
1032.188	-36.3486
1032.353	14.22533
1032.518	54.2728
1032.684	-4.74153
1032.849	37.40968
1033.014	-25.81353
1033.179	-59.52357
1033.344	-6.84884
1033.509	26.87099
1033.674	-38.45555
1033.839	43.73317
1034.004	39.51749
1034.17	-30.02763
1034.335	20.54805
1034.5	47.94895
1034.664	3.68794
1034.829	-42.66935
1034.994	39.51749
1035.159	24.76332
1035.324	45.84105
1035.489	-8.95613
1035.654	16.33288
1035.819	-38.45555
1035.984	-57.41689
1036.148	54.2728
1036.313	-30.02763
1036.478	28.97868
1036.643	20.54805
1036.807	62.70491
1036.972	22.65567
1037.137	3.68794
1037.301	-17.38502
1037.466	119.63111
1037.631	45.84105
1037.795	3.68794
1037.96	-55.31017
1038.124	50.05688
1038.289	-46.88306
1038.454	10.01031
1038.618	-0.52684
1038.783	35.30189
1038.947	3.68794
1039.111	45.84105
1039.276	-19.49219
1039.44	16.33288
1039.605	54.2728
1039.769	77.46199
1039.933	-27.92059
1040.098	69.02924
1040.262	50.05688
1040.426	60.59685
1040.591	12.11781
1040.755	-8.95613
1040.919	33.19413
1041.083	-13.17063
1041.248	20.54805
1041.412	-8.95613
1041.576	60.59685
1041.74	-21.59933
1041.904	-0.52684
1042.068	79.57023
1042.232	-6.84884
1042.397	88.00344
1042.561	50.05688
1042.725	-11.06339
1042.889	-42.66935
1043.053	26.87099
1043.217	-8.95613
1043.381	3.68794
1043.544	54.2728
1043.708	-30.02763
1043.872	28.97868
1044.036	-13.17063
1044.2	39.51749
1044.364	-2.6342
1044.528	20.54805
1044.691	60.59685
1044.855	-13.17063
1045.019	28.97868
1045.183	7.90283
1045.346	45.84105
1045.51	-51.09666
1045.674	-63.73688
1045.837	-61.63024
1046.001	47.94895
1046.165	37.40968
1046.328	-11.06339
1046.492	45.84105
1046.655	24.76332
1046.819	96.437
1046.983	-80.58907
1047.146	66.92111
1047.31	5.79537
1047.473	79.57023
1047.636	-36.3486
1047.8	-27.92059
1047.963	-46.88306
1048.127	-13.17063
1048.29	56.38079
