Data from absorb_only_2.23.25_USB4F045381__18__0123.txt Node

Date: Sun Feb 23 19:15:19 EST 2025
User: ssocol
Spectrometer: USB4F04538
Trigger mode: 4
Integration Time (sec): 2.600000E-3
Scans to average: 1
Electric dark correction enabled: true
Nonlinearity correction enabled: true
Boxcar width: 0
XAxis mode: Wavelengths
Number of Pixels in Spectrum: 3648
>>>>>Begin Spectral Data<<<<<
345.52	-33.01256
345.736	-33.01256
345.952	-33.01256
346.168	-3.51226
346.384	51.28651
346.6	0.70246
346.816	-5.61958
347.032	72.36716
347.248	-11.94141
347.464	21.7775
347.68	-20.37016
347.896	-39.33343
348.112	17.5623
348.328	-79.36032
348.544	-28.79853
348.76	34.42366
348.975	38.63923
349.191	2.80986
349.407	38.63923
349.623	93.45007
349.839	15.45473
350.055	78.6918
350.27	4.91728
350.486	25.99279
350.702	7.02472
350.918	53.39447
351.133	-14.04863
351.349	-41.44034
351.565	110.318
351.781	-70.93437
351.996	23.88513
352.212	23.88513
352.428	-18.26301
352.644	19.66988
352.859	25.99279
353.075	23.88513
353.291	-18.26301
353.506	-7.72688
353.722	-24.5844
353.938	-1.40491
354.153	-11.94141
354.369	78.6918
354.584	4.91728
354.8	55.50246
355.016	-7.72688
355.231	-41.44034
355.447	53.39447
355.662	32.3159
355.878	0.70246
356.093	21.7775
356.309	-11.94141
356.524	-77.25387
356.74	-37.2265
356.955	13.34719
357.171	7.02472
357.386	116.64384
357.602	-41.44034
357.817	19.66988
358.033	49.17857
358.248	-16.15583
358.464	-20.37016
358.679	15.45473
358.895	66.04272
359.11	4.91728
359.325	66.04272
359.541	42.8549
359.756	-16.15583
359.972	34.42366
360.187	59.7185
360.402	57.61047
360.618	-14.04863
360.833	-54.08124
361.048	-11.94141
361.264	91.34168
361.479	-43.54722
361.694	36.53143
361.909	66.04272
362.125	2.80986
362.34	-24.5844
362.555	57.61047
362.77	17.5623
362.986	66.04272
363.201	34.42366
363.416	9.13219
363.631	15.45473
363.847	-3.51226
364.062	51.28651
364.277	-1.40491
364.492	55.50246
364.707	-37.2265
364.922	-1.40491
365.138	13.34719
365.353	4.91728
365.568	61.82655
365.783	-18.26301
365.998	-30.90556
366.213	47.07066
366.428	-20.37016
366.643	9.13219
366.858	-28.79853
367.073	63.93463
367.288	38.63923
367.503	74.47535
367.718	13.34719
367.933	-7.72688
368.148	0.70246
368.363	-20.37016
368.578	17.5623
368.793	25.99279
369.008	-18.26301
369.223	7.02472
369.438	55.50246
369.653	-35.11954
369.868	47.07066
370.083	51.28651
370.298	-3.51226
370.513	-70.93437
370.728	-1.40491
370.943	47.07066
371.157	-9.83416
371.372	-39.33343
371.587	28.10047
371.802	74.47535
372.017	-11.94141
372.232	-43.54722
372.446	42.8549
372.661	74.47535
372.876	93.45007
373.091	-9.83416
373.306	95.55848
373.52	7.02472
373.735	-3.51226
373.95	-62.50801
374.165	44.96277
374.379	66.04272
374.594	53.39447
374.809	40.74705
375.023	11.23968
375.238	-33.01256
375.453	11.23968
375.667	13.34719
375.882	25.99279
376.097	47.07066
376.311	47.07066
376.526	4.91728
376.741	-3.51226
376.955	-3.51226
377.17	-37.2265
377.384	2.80986
377.599	7.02472
377.813	44.96277
378.028	34.42366
378.242	23.88513
378.457	-56.18797
378.672	-9.83416
378.886	59.7185
379.101	30.20817
379.315	25.99279
379.53	89.23331
379.744	40.74705
379.958	106.10089
380.173	36.53143
380.387	-37.2265
380.602	21.7775
380.816	40.74705
381.031	11.23968
381.245	-37.2265
381.459	25.99279
381.674	30.20817
381.888	80.80005
382.103	17.5623
382.317	-33.01256
382.531	13.34719
382.746	44.96277
382.96	106.10089
383.174	25.99279
383.388	129.2961
383.603	-56.18797
383.817	47.07066
384.031	7.02472
384.246	57.61047
384.46	-45.65407
384.674	-7.72688
384.888	-9.83416
385.103	59.7185
385.317	-14.04863
385.531	38.63923
385.745	-14.04863
385.959	72.36716
386.174	-47.7609
386.388	38.63923
386.602	30.20817
386.816	82.90833
387.03	61.82655
387.244	51.28651
387.458	-20.37016
387.672	103.99236
387.887	-3.51226
388.101	23.88513
388.315	106.10089
388.529	23.88513
388.743	-7.72688
388.957	-28.79853
389.171	78.6918
389.385	30.20817
389.599	25.99279
389.813	-1.40491
390.027	11.23968
390.241	-11.94141
390.455	40.74705
390.669	-3.51226
390.883	4.91728
391.097	38.63923
391.311	15.45473
391.525	72.36716
391.738	40.74705
391.952	40.74705
392.166	40.74705
392.38	40.74705
392.594	9.13219
392.808	112.42659
393.022	38.63923
393.236	-30.90556
393.449	66.04272
393.663	17.5623
393.877	34.42366
394.091	-7.72688
394.305	13.34719
394.518	-41.44034
394.732	72.36716
394.946	30.20817
395.16	-20.37016
395.373	40.74705
395.587	-14.04863
395.801	-16.15583
396.015	32.3159
396.228	28.10047
396.442	55.50246
396.656	-7.72688
396.869	32.3159
397.083	47.07066
397.297	7.02472
397.51	-28.79853
397.724	13.34719
397.938	32.3159
398.151	-14.04863
398.365	51.28651
398.578	49.17857
398.792	11.23968
399.005	21.7775
399.219	40.74705
399.433	15.45473
399.646	30.20817
399.86	13.34719
400.073	28.10047
400.287	30.20817
400.5	-18.26301
400.714	66.04272
400.927	30.20817
401.141	25.99279
401.354	91.34168
401.567	-26.69148
401.781	-24.5844
401.994	-9.83416
402.208	25.99279
402.421	-14.04863
402.635	72.36716
402.848	34.42366
403.061	13.34719
403.275	-49.86771
403.488	-37.2265
403.701	-37.2265
403.915	32.3159
404.128	-5.61958
404.341	89.23331
404.555	13.34719
404.768	30.20817
404.981	51.28651
405.195	-3.51226
405.408	53.39447
405.621	42.8549
405.834	34.42366
406.048	0.70246
406.261	57.61047
406.474	66.04272
406.687	32.3159
406.9	55.50246
407.114	11.23968
407.327	19.66988
407.54	2.80986
407.753	-43.54722
407.966	34.42366
408.179	15.45473
408.392	21.7775
408.605	25.99279
408.819	4.91728
409.032	72.36716
409.245	-5.61958
409.458	61.82655
409.671	17.5623
409.884	19.66988
410.097	-18.26301
410.31	17.5623
410.523	70.25899
410.736	40.74705
410.949	21.7775
411.162	80.80005
411.375	40.74705
411.588	25.99279
411.801	-37.2265
412.014	76.58356
412.227	139.84024
412.44	55.50246
412.653	49.17857
412.865	63.93463
413.078	-3.51226
413.291	4.91728
413.504	36.53143
413.717	47.07066
413.93	80.80005
414.143	28.10047
414.356	0.70246
414.568	7.02472
414.781	42.8549
414.994	36.53143
415.207	87.12496
415.42	80.80005
415.632	63.93463
415.845	125.07859
416.058	101.88386
416.271	-51.97449
416.483	82.90833
416.696	66.04272
416.909	15.45473
417.121	89.23331
417.334	-22.47729
417.547	34.42366
417.759	47.07066
417.972	87.12496
418.185	63.93463
418.397	47.07066
418.61	17.5623
418.823	55.50246
419.035	-30.90556
419.248	110.318
419.46	137.73137
419.673	82.90833
419.885	4.91728
420.098	21.7775
420.311	63.93463
420.523	68.15085
420.736	11.23968
420.948	42.8549
421.161	42.8549
421.373	68.15085
421.586	25.99279
421.798	78.6918
422.01	30.20817
422.223	108.20943
422.435	78.6918
422.648	80.80005
422.86	51.28651
423.073	13.34719
423.285	80.80005
423.497	76.58356
423.71	72.36716
423.922	82.90833
424.134	55.50246
424.347	40.74705
424.559	120.86117
424.771	93.45007
424.984	122.96987
425.196	44.96277
425.408	165.14835
425.621	85.01664
425.833	87.12496
426.045	78.6918
426.257	72.36716
426.47	47.07066
426.682	55.50246
426.894	55.50246
427.106	63.93463
427.318	72.36716
427.531	99.77538
427.743	146.16698
427.955	114.5352
428.167	47.07066
428.379	144.05805
428.591	137.73137
428.804	4.91728
429.016	99.77538
429.228	74.47535
429.44	34.42366
429.652	57.61047
429.864	72.36716
430.076	51.28651
430.288	47.07066
430.5	-5.61958
430.712	9.13219
430.924	137.73137
431.136	85.01664
431.348	154.60294
431.56	68.15085
431.772	133.51369
431.984	70.25899
432.196	99.77538
432.408	78.6918
432.62	165.14835
432.832	106.10089
433.044	80.80005
433.256	148.27594
433.468	99.77538
433.679	110.318
433.891	82.90833
434.103	114.5352
434.315	89.23331
434.527	198.89714
434.739	91.34168
434.95	118.75249
435.162	80.80005
435.374	34.42366
435.586	165.14835
435.798	154.60294
436.009	122.96987
436.221	70.25899
436.433	116.64384
436.645	158.82104
436.856	101.88386
437.068	215.77348
437.28	80.80005
437.491	139.84024
437.703	97.66692
437.915	154.60294
438.126	150.38492
438.338	89.23331
438.55	167.25749
438.761	175.69428
438.973	179.9128
439.184	158.82104
439.396	224.21213
439.608	97.66692
439.819	257.96985
440.031	114.5352
440.242	156.71198
440.454	139.84024
440.665	133.51369
440.877	156.71198
441.088	224.21213
441.3	260.07987
441.511	163.03922
441.723	236.87069
441.934	114.5352
442.146	167.25749
442.357	243.20024
442.569	251.6399
442.78	146.16698
442.991	207.33515
443.203	209.44471
443.414	232.6511
443.626	175.69428
443.837	198.89714
444.048	215.77348
444.26	198.89714
444.471	298.06345
444.682	196.78769
444.894	186.24073
445.105	198.89714
445.316	184.1314
445.528	198.89714
445.739	243.20024
445.95	211.55428
446.161	171.47585
446.373	251.6399
446.584	165.14835
446.795	169.36666
447.006	215.77348
447.217	173.58505
447.429	182.02209
447.64	257.96985
447.851	266.41005
448.062	291.73244
448.273	236.87069
448.484	253.74986
448.695	331.83161
448.907	139.84024
449.118	241.09037
449.329	241.09037
449.54	295.95309
449.751	279.07091
449.962	276.96072
450.173	211.55428
450.384	262.18991
450.595	249.52996
450.806	219.99277
451.017	228.43158
451.228	310.72597
451.439	317.05747
451.65	308.61551
451.861	249.52996
452.072	321.27857
452.283	300.17382
452.494	378.27017
452.705	325.49973
452.915	268.52014
453.126	371.93715
453.337	327.61034
453.548	395.15895
453.759	390.93666
453.97	412.04879
454.181	418.38275
454.391	416.27141
454.602	380.38121
454.813	336.05295
455.024	361.38246
455.235	359.27157
455.445	401.49252
455.656	454.27787
455.867	485.95373
456.078	367.71522
456.288	481.73009
456.499	412.04879
456.71	498.62502
456.921	367.71522
457.131	591.56335
457.342	496.5131
457.553	511.29683
457.763	447.94311
457.974	619.02735
458.184	443.72001
458.395	593.67589
458.606	519.745
458.816	553.53991
459.027	621.14005
459.237	646.49347
459.448	545.09085
459.659	659.17083
459.869	638.04213
460.08	692.97918
460.29	692.97918
460.501	811.33018
460.711	764.83132
460.922	800.76185
461.132	798.64821
461.343	597.901
461.553	705.65806
461.764	766.94481
461.974	739.47034
462.184	790.19376
462.395	764.83132
462.605	900.11294
462.816	872.63096
463.026	807.10282
463.236	874.74491
463.447	908.56921
463.657	1001.59591
463.867	999.48152
464.078	1003.71031
464.288	1069.25957
464.498	1113.66687
464.709	1071.37415
464.919	1031.19802
465.129	1039.65598
465.339	1115.78156
465.55	1071.37415
465.76	1115.78156
465.97	1120.01095
466.18	1143.2729
466.391	1314.57871
466.601	1189.79832
466.811	1403.40968
467.021	1227.86588
467.231	1513.39224
467.441	1246.90003
467.651	1669.90133
467.862	1380.14423
468.072	1669.90133
468.282	1640.29233
468.492	1509.16216
468.702	1644.52221
468.912	1864.45831
469.122	1750.26573
469.332	1805.24892
469.542	1809.47828
469.752	1902.51945
469.962	1965.95074
470.172	1946.9219
470.382	2061.08717
470.592	2071.65703
470.802	2113.93465
471.012	2321.04757
471.222	2162.55012
471.432	2295.69141
471.642	2251.31489
471.852	2456.25603
472.062	2456.25603
472.272	2525.95575
472.482	2737.08785
472.691	2663.20581
472.901	2612.53484
473.111	2705.42607
473.321	2720.20193
473.531	2857.375
473.741	2739.19853
473.95	3066.18387
474.16	2743.41985
474.37	3190.55363
474.58	3239.02143
474.79	3201.09086
474.999	3291.69377
475.209	3308.54669
475.419	3367.5232
475.628	3426.48601
475.838	3397.00633
476.048	3622.2252
476.258	3554.89202
476.467	3908.17223
476.677	3948.09161
476.886	4141.28096
477.096	4067.80563
477.306	4009.00707
477.515	3851.43221
477.725	4204.23936
477.935	4210.53415
478.144	4367.84143
478.354	4231.51542
478.563	4426.53832
478.773	4460.0717
478.982	4652.77887
479.192	4615.09012
479.401	4782.53989
479.611	4545.97528
479.82	4924.75806
480.03	4878.75786
480.239	4954.02514
480.449	5014.63544
480.658	5402.9131
480.868	5329.91182
481.077	5386.22963
481.287	5244.35953
481.496	5548.82931
481.705	5513.40312
481.915	5565.4981
482.124	5667.56153
482.333	5800.78355
482.543	5634.24092
482.752	5987.96349
482.961	6073.17104
483.171	6056.54828
483.38	5958.85915
483.589	6262.14904
483.799	6347.22956
484.008	6515.20024
484.217	6316.1071
484.426	6448.85969
484.636	6426.04963
484.845	6654.024
485.054	6506.90897
485.263	6801.02302
485.472	6676.80607
485.682	6949.97502
485.891	6819.64847
486.1	6904.47439
486.309	6945.83905
486.518	7131.86861
486.727	7102.94259
486.936	7255.78791
487.146	7453.89412
487.355	7437.39294
487.564	7325.97357
487.773	7474.51865
487.982	7641.49811
488.191	7783.62992
488.4	7480.70558
488.609	7697.12686
488.818	7833.04366
489.027	7942.12337
489.236	8065.54034
489.445	8026.46623
489.654	8007.95488
489.863	8498.98702
490.072	8262.85673
490.281	8388.14031
490.49	8242.31148
490.698	8375.82055
490.907	8470.25435
491.116	8784.0617
491.325	8566.6993
491.534	8753.31545
491.743	8751.26556
491.952	8839.39463
492.16	8730.76559
492.369	9068.78482
492.578	8990.98082
492.787	9048.31252
492.996	9273.41344
493.204	9171.12041
493.413	9195.67459
493.622	9277.50428
493.831	9195.67459
494.039	9608.64573
494.248	9475.8312
494.457	9592.30293
494.665	9588.21708
494.874	9629.07283
495.083	9743.43595
495.291	9753.64461
495.5	9829.17694
495.709	10074.00771
495.917	9980.1806
496.126	9786.30977
496.335	9776.10232
496.543	10053.61308
496.752	10039.33599
496.96	10269.72524
497.169	10314.55944
497.377	10212.65407
497.586	10302.33258
497.794	10583.43149
498.003	10324.74813
498.211	10656.72188
498.42	10436.80192
498.628	10876.49924
498.837	10852.08631
499.045	10990.40449
499.254	10601.75559
499.462	10953.79595
499.671	10789.01184
499.879	10941.5923
500.087	10963.96535
500.296	10927.35419
500.504	11027.00942
500.713	11457.87582
500.921	11199.81843
501.129	11144.93454
501.338	11016.84174
501.546	11449.75046
501.754	11205.91616
501.962	11445.68773
502.171	11610.19807
502.379	11729.98859
502.587	11400.99509
502.795	11701.56653
503.004	11510.68686
503.212	11620.35103
503.42	11575.6763
503.628	11971.50834
503.837	11476.15729
504.045	12052.66539
504.253	11947.15874
504.461	11904.54412
504.669	11898.45602
504.877	11790.88722
505.085	12034.40616
505.294	12103.3822
505.502	12204.80161
505.71	12257.53242
505.918	11794.94685
506.126	12545.4411
506.334	12095.26784
506.542	12440.02543
506.75	12261.58844
506.958	12302.14702
507.166	12385.28336
507.374	12646.78621
507.582	12561.65736
507.79	12539.3599
507.998	12565.71136
508.206	12671.10677
508.414	12778.51244
508.622	12727.85142
508.83	12652.86643
509.037	13410.49343
509.245	12723.79838
509.453	13092.53547
509.661	13074.30521
509.869	13216.0861
510.077	12883.87618
510.285	13396.31918
510.492	13351.77025
510.7	13509.70792
510.908	13189.75707
511.116	13369.99505
511.324	13181.65567
511.531	13487.43607
511.739	13305.19426
511.947	13418.59292
512.155	13262.66641
512.362	13307.21935
512.57	13187.73172
512.778	13242.41439
512.985	13459.08942
513.193	13509.70792
513.401	13653.45219
513.608	13436.81654
513.816	13588.66821
514.024	13985.4204
514.231	13898.38733
514.439	13847.78444
514.646	13932.79633
514.854	13772.88888
515.061	13149.24936
515.269	13912.55584
515.477	13746.57326
515.684	14076.49657
515.892	14133.16383
516.099	14058.28172
516.307	14044.11449
516.514	14412.4297
516.722	14218.16157
516.929	14331.48658
517.136	14058.28172
517.344	14313.27402
517.551	14386.12347
517.759	14371.95847
517.966	14509.55824
518.173	14485.27641
518.381	14885.907
518.588	14746.29733
518.796	14693.68985
519.003	14562.16824
519.21	14768.55417
519.418	14756.41409
519.625	14734.15719
519.832	14940.53611
520.039	14865.67391
520.247	15144.88729
520.454	14950.65257
520.661	15134.77093
520.868	15130.72439
521.076	15462.54274
521.283	15084.18913
521.49	15262.23705
521.697	15072.04949
521.904	15294.60947
522.112	15235.93449
522.319	15515.14901
522.526	15082.16586
522.733	15488.84582
522.94	15480.75256
523.147	15606.19935
523.354	15383.634
523.561	15719.50869
523.768	15644.64329
523.975	15691.1811
524.183	15513.12568
524.39	15871.26713
524.597	15780.21134
524.804	16063.50441
525.011	15954.2312
525.218	16065.52803
525.425	16039.22111
525.632	15966.37247
525.838	16025.05595
526.045	16170.75829
526.252	15974.46667
526.459	16041.24471
526.666	16249.6839
526.873	16296.23102
527.08	16358.96998
527.287	16622.08979
527.494	16134.33194
527.701	16585.65567
527.907	16567.43888
528.114	16838.68593
528.321	16682.81495
528.528	16939.90875
528.735	16933.8352
528.941	16626.13807
529.148	16690.9118
529.355	16818.44213
529.562	16727.34806
529.768	17116.05223
529.975	16431.83044
530.182	16998.62097
530.388	16662.573
530.595	17091.75535
530.802	16921.68817
531.008	17403.59702
531.215	17373.21973
531.422	17223.36836
531.628	17288.16695
531.835	17132.25038
532.042	17391.44602
532.248	17510.93572
532.455	17354.99368
532.661	17452.20213
532.868	17517.01176
533.074	17604.10484
533.281	17306.3921
533.487	17612.20682
533.694	17743.87148
533.9	18021.42718
534.107	17668.92219
534.313	17962.66905
534.52	18128.8205
534.726	17916.06988
534.933	18013.32243
535.139	18248.38357
535.345	18045.74176
535.552	18447.0085
535.758	18246.35697
535.965	18513.9006
536.171	18252.43678
536.377	18465.25138
536.584	18278.78301
536.79	18169.34892
536.996	18568.63361
537.203	18576.74245
537.409	18315.26344
537.615	18363.90591
537.821	18862.61893
538.028	19026.88162
538.234	18785.56648
538.44	18826.11968
538.646	18653.77948
538.853	19081.64174
539.059	18769.34564
539.265	18959.9566
539.471	18661.88897
539.677	18489.57571
539.883	18503.76516
540.09	18688.24524
540.296	19128.29159
540.502	19219.56928
540.708	19229.71176
540.914	19416.35174
541.12	19179.0004
541.326	19383.8901
541.532	19463.0172
541.738	19600.99754
541.944	19337.22835
542.15	19605.05608
542.356	19842.50964
542.562	19808.00428
542.768	19426.49622
542.974	19475.19117
543.18	19199.28463
543.386	19970.39305
543.592	20017.0848
543.798	19941.97307
544.004	20023.17519
544.21	20039.41642
544.415	20025.20533
544.621	20457.7208
544.827	19939.9431
545.033	20291.18993
545.239	20404.91528
545.445	20459.75184
545.651	20287.12856
545.856	20264.79129
546.062	20388.66799
546.268	20214.02666
546.474	20189.66058
546.679	19952.12297
546.885	19948.063
547.091	19864.83729
547.297	20004.90413
547.502	20392.72979
547.708	20530.84082
547.914	20492.24902
548.119	20388.66799
548.325	20465.84498
548.531	20171.38641
548.736	20740.07519
548.942	20703.50677
549.147	20266.82193
549.353	20823.37493
549.559	21148.51336
549.764	20660.84532
549.97	20900.58578
550.175	20931.06538
550.381	21166.8055
550.586	20518.65377
550.792	20998.12377
550.997	20985.93101
551.203	21183.06547
551.408	20992.02737
551.614	21420.89697
551.819	21368.04077
552.025	21624.21511
552.23	21382.27102
552.435	21589.64824
552.641	21953.67358
552.846	21544.91633
553.052	21451.39216
553.257	21551.01602
553.462	21453.4252
553.668	21776.72954
553.873	21626.24849
554.078	21825.53878
554.283	21801.13388
554.489	21925.19786
554.694	21736.05688
554.899	21717.75469
555.105	22130.64645
555.31	22057.41283
555.515	21799.10017
555.72	22301.54369
555.925	21941.46961
556.131	22279.16281
556.336	21780.79689
556.541	22586.42971
556.746	22370.72378
556.951	22401.24574
557.156	22222.1953
557.361	22252.71325
557.567	22476.53674
557.772	22321.89034
557.977	22273.05901
558.182	22022.83199
558.387	22441.94296
558.592	22332.0638
558.797	22085.892
559.002	22450.08258
559.207	22350.37625
559.412	22315.78631
559.617	22283.23203
559.822	22916.17001
560.027	22631.20389
560.232	22765.53662
560.437	22834.74423
560.642	23168.62409
560.847	22887.67037
561.051	23307.08806
561.256	23042.39066
561.461	23134.01044
561.666	22810.31756
561.871	23107.54182
562.076	22912.09859
562.281	22802.17545
562.485	22655.62689
562.69	22706.50976
562.895	22610.85178
563.1	23107.54182
563.305	23085.14573
563.509	23193.05782
563.714	23146.22692
563.919	23015.92398
564.123	23066.82195
564.328	23386.5079
564.533	23252.10794
564.737	23024.06751
564.942	23620.72224
565.147	23620.72224
565.351	23608.50135
565.556	23449.63991
565.761	23533.14167
565.965	23714.41927
566.17	23561.65565
566.374	23415.01875
566.579	23494.44508
566.784	23492.40845
566.988	23524.99493
567.193	23606.46455
567.397	23492.40845
567.602	23779.60353
567.806	23465.93252
568.011	23533.14167
568.215	24115.75689
568.42	23708.3084
568.624	23789.78884
568.828	23928.31634
569.033	23657.38553
569.237	23940.54
569.442	24244.12645
569.646	23755.15908
569.85	24072.96946
570.055	24423.45412
570.259	23753.12206
570.463	24093.34428
570.668	23887.57157
570.872	24052.59493
571.076	24026.10845
571.281	24425.49205
571.485	24250.23956
571.689	24286.91869
571.893	24164.65831
572.098	24268.57901
572.302	24509.04946
572.506	24107.60681
572.71	24264.50356
572.914	24586.49673
573.119	24574.26797
573.323	24191.14723
573.527	24299.14526
573.731	24841.28269
573.935	24663.94762
574.139	24541.65839
574.343	24087.2318
574.547	24731.21049
574.751	24604.84003
574.955	24596.68743
575.159	24612.99268
575.364	25000.28804
575.568	24886.12892
575.772	25138.91944
575.976	25061.44767
576.18	24411.22659
576.383	24753.63204
576.587	25069.60244
576.791	24794.39923
576.995	25132.80313
577.199	24737.32543
577.403	24906.51394
577.607	25291.83359
577.811	25206.20016
578.015	24833.12896
578.219	25244.93862
578.422	25306.1062
578.626	25414.17358
578.83	25175.61772
579.034	25230.66647
579.238	24996.2108
579.442	25530.40349
579.645	25222.511
579.849	25479.42464
580.053	25336.69071
580.257	25636.44351
580.46	25271.44433
580.664	25815.90788
580.868	25695.58353
581.071	25671.1116
581.275	25565.06982
581.479	25740.44946
581.682	25924.00144
581.886	25463.11168
582.09	25573.22669
582.293	26048.41735
582.497	26154.48204
582.7	26156.52179
582.904	26042.29838
583.107	26081.05214
583.311	25977.03035
583.515	25807.75009
583.718	25699.66221
583.922	25930.1201
584.125	26081.05214
584.329	25995.3868
584.532	26032.10013
584.735	26344.18619
584.939	26146.32305
585.142	26578.78618
585.346	26115.72709
585.549	26570.62583
585.753	26185.07849
585.956	26217.71513
586.159	26552.26513
586.363	26295.22889
586.566	26519.62421
586.769	26384.98467
586.973	26115.72709
587.176	26454.34356
587.379	26735.8777
587.582	26103.48881
587.786	26066.77436
587.989	26317.66754
588.192	26468.62356
588.395	26719.55609
588.599	27125.58365
588.802	27143.94801
589.005	26919.50232
589.208	27105.17893
589.411	26862.3734
589.615	26992.95543
589.818	27205.16334
590.021	27076.61255
590.224	27186.79862
590.427	27421.46696
590.63	27360.24748
590.833	27382.69449
591.036	27197.00123
591.239	27466.36197
591.442	27031.72307
591.645	27772.48017
591.848	27568.39833
592.051	27631.66241
592.254	26958.26901
592.457	27280.66389
592.66	27311.27273
592.863	27552.0723
593.066	27262.29873
593.269	27535.74636
593.472	27660.23367
593.675	28223.54223
593.878	27788.80723
594.081	27809.21617
594.284	27392.89773
594.486	28121.48718
594.689	28076.58384
594.892	27905.13971
595.095	27562.27606
595.298	27378.61321
595.5	27392.89773
595.703	28237.83016
595.906	27582.68366
596.109	28043.9272
596.311	27943.91804
596.514	27674.51939
596.717	28003.10681
596.92	28495.0219
597.122	27994.94278
597.325	27776.56193
597.528	27819.42068
597.73	28452.15543
597.933	28464.40294
598.136	28664.4511
598.338	28568.50837
598.541	28933.91962
598.743	28639.95486
598.946	28397.04208
599.148	28264.36502
599.351	28605.25212
599.554	28880.84105
599.756	28554.21923
599.959	28833.88752
600.161	28588.92152
600.363	28256.20043
600.566	28427.66051
600.768	28539.93014
600.971	28686.90611
601.173	28611.37611
601.376	28388.87721
601.578	28580.75625
601.78	28876.75811
601.983	28980.87432
602.185	28846.13621
602.388	28611.37611
602.59	28411.33065
602.792	28831.84608
602.995	28662.40974
603.197	28639.95486
603.399	28921.67066
603.601	28541.97143
603.804	28613.41744
604.006	28527.68239
604.208	28650.16161
604.41	29005.37264
604.613	28584.83888
604.815	28889.00694
605.017	29054.36974
605.219	28368.4651
605.421	28495.0219
605.623	28356.21789
605.826	29044.16196
606.028	29033.95421
606.23	29044.16196
606.432	29199.32297
606.634	29391.24097
606.836	29156.44893
607.038	29127.8665
607.24	29127.8665
607.442	29346.32316
607.644	29393.2827
607.846	29575.00096
608.048	29550.49913
608.25	29564.79184
608.452	29154.40733
608.654	28952.29313
608.856	28837.97041
609.058	29207.48951
609.26	29054.36974
609.462	29311.6143
609.664	29215.65606
609.866	28991.08194
610.067	29133.99129
610.269	28870.63372
610.471	28546.05403
610.673	29662.80044
610.875	29025.78803
611.077	29276.90573
611.278	28750.18911
611.48	29052.32818
611.682	29021.70494
611.884	29595.41926
612.085	29227.90592
612.287	29499.45415
612.489	29391.24097
612.69	29319.78106
612.892	29476.99456
613.094	29234.03086
613.295	29015.58032
613.497	29095.2011
613.699	29254.44741
613.9	29603.58662
614.102	29299.36418
614.304	28905.33876
614.505	29168.69861
614.707	29272.82239
614.908	28607.29345
615.11	28991.08194
615.311	29246.28078
615.513	29336.11464
615.714	29252.40575
615.916	29564.79184
616.117	29272.82239
616.319	29546.41551
616.52	29656.67483
616.722	29822.06974
616.923	29448.40983
617.124	29650.54923
617.326	29399.4079
617.527	29164.61538
617.729	29262.61406
617.93	29272.82239
618.131	29252.40575
618.333	29093.15953
618.534	29442.28455
618.735	29152.36572
618.937	29185.03158
619.138	29771.02116
619.339	29427.99228
619.54	29842.48936
619.742	29252.40575
619.943	29093.15953
620.144	29572.95913
620.345	29617.87953
620.546	29123.78331
620.748	29334.07294
620.949	29460.6604
621.15	30114.081
621.351	29360.61514
621.552	29405.53311
621.753	29779.18889
621.954	29903.74889
622.155	29264.65572
622.356	29483.11989
622.558	29621.96323
622.759	29740.39235
622.96	29029.87111
623.161	29193.19808
623.362	29262.61406
623.563	29736.30852
623.764	29042.12041
623.965	29362.65685
624.166	29442.28455
624.366	29295.28082
624.567	29503.53772
624.768	29738.35043
624.969	29109.49218
625.17	29164.61538
625.371	29278.9474
625.572	29436.15929
625.773	29309.57261
625.973	29566.83366
626.174	29677.09357
626.375	29848.61527
626.576	29787.35663
626.777	30254.98995
626.977	30016.06065
627.178	30060.98632
627.379	29632.17249
627.58	29397.36617
627.78	29136.03289
627.981	29642.38178
628.182	30018.10272
628.382	30299.91862
628.583	29854.74119
628.784	29926.21097
628.984	29607.6703
629.185	30046.69173
629.386	29491.28701
629.586	30095.70199
629.787	29399.4079
629.987	29634.21435
630.188	29385.11579
630.388	29703.63809
630.589	29456.57687
630.79	29893.5389
630.99	30271.32758
631.191	30320.34094
631.391	30081.40726
631.591	29779.18889
631.792	29771.02116
631.992	30379.56635
632.193	30465.34291
632.393	30114.081
632.594	30148.79718
632.794	29809.81802
632.994	30230.48364
633.195	29899.66489
633.395	30140.62864
633.595	29869.03503
633.796	30161.05003
633.996	30346.89014
634.196	30011.97653
634.397	30181.47154
634.597	30018.10272
634.797	30014.01859
634.997	29666.88419
635.198	29893.5389
635.398	30154.9236
635.598	30395.90458
635.798	30479.63922
635.998	30230.48364
636.199	30163.09218
636.399	30643.03
636.599	29934.37903
636.799	30128.37586
636.999	29458.61864
637.199	30071.19677
637.399	29624.00508
637.599	30216.18837
637.799	29777.14695
637.999	30479.63922
638.199	30228.44146
638.399	29744.47617
638.599	30124.29161
638.799	30181.47154
638.999	30220.27273
639.199	30085.49146
639.399	29930.295
639.599	30534.78269
639.799	29783.27276
639.999	30563.37597
640.199	30257.03215
640.399	30512.31672
640.599	29409.61658
640.799	30504.14731
640.998	30561.33358
641.198	30281.53864
641.398	29709.76378
641.598	30638.94513
641.798	30422.45436
641.997	30018.10272
642.197	30473.51222
642.397	30894.25976
642.597	30761.49352
642.796	31159.81017
642.996	30667.53933
643.196	30547.03692
643.395	30103.87043
643.595	30687.96391
643.795	30428.58126
643.994	30424.49666
644.194	30551.12168
644.394	30671.62423
644.593	30692.04885
644.793	31137.33956
644.992	31057.67249
645.192	30252.94775
645.392	30438.79279
645.591	30980.0503
645.791	30573.58791
645.99	30765.57855
646.19	30898.34497
646.389	30616.47844
646.589	30583.79989
646.788	30598.09671
646.987	30410.20059
647.187	30530.69796
647.386	30843.19514
647.586	30440.8351
647.785	31020.90383
647.984	31127.12571
648.184	30587.88469
648.383	30665.49688
648.582	30553.16406
648.782	30810.51423
648.981	30786.00378
649.18	30902.43018
649.38	30951.45318
649.579	30955.53847
649.778	31247.65158
649.977	31376.35465
650.177	31151.63902
650.376	31329.36709
650.575	31143.46789
650.774	31131.21125
650.973	31022.94652
651.173	30628.73298
651.372	30859.53572
651.571	31212.92325
651.77	31123.04018
651.969	31141.42511
652.168	31129.16848
652.367	31127.12571
652.566	31010.69039
652.765	31163.89576
652.964	31261.95162
653.163	30926.94158
653.362	31069.92882
653.561	30953.49582
653.76	31803.36906
653.959	31094.44163
654.158	30982.09297
654.357	30659.36953
654.556	30710.43111
654.755	30963.70906
654.954	30647.11487
655.153	30888.13196
655.352	31298.72348
655.551	31392.69835
655.749	31433.55804
655.948	31125.08294
656.147	31284.42325
656.346	30822.76953
656.545	31002.51967
656.743	30998.43432
656.942	31404.95619
657.141	31018.86114
657.34	31259.90875
657.538	31294.63769
657.737	31112.82638
657.936	31278.2946
658.135	31210.88042
658.333	30973.92233
658.532	31174.10974
658.731	31167.98135
658.929	30869.74863
659.128	30685.92145
659.326	31221.09458
659.525	31031.1173
659.724	31067.88609
659.922	30935.11209
660.121	30849.32285
660.319	30982.09297
660.518	31074.01427
660.716	31288.50902
660.915	31458.07417
661.113	31290.55191
661.312	30998.43432
661.51	30984.13563
661.709	30890.17456
661.907	31157.76738
662.105	31155.72459
662.304	31566.35661
662.502	31662.38466
662.701	31243.56587
662.899	31480.5475
663.097	31241.52302
663.296	30626.69055
663.494	31413.12811
663.692	31102.61261
663.891	31523.45169
664.089	30845.23771
664.287	31292.5948
664.485	31425.38605
664.684	31627.65067
664.882	31188.40939
665.08	30798.25898
665.278	30626.69055
665.476	31112.82638
665.675	30822.76953
665.873	30957.58111
666.071	31249.69444
666.269	31552.05489
666.467	31227.2231
666.665	31541.83942
666.863	31202.70911
667.061	31656.2551
667.259	31646.03919
667.457	31480.5475
667.655	31086.27067
667.853	30743.11096
668.051	30598.09671
668.249	31094.44163
668.447	30677.7516
668.645	31043.37351
668.843	31492.80577
669.041	30906.5154
669.239	30759.45101
669.437	31018.86114
669.635	31290.55191
669.833	31145.51067
670.031	30600.13912
670.229	30998.43432
670.426	31059.71521
670.624	31200.66629
670.822	30412.24288
671.02	30798.25898
671.218	30544.99455
671.415	30618.52086
671.613	30179.42938
671.811	30246.82116
672.009	29991.55598
672.206	30620.56328
672.404	30412.24288
672.602	30904.47279
672.799	30920.81371
672.997	30916.72847
673.195	30712.47359
673.392	31094.44163
673.59	30841.15257
673.788	30863.62088
673.985	30616.47844
674.183	30773.74863
674.38	30553.16406
674.578	31088.31341
674.775	31074.01427
674.973	31315.06669
675.17	30941.23999
675.368	30935.11209
675.565	30612.3936
675.763	30357.10142
675.96	30081.40726
676.158	30289.70751
676.355	29860.86711
676.553	30375.48181
676.75	29930.295
676.947	30187.59802
677.145	30228.44146
677.342	30565.41836
677.539	30212.10402
677.737	30820.72698
677.934	30681.83652
678.131	30696.13379
678.329	30120.20736
678.526	30058.94423
678.723	30397.94686
678.92	30399.98914
679.118	29609.71214
679.315	29987.47188
679.512	30257.03215
679.709	30161.05003
679.906	29924.16896
680.104	30391.82001
680.301	30594.0119
680.498	30026.27098
680.695	30297.8764
680.892	29922.12695
681.089	29556.62457
681.286	29938.46307
681.483	29315.69768
681.68	30128.37586
681.877	29750.60192
682.075	29764.89538
682.272	29779.18889
682.469	30046.69173
682.665	29916.00092
682.862	29871.07702
683.059	30328.5099
683.256	30608.30877
683.453	30052.81797
683.65	29628.08878
683.847	29548.45732
684.044	29528.03925
684.241	29587.25193
684.438	30018.10272
684.635	30050.77589
684.831	30434.70817
685.028	30277.45421
685.225	29879.24496
685.422	29572.95913
685.619	30212.10402
685.815	29266.69739
686.012	29317.73937
686.209	28989.04041
686.405	29762.85345
686.602	29291.19746
686.799	29133.99129
686.996	29191.15645
687.192	29681.17733
687.389	29215.65606
687.586	29711.80567
687.782	29589.29376
687.979	29491.28701
688.175	29103.36743
688.372	29146.2409
688.568	29087.0348
688.765	29295.28082
688.962	29481.07811
689.158	29399.4079
689.355	29280.98908
689.551	28807.34881
689.748	28991.08194
689.944	28821.63886
690.14	28989.04041
690.337	29066.6191
690.533	29201.36461
690.73	28762.43755
690.926	29442.28455
691.123	29109.49218
691.319	29264.65572
691.515	29150.32411
691.712	28680.78201
691.908	28629.74814
692.104	28670.57518
692.301	28905.33876
692.497	28301.10591
692.693	28497.06317
692.889	28650.16161
693.086	28717.52679
693.282	28793.05881
693.478	29052.32818
693.674	28835.92897
693.87	28376.62993
694.067	28905.33876
694.263	28676.69927
694.459	28507.26955
694.655	28539.93014
694.851	28715.48541
695.047	28874.71665
695.243	28109.24076
695.439	28517.47596
695.635	28478.69176
695.831	28748.14771
696.027	28676.69927
696.224	28558.30184
696.42	28372.54751
696.615	28527.68239
696.811	28431.74299
697.007	27768.39842
697.203	27696.96849
697.399	27952.08195
697.595	27933.71318
697.791	27547.99081
697.987	27941.87706
698.183	28294.9824
698.379	28141.89797
698.575	28182.71988
698.77	28168.43217
698.966	28270.48848
699.162	27958.2049
699.358	27982.69678
699.554	28254.15929
699.749	28484.81556
699.945	27762.27579
700.141	27786.76634
700.337	27866.3618
700.532	28413.37188
700.728	28356.21789
700.924	28317.4353
701.119	27764.31667
701.315	27737.78541
701.511	27596.96906
701.706	27511.25759
701.902	27778.60281
702.097	28223.54223
702.293	27950.04097
702.489	27388.81643
702.684	27074.57211
702.88	27676.56021
703.075	27625.54003
703.271	27701.05016
703.466	27911.26258
703.662	27592.88751
703.857	27423.50763
704.053	27368.41001
704.248	27358.20685
704.443	27423.50763
704.639	27537.78709
704.834	27692.88682
705.03	27560.2353
705.225	27509.21686
705.42	27029.68266
705.616	27258.21759
705.811	27139.86703
706.006	27068.45078
706.202	26870.53461
706.397	27145.9885
706.592	27152.10999
706.787	27139.86703
706.983	27094.97662
707.178	27352.08497
707.373	26990.91504
707.568	27203.12281
707.763	27178.63655
707.959	27568.39833
708.154	27333.7194
708.349	27139.86703
708.544	27101.098
708.739	26790.96384
708.934	26909.30065
709.129	26652.23045
709.324	26895.01836
709.519	27217.40655
709.714	26103.48881
709.909	26721.59628
710.104	26444.1436
710.299	26701.19439
710.494	26523.7043
710.689	26860.3331
710.884	26772.60168
711.079	27333.7194
711.274	27399.01969
711.469	27021.52101
711.664	27207.20387
711.859	27037.84433
712.054	27541.86858
712.249	27225.56872
712.443	27078.653
712.638	26780.76263
712.833	26507.38396
713.028	26654.27059
713.223	26752.19941
713.417	26697.11402
713.612	26723.63648
713.807	26633.86919
714.002	26797.08459
714.196	27231.69036
714.391	26913.38131
714.586	26862.3734
714.78	27211.28494
714.975	27109.25986
715.17	26711.39531
715.364	26733.83749
715.559	26892.97804
715.754	26264.63107
715.948	26331.94678
716.143	26183.03872
716.337	25940.3179
716.532	25974.99076
716.726	26081.05214
716.921	26354.38575
717.115	26178.95917
717.31	26693.03367
717.504	26566.54567
717.699	26629.78893
717.893	26162.64105
718.088	26395.18439
718.282	26160.6013
718.476	25889.32935
718.671	25640.52208
718.865	25838.34196
719.059	25363.19766
719.254	25585.46206
719.448	25361.15865
719.642	25803.6712
719.837	25200.08363
720.031	25575.26592
720.225	25189.88946
720.419	25695.58353
720.614	25291.83359
720.808	25524.28596
721.002	25636.44351
721.196	25883.21081
721.39	25750.64639
721.585	25693.54419
721.779	25507.97264
721.973	25775.11922
722.167	25642.56137
722.361	25475.34639
722.555	25571.18747
722.749	25540.59941
722.943	25430.48615
723.137	25397.86114
723.331	24994.17219
723.525	25112.41558
723.719	24767.90045
723.913	25532.44267
724.107	24861.6672
724.301	25147.07455
724.495	24855.55182
724.689	24696.55959
724.883	24380.65817
725.077	24971.74758
725.271	24560.0012
725.465	24592.61114
725.659	24759.74706
725.853	25057.3703
726.046	25391.74402
726.24	25314.26202
726.434	24798.47601
726.628	25094.06697
726.822	24229.86263
727.015	24625.22172
727.209	24413.2645
727.403	24417.34034
727.596	24816.8216
727.79	25065.52505
727.984	24953.40038
728.177	24867.7826
728.371	24780.13061
728.565	24555.925
728.758	24733.2488
728.952	24627.25991
729.146	24466.25122
729.339	24704.71268
729.533	24492.74523
729.726	24566.11551
729.92	24615.03085
730.113	24682.29177
730.307	24969.70899
730.5	24731.21049
730.694	25200.08363
730.887	24771.97716
731.081	24935.05336
731.274	24812.74479
731.468	24211.52364
731.661	24329.7121
731.854	24417.34034
732.048	24219.67427
732.241	24504.97339
732.435	24806.62958
732.628	24494.78325
732.821	24698.59786
733.014	24521.27773
733.208	24704.71268
733.401	24543.69647
733.594	24560.0012
733.788	24627.25991
733.981	24926.8992
734.174	25202.12247
734.367	25032.90625
734.56	24735.28711
734.754	24309.33414
734.947	24295.06973
735.14	23887.57157
735.333	24144.28253
735.526	24523.31578
735.719	24046.48262
735.912	24350.09033
736.105	24502.93535
736.298	24350.09033
736.491	24731.21049
736.684	24451.9854
736.877	24425.49205
737.07	24191.14723
737.263	24022.03364
737.456	24201.3354
737.649	24364.35525
737.842	24792.36085
738.035	24590.573
738.228	24592.61114
738.421	24806.62958
738.614	24737.32543
738.807	24615.03085
739	24360.27954
739.192	24064.81961
739.385	24254.31497
739.578	24415.30242
739.771	24466.25122
739.964	23655.34866
740.156	23812.19679
740.349	23698.12368
740.542	24321.56089
740.735	24217.63661
740.927	24313.40971
741.12	23832.56796
741.313	23763.30718
741.505	23524.99493
741.698	23368.17982
741.891	23431.31095
742.083	23335.59719
742.276	23386.5079
742.468	23229.7093
742.661	23233.78175
742.854	23115.68595
743.046	23596.28058
743.239	23840.71651
743.431	24054.63237
743.624	23443.53022
743.816	23103.46977
744.009	23223.60065
744.201	23172.69635
744.393	23398.72676
744.586	23439.45712
744.778	23115.68595
744.971	23254.1442
745.163	23260.25299
745.355	23286.72478
745.548	23362.07051
745.74	23402.79974
745.932	22848.99335
746.125	23085.14573
746.317	23150.2991
746.509	23013.8881
746.702	23692.01288
746.894	22948.74185
747.086	23121.79409
747.278	22824.56639
747.471	22633.23912
747.663	22967.06388
747.855	22830.67308
748.047	22779.78492
748.239	22873.4208
748.431	23266.36182
748.623	23040.35474
748.815	22781.8204
749.008	23197.13016
749.2	23303.01538
749.392	22863.24263
749.584	22983.35037
749.776	23482.22534
749.968	23085.14573
750.16	23103.46977
750.352	23180.8409
750.544	22991.49369
750.736	23219.52823
750.928	23278.57956
751.12	22993.52953
751.311	22659.69744
751.503	23024.06751
751.695	22739.07594
751.887	22969.09968
752.079	22515.20159
752.271	22378.86289
752.463	23241.92669
752.654	22755.35937
752.846	23034.24701
753.038	22523.34173
753.23	22848.99335
753.421	22439.90807
753.613	22604.74621
753.805	23357.99766
753.997	22967.06388
754.188	23034.24701
754.38	22903.9558
754.572	22908.02719
754.763	23087.18172
754.955	22486.71157
755.146	22285.26664
755.338	21927.23182
755.53	22295.43977
755.721	22488.74655
755.913	22842.88656
756.104	22264.92066
756.296	22521.30669
756.487	22368.68901
756.679	22521.30669
756.87	21943.50359
757.062	22055.37863
757.253	22010.62724
757.445	22033.00271
757.636	21908.92636
757.827	22157.09312
758.019	21707.58695
758.21	21587.61493
758.401	21424.96294
758.593	21473.75587
758.784	21447.32608
758.975	21451.39216
759.167	21573.38187
759.358	21528.65065
759.549	21862.14717
759.74	21599.81485
759.932	21205.42334
760.123	21441.227
760.314	21514.41839
760.505	21494.08693
760.696	21351.77787
760.888	20658.81387
761.079	21270.46721
761.27	21148.51336
761.461	21305.02345
761.652	21581.51502
761.843	21378.20521
762.034	21778.76322
762.225	21095.67122
762.416	20573.49666
762.607	20624.27983
762.798	21152.57825
762.989	21396.50146
763.18	21280.63069
763.371	21170.87047
763.562	21154.6107
763.753	20697.41217
763.944	20973.73839
764.135	20551.15289
764.326	20920.90541
764.517	20565.3716
764.708	20652.71954
764.899	20218.08774
765.089	20591.7783
765.28	20268.85257
765.471	20234.3322
765.662	20272.91387
765.853	20419.13187
766.043	20043.47677
766.234	20731.94876
766.425	20082.05093
766.615	19842.50964
766.806	20262.76065
766.997	20155.14299
767.187	20049.56733
767.378	20325.71231
767.569	19765.38168
767.759	20457.7208
767.95	20343.98935
768.141	20449.59669
768.331	19913.55392
768.522	19885.13559
768.712	19584.76356
768.903	19755.23372
769.093	19513.74303
769.284	19682.17146
769.474	19467.07517
769.665	19623.3197
769.855	19540.12149
770.046	19877.01622
770.236	19428.52513
770.426	19765.38168
770.617	19598.96828
770.807	19513.74303
770.998	19781.61864
771.188	19584.76356
771.378	19353.45827
771.569	19686.23033
771.759	19505.62672
771.949	19680.14203
772.139	19939.9431
772.33	19383.8901
772.52	19734.9381
772.71	19428.52513
772.9	19276.36848
773.09	19290.56878
773.281	19452.87235
773.471	19097.86753
773.661	19331.14219
773.851	19235.7973
774.041	19243.9114
774.231	19067.44439
774.421	18633.50603
774.611	18347.69152
774.802	18369.98637
774.992	18601.06933
775.182	18540.25318
775.372	18781.51124
775.562	18842.34141
775.752	18834.23051
775.942	18256.49001
776.131	18698.38245
776.321	18440.9276
776.511	18661.88897
776.701	18599.04206
776.891	18655.80685
777.081	18698.38245
777.271	18430.79286
777.461	18307.15658
777.651	18213.93188
777.84	18252.43678
778.03	18540.25318
778.22	18799.75992
778.41	18536.19889
778.599	18201.77271
778.789	18179.48126
778.979	18363.90591
779.169	18043.71552
779.358	18116.66225
779.548	18363.90591
779.738	18538.22604
779.927	18485.52162
780.117	18286.88967
780.307	17999.13926
780.496	18242.30378
780.686	18270.67641
780.875	17885.68012
781.065	18084.24091
781.254	17920.12191
781.444	18023.45337
781.633	17573.72285
781.823	17717.53743
782.012	17839.084
782.202	17681.07582
782.391	17606.13033
782.581	17464.35369
782.77	17261.84216
782.96	17385.37056
783.149	17075.55765
783.338	17018.86708
783.528	17020.89171
783.717	17440.05069
783.906	17251.71737
784.096	17338.79296
784.285	17561.57026
784.474	17342.84312
784.663	17190.97019
784.853	17512.96106
785.042	17531.1893
785.231	17944.43437
785.42	16891.321
785.61	17229.4431
785.799	16998.62097
785.988	17195.01992
786.177	17059.36012
786.366	16923.71267
786.555	17012.79322
786.744	16571.48704
786.933	16498.62148
787.122	16539.102
787.312	16500.64549
787.501	16354.92225
787.69	16537.07796
787.879	16994.57178
788.068	16652.45211
788.257	16759.7365
788.445	16771.88232
788.634	17006.71938
788.823	16828.564
789.012	16628.16221
789.201	16439.9262
789.39	16203.13771
789.579	16405.51942
789.768	16452.06991
789.957	16583.63158
790.145	16502.66949
790.334	16292.1834
790.523	16385.2804
790.712	16233.49381
790.9	16326.58835
791.089	16106.0007
791.278	16379.20874
791.467	16035.17392
791.655	16138.37929
791.844	16010.89087
792.033	16288.1358
792.221	15923.87824
792.41	15883.40808
792.599	15762.00045
792.787	15994.70228
792.976	16152.54505
793.164	15998.74942
793.353	15988.63158
793.541	16322.54068
793.73	16067.55165
793.918	15933.99586
794.107	15790.32854
794.295	15800.44576
794.484	15604.176
794.672	15672.97059
794.861	15784.25822
795.049	16045.29192
795.238	15774.14103
795.426	15857.10274
795.614	15531.33563
795.803	15721.5321
795.991	15626.43297
796.179	15577.87242
796.368	15517.17233
796.556	15215.70176
796.744	15294.60947
796.932	15683.08753
797.121	15413.98343
797.309	15604.176
797.497	15183.32943
797.685	15549.54564
797.874	15492.89246
798.062	15622.38624
798.25	15157.02691
798.438	15452.42619
798.626	14993.14162
798.814	14950.65257
799.002	14934.46622
799.19	15219.74831
799.378	15189.39924
799.566	14981.00191
799.755	15102.39859
799.943	15308.77243
800.131	15100.37532
800.318	15248.07413
800.506	15070.02622
800.694	14978.97862
800.882	15136.7942
801.07	14983.02519
801.258	15312.81899
801.446	15539.42896
801.634	14881.86039
801.822	15029.56068
802.01	14978.97862
802.197	15096.32877
802.385	14752.36738
802.573	14960.76903
802.761	14898.04684
802.949	15068.00294
803.136	14934.46622
803.324	14667.38588
803.512	14517.65215
803.699	14426.59449
803.887	14689.64309
804.075	15035.63052
804.262	14811.04425
804.45	15130.72439
804.638	14900.07014
804.825	15195.46905
805.013	15043.72363
805.201	15108.46841
805.388	15173.21307
805.576	15161.07345
805.763	14821.16089
805.951	15152.98037
806.138	14906.14005
806.326	15175.23634
806.513	15043.72363
806.701	14902.09344
806.888	14687.61971
807.075	14871.74384
807.263	14491.34689
807.45	14934.46622
807.638	14942.5594
807.825	15051.81674
808.012	14879.83708
808.2	15233.91121
808.387	14936.48952
808.574	15306.74915
808.761	14817.11423
808.949	14999.21147
809.136	14869.72053
809.323	14936.48952
809.51	14760.46078
809.698	14879.83708
809.885	14493.37038
810.072	14531.81642
810.259	14904.11674
810.446	14825.20754
810.633	14719.99366
810.82	15041.70035
811.008	14819.13756
811.195	14626.9179
811.382	14701.78334
811.569	14728.08711
811.756	14651.19873
811.943	14663.3391
812.13	14697.7366
812.317	14950.65257
812.504	15335.07509
812.691	15221.77158
812.878	15027.5374
813.064	15094.3055
813.251	14859.60397
813.438	15094.3055
813.625	14527.76949
813.812	14335.5338
813.999	14881.86039
814.186	15027.5374
814.372	14942.5594
814.559	15229.86467
814.746	14989.09505
814.933	14873.76715
815.12	15021.46757
815.306	14738.20391
815.493	14515.62867
815.68	14936.48952
815.866	14707.85346
816.053	15017.421
816.24	14930.41963
816.426	14766.53082
816.613	14616.80084
816.799	14788.78758
816.986	14950.65257
817.173	14993.14162
817.359	14608.70718
817.546	14839.37079
817.732	14489.3234
817.919	14811.04425
818.105	14491.34689
818.292	14786.76424
818.478	14813.06758
818.665	14560.1448
818.851	14695.71322
819.037	14618.82426
819.224	14616.80084
819.41	14647.15194
819.597	14598.59007
819.783	14616.80084
819.969	14189.82939
820.156	14489.3234
820.342	14299.10859
820.528	14460.99438
820.714	13886.2428
820.901	14177.68691
821.087	14406.35906
821.273	14456.94736
821.459	14301.13223
821.646	14390.1706
821.832	13882.19459
822.018	14175.66315
822.204	13645.35438
822.39	14139.23522
822.576	14123.0448
822.762	14185.78191
822.948	14230.30382
823.134	14414.45325
823.32	14201.9718
823.507	14323.39213
823.693	14084.592
823.879	13989.46834
824.065	14046.13839
824.25	14151.37794
824.436	14179.71066
824.622	13870.04993
824.808	14412.4297
824.994	14084.592
825.18	13894.33917
825.366	14175.66315
825.552	13659.52551
825.738	13809.32506
825.923	13665.5988
826.109	13483.38659
826.295	13517.80666
826.481	13643.32992
826.667	13673.69648
826.852	14080.54429
827.038	13590.69277
827.224	13805.27664
827.409	13578.5454
827.595	13778.96164
827.781	13493.51025
827.966	13693.94044
828.152	13378.09485
828.338	13610.9381
828.523	13080.382
828.709	13602.84001
828.894	13222.16193
829.08	13327.47001
829.266	13161.40187
829.451	13402.39388
829.637	13307.21935
829.822	13404.41878
830.008	13201.90902
830.193	13459.08942
830.378	13408.46855
830.564	13286.96827
830.749	12997.32866
830.935	12841.32723
831.12	12537.33282
831.305	13086.45876
831.491	12553.54928
831.676	12600.16937
831.861	12598.14248
832.047	12985.17381
832.232	12421.77862
832.417	12764.32772
832.602	12581.92712
832.788	12626.51841
832.973	12705.55942
833.158	12642.7327
833.343	12435.97063
833.528	12671.10677
833.714	12727.85142
833.899	12750.14271
834.084	12583.95406
834.269	13072.2796
834.454	12484.6265
834.639	12667.0534
834.824	12675.16011
835.009	12973.01877
835.194	12881.85009
835.379	13112.79085
835.564	12658.94659
835.749	12922.37081
835.934	12966.94119
836.119	12699.47967
836.304	12411.64126
836.489	12547.46816
836.674	12233.19573
836.859	12411.64126
837.044	12001.94372
837.228	12640.70593
837.413	12292.00764
837.598	12354.86897
837.783	12298.09128
837.968	12152.06585
838.152	12087.15335
838.337	12308.23056
838.522	12042.52145
838.707	12150.03745
838.891	11861.92587
839.076	12261.58844
839.261	12056.72292
839.445	11979.62462
839.63	11788.85739
839.815	12277.81221
839.999	12101.35362
840.184	12083.09606
840.368	11837.57093
840.553	11977.59556
840.737	11805.09578
840.922	11807.12554
841.106	11701.56653
841.291	11533.02807
841.475	11407.08982
841.66	11957.30455
841.844	11662.99096
842.029	12050.63662
842.213	11985.71174
842.397	11660.96058
842.582	11520.8421
842.766	11569.58395
842.951	11309.56346
843.135	11579.73782
843.319	11415.21599
843.504	11488.34452
843.688	11384.74205
843.872	11344.10667
844.056	11356.2977
844.241	11559.42984
844.425	11222.17634
844.609	11153.06597
844.793	10919.21787
844.977	11151.03313
845.161	10850.05183
845.346	11071.74393
845.53	11071.74393
845.714	11059.54413
845.898	10902.9447
846.082	10917.18377
846.266	10803.25545
846.45	11128.67116
846.634	10648.57929
846.818	10772.73273
847.002	10719.82035
847.186	10644.50793
847.37	10406.24572
847.554	10835.8101
847.738	10554.92532
847.922	10949.72811
848.106	10839.87923
848.29	10499.94217
848.473	10658.7575
848.657	10520.30738
848.841	10451.06047
849.025	10609.89931
849.209	10143.33893
849.392	10516.23444
849.576	10290.10523
849.76	10467.35519
849.944	10514.19795
850.127	10683.18395
850.311	10554.92532
850.495	10636.36504
850.678	10334.93649
850.862	10548.81654
851.046	10616.00697
851.229	10355.3122
851.413	10218.76935
851.596	10632.29353
851.78	10361.42466
851.964	10233.03785
852.147	9865.91498
852.331	10171.88239
852.514	10090.3224
852.698	10355.3122
852.881	9939.37671
853.065	10298.25685
853.248	9992.42064
853.431	9996.50053
853.615	9804.68222
853.798	10204.50017
853.982	10016.89916
854.165	10377.72396
854.348	9841.42349
854.532	9988.34068
854.715	9808.76482
854.898	9788.35121
855.081	10006.70003
855.265	9967.94004
855.448	9555.52795
855.631	9588.21708
855.814	9596.38873
855.997	9443.12805
856.181	9050.35983
856.364	9443.12805
856.547	9596.38873
856.73	9665.83768
856.913	9183.3978
857.096	9434.95162
857.279	9310.22866
857.462	9156.796
857.645	9113.81777
857.828	9255.0038
858.011	9046.2652
858.194	9156.796
858.377	9265.23154
858.56	9469.69968
858.743	9414.5094
858.926	9385.88757
859.109	9079.02031
859.292	9140.42424
859.475	9017.60082
859.658	9103.58374
859.841	8818.90249
860.023	9044.21786
860.206	9058.54889
860.389	9117.91126
860.572	8913.15144
860.755	9031.93344
860.937	8900.86025
861.12	8870.12946
861.303	8812.7545
861.486	8872.1783
861.668	8548.23436
861.851	8693.86103
862.034	8597.47082
862.216	8792.26
862.399	8170.38755
862.581	8542.07904
862.764	8375.82055
862.947	8593.36819
863.129	8398.40625
863.312	8589.26549
863.494	8404.56558
863.677	8326.5345
863.859	8199.16004
864.042	8305.99534
864.224	8236.14752
864.406	8587.21412
864.589	8137.49992
864.771	8195.04992
864.954	8149.83338
865.136	8106.66312
865.318	7972.9845
865.501	8090.21498
865.683	8010.01177
865.865	8137.49992
866.048	7975.04174
866.23	7983.27051
866.412	8026.46623
866.594	8016.18235
866.777	7942.12337
866.959	7849.51225
867.141	7824.80887
867.323	7948.29597
867.505	8269.01992
867.687	8299.83321
867.869	8028.52294
868.052	8166.27688
868.234	7874.21263
868.416	8131.33292
868.598	7954.46838
868.78	8098.43921
868.962	8071.70927
869.144	8155.99984
869.326	7744.50217
869.508	7882.44544
869.69	7579.67024
869.872	7728.02506
870.054	7425.01614
870.236	7524.00871
870.417	7491.01671
870.599	7824.80887
870.781	7472.45629
870.963	7701.24689
871.145	7435.33019
871.327	7524.00871
871.508	7400.26021
871.69	7717.72619
871.872	7633.2555
872.054	7849.51225
872.235	7585.85389
872.417	7701.24689
872.599	7375.50114
872.78	7616.76926
872.962	7226.88054
873.144	7637.37685
873.325	7422.95327
873.507	7449.76895
873.689	7499.26523
873.87	7476.58098
874.052	7315.65375
874.233	7488.95453
874.415	7284.69097
874.596	7594.09846
874.778	7241.33477
874.959	7356.92978
875.141	7404.38641
875.322	7497.20313
875.503	7247.5291
875.685	7301.20506
875.866	7144.26413
876.048	7499.26523
876.229	7503.38936
876.41	7400.26021
876.592	7307.39749
876.773	7307.39749
876.954	7061.61212
877.136	7396.13391
877.317	7251.65855
877.498	7693.00674
877.679	7513.6993
877.86	7513.6993
878.042	7400.26021
878.223	7462.14419
878.404	7431.20464
878.585	7408.51253
878.766	7164.92156
878.947	7488.95453
879.128	7152.52737
879.309	7342.48416
879.49	7313.58971
879.672	7478.64329
879.853	7332.16521
880.034	7404.38641
880.215	7396.13391
880.396	7596.15955
880.576	7144.26413
880.757	7606.46467
880.938	7548.7491
881.119	7631.1948
881.3	7429.14183
881.481	7651.8009
881.662	7200.0341
881.843	7563.17956
882.023	7280.56222
882.204	7435.33019
882.385	7127.73659
882.566	7429.14183
882.747	7272.30447
882.927	7462.14419
883.108	7231.01043
883.289	7493.07888
883.469	7468.33152
883.65	7519.88501
883.831	7381.6912
884.011	7833.04366
884.192	7317.71776
884.373	7398.19707
884.553	7297.07667
884.734	7474.51865
884.914	7164.92156
885.095	7311.52566
885.275	7028.5413
885.456	7214.49034
885.636	7247.5291
885.817	7612.64749
885.997	7495.14102
886.178	7515.76123
886.358	7387.88107
886.538	7517.82313
886.719	7385.8178
886.899	7612.64749
887.08	7356.92978
887.26	7561.11813
887.44	7398.19707
887.621	7676.52542
887.801	7301.20506
887.981	7830.98499
888.161	7620.89095
888.342	7503.38936
888.522	7524.00871
888.702	7664.16354
888.882	7618.83012
889.062	7416.76451
889.242	7365.18393
889.423	7416.76451
889.603	7255.78791
889.783	7723.90558
889.963	7336.29286
890.143	7668.28425
890.323	7193.83823
890.503	7402.32332
890.683	7272.30447
890.863	7462.14419
891.043	7280.56222
891.223	7725.96533
891.403	7398.19707
891.583	7552.87219
891.763	7433.26743
891.943	7497.20313
892.122	7305.33337
892.302	7332.16521
892.482	7185.57677
892.662	7218.62049
892.842	7404.38641
893.022	7464.20665
893.201	7119.47228
893.381	7160.79025
893.561	7239.26994
893.741	7241.33477
893.92	6952.04297
894.1	7241.33477
894.28	6916.88474
894.459	7131.86861
894.639	7115.33999
894.819	6941.70299
894.998	6892.06322
895.178	7154.59312
895.357	6970.65351
895.537	7107.07515
895.716	7051.27811
895.896	7121.53839
896.075	6861.03174
896.255	6908.61126
896.434	6654.024
896.614	6832.0644
896.793	6560.7956
896.973	6678.87702
897.152	6540.07183
897.331	6473.74018
897.511	6502.7632
897.69	6718.22088
897.87	6506.90897
898.049	6685.08976
898.228	6361.75157
898.407	6370.04935
898.587	6270.45131
898.766	6253.8464
898.945	6147.95481
899.124	6550.434
899.304	6191.56462
899.483	6428.12339
899.662	6120.95307
899.841	6365.90051
900.02	6415.68049
900.199	6469.59366
900.378	6332.70639
900.557	6274.6023
900.737	6361.75157
900.916	6494.47137
901.095	5871.51843
901.274	6174.95258
901.453	6087.71471
901.632	6287.05472
901.811	6361.75157
901.989	6224.78419
902.168	5938.06752
902.347	6195.71739
902.526	5856.9576
902.705	6071.09328
902.884	5773.73065
903.063	6075.24878
903.242	5792.46001
903.42	6014.9848
903.599	5438.36049
903.778	5792.46001
903.957	5286.09727
904.135	5684.21957
904.314	5727.93973
904.493	5809.10672
904.672	5657.14949
904.85	5659.23194
905.029	5292.35713
905.207	5329.91182
905.386	5123.26732
905.565	4970.74716
905.743	4828.5632
905.922	5265.22957
906.1	4834.83825
906.279	5041.79928
906.457	4807.64488
906.636	5031.35211
906.814	4874.57548
906.993	5079.40429
907.171	4807.64488
907.35	4828.5632
907.528	4636.02921
907.707	4759.52412
907.885	4514.55145
908.063	4606.71386
908.242	4118.19147
908.42	4631.84157
908.598	4384.61371
908.777	4376.22775
908.955	4363.64814
909.133	4359.45477
909.311	4162.2692
909.49	4554.35413
909.668	4430.7303
909.846	4862.02777
910.024	4667.43365
910.202	4606.71386
910.38	4409.76952
910.559	4527.12158
910.737	4382.51725
910.915	4451.68888
911.093	4612.99609
911.271	4522.93163
911.449	4325.90466
911.627	4872.48425
911.805	4430.7303
911.983	4495.69476
912.161	4218.92691
912.339	4677.90067
912.517	4218.92691
912.695	4799.27691
912.872	4585.77164
913.05	4627.65384
913.228	4351.06776
913.406	4696.7399
913.584	4564.82719
913.762	4816.01248
913.939	4652.77887
914.117	4636.02921
914.295	4164.36791
914.473	4577.39412
914.65	4355.26131
914.828	4460.0717
915.006	4453.78462
915.184	4464.26298
915.361	4348.97095
915.539	4468.45417
915.716	4189.55077
915.894	4483.12265
916.072	4132.88508
916.249	4307.03029
916.427	4185.35384
916.604	4422.34625
916.782	4181.15682
916.959	4405.57711
917.137	4380.42077
917.314	4355.26131
917.492	4260.88561
917.669	4032.10844
917.847	4116.0923
918.024	4233.61343
918.201	3870.34717
918.379	4176.95972
918.556	3958.5955
918.733	4294.4464
918.911	4116.0923
919.088	4120.29062
919.265	3758.93602
919.442	3990.10411
919.62	3813.59746
919.797	3924.98128
919.974	3729.49747
920.151	3931.28434
920.328	3782.06363
920.506	3891.36189
920.683	3973.30009
920.86	4036.30842
921.037	3941.78904
921.214	4019.508
921.391	3800.98446
921.568	4048.90786
921.745	3521.21831
921.922	3922.88022
922.099	3514.90397
922.276	3889.26051
922.453	3611.70565
922.63	3685.33255
922.807	3335.93033
922.984	3571.7271
923.161	3287.48038
923.338	3529.63718
923.514	3224.27129
923.691	3447.54078
923.868	3378.05328
924.045	3407.53519
924.222	3405.42945
924.399	3552.78755
924.575	3182.12356
924.752	3327.5049
924.929	3146.29284
925.105	3502.27478
925.282	3215.84227
925.459	3325.3985
925.635	3005.03286
925.812	3123.10576
925.989	2903.78948
926.165	3011.35943
926.342	2870.03418
926.518	2983.94333
926.695	2599.86599
926.871	3024.01215
927.048	2785.63012
927.224	3038.77295
927.401	2806.73321
927.577	3064.07543
927.754	2895.351
927.93	2931.21293
928.107	2658.98351
928.283	2950.19694
928.459	2627.31461
928.636	2694.87148
928.812	2574.52697
928.988	2802.5127
929.165	2633.64862
929.341	2528.06767
929.517	2671.65027
929.693	2718.09113
929.87	2386.54443
930.046	2608.31194
930.222	2280.89969
930.398	2582.9735
930.574	2574.52697
930.751	2540.73895
930.927	2407.67037
931.103	2536.51524
931.279	2386.54443
931.455	2513.28399
931.631	2285.12595
931.807	2468.92961
931.983	2200.59402
932.159	2283.01282
932.335	1957.49353
932.511	2272.44708
932.687	2075.88493
932.863	2244.97506
933.039	1970.1793
933.215	2321.04757
933.391	1923.66379
933.566	2179.45885
933.742	1885.6036
933.918	1976.5221
934.094	1746.03614
934.27	1830.62481
934.445	1519.73736
934.621	1866.57286
934.797	1572.61298
934.973	1669.90133
935.148	1445.71067
935.324	1669.90133
935.5	1471.0913
935.675	1547.23278
935.851	1365.339
936.027	1568.38296
936.202	1367.45403
936.378	1418.21501
936.553	1145.38765
936.729	1107.32284
936.904	1141.15816
937.08	1035.42699
937.255	897.9989
937.431	965.65217
937.606	840.92273
937.782	917.0256
937.957	646.49347
938.133	800.76185
938.308	570.43868
938.483	619.02735
938.659	612.68931
938.834	616.91466
939.009	542.97862
939.185	564.10154
939.36	401.49252
939.535	547.20309
939.71	452.16626
939.886	477.5065
940.061	456.38949
940.236	466.9478
940.411	452.16626
940.586	401.49252
940.761	308.61551
940.937	462.72443
941.112	409.9375
941.287	454.27787
941.462	386.71443
941.637	405.71498
941.812	357.1607
941.987	350.82819
942.162	367.71522
942.337	348.71739
942.512	319.16801
942.687	319.16801
942.862	215.77348
943.037	352.93901
943.212	289.62213
943.386	352.93901
943.561	209.44471
943.736	312.83645
943.911	317.05747
944.086	340.27436
944.26	179.9128
944.435	344.49584
944.61	293.84276
944.785	268.52014
944.959	203.11611
945.134	198.89714
945.309	266.41005
945.483	304.39463
945.658	317.05747
945.833	329.72097
946.007	291.73244
946.182	293.84276
946.357	215.77348
946.531	203.11611
946.706	279.07091
946.88	215.77348
947.055	209.44471
947.229	285.40159
947.404	232.6511
947.578	336.05295
947.752	243.20024
947.927	287.51185
948.101	291.73244
948.276	274.85054
948.45	346.60661
948.624	319.16801
948.799	209.44471
948.973	260.07987
949.147	317.05747
949.321	336.05295
949.496	203.11611
949.67	251.6399
949.844	257.96985
950.018	333.94227
950.193	272.74039
950.367	333.94227
950.541	283.29134
950.715	376.15915
950.889	257.96985
951.063	266.41005
951.237	327.61034
951.411	336.05295
951.585	293.84276
951.759	236.87069
951.933	274.85054
952.107	291.73244
952.281	359.27157
952.455	325.49973
952.629	312.83645
952.803	312.83645
952.977	241.09037
953.151	367.71522
953.325	376.15915
953.499	321.27857
953.672	245.31013
953.846	418.38275
954.02	289.62213
954.194	376.15915
954.368	241.09037
954.541	340.27436
954.715	270.63026
954.889	338.16365
955.062	321.27857
955.236	312.83645
955.41	308.61551
955.583	376.15915
955.757	268.52014
955.93	374.04814
956.104	266.41005
956.278	359.27157
956.451	300.17382
956.625	205.22562
956.798	243.20024
956.972	342.38509
957.145	327.61034
957.319	333.94227
957.492	333.94227
957.665	323.38914
957.839	346.60661
958.012	321.27857
958.185	336.05295
958.359	378.27017
958.532	228.43158
958.705	422.60547
958.879	344.49584
959.052	333.94227
959.225	323.38914
959.398	327.61034
959.572	295.95309
959.745	401.49252
959.918	327.61034
960.091	338.16365
960.264	285.40159
960.438	333.94227
960.611	274.85054
960.784	439.49697
960.957	253.74986
961.13	388.82553
961.303	253.74986
961.476	291.73244
961.649	378.27017
961.822	291.73244
961.995	336.05295
962.168	350.82819
962.341	357.1607
962.514	384.60334
962.686	173.58505
962.859	401.49252
963.032	295.95309
963.205	342.38509
963.378	228.43158
963.551	287.51185
963.723	215.77348
963.896	182.02209
964.069	257.96985
964.242	348.71739
964.414	327.61034
964.587	350.82819
964.76	300.17382
964.932	283.29134
965.105	348.71739
965.278	344.49584
965.45	211.55428
965.623	241.09037
965.795	228.43158
965.968	300.17382
966.14	253.74986
966.313	276.96072
966.485	255.85985
966.658	304.39463
966.83	207.33515
967.003	232.6511
967.175	207.33515
967.348	241.09037
967.52	133.51369
967.692	283.29134
967.865	232.6511
968.037	222.10244
968.209	215.77348
968.382	241.09037
968.554	281.18111
968.726	249.52996
968.898	270.63026
969.071	188.35008
969.243	224.21213
969.415	230.54133
969.587	287.51185
969.759	279.07091
969.932	177.80353
970.104	182.02209
970.276	270.63026
970.448	293.84276
970.62	190.45945
970.792	205.22562
970.964	251.6399
971.136	184.1314
971.308	232.6511
971.48	165.14835
971.652	152.49392
971.824	173.58505
971.996	125.07859
972.168	196.78769
972.339	209.44471
972.511	184.1314
972.683	177.80353
972.855	165.14835
973.027	247.42003
973.199	167.25749
973.37	198.89714
973.542	198.89714
973.714	156.71198
973.886	125.07859
974.057	182.02209
974.229	211.55428
974.401	171.47585
974.572	152.49392
974.744	122.96987
974.915	217.88312
975.087	152.49392
975.259	148.27594
975.43	196.78769
975.602	173.58505
975.773	257.96985
975.945	148.27594
976.116	198.89714
976.288	114.5352
976.459	97.66692
976.63	203.11611
976.802	131.40488
976.973	148.27594
977.145	148.27594
977.316	165.14835
977.487	139.84024
977.659	106.10089
977.83	173.58505
978.001	154.60294
978.172	42.8549
978.344	74.47535
978.515	186.24073
978.686	158.82104
978.857	101.88386
979.028	127.18734
979.2	141.94913
979.371	196.78769
979.542	141.94913
979.713	141.94913
979.884	91.34168
980.055	95.55848
980.226	116.64384
980.397	108.20943
980.568	139.84024
980.739	114.5352
980.91	198.89714
981.081	135.62252
981.252	59.7185
981.423	144.05805
981.594	63.93463
981.765	110.318
981.936	114.5352
982.106	66.04272
982.277	42.8549
982.448	116.64384
982.619	116.64384
982.79	55.50246
982.96	51.28651
983.131	80.80005
983.302	89.23331
983.472	135.62252
983.643	32.3159
983.814	120.86117
983.984	148.27594
984.155	135.62252
984.326	175.69428
984.496	57.61047
984.667	82.90833
984.837	114.5352
985.008	89.23331
985.178	108.20943
985.349	114.5352
985.519	173.58505
985.69	152.49392
985.86	72.36716
986.031	49.17857
986.201	68.15085
986.371	141.94913
986.542	76.58356
986.712	25.99279
986.882	112.42659
987.053	49.17857
987.223	112.42659
987.393	70.25899
987.563	97.66692
987.734	72.36716
987.904	158.82104
988.074	76.58356
988.244	61.82655
988.414	182.02209
988.585	80.80005
988.755	-16.15583
988.925	72.36716
989.095	91.34168
989.265	91.34168
989.435	55.50246
989.605	38.63923
989.775	51.28651
989.945	49.17857
990.115	40.74705
990.285	87.12496
990.455	40.74705
990.625	97.66692
990.795	59.7185
990.965	93.45007
991.134	55.50246
991.304	30.20817
991.474	141.94913
991.644	32.3159
991.814	61.82655
991.984	17.5623
992.153	57.61047
992.323	57.61047
992.493	125.07859
992.662	57.61047
992.832	110.318
993.002	112.42659
993.171	47.07066
993.341	61.82655
993.511	4.91728
993.68	85.01664
993.85	38.63923
994.019	85.01664
994.189	53.39447
994.358	34.42366
994.528	55.50246
994.697	23.88513
994.867	30.20817
995.036	87.12496
995.206	4.91728
995.375	59.7185
995.544	32.3159
995.714	34.42366
995.883	74.47535
996.052	57.61047
996.222	55.50246
996.391	38.63923
996.56	89.23331
996.73	57.61047
996.899	74.47535
997.068	15.45473
997.237	-7.72688
997.406	55.50246
997.576	4.91728
997.745	97.66692
997.914	101.88386
998.083	34.42366
998.252	85.01664
998.421	38.63923
998.59	99.77538
998.759	25.99279
998.928	82.90833
999.097	112.42659
999.266	40.74705
999.435	51.28651
999.604	-54.08124
999.773	47.07066
999.942	108.20943
1000.111	-3.51226
1000.28	7.02472
1000.448	63.93463
1000.617	82.90833
1000.786	66.04272
1000.955	17.5623
1001.124	80.80005
1001.292	57.61047
1001.461	25.99279
1001.63	47.07066
1001.798	25.99279
1001.967	13.34719
1002.136	40.74705
1002.304	125.07859
1002.473	112.42659
1002.642	95.55848
1002.81	95.55848
1002.979	25.99279
1003.147	40.74705
1003.316	19.66988
1003.484	25.99279
1003.653	38.63923
1003.821	51.28651
1003.99	51.28651
1004.158	40.74705
1004.327	47.07066
1004.495	25.99279
1004.663	44.96277
1004.832	82.90833
1005	-1.40491
1005.168	21.7775
1005.337	34.42366
1005.505	-28.79853
1005.673	70.25899
1005.842	-1.40491
1006.01	78.6918
1006.178	51.28651
1006.346	82.90833
1006.514	42.8549
1006.683	-14.04863
1006.851	17.5623
1007.019	55.50246
1007.187	112.42659
1007.355	72.36716
1007.523	4.91728
1007.691	78.6918
1007.859	66.04272
1008.027	17.5623
1008.195	15.45473
1008.363	0.70246
1008.531	85.01664
1008.699	32.3159
1008.867	28.10047
1009.035	13.34719
1009.203	30.20817
1009.37	-7.72688
1009.538	57.61047
1009.706	21.7775
1009.874	4.91728
1010.042	-43.54722
1010.209	-11.94141
1010.377	30.20817
1010.545	55.50246
1010.713	55.50246
1010.88	51.28651
1011.048	66.04272
1011.216	38.63923
1011.383	59.7185
1011.551	68.15085
1011.718	-7.72688
1011.886	4.91728
1012.054	-3.51226
1012.221	-7.72688
1012.389	74.47535
1012.556	11.23968
1012.724	55.50246
1012.891	34.42366
1013.058	25.99279
1013.226	4.91728
1013.393	59.7185
1013.561	57.61047
1013.728	89.23331
1013.895	-7.72688
1014.063	42.8549
1014.23	7.02472
1014.397	9.13219
1014.565	-64.61464
1014.732	21.7775
1014.899	55.50246
1015.066	-7.72688
1015.233	9.13219
1015.401	23.88513
1015.568	21.7775
1015.735	-62.50801
1015.902	55.50246
1016.069	51.28651
1016.236	97.66692
1016.403	85.01664
1016.57	59.7185
1016.737	21.7775
1016.904	101.88386
1017.071	15.45473
1017.238	0.70246
1017.405	47.07066
1017.572	-20.37016
1017.739	-22.47729
1017.906	-20.37016
1018.073	49.17857
1018.24	21.7775
1018.407	55.50246
1018.573	72.36716
1018.74	23.88513
1018.907	9.13219
1019.074	55.50246
1019.241	17.5623
1019.407	-3.51226
1019.574	32.3159
1019.741	38.63923
1019.907	15.45473
1020.074	57.61047
1020.241	-30.90556
1020.407	0.70246
1020.574	57.61047
1020.74	-1.40491
1020.907	-45.65407
1021.073	-3.51226
1021.24	76.58356
1021.406	-28.79853
1021.573	19.66988
1021.739	-11.94141
1021.906	-39.33343
1022.072	47.07066
1022.239	42.8549
1022.405	-1.40491
1022.571	28.10047
1022.738	80.80005
1022.904	-41.44034
1023.07	17.5623
1023.237	61.82655
1023.403	70.25899
1023.569	34.42366
1023.735	72.36716
1023.902	57.61047
1024.068	72.36716
1024.234	38.63923
1024.4	-3.51226
1024.566	61.82655
1024.732	-1.40491
1024.898	-7.72688
1025.065	-20.37016
1025.231	-16.15583
1025.397	21.7775
1025.563	13.34719
1025.729	-43.54722
1025.895	36.53143
1026.061	72.36716
1026.227	13.34719
1026.392	40.74705
1026.558	-26.69148
1026.724	30.20817
1026.89	30.20817
1027.056	25.99279
1027.222	-28.79853
1027.388	30.20817
1027.553	32.3159
1027.719	-26.69148
1027.885	19.66988
1028.051	85.01664
1028.216	-3.51226
1028.382	34.42366
1028.548	72.36716
1028.713	23.88513
1028.879	-45.65407
1029.045	55.50246
1029.21	-28.79853
1029.376	59.7185
1029.541	-37.2265
1029.707	21.7775
1029.873	-43.54722
1030.038	-41.44034
1030.204	28.10047
1030.369	7.02472
1030.534	32.3159
1030.7	4.91728
1030.865	11.23968
1031.031	21.7775
1031.196	21.7775
1031.361	-28.79853
1031.527	125.07859
1031.692	9.13219
1031.857	47.07066
1032.023	82.90833
1032.188	19.66988
1032.353	59.7185
1032.518	63.93463
1032.684	4.91728
1032.849	114.5352
1033.014	-39.33343
1033.179	30.20817
1033.344	-16.15583
1033.509	55.50246
1033.674	11.23968
1033.839	34.42366
1034.004	57.61047
1034.17	28.10047
1034.335	-14.04863
1034.5	-66.72124
1034.664	68.15085
1034.829	32.3159
1034.994	4.91728
1035.159	51.28651
1035.324	17.5623
1035.489	38.63923
1035.654	2.80986
1035.819	34.42366
1035.984	-16.15583
1036.148	-30.90556
1036.313	4.91728
1036.478	-54.08124
1036.643	57.61047
1036.807	7.02472
1036.972	34.42366
1037.137	36.53143
1037.301	49.17857
1037.466	-45.65407
1037.631	63.93463
1037.795	63.93463
1037.96	-11.94141
1038.124	51.28651
1038.289	89.23331
1038.454	25.99279
1038.618	9.13219
1038.783	51.28651
1038.947	55.50246
1039.111	-20.37016
1039.276	21.7775
1039.44	68.15085
1039.605	4.91728
1039.769	30.20817
1039.933	61.82655
1040.098	42.8549
1040.262	47.07066
1040.426	4.91728
1040.591	-3.51226
1040.755	-45.65407
1040.919	91.34168
1041.083	42.8549
1041.248	-16.15583
1041.412	-11.94141
1041.576	17.5623
1041.74	-11.94141
1041.904	4.91728
1042.068	15.45473
1042.232	21.7775
1042.397	28.10047
1042.561	-18.26301
1042.725	66.04272
1042.889	28.10047
1043.053	82.90833
1043.217	2.80986
1043.381	0.70246
1043.544	17.5623
1043.708	-7.72688
1043.872	40.74705
1044.036	-62.50801
1044.2	-5.61958
1044.364	-20.37016
1044.528	13.34719
1044.691	-51.97449
1044.855	93.45007
1045.019	32.3159
1045.183	-14.04863
1045.346	-22.47729
1045.51	49.17857
1045.674	49.17857
1045.837	38.63923
1046.001	63.93463
1046.165	42.8549
1046.328	-3.51226
1046.492	51.28651
1046.655	32.3159
1046.819	17.5623
1046.983	21.7775
1047.146	15.45473
1047.31	21.7775
1047.473	-24.5844
1047.636	34.42366
1047.8	66.04272
1047.963	-24.5844
1048.127	36.53143
1048.29	72.36716
