Data from absorb_only_2.23.25_USB4F045381__4__0109.txt Node

Date: Sun Feb 23 19:12:11 EST 2025
User: ssocol
Spectrometer: USB4F04538
Trigger mode: 4
Integration Time (sec): 2.600000E-3
Scans to average: 1
Electric dark correction enabled: true
Nonlinearity correction enabled: true
Boxcar width: 0
XAxis mode: Wavelengths
Number of Pixels in Spectrum: 3648
>>>>>Begin Spectral Data<<<<<
345.52	-9.65855
345.736	-9.65855
345.952	-9.65855
346.168	2.98547
346.384	21.95313
346.6	-30.72997
346.816	-34.94396
347.032	57.78613
347.248	-11.7658
347.464	34.5993
347.68	-39.15785
347.896	28.27611
348.112	-9.65855
348.328	2.98547
348.544	19.84552
348.76	24.06077
348.975	-41.26476
349.191	45.13842
349.407	40.92271
349.623	-28.62294
349.839	-11.7658
350.055	36.70708
350.27	36.70708
350.486	-15.98024
350.702	5.09289
350.918	-1.2293
351.133	-1.2293
351.349	32.49155
351.565	5.09289
351.781	45.13842
351.996	47.24632
352.212	40.92271
352.428	64.1103
352.644	28.27611
352.859	-30.72997
353.075	21.95313
353.291	28.27611
353.506	95.73419
353.722	72.54284
353.938	-1.2293
354.153	11.4153
354.369	0.87808
354.584	-34.94396
354.8	-13.87303
355.016	66.2184
355.231	5.09289
355.447	83.08402
355.662	5.09289
355.878	66.2184
356.093	32.49155
356.309	13.52282
356.524	2.98547
356.74	-1.2293
356.955	-37.05092
357.171	11.4153
357.386	36.70708
357.602	13.52282
357.817	11.4153
358.033	49.35423
358.248	87.30066
358.464	-64.43909
358.679	-5.44397
358.895	21.95313
359.11	19.84552
359.325	36.70708
359.541	32.49155
359.756	30.38382
359.972	9.30781
360.187	68.32652
360.402	30.38382
360.618	2.98547
360.833	-37.05092
361.048	21.95313
361.264	15.63036
361.479	-20.19457
361.694	-37.05092
361.909	38.81488
362.125	-37.05092
362.34	-20.19457
362.555	21.95313
362.77	-22.3017
362.986	45.13842
363.201	-7.55127
363.416	-22.3017
363.631	47.24632
363.847	-5.44397
364.062	-22.3017
364.277	9.30781
364.492	66.2184
364.707	24.06077
364.922	-9.65855
365.138	64.1103
365.353	-49.69214
365.568	13.52282
365.783	-5.44397
365.998	2.98547
366.213	-5.44397
366.428	-24.40881
366.643	70.43467
366.858	45.13842
367.073	19.84552
367.288	43.03055
367.503	-79.18478
367.718	28.27611
367.933	55.67812
368.148	40.92271
368.363	28.27611
368.578	11.4153
368.793	28.27611
369.008	55.67812
369.223	24.06077
369.438	-11.7658
369.653	87.30066
369.868	2.98547
370.083	-34.94396
370.298	62.00222
370.513	-3.33665
370.728	53.57014
370.943	95.73419
371.157	26.16843
371.372	11.4153
371.587	7.20034
371.802	19.84552
372.017	51.46218
372.232	-11.7658
372.446	104.16807
372.661	-24.40881
372.876	-5.44397
373.091	32.49155
373.306	-43.37164
373.52	49.35423
373.735	7.20034
373.95	5.09289
374.165	7.20034
374.379	70.43467
374.594	-3.33665
374.809	-81.29121
375.023	-9.65855
375.238	-13.87303
375.453	76.75925
375.667	11.4153
375.882	49.35423
376.097	-47.58533
376.311	2.98547
376.526	68.32652
376.741	43.03055
376.955	108.38515
377.17	40.92271
377.384	7.20034
377.599	13.52282
377.813	21.95313
378.028	-3.33665
378.242	59.89417
378.457	78.86748
378.672	72.54284
378.886	78.86748
379.101	11.4153
379.315	17.73793
379.53	26.16843
379.744	-45.4785
379.958	57.78613
380.173	-56.01241
380.387	2.98547
380.602	7.20034
380.816	19.84552
381.031	17.73793
381.245	87.30066
381.459	-13.87303
381.674	26.16843
381.888	11.4153
382.103	2.98547
382.317	-1.2293
382.531	104.16807
382.746	-39.15785
382.96	-81.29121
383.174	70.43467
383.388	45.13842
383.603	-3.33665
383.817	28.27611
384.031	45.13842
384.246	40.92271
384.46	70.43467
384.674	62.00222
384.888	40.92271
385.103	59.89417
385.317	26.16843
385.531	15.63036
385.745	-3.33665
385.959	-3.33665
386.174	66.2184
386.388	-13.87303
386.602	17.73793
386.816	-3.33665
387.03	17.73793
387.244	26.16843
387.458	-28.62294
387.672	57.78613
387.887	80.97574
388.101	38.81488
388.315	15.63036
388.529	13.52282
388.743	57.78613
388.957	45.13842
389.171	21.95313
389.385	19.84552
389.599	80.97574
389.813	80.97574
390.027	9.30781
390.241	-5.44397
390.455	-45.4785
390.669	34.5993
390.883	38.81488
391.097	40.92271
391.311	62.00222
391.525	70.43467
391.738	7.20034
391.952	36.70708
392.166	24.06077
392.38	180.08857
392.594	91.51738
392.808	36.70708
393.022	-9.65855
393.236	11.4153
393.449	32.49155
393.663	32.49155
393.877	72.54284
394.091	11.4153
394.305	53.57014
394.518	-24.40881
394.732	2.98547
394.946	59.89417
395.16	0.87808
395.373	-5.44397
395.587	45.13842
395.801	11.4153
396.015	62.00222
396.228	13.52282
396.442	30.38382
396.656	-13.87303
396.869	28.27611
397.083	-5.44397
397.297	57.78613
397.51	-56.01241
397.724	-9.65855
397.938	30.38382
398.151	95.73419
398.365	-13.87303
398.578	43.03055
398.792	30.38382
399.005	62.00222
399.219	11.4153
399.433	55.67812
399.646	72.54284
399.86	-1.2293
400.073	-13.87303
400.287	30.38382
400.5	45.13842
400.714	30.38382
400.927	15.63036
401.141	28.27611
401.354	-7.55127
401.567	11.4153
401.781	34.5993
401.994	47.24632
402.208	36.70708
402.421	15.63036
402.635	-9.65855
402.848	53.57014
403.061	11.4153
403.275	19.84552
403.488	-3.33665
403.701	28.27611
403.915	17.73793
404.128	47.24632
404.341	38.81488
404.555	127.36306
404.768	53.57014
404.981	59.89417
405.195	-5.44397
405.408	-13.87303
405.621	7.20034
405.834	45.13842
406.048	-22.3017
406.261	66.2184
406.474	11.4153
406.687	-5.44397
406.9	32.49155
407.114	51.46218
407.327	-13.87303
407.54	28.27611
407.753	55.67812
407.966	45.13842
408.179	49.35423
408.392	-18.08741
408.605	2.98547
408.819	74.65103
409.032	55.67812
409.245	66.2184
409.458	106.2766
409.671	19.84552
409.884	55.67812
410.097	51.46218
410.31	7.20034
410.523	13.52282
410.736	-47.58533
410.949	32.49155
411.162	-18.08741
411.375	83.08402
411.588	51.46218
411.801	-22.3017
412.014	106.2766
412.227	36.70708
412.44	19.84552
412.653	15.63036
412.865	43.03055
413.078	45.13842
413.291	45.13842
413.504	-30.72997
413.717	57.78613
413.93	91.51738
414.143	11.4153
414.356	72.54284
414.568	66.2184
414.781	47.24632
414.994	-37.05092
415.207	7.20034
415.42	-24.40881
415.632	28.27611
415.845	62.00222
416.058	-18.08741
416.271	89.40901
416.483	51.46218
416.696	70.43467
416.909	9.30781
417.121	70.43467
417.334	66.2184
417.547	93.62577
417.759	106.2766
417.972	62.00222
418.185	15.63036
418.397	62.00222
418.61	38.81488
418.823	62.00222
419.035	97.84262
419.248	-39.15785
419.46	21.95313
419.673	95.73419
419.885	-11.7658
420.098	28.27611
420.311	38.81488
420.523	-41.26476
420.736	95.73419
420.948	-15.98024
421.161	19.84552
421.373	95.73419
421.586	112.60231
421.798	89.40901
422.01	-5.44397
422.223	112.60231
422.435	45.13842
422.648	95.73419
422.86	30.38382
423.073	-9.65855
423.285	11.4153
423.497	87.30066
423.71	36.70708
423.922	40.92271
424.134	91.51738
424.347	19.84552
424.559	38.81488
424.771	87.30066
424.984	36.70708
425.196	70.43467
425.408	40.92271
425.621	99.95108
425.833	68.32652
426.045	112.60231
426.257	146.34273
426.47	125.25432
426.682	36.70708
426.894	5.09289
427.106	85.19233
427.318	28.27611
427.531	106.2766
427.743	125.25432
427.955	57.78613
428.167	123.1456
428.379	72.54284
428.591	95.73419
428.804	108.38515
429.016	28.27611
429.228	99.95108
429.44	131.58062
429.652	74.65103
429.864	89.40901
430.076	49.35423
430.288	104.16807
430.5	106.2766
430.712	87.30066
430.924	80.97574
431.136	72.54284
431.348	36.70708
431.56	66.2184
431.772	70.43467
431.984	116.81956
432.196	108.38515
432.408	108.38515
432.62	89.40901
432.832	43.03055
433.044	131.58062
433.256	175.87005
433.468	137.90711
433.679	137.90711
433.891	171.65161
434.103	53.57014
434.315	148.45169
434.527	144.23379
434.739	186.41651
434.95	104.16807
435.162	165.32411
435.374	167.43326
435.586	137.90711
435.798	186.41651
436.009	125.25432
436.221	137.90711
436.433	57.78613
436.645	87.30066
436.856	53.57014
437.068	93.62577
437.28	53.57014
437.491	148.45169
437.703	129.47183
437.915	112.60231
438.126	148.45169
438.338	146.34273
438.55	102.05957
438.761	180.08857
438.973	131.58062
439.184	190.63523
439.396	148.45169
439.608	184.30718
439.819	196.96348
440.031	78.86748
440.242	108.38515
440.454	108.38515
440.665	116.81956
440.877	169.54242
441.088	76.75925
441.3	140.01598
441.511	222.27825
441.723	239.15634
441.934	154.77869
442.146	161.10588
442.357	154.77869
442.569	137.90711
442.78	239.15634
442.991	140.01598
443.203	237.04651
443.414	222.27825
443.626	137.90711
443.837	66.2184
444.048	129.47183
444.26	116.81956
444.471	209.6205
444.682	209.6205
444.894	163.21498
445.105	182.19786
445.316	268.69598
445.528	137.90711
445.739	222.27825
445.95	135.79826
446.161	207.51095
446.373	190.63523
446.584	213.83967
446.795	148.45169
447.006	247.59586
447.217	196.96348
447.429	196.96348
447.64	184.30718
447.851	230.71714
448.062	226.49765
448.273	224.38794
448.484	163.21498
448.695	205.40141
448.907	218.05892
449.118	256.03568
449.329	209.6205
449.54	281.35697
449.751	180.08857
449.962	171.65161
450.173	215.94929
450.384	283.46719
450.595	256.03568
450.806	300.34969
451.017	241.26619
451.228	249.70578
451.439	277.13656
451.65	218.05892
451.861	190.63523
452.072	251.81573
452.283	264.47581
452.494	344.67174
452.705	277.13656
452.915	253.9257
453.126	340.45025
453.337	287.68771
453.548	306.68093
453.759	315.12283
453.97	357.33661
454.181	317.23335
454.391	251.81573
454.602	323.56502
454.813	317.23335
455.024	401.66845
455.235	376.33506
455.445	370.00209
455.656	359.44748
455.867	370.00209
456.078	382.66819
456.288	310.90184
456.499	342.56099
456.71	458.67709
456.921	334.11816
457.131	543.15464
457.342	391.11258
457.553	481.90607
457.763	498.80101
457.974	530.48154
458.184	401.66845
458.395	429.11561
458.606	403.77968
458.816	519.921
459.027	612.86537
459.237	636.1054
459.448	551.60365
459.659	488.24157
459.869	551.60365
460.08	553.71593
460.29	610.75271
460.501	638.2182
460.711	636.1054
460.922	619.20341
461.132	680.47679
461.343	619.20341
461.553	644.55668
461.764	771.34792
461.974	693.15527
462.184	663.57279
462.395	762.89398
462.605	824.18863
462.816	614.97804
463.026	773.46144
463.236	798.82435
463.447	826.30238
463.657	748.09996
463.867	991.20022
464.078	832.64368
464.288	925.6583
464.498	1010.22973
464.709	940.45749
464.919	830.52991
465.129	959.48555
465.339	1065.20663
465.55	1094.81112
465.76	932.00077
465.97	1086.35259
466.18	1037.71769
466.391	1213.23794
466.601	1050.40478
466.811	1164.59682
467.021	1179.40043
467.231	1261.88078
467.441	1126.53129
467.651	1371.86035
467.862	1295.7201
468.072	1454.34714
468.282	1454.34714
468.492	1314.75496
468.702	1655.27313
468.912	1644.69846
469.122	1593.93924
469.332	1756.78631
469.542	1729.2939
469.752	1706.03063
469.962	1820.22782
470.172	1870.97816
470.382	1805.42514
470.592	1991.49793
470.802	1966.12693
471.012	2103.54168
471.222	1938.64068
471.432	2169.06709
471.642	2069.71924
471.852	2213.45083
472.062	2338.12697
472.272	2194.42968
472.482	2179.63498
472.691	2407.84642
472.901	2352.91686
473.111	2481.77881
473.321	2399.39617
473.531	2680.27045
473.741	2690.82548
473.95	3041.0573
474.16	2709.82371
474.37	2929.2793
474.58	2863.88047
474.79	3184.40673
474.999	2965.13722
475.209	3049.49164
475.419	3157.00742
475.628	3281.33571
475.838	3089.55135
476.048	3384.54662
476.258	3348.74346
476.467	3479.29501
476.677	3618.19276
476.886	3813.77264
477.096	3752.8033
477.306	3883.13136
477.515	3727.56982
477.725	3801.15965
477.935	3849.50559
478.144	4049.08285
478.354	4084.7772
478.563	4143.55479
478.773	4267.35348
478.982	4328.17645
479.192	4290.42639
479.401	4380.59548
479.611	4617.35863
479.82	4464.43762
480.03	4527.29616
480.239	4759.69849
480.449	4550.33931
480.658	4742.95803
480.868	4960.47026
481.077	5081.66732
481.287	4962.56052
481.496	5403.08688
481.705	5073.3114
481.915	5348.86015
482.124	5419.76884
482.333	5196.52356
482.543	5403.08688
482.752	5440.61916
482.961	5478.14383
483.171	5782.22847
483.38	5678.1465
483.589	6056.72144
483.799	6019.31477
484.008	6075.42192
484.217	5994.37275
484.426	6081.65499
484.636	6243.64055
484.845	6351.5517
485.054	6235.33707
485.263	6635.55467
485.472	6509.15456
485.682	6494.64412
485.891	6598.26522
486.1	6710.1112
486.309	6807.40417
486.518	6931.5348
486.727	6732.88643
486.936	7090.71659
487.146	6875.68613
487.355	7016.31053
487.564	7014.24328
487.773	7115.51217
487.982	7082.45069
488.191	7487.06418
488.4	7340.59239
488.609	7485.00195
488.818	7575.71947
489.027	7526.24234
489.236	7530.36591
489.445	7633.42723
489.654	7627.24505
489.863	7991.67038
490.072	7841.44967
490.281	8078.04937
490.49	8053.37331
490.698	8269.19111
490.907	8172.61413
491.116	8275.35412
491.325	8297.9503
491.534	8386.25817
491.743	8238.37342
491.952	8488.8968
492.16	8622.25592
492.369	8751.43638
492.578	8735.03657
492.787	8825.22109
492.996	9054.625
493.204	8806.77712
493.413	8845.71268
493.622	9040.29373
493.831	8958.38434
494.039	9312.44422
494.248	9187.66064
494.457	9116.03509
494.665	9251.08305
494.874	9375.83509
495.083	9426.94528
495.291	9580.21542
495.5	9341.07432
495.709	9639.456
495.917	9598.60184
496.126	9694.59927
496.335	9829.34703
496.543	9604.73036
496.752	9735.43891
496.96	9868.12591
497.169	9627.20041
497.377	10039.50596
497.586	9998.71046
497.794	10249.51375
498.003	10092.53161
498.211	10276.00921
498.42	10131.2751
498.628	10400.3039
498.837	10245.43732
499.045	10304.54024
499.254	10335.10629
499.462	10284.1612
499.671	10532.69559
499.879	10557.13124
500.087	10414.56409
500.296	10868.53131
500.504	10677.24713
500.713	10728.13084
500.921	10870.56569
501.129	10917.35328
501.338	10697.60152
501.546	11110.54346
501.754	10774.93723
501.962	10799.35547
502.171	11250.7994
502.379	10901.08002
502.587	10835.97965
502.795	11126.8076
503.004	10728.13084
503.212	11407.25912
503.42	11053.61353
503.628	11167.46497
503.837	11236.57281
504.045	11437.73143
504.253	11663.16016
504.461	11610.36729
504.669	11717.9771
504.877	11821.50277
505.085	11679.40289
505.294	11746.39816
505.502	11614.4285
505.71	11697.67528
505.918	11683.46349
506.126	11894.56637
506.334	11931.09413
506.542	12166.43346
506.75	12247.56127
506.958	12215.11155
507.166	11939.21105
507.374	11896.59576
507.582	12148.17808
507.79	12306.3717
507.998	12067.03565
508.206	12606.41892
508.414	12160.3484
508.622	12535.47466
508.83	12628.71412
509.037	12697.62195
509.245	12202.94242
509.453	12792.86576
509.661	12501.01323
509.869	12699.64855
510.077	12519.25774
510.285	12764.49658
510.492	12636.82128
510.7	12782.73404
510.908	12667.22229
511.116	12973.18759
511.324	12784.76039
511.531	12709.78145
511.739	12811.1025
511.947	12841.49608
512.155	12665.1956
512.362	12886.0711
512.57	13025.85808
512.778	13033.96093
512.985	13317.51349
513.193	13455.20858
513.401	13355.98898
513.608	13566.56663
513.816	13270.93586
514.024	13254.73442
514.231	13301.31283
514.439	13708.27972
514.646	13400.53773
514.854	13465.3325
515.061	13189.92584
515.269	13520.00006
515.477	13384.33841
515.684	13732.57179
515.892	13524.0494
516.099	14011.90046
516.307	13528.09873
516.514	13957.25325
516.722	13641.47416
516.929	13977.49317
517.136	13621.22934
517.344	13993.68492
517.551	14056.4265
517.759	14121.18964
517.966	13977.49317
518.173	14289.15901
518.381	14212.25907
518.588	14194.04552
518.796	14311.41903
519.003	14372.1271
519.21	14036.18753
519.418	14141.42766
519.625	14058.45038
519.832	14212.25907
520.039	14499.60946
520.247	14845.60936
520.454	14311.41903
520.661	14770.74613
520.868	14677.67142
521.076	14845.60936
521.283	14669.57788
521.49	15134.93954
521.697	14544.12581
521.904	14748.48929
522.112	14576.50095
522.319	15066.14827
522.526	14811.21286
522.733	15219.91691
522.94	14890.12223
523.147	15197.66093
523.354	15250.26601
523.561	15175.40495
523.768	15381.77931
523.975	15256.33583
524.183	15126.84645
524.39	15349.40669
524.597	15278.59186
524.804	15389.87249
525.011	15529.48091
525.218	15337.26698
525.425	15462.71135
525.632	15383.80261
525.838	15497.10771
526.045	15474.85122
526.252	15456.64142
526.459	15909.88226
526.666	15602.32125
526.873	16015.10666
527.08	15889.6472
527.287	16063.67304
527.494	15893.6942
527.701	16411.75982
527.907	15551.73759
528.114	16110.21664
528.321	16401.64026
528.528	16452.23857
528.735	16456.28649
528.941	16500.81415
529.148	16219.49623
529.355	16622.25847
529.562	16474.50223
529.768	16587.84845
529.975	15980.70597
530.182	16486.64615
530.388	16434.02304
530.595	16543.31878
530.802	16328.78084
531.008	16830.75708
531.215	16923.88137
531.422	16648.57245
531.628	16772.05102
531.835	16579.75206
532.042	16790.26992
532.248	16897.56309
532.455	16988.66673
532.661	17229.61184
532.868	16968.42101
533.074	16972.47014
533.281	17225.56201
533.487	17316.68604
533.694	17225.56201
533.9	17541.48499
534.107	17245.81128
534.313	17239.73647
534.52	17543.51038
534.726	17450.34566
534.933	17154.69186
535.139	17592.12074
535.345	17134.44389
535.552	17494.90186
535.758	17541.48499
535.965	17940.55109
536.171	17906.10871
536.377	17968.91618
536.584	17999.3081
536.79	17646.80964
536.996	17991.20351
537.203	18084.40977
537.409	18100.62032
537.615	18272.87194
537.821	17966.89008
538.028	18410.69256
538.234	18469.47432
538.44	18325.56601
538.646	18011.4651
538.853	18149.25339
539.059	18244.49926
539.265	18408.66566
539.471	18501.90701
539.677	18366.10163
539.883	18477.5824
540.09	18244.49926
540.296	18536.36782
540.502	18617.4565
540.708	18455.28532
540.914	18913.48347
541.12	18708.68871
541.326	18962.15356
541.532	18773.56979
541.738	18905.37201
541.944	18931.73448
542.15	19085.86718
542.356	19102.09304
542.562	19063.55705
542.768	19055.4444
542.974	19256.25173
543.18	19016.91019
543.386	19116.29088
543.592	19221.76681
543.798	19142.65883
544.004	19501.73768
544.21	19881.24505
544.415	19321.16775
544.621	19812.23281
544.827	19785.84706
545.033	20116.73514
545.239	19757.43243
545.445	20380.71369
545.651	19560.58219
545.856	19905.60347
546.062	19822.38137
546.268	19856.88724
546.474	19252.19462
546.679	19367.82874
546.885	19651.89957
547.091	19597.10813
547.297	19382.03035
547.502	19783.81742
547.708	19712.78253
547.914	19917.78291
548.119	19775.69889
548.325	19972.59225
548.531	19836.58952
548.736	19931.99244
548.942	19802.08436
549.147	19694.51725
549.353	20307.60483
549.559	20299.48196
549.764	20053.7969
549.97	20065.97818
550.175	20114.70481
550.381	20553.35339
550.586	20202.01275
550.792	20549.29094
550.997	20658.98316
551.203	20598.04153
551.408	20628.51188
551.614	20813.38536
551.819	20813.38536
552.025	20837.76685
552.23	20795.09964
552.435	21022.6791
552.641	21085.67895
552.846	21061.29145
553.052	20719.92853
553.257	20929.20271
553.462	20914.97881
553.668	20854.0215
553.873	21203.56017
554.078	21528.82008
554.283	21299.0946
554.489	21595.91764
554.694	21581.68446
554.899	21282.83279
555.105	21209.65784
555.31	21514.58782
555.515	21085.67895
555.72	21386.50625
555.925	21213.72298
556.131	21628.45133
556.336	21244.21203
556.541	21671.15332
556.746	21595.91764
556.951	21656.91913
557.156	21349.91442
557.361	21768.76436
557.567	21913.16371
557.772	21980.28548
557.977	21805.3708
558.182	21978.25143
558.387	21715.8906
558.592	22130.81598
558.797	21736.22635
559.002	21803.33708
559.207	21719.95772
559.412	21825.70826
559.617	21839.94471
559.822	22769.77717
560.027	22189.81327
560.232	22269.15938
560.437	22039.2747
560.642	22232.5374
560.847	22057.58235
561.051	22181.67553
561.256	22047.4114
561.461	22167.43462
561.666	22663.93761
561.871	22478.74128
562.076	22199.98553
562.281	22258.98648
562.485	22114.54142
562.69	22289.50543
562.895	22204.05446
563.1	22826.77158
563.305	22403.45014
563.509	22560.14263
563.714	22374.96289
563.919	22505.19609
564.123	22444.14744
564.328	22832.87828
564.533	22354.61529
564.737	22228.46836
564.942	22320.02521
565.147	22757.56443
565.351	23058.8478
565.556	22712.78546
565.761	22338.33748
565.965	22686.32596
566.17	22613.05657
566.374	22891.91134
566.579	22761.63533
566.784	22779.95454
566.988	23262.45896
567.193	23142.32442
567.397	23073.09951
567.602	23205.44455
567.806	23030.34486
568.011	23309.2941
568.215	23293.00343
568.42	23258.38641
568.624	23238.0239
568.828	23144.3605
569.033	23382.60467
569.237	24032.39045
569.442	23624.96562
569.646	23246.16887
569.85	23252.27763
570.055	23629.03929
570.259	23700.33036
570.463	23288.93079
570.668	23345.94888
570.872	23323.54861
571.076	23620.89197
571.281	23323.54861
571.485	23736.99576
571.689	24044.61497
571.893	24089.43908
572.098	23681.99802
572.302	23400.93296
572.506	23457.9559
572.71	23694.21955
572.914	24003.86696
573.119	23753.29181
573.323	24154.64018
573.527	23930.52338
573.731	24150.56503
573.935	24429.73775
574.139	23967.19471
574.343	23572.00909
574.547	23846.99772
574.751	24503.10519
574.955	24150.56503
575.159	24305.4284
575.364	24117.96422
575.568	24036.46528
575.772	24232.07012
575.976	23920.33707
576.18	23853.10919
576.383	24272.82429
576.587	23928.48612
576.791	24024.24083
576.995	24692.65291
577.199	24855.72169
577.403	24256.52249
577.607	24600.93357
577.811	24439.92747
578.015	24670.23217
578.219	24515.33342
578.422	24452.15523
578.626	24780.30047
578.83	24492.91507
579.034	24199.46756
579.238	24517.37147
579.442	24980.07183
579.645	24898.52978
579.849	25020.84424
580.053	25006.57379
580.257	24835.33726
580.46	24725.26543
580.664	24839.41413
580.868	25069.77233
581.071	24975.99464
581.275	24833.29883
581.479	24878.14485
581.682	25108.50799
581.886	25414.3435
582.09	25750.81634
582.293	25685.5568
582.497	25461.24249
582.7	25520.37755
582.904	25084.04327
583.107	25695.75347
583.311	25300.15926
583.515	25677.3995
583.718	25508.14257
583.922	25544.84772
584.125	25610.10294
584.329	25200.25354
584.532	24939.30034
584.735	25165.59358
584.939	25084.04327
585.142	25367.44561
585.346	25530.57342
585.549	25850.74879
585.753	25567.27897
585.956	25622.33852
586.159	25775.28917
586.363	25830.35404
586.566	25671.28154
586.769	25895.61788
586.973	25406.18727
587.176	25675.36018
587.379	25879.30174
587.582	25809.95949
587.786	25630.49561
587.989	26079.18242
588.192	25969.04195
588.395	26217.88512
588.599	26448.39358
588.802	26695.24386
589.005	25693.71413
589.208	25936.40873
589.411	25807.92004
589.615	25624.37779
589.818	26109.77792
590.021	25789.56512
590.224	26350.47591
590.427	26680.96265
590.63	26409.63406
590.833	26446.35359
591.036	26436.15367
591.239	26721.7663
591.442	26376.99491
591.645	26454.51356
591.848	26454.51356
592.051	26748.28899
592.254	25993.51716
592.457	26458.59355
592.66	26389.23454
592.863	26966.60051
593.066	26807.45589
593.269	26987.0043
593.472	26856.42254
593.675	27313.48338
593.878	26697.28404
594.081	26825.81829
594.284	26801.33512
594.486	26866.62403
594.689	27046.17605
594.892	26727.8869
595.095	26938.03546
595.298	26833.97939
595.5	27133.91562
595.703	27450.2065
595.906	27256.34708
596.109	26940.07581
596.311	27203.29286
596.514	26884.9868
596.717	27429.7997
596.92	27452.24719
597.122	27444.08445
597.325	27160.44202
597.528	27337.97068
597.73	28021.64601
597.933	27378.78326
598.136	27686.9344
598.338	27360.41754
598.541	27456.32856
598.743	27576.73143
598.946	27723.66951
599.148	27805.30444
599.351	27870.61374
599.554	28338.01724
599.756	27703.26107
599.959	27870.61374
600.161	27501.22404
600.363	27742.0372
600.566	27737.95548
600.768	27695.09773
600.971	27742.0372
601.173	27297.15862
601.376	27980.82586
601.578	27650.19969
601.78	28342.09962
601.983	28219.63007
602.185	28189.0133
602.388	28162.47896
602.59	28250.24709
602.792	27878.77749
602.995	28013.48195
603.197	27605.30223
603.399	27958.37498
603.601	28015.52296
603.804	27711.42443
604.006	27678.7711
604.208	27742.0372
604.41	27952.25203
604.613	28062.46661
604.815	28513.5635
605.017	28360.47039
605.219	27929.80132
605.421	27764.48674
605.623	28127.7805
605.826	28454.36678
606.028	28238.00026
606.23	28352.30559
606.432	28521.72863
606.634	28701.36585
606.836	28542.14154
607.038	28578.88504
607.24	28409.45953
607.442	28260.45282
607.644	28548.26543
607.846	28597.25692
608.048	28676.86939
608.25	28629.91825
608.452	28356.38799
608.654	28227.79459
608.856	27970.6209
609.058	28193.09552
609.26	28199.21886
609.462	28364.55279
609.664	28401.29463
609.866	28154.31459
610.067	27921.63746
610.269	28156.35568
610.471	28052.26142
610.673	27984.90786
610.875	28180.84887
611.077	28276.78204
611.278	28284.94668
611.48	28272.69973
611.682	28717.69691
611.884	28970.83686
612.085	28815.68467
612.287	29011.66737
612.489	28819.76754
612.69	28591.13295
612.892	28885.09412
613.094	29042.29054
613.295	28325.77012
613.497	28960.62929
613.699	28664.62121
613.9	29125.99504
614.102	28331.89367
614.304	28037.9742
614.505	27940.00617
614.707	27907.35075
614.908	28315.56422
615.11	28470.69682
615.311	28493.15074
615.513	28476.8206
615.714	28313.52304
615.916	28572.7611
616.117	28391.08853
616.319	28921.84078
616.52	28760.56626
616.722	29185.20171
616.923	29054.53987
617.124	28805.4775
617.326	28407.4183
617.527	28552.34803
617.729	28299.23483
617.93	28672.78666
618.131	28699.32447
618.333	28464.57305
618.534	28401.29463
618.735	28768.7319
618.937	28250.24709
619.138	28591.13295
619.339	28787.10466
619.54	28876.92824
619.742	28305.35835
619.943	27944.08812
620.144	28331.89367
620.345	28911.63334
620.546	28344.14081
620.748	28601.33958
620.949	29030.04124
621.15	29448.57997
621.351	29050.45675
621.552	28568.67848
621.753	28789.14608
621.954	29250.53423
622.155	28727.90386
622.356	28482.9444
622.558	28744.23502
622.759	28766.69049
622.96	28448.24304
623.161	28703.40723
623.362	28719.7383
623.563	28948.38025
623.764	28907.55037
623.965	29070.87236
624.166	28658.49714
624.366	28662.57985
624.567	28750.35923
624.768	28921.84078
624.969	28358.42919
625.17	28764.64908
625.371	28348.2232
625.572	28629.91825
625.773	28889.17706
625.973	29060.66455
626.174	28505.39838
626.375	28976.96141
626.576	28909.59186
626.777	28874.88677
626.977	28727.90386
627.178	29181.11846
627.379	29177.03522
627.58	29515.95862
627.78	29697.68257
627.981	29707.89204
628.182	29032.08279
628.382	28993.29359
628.583	29174.9936
628.784	28850.38924
628.984	28538.05895
629.185	29226.03441
629.386	28881.01117
629.586	29062.70611
629.787	29015.75045
629.987	28744.23502
630.188	28921.84078
630.388	29283.20089
630.589	28664.62121
630.79	29254.61755
630.99	28979.00293
631.191	29164.78552
631.391	28731.98664
631.591	29532.29301
631.792	29105.57914
631.992	29571.08746
632.193	29528.2094
632.393	28834.05764
632.594	29105.57914
632.794	28979.00293
632.994	29103.53756
633.195	29050.45675
633.395	28825.89187
633.595	29281.15922
633.796	29213.78456
633.996	29622.13338
634.196	29777.31712
634.397	30161.22021
634.597	29585.38025
634.797	29957.01147
634.997	29281.15922
635.198	29415.91195
635.398	29236.24265
635.598	29705.85014
635.798	29662.9706
635.998	29556.79472
636.199	29765.06554
636.399	29754.85592
636.599	29136.20302
636.799	29285.24257
636.999	29409.78673
637.199	29711.97583
637.399	29342.40989
637.599	29571.08746
637.799	29025.95815
637.999	30132.63029
638.199	29456.74702
638.399	29191.32659
638.599	29128.03663
638.799	29562.92018
638.999	29513.91682
639.199	29930.46517
639.399	29577.21294
639.599	29564.96199
639.799	29356.70185
639.999	29017.79199
640.199	29446.53821
640.399	29771.19132
640.599	28456.40803
640.799	29493.49894
640.998	29076.99707
641.198	29387.32766
641.398	29544.54385
641.598	29865.12124
641.798	30061.15649
641.997	29877.37314
642.197	29644.5938
642.397	30255.16013
642.597	30112.20906
642.796	30063.19858
642.996	29597.63125
643.196	29585.38025
643.395	29201.53474
643.595	29197.45148
643.795	29446.53821
643.994	29942.71728
644.194	29985.6
644.394	30265.37114
644.593	29957.01147
644.793	30316.42666
644.992	30122.41966
645.192	30173.4731
645.392	30396.07477
645.591	29924.33913
645.791	30471.64009
645.99	30271.49777
646.19	30173.4731
646.389	29818.15599
646.589	29763.02361
646.788	30028.48322
646.987	29924.33913
647.187	30161.22021
647.386	29781.40098
647.586	30224.52727
647.785	30212.2742
647.984	30122.41966
648.184	30383.82109
648.383	30426.70915
648.582	30083.61953
648.782	30561.50378
648.981	29875.33115
649.18	30216.35856
649.38	29971.30571
649.579	30516.57163
649.778	30148.96736
649.977	30204.10552
650.177	29720.14343
650.376	30200.02118
650.575	29544.54385
650.774	30412.41307
650.973	30743.28117
651.173	30639.11533
651.372	30304.17326
651.571	30545.16475
651.77	29963.13756
651.969	30347.06032
652.168	30304.17326
652.367	30459.38613
652.566	30600.30932
652.765	30657.49729
652.964	30506.35986
653.163	30373.60973
653.362	30416.49766
653.561	30075.45114
653.76	29881.45711
653.959	29522.08401
654.158	29720.14343
654.357	29957.01147
654.556	29744.64633
654.755	30534.95289
654.954	30142.84095
655.153	30016.23082
655.352	30224.52727
655.551	30006.02052
655.749	30216.35856
655.948	30328.68009
656.147	29760.98169
656.346	30157.13592
656.545	30694.26152
656.743	30236.78038
656.942	30443.0476
657.141	30579.8853
657.34	30559.4614
657.538	30592.1397
657.737	30747.36617
657.936	30612.5638
658.135	30271.49777
658.333	30696.30399
658.532	30171.43095
658.731	30183.68388
658.929	29842.65952
659.128	30285.79326
659.326	29618.04968
659.525	30735.11117
659.724	30324.59561
659.922	30463.47078
660.121	29997.8523
660.319	29777.31712
660.518	29509.83324
660.716	29881.45711
660.915	30667.70953
661.113	30441.00529
661.312	30191.85252
661.51	30279.66661
661.709	30524.74106
661.907	31047.62915
662.105	30461.42846
662.304	31092.56911
662.502	30992.47652
662.701	30837.23765
662.899	30391.9902
663.097	30453.25918
663.296	30387.90564
663.494	30394.03248
663.692	30224.52727
663.891	30661.58218
664.089	30408.32849
664.287	30475.72475
664.485	30083.61953
664.684	30598.26692
664.882	30108.12483
665.08	30381.77881
665.278	30375.652
665.476	30042.77774
665.675	30153.05164
665.873	30326.63785
666.071	30218.40073
666.269	29965.1796
666.467	29634.3845
666.665	29340.36819
666.863	29634.3845
667.061	29624.17523
667.259	29693.5988
667.457	30355.22935
667.655	30396.07477
667.853	30628.90318
668.051	30367.48292
668.249	30463.47078
668.447	30976.13521
668.645	30622.7759
668.843	30728.98369
669.041	30702.43141
669.239	29979.47387
669.437	30089.74584
669.635	30046.8619
669.833	30577.8429
670.031	30430.79376
670.229	30355.22935
670.426	30302.13104
670.624	30210.23203
670.822	30055.03023
671.02	29861.03728
671.218	30271.49777
671.415	30275.58219
671.613	29965.1796
671.811	29758.93977
672.009	29942.71728
672.206	29814.07208
672.404	29803.86233
672.602	29809.98818
672.799	29977.43183
672.997	29930.46517
673.195	30208.18986
673.392	29891.66707
673.59	29877.37314
673.788	29595.58942
673.985	29611.92414
674.183	29740.56251
674.38	29961.09553
674.578	30240.86476
674.775	30240.86476
674.973	29995.81025
675.17	29799.77844
675.368	29885.54109
675.565	30179.59956
675.763	30563.54617
675.96	30079.53533
676.158	30500.23281
676.355	29599.67309
676.553	29705.85014
676.75	29172.95198
676.947	29389.36939
677.145	29505.74966
677.342	29532.29301
677.539	29373.03559
677.737	29961.09553
677.934	29524.1258
678.131	29785.48486
678.329	29477.16471
678.526	29646.63566
678.723	29548.62747
678.92	29748.73017
679.118	28991.25206
679.315	29491.45716
679.512	29113.74549
679.709	29662.9706
679.906	29442.4547
680.104	29714.01773
680.301	29324.03459
680.498	29591.50575
680.695	29697.68257
680.892	29473.08116
681.089	29399.57804
681.286	29532.29301
681.483	29023.91661
681.68	29146.41103
681.877	29266.86753
682.075	29203.57637
682.272	29083.12178
682.469	29579.25476
682.665	28911.63334
682.862	29217.86784
683.059	29150.49424
683.256	29313.82613
683.453	29091.28808
683.65	29475.12294
683.847	29187.24334
684.044	29105.57914
684.241	29309.74275
684.438	29395.49458
684.635	28699.32447
684.831	29074.9555
685.028	28587.05031
685.225	29011.66737
685.422	28930.00675
685.619	29332.20138
685.815	29093.32966
686.012	29023.91661
686.209	28703.40723
686.405	29087.20493
686.602	28662.57985
686.799	28676.86939
686.996	29156.61907
687.192	28979.00293
687.389	28954.50476
687.586	29030.04124
687.782	28450.28428
687.979	28811.6018
688.175	28456.40803
688.372	28627.87691
688.568	28521.72863
688.765	28521.72863
688.962	28736.06943
689.158	28423.74814
689.355	28344.14081
689.551	28201.25998
689.748	27952.25203
689.944	28005.3179
690.14	28464.57305
690.337	28401.29463
690.533	28558.47194
690.73	27888.9822
690.926	28174.72556
691.123	27852.24538
691.319	28021.64601
691.515	27819.59075
691.712	27860.40909
691.908	27660.40374
692.104	27384.90519
692.301	27668.567
692.497	27627.75089
692.693	28060.42557
692.889	27956.33399
693.086	28217.58895
693.282	28376.80003
693.478	28338.01724
693.674	28640.12497
693.87	28552.34803
694.067	27895.10504
694.263	27746.11893
694.459	27570.60915
694.655	27913.47362
694.851	27699.17939
695.047	28150.23241
695.243	28282.90552
695.439	27815.50894
695.635	28203.3011
695.831	28156.35568
696.027	27525.71274
696.224	27846.12262
696.42	27695.09773
696.615	27427.75903
696.811	27821.63166
697.007	27609.3838
697.203	27405.31171
697.399	27454.28787
697.595	27276.75278
697.791	26997.20624
697.987	26497.3538
698.183	27450.2065
698.379	26907.43034
698.575	27454.28787
698.77	27270.63106
698.966	27315.52398
699.162	27172.68506
699.358	26799.29487
699.554	26880.90617
699.749	27517.54982
699.945	26958.43904
700.141	26968.64089
700.337	27366.53943
700.532	27425.71836
700.728	27491.02047
700.924	27474.69482
701.119	27509.38692
701.315	27639.99567
701.511	27535.91642
701.706	27560.40537
701.902	26811.53642
702.097	27031.89311
702.293	26974.76201
702.489	27054.33777
702.684	27095.14666
702.88	27078.82304
703.075	26987.0043
703.271	27029.85269
703.466	26717.68591
703.662	26833.97939
703.857	26821.73775
704.053	26942.11616
704.248	26897.22871
704.443	26921.71269
704.639	27158.40152
704.834	27007.40822
705.03	26897.22871
705.225	27129.83465
705.42	26862.54343
705.616	26454.51356
705.811	26403.51419
706.006	26646.28003
706.202	26529.99446
706.397	26013.91336
706.592	26593.23686
706.787	26619.75832
706.983	26423.91381
707.178	26827.85856
707.373	26768.69123
707.568	27121.67274
707.763	26603.43739
707.959	26617.7182
708.154	26701.3644
708.349	26344.35618
708.544	26497.3538
708.739	26315.79764
708.934	25685.5568
709.129	26323.95719
709.324	26101.61908
709.519	26244.40271
709.714	26262.76121
709.909	26454.51356
710.104	26134.2546
710.299	25865.02522
710.494	25826.27512
710.689	26372.91505
710.884	26130.17513
711.079	26068.98401
711.274	26117.93678
711.469	26262.76121
711.664	26020.03226
711.859	26497.3538
712.054	26197.48716
712.249	26303.55837
712.443	25922.13185
712.638	26219.92492
712.833	26011.87374
713.028	26160.77128
713.223	25442.89058
713.417	25553.00451
713.612	25524.45589
713.807	25752.85573
714.002	25457.16428
714.196	25818.11729
714.391	25599.90668
714.586	25740.61941
714.78	25451.04697
714.975	25559.12213
715.17	25846.66982
715.364	25936.40873
715.559	25852.78827
715.754	25300.15926
715.948	25679.43882
716.143	25294.04244
716.337	25210.44776
716.532	25538.73015
716.726	25351.13355
716.921	25740.61941
717.115	25550.96531
717.31	26062.86499
717.504	25716.14696
717.699	25773.24976
717.893	25336.86062
718.088	25398.03106
718.282	25369.48462
718.476	25326.66573
718.671	25075.88843
718.865	25550.96531
719.059	25120.74047
719.254	25514.26005
719.448	25086.08198
719.642	25544.84772
719.837	25002.49654
720.031	25200.25354
720.225	24662.07924
720.419	24876.10637
720.614	24437.88952
720.808	24672.2704
721.002	24470.49703
721.196	24423.62395
721.39	24759.91692
721.585	24311.54174
721.779	24431.77569
721.973	24564.24725
722.167	24060.91449
722.361	24755.84024
722.555	24576.47593
722.749	24521.44757
722.943	24865.914
723.137	24311.54174
723.331	24539.79015
723.525	24633.54432
723.719	24340.071
723.913	24254.48478
724.107	24016.09125
724.301	24437.88952
724.495	24264.67337
724.689	23930.52338
724.883	24050.72727
725.077	24480.68701
725.271	24370.63864
725.465	24391.0174
725.659	24109.81412
725.853	24784.37721
726.046	24568.32347
726.24	24478.64901
726.434	24301.35285
726.628	24849.60634
726.822	24158.71534
727.015	24170.94089
727.209	23920.33707
727.403	24276.89977
727.596	24126.11435
727.79	24702.84426
727.984	24289.12626
728.177	24835.33726
728.371	24244.29626
728.565	24708.95909
728.758	24633.54432
728.952	23999.79222
729.146	24456.23116
729.339	24081.28914
729.533	24022.20343
729.726	24046.65241
729.92	24358.41152
730.113	24170.94089
730.307	24393.05529
730.5	24541.82823
730.694	24266.7111
730.887	24028.31563
731.081	23871.44375
731.274	23822.5521
731.468	23873.48094
731.661	24297.27731
731.854	23981.45603
732.048	24160.75293
732.241	24454.19319
732.435	24168.90329
732.628	24109.81412
732.821	23979.41869
733.014	23643.29721
733.208	23431.48066
733.401	23297.07608
733.594	23437.59028
733.788	23405.00594
733.981	23415.18846
734.174	23681.99802
734.367	23669.77659
734.56	23942.74706
734.754	23610.70789
734.947	23317.43952
735.14	23749.21778
735.333	23867.36938
735.526	23899.96465
735.719	23834.77486
735.912	24421.58602
736.105	24425.66188
736.298	23965.15739
736.491	24134.26453
736.684	23751.25479
736.877	24109.81412
737.07	23969.23204
737.263	23356.13094
737.456	23783.8474
737.649	24168.90329
737.842	24177.05371
738.035	24069.06432
738.228	23846.99772
738.421	23950.89623
738.614	23714.58901
738.807	23794.03275
739	23574.04584
739.192	23233.95144
739.385	23508.87131
739.578	23311.33045
739.771	23576.0826
739.964	23362.24022
740.156	23616.81833
740.349	23396.85998
740.542	23669.77659
740.735	23612.7447
740.927	23808.29235
741.12	23808.29235
741.313	24150.56503
741.505	23647.37093
741.698	23274.67666
741.891	23003.87843
742.083	23121.96376
742.276	23282.82186
742.468	23690.1457
742.661	22989.62751
742.854	22869.51916
743.046	22560.14263
743.239	22794.20301
743.431	23242.09638
743.624	22867.48352
743.816	23052.73997
744.009	22771.81264
744.201	22847.12738
744.393	22900.05406
744.586	22963.16195
744.778	22810.48719
744.971	22755.52899
745.163	23225.80655
745.355	22859.34103
745.548	22879.69737
745.74	23009.98601
745.932	23494.6148
746.125	23284.85816
746.317	23547.56831
746.509	22696.50262
746.702	23242.09638
746.894	22977.41256
747.086	22733.13933
747.278	22800.30955
747.471	23152.50487
747.663	22661.90232
747.855	22442.11254
748.047	22688.36128
748.239	22722.96235
748.431	22431.93809
748.623	22659.86704
748.815	22236.60645
749.008	22348.51108
749.2	22328.16396
749.392	22480.77624
749.584	21833.84335
749.776	22346.47635
749.968	22822.70046
750.16	22326.12927
750.352	22057.58235
750.544	22336.30277
750.736	22405.48497
750.928	22488.91613
751.12	22053.51396
751.311	22110.47282
751.503	22147.09078
751.695	22326.12927
751.887	22405.48497
752.079	22291.54006
752.271	21768.76436
752.463	22199.98553
752.654	22269.15938
752.846	22649.69069
753.038	22291.54006
753.23	22427.86834
753.421	21748.42799
753.613	21445.46247
753.805	22444.14744
753.997	22295.60932
754.188	22291.54006
754.38	21911.12978
754.572	22045.37722
754.763	22399.38049
754.955	21522.72052
755.146	21789.10112
755.338	21699.62228
755.53	21427.16535
755.721	21376.34172
755.913	21746.39437
756.104	21502.3889
756.296	21823.6745
756.487	21376.34172
756.679	21640.65172
756.87	21581.68446
757.062	21427.16535
757.253	21388.53917
757.445	21620.31781
757.636	21486.12389
757.827	21217.78813
758.019	21227.95109
758.21	21356.01297
758.401	21288.93094
758.593	21162.90993
758.784	21282.83279
758.975	20642.73169
759.167	20675.23489
759.358	20839.79867
759.549	20707.73916
759.74	20614.29227
759.932	20833.70323
760.123	20474.13848
760.314	20880.43588
760.505	20768.68752
760.696	20634.60606
760.888	21018.61473
761.079	21067.38827
761.27	21120.22892
761.461	21053.16241
761.652	20445.70391
761.843	20269.02179
762.034	20533.04127
762.225	20392.89903
762.416	20323.85077
762.607	20003.0432
762.798	20285.2671
762.989	20492.41828
763.18	20447.73492
763.371	20262.92987
763.562	20214.19587
763.753	20031.46495
763.944	20279.17508
764.135	20193.89076
764.326	20614.29227
764.517	20569.60339
764.708	20520.8542
764.899	20374.62108
765.089	20033.49511
765.28	20059.88752
765.471	20248.71554
765.662	19891.39432
765.853	19998.98302
766.043	19546.37802
766.234	19911.69317
766.425	19306.96701
766.615	19597.10813
766.806	19402.31871
766.997	19542.31973
767.187	19584.93266
767.378	19852.82766
767.569	19680.31115
767.759	19783.81742
767.95	20285.2671
768.141	19946.20218
768.331	19635.66475
768.522	19576.81577
768.712	19749.31412
768.903	19367.82874
769.093	19033.13494
769.284	19073.69796
769.474	19444.92562
769.665	19337.39741
769.855	19538.26145
770.046	19781.78778
770.236	19033.13494
770.426	19424.63639
770.617	19459.12833
770.807	19296.82374
770.998	19018.93827
771.188	18980.40544
771.378	18905.37201
771.569	19499.70862
771.759	19002.71374
771.949	18933.76239
772.139	19122.37573
772.33	18704.63377
772.52	19124.40402
772.71	18901.31631
772.9	18647.86635
773.09	18574.88417
773.281	18396.50434
773.471	18287.05856
773.661	18556.63941
773.851	18453.25834
774.041	18289.08523
774.231	18264.76539
774.421	18283.00522
774.611	18001.33426
774.802	18104.673
774.992	18062.12062
775.182	18120.88385
775.372	18141.14774
775.562	18102.64666
775.752	18139.12133
775.942	17796.71012
776.131	17902.05673
776.321	17689.34711
776.511	17938.52504
776.701	17794.68432
776.891	17883.82299
777.081	18005.38658
777.271	17916.23872
777.461	17997.28195
777.651	17845.33048
777.84	17669.09099
778.03	17800.76175
778.22	18011.4651
778.41	18102.64666
778.599	17713.65489
778.789	18414.74637
778.979	18011.4651
779.169	17786.58113
779.358	18323.53927
779.548	18319.4858
779.738	17912.1867
779.927	17628.57974
780.117	17687.32148
780.307	17318.71108
780.496	17102.04773
780.686	17195.18866
780.875	17164.81596
781.065	17187.08921
781.254	17166.84078
781.444	17395.6651
781.633	17559.71363
781.823	17798.73593
782.012	17278.21072
782.202	17555.6628
782.391	16810.51337
782.581	17124.32002
782.77	17047.38082
782.96	16867.19638
783.149	16482.59817
783.338	16674.88683
783.528	16984.61756
783.717	17304.53582
783.906	16685.00784
784.096	16828.7327
784.285	16620.23433
784.474	16689.05627
784.663	16788.24559
784.853	16646.54829
785.042	16931.9794
785.231	16672.86263
785.42	16768.0024
785.61	16810.51337
785.799	16421.87944
785.988	16757.8809
786.177	16312.5902
786.366	16389.49685
786.555	16355.0909
786.744	16531.1745
786.933	16429.97516
787.122	16624.28261
787.312	16800.39162
787.501	16490.69414
787.69	16514.98226
787.879	16587.84845
788.068	16322.70934
788.257	16223.54372
788.445	15883.57671
788.634	16017.13024
788.823	15952.37629
789.012	16122.35858
789.201	16209.37754
789.39	16126.40591
789.579	16025.22459
789.768	16174.97433
789.957	15958.44691
790.145	15766.21593
790.334	15685.27954
790.523	15851.20093
790.712	15841.08357
790.9	16170.92693
791.089	15754.07537
791.278	15737.88801
791.467	15414.15204
791.655	15586.13443
791.844	15495.08439
792.033	15721.70072
792.221	15535.55091
792.41	15677.18598
792.599	15070.19482
792.787	15472.82791
792.976	15416.17534
793.164	15956.42337
793.353	15875.48274
793.541	15721.70072
793.73	15640.76516
793.918	15723.72413
794.107	15319.05744
794.295	15349.40669
794.484	15501.15435
794.672	15424.26854
794.861	15509.24764
795.049	15280.61514
795.238	15248.24273
795.426	15219.91691
795.614	14651.36735
795.803	15033.77585
795.991	14740.39588
796.179	14894.16884
796.368	14728.25573
796.556	15130.893
796.744	14786.93285
796.932	14867.86583
797.121	14693.85846
797.309	14948.79789
797.497	14774.79281
797.685	14900.23875
797.874	14902.26205
798.062	15306.91775
798.25	14801.0962
798.438	14886.07561
798.626	14673.62465
798.814	14610.89921
799.002	14222.37764
799.19	14790.97953
799.378	14752.536
799.566	14853.70263
799.755	14574.47751
799.943	14793.00286
800.131	14768.72278
800.318	14807.1662
800.506	14823.35282
800.694	14890.12223
800.882	14697.90521
801.07	14991.28694
801.258	14618.99287
801.446	14734.3258
801.634	14386.2921
801.822	14481.39804
802.01	14562.33686
802.197	15013.54305
802.385	14521.86771
802.573	14693.85846
802.761	14374.15067
802.949	14673.62465
803.136	14621.01629
803.324	14880.00569
803.512	14701.95196
803.699	14653.39075
803.887	14718.13891
804.075	14734.3258
804.262	14505.67991
804.45	14527.93812
804.638	14453.06895
804.825	14790.97953
805.013	14708.02207
805.201	14977.12394
805.388	14799.07287
805.576	14803.11953
805.763	14847.63268
805.951	14993.31022
806.138	14831.44612
806.326	14831.44612
806.513	14623.0397
806.701	14540.07889
806.888	14333.67883
807.075	14803.11953
807.263	14155.59414
807.45	14388.31567
807.638	14394.38635
807.825	14786.93285
808.012	14469.25704
808.2	14724.209
808.387	14554.24307
808.574	14432.83372
808.761	14695.88184
808.949	14793.00286
809.136	14552.21962
809.323	14673.62465
809.51	14455.09247
809.698	14444.97488
809.885	14208.21163
810.072	14855.72595
810.259	14669.57788
810.446	14570.43063
810.633	14699.92859
810.82	14867.86583
811.008	14582.57126
811.195	14835.49276
811.382	14932.61154
811.569	14556.26652
811.756	14281.06441
811.943	14604.82895
812.13	14542.10235
812.317	14499.60946
812.504	14311.41903
812.691	14430.81018
812.878	14183.92681
813.064	14003.80469
813.251	14179.87931
813.438	14428.78665
813.625	14323.56076
813.812	14509.72687
813.999	14602.80553
814.186	14183.92681
814.372	14279.04075
814.559	14378.19782
814.746	14398.43347
814.933	14675.64804
815.12	14515.79729
815.306	14315.46628
815.493	14337.72604
815.68	14287.13536
815.866	13989.637
816.053	14258.8041
816.24	14341.77325
816.426	14254.75674
816.613	14507.70339
816.799	14863.8192
816.986	14742.41923
817.173	14969.03079
817.359	14550.19617
817.546	14143.45145
817.732	13999.75679
817.919	14028.09188
818.105	14331.65522
818.292	14309.3954
818.478	14501.63294
818.665	14546.14926
818.851	14552.21962
819.037	14376.17425
819.224	14388.31567
819.41	14347.84405
819.597	13718.40147
819.783	13688.03599
819.969	13600.98419
820.156	13546.32053
820.342	13694.10914
820.528	13894.50784
820.714	13945.10917
820.901	13975.46919
821.087	13669.81635
821.273	13904.62824
821.459	13635.40075
821.646	14009.87652
821.832	13764.96051
822.018	13894.50784
822.204	13817.59054
822.39	14074.64137
822.576	13783.17882
822.762	13979.51715
822.948	13734.5961
823.134	13872.24272
823.32	13799.37268
823.507	14054.40261
823.693	13536.19734
823.879	13426.86108
824.065	13408.63729
824.25	13501.77784
824.436	13274.98618
824.622	13481.53058
824.808	13131.18909
824.994	13416.73679
825.18	13368.13884
825.366	13702.20663
825.552	13066.37155
825.738	13584.78781
825.923	13293.2124
826.109	13090.6787
826.295	12744.23221
826.481	12906.33162
826.667	13044.08938
826.852	13062.32029
827.038	12847.57464
827.224	13422.81138
827.409	12794.89208
827.595	13366.11387
827.781	12867.83618
827.966	13143.34184
828.152	12847.57464
828.338	12869.8623
828.523	12774.62856
828.709	13153.469
828.894	13121.06167
829.08	13277.01133
829.266	12651.00859
829.451	13161.57065
829.637	12859.73163
829.822	12622.63368
830.008	12859.73163
830.193	13086.62755
830.378	12636.82128
830.564	12770.57579
830.749	12519.25774
830.935	12531.42047
831.12	12129.92209
831.305	12355.03794
831.491	12413.8377
831.676	12423.97502
831.861	12348.95488
832.047	12584.12297
832.232	12484.79544
832.417	12748.28513
832.602	12296.2324
832.788	12442.22177
832.973	12681.40897
833.158	12736.1263
833.343	12498.98603
833.528	12379.36957
833.714	12117.75109
833.899	12275.95326
834.084	12081.23645
834.269	12464.52263
834.454	12206.99883
834.639	12340.84404
834.824	12373.28676
835.009	12314.48302
835.194	12227.28041
835.379	12488.84993
835.564	12077.17912
835.749	12419.92011
835.934	12138.03594
836.119	12174.54677
836.304	11717.9771
836.489	11898.62514
836.674	11803.23516
836.859	11849.91768
837.044	11756.54812
837.228	11953.41535
837.413	11833.68079
837.598	11849.91768
837.783	11695.64505
837.968	11860.06547
838.152	11581.9378
838.337	11685.49377
838.522	11409.29067
838.707	11579.90705
838.891	11354.43521
839.076	11799.1756
839.261	11685.49377
839.445	12178.60338
839.63	11569.75318
839.815	11476.32656
839.999	11348.33971
840.184	11636.76449
840.368	11494.60726
840.553	11874.27201
840.737	11500.70065
840.922	11553.5065
841.106	11555.53737
841.291	11880.3604
841.475	11496.6384
841.66	11894.56637
841.844	11506.79396
842.029	11681.43319
842.213	11384.91136
842.397	11354.43521
842.582	11096.31178
842.766	11443.82563
842.951	11067.84681
843.135	11199.98781
843.319	11376.7846
843.504	11456.01377
843.688	11307.70075
843.872	11510.85612
844.056	11374.75289
844.241	11191.85735
844.425	11380.848
844.609	10864.46252
844.793	10762.72748
844.977	10842.08331
845.161	10856.32479
845.346	11098.34491
845.53	11008.87687
845.714	10809.52923
845.898	10524.54997
846.082	10500.11189
846.266	10579.529
846.45	10553.05876
846.634	10597.85332
846.818	10500.11189
847.002	10502.14847
847.186	10451.23021
847.37	10206.70854
847.554	10328.99332
847.738	10147.58664
847.922	10402.34111
848.106	10434.93468
848.29	10640.60615
848.473	10711.84887
848.657	10540.84101
848.841	10591.74532
849.025	10555.09501
849.209	10498.0753
849.392	10575.45679
849.576	10500.11189
849.76	10528.62281
849.944	10314.72926
850.127	10479.74542
850.311	10141.46992
850.495	10031.34732
850.678	9978.31055
850.862	10467.52493
851.046	10386.04307
851.229	10302.5024
851.413	10225.05437
851.596	10194.47738
851.78	10198.55449
851.964	10306.57807
852.147	9945.66769
852.331	9843.63461
852.514	9712.97786
852.698	10053.78304
852.881	9653.75349
853.065	9888.5337
853.248	9725.22957
853.431	9719.10379
853.615	9394.23593
853.798	9778.31397
853.982	9433.07782
854.165	9690.51497
854.348	9514.83115
854.532	9535.26548
854.715	9320.62458
854.898	9343.1192
855.081	8931.75772
855.265	9163.10567
855.448	8989.10366
855.631	9316.53443
855.814	9169.24464
855.997	9257.21984
856.181	9210.16723
856.364	9146.73432
856.547	8845.71268
856.73	9263.35649
856.913	8523.78305
857.096	9015.72386
857.279	8886.69044
857.462	9308.35394
857.645	9048.48313
857.828	9308.35394
858.011	8952.24001
858.194	9298.12796
858.377	8958.38434
858.56	9079.1909
858.743	9091.47292
858.926	9169.24464
859.109	8886.69044
859.292	8868.25134
859.475	8655.07062
859.658	8829.31955
859.841	8691.98147
860.023	8669.42555
860.206	8554.56048
860.389	9048.48313
860.572	8819.07327
860.755	9009.581
860.937	8952.24001
861.12	8997.29481
861.303	8776.03391
861.486	8763.73547
861.668	8632.51103
861.851	8295.8962
862.034	8320.54412
862.216	8468.37291
862.399	8189.05586
862.581	8106.83445
862.764	7995.78448
862.947	8373.9383
863.129	8275.35412
863.312	8217.82582
863.494	8137.67122
863.677	8125.33705
863.859	8497.10582
864.042	8607.89799
864.224	8349.29646
864.406	8517.62705
864.589	8030.75103
864.771	8205.49631
864.954	7884.6751
865.136	8110.94628
865.318	8057.48619
865.501	7993.72744
865.683	7810.56876
865.865	7837.33248
866.048	7814.68648
866.23	7864.0927
866.412	7625.18428
866.594	7511.80919
866.777	7641.66983
866.959	7818.80413
867.141	7610.75832
867.323	7676.6971
867.505	7662.27485
867.687	7954.63983
867.869	7911.42913
868.052	8049.26035
868.234	7602.51444
868.416	7915.54482
868.598	7526.24234
868.78	7649.91209
868.962	7668.45594
869.144	7651.9726
869.326	7464.37853
869.508	7600.45341
869.69	7377.73646
869.872	8055.42976
870.054	7995.78448
870.236	7950.52491
870.417	7796.15607
870.599	7769.38692
870.781	7633.42723
870.963	7997.8415
871.145	7670.51627
871.327	7757.03074
871.508	7418.99936
871.69	7575.71947
871.872	7235.3123
872.054	7452.00343
872.235	7381.86314
872.417	7410.74748
872.599	7251.83061
872.78	7340.59239
872.962	6877.7549
873.144	6948.07938
873.325	6923.26196
873.507	7123.77665
873.689	6914.98877
873.87	7156.831
874.052	7154.76527
874.233	7443.75293
874.415	7295.18446
874.596	7427.2509
874.778	7214.66243
874.959	7443.75293
875.141	7295.18446
875.322	7241.50683
875.503	7344.71986
875.685	7342.65614
875.866	7266.28297
876.048	7291.05594
876.229	7167.15932
876.41	7297.24869
876.592	7008.04139
876.773	7443.75293
876.954	7005.97405
877.136	7371.54627
877.317	6964.62252
877.498	6931.5348
877.679	6848.79013
877.86	7414.87347
878.042	7303.44124
878.223	7427.2509
878.404	7078.3176
878.585	7191.94501
878.766	7026.64644
878.947	7412.81048
879.128	6972.89355
879.309	7117.57832
879.49	7016.31053
879.672	7253.8953
879.853	6950.14735
880.034	7092.78301
880.215	6925.33021
880.396	7214.66243
880.576	7020.44496
880.757	7098.98214
880.938	6910.85203
881.119	7394.24267
881.3	7274.54098
881.481	7503.5612
881.662	7270.41202
881.843	7703.47854
882.023	7194.01034
882.204	7497.37498
882.385	7342.65614
882.566	7400.43213
882.747	7307.5695
882.927	7511.80919
883.108	7375.67309
883.289	7565.41275
883.469	7487.06418
883.65	7515.93305
883.831	7220.85762
884.011	7468.50338
884.192	7286.92733
884.373	7342.65614
884.553	7227.05262
884.734	7371.54627
884.914	7080.38415
885.095	7309.63359
885.275	7105.18107
885.456	7179.55256
885.636	7115.51217
885.817	7433.43933
885.997	7179.55256
886.178	7480.87744
886.358	7394.24267
886.538	7229.11757
886.719	7090.71659
886.899	7288.99165
887.08	7059.7176
887.26	7377.73646
887.44	7041.11578
887.621	7476.75284
887.801	7154.76527
887.981	7363.29239
888.161	7113.446
888.342	7202.27144
888.522	7014.24328
888.702	7439.62756
888.882	7198.14094
889.062	7272.47651
889.242	7165.0937
889.423	7517.99496
889.603	7319.95374
889.783	7691.11832
889.963	7055.58402
890.143	7468.50338
890.323	7154.76527
890.503	7676.6971
890.683	7493.25072
890.863	7532.42766
891.043	7278.66985
891.223	7610.75832
891.403	7509.74722
891.583	7509.74722
891.763	7307.5695
891.943	7249.7659
892.122	7142.37042
892.302	7113.446
892.482	6792.91693
892.662	6972.89355
892.842	7117.57832
893.022	7146.50213
893.201	6977.02893
893.381	7160.96239
893.561	7065.9178
893.741	7402.49525
893.92	7115.51217
894.1	7123.77665
894.28	7313.76172
894.459	7377.73646
894.639	6966.69031
894.819	7243.57163
894.998	6941.87533
895.178	7111.3798
895.357	7016.31053
895.537	7030.78065
895.716	6749.44849
895.896	7028.71356
896.075	7014.24328
896.255	7047.31659
896.434	6923.26196
896.614	6906.71521
896.793	6676.97865
896.973	6790.84723
897.152	6859.1352
897.331	6701.82861
897.511	6815.68209
897.69	6844.65195
897.87	6592.04959
898.049	6633.48323
898.228	6712.18179
898.407	7167.15932
898.587	7063.85109
898.766	6906.71521
898.945	6674.90767
899.124	6774.28883
899.304	6654.1966
899.483	6741.16764
899.662	6693.54566
899.841	6923.26196
900.02	6527.80917
900.199	6828.09829
900.378	6542.31701
900.557	6712.18179
900.737	6440.73825
900.916	6554.75141
901.095	6536.09951
901.274	6811.54318
901.453	6386.81665
901.632	6575.47354
901.811	6363.99892
901.989	6666.62352
902.168	6289.30299
902.347	6523.66386
902.526	6413.77942
902.705	6343.25309
902.884	6123.20337
903.063	6305.9047
903.242	6401.33555
903.42	6461.47313
903.599	6200.0431
903.778	6274.77526
903.957	6160.58888
904.135	6262.32201
904.314	6316.28001
904.493	6322.50492
904.672	6254.01937
904.85	6343.25309
905.029	5911.20816
905.207	6133.589
905.386	5753.09146
905.565	6081.65499
905.743	5896.65048
905.922	6021.39312
906.1	5611.50308
906.279	6241.56471
906.457	5844.64932
906.636	5973.58514
906.814	5707.2954
906.993	5780.1474
907.171	5698.96761
907.35	5701.04959
907.528	5563.58821
907.707	5753.09146
907.885	5761.41679
908.063	5844.64932
908.242	5503.15604
908.42	5852.9705
908.598	5478.14383
908.777	5919.52632
908.955	5713.54099
909.133	5952.79517
909.311	5546.91924
909.49	5794.71434
909.668	5221.57374
909.846	5394.74534
910.024	5246.62057
910.202	5428.10925
910.38	5280.0111
910.559	5419.76884
910.737	5027.34721
910.915	5261.22966
911.093	5106.73286
911.271	5156.8539
911.449	5200.69882
911.627	5200.69882
911.805	5077.48941
911.983	5179.82157
912.161	4864.29339
912.339	5154.76579
912.517	4914.47868
912.695	5119.26437
912.872	4958.37997
913.05	5081.66732
913.228	4600.60594
913.406	4862.20205
913.584	4776.43749
913.762	4941.65687
913.939	4832.9209
914.117	4770.16054
914.295	4669.70155
914.473	4853.83646
914.65	4575.47423
914.828	4703.19366
915.006	4481.20184
915.184	4736.67999
915.361	4558.71797
915.539	4671.79498
915.716	4525.2012
915.894	4596.41754
916.072	4510.53583
916.249	4881.02328
916.427	4495.86937
916.604	4552.43401
916.782	4263.15813
916.959	4508.44068
917.137	4296.71855
917.314	4376.40246
917.492	4292.5238
917.669	4382.69196
917.847	4099.47313
918.024	4198.11924
918.201	3975.57571
918.379	4518.91617
918.556	4007.08185
918.733	4439.28865
918.911	3771.72658
919.088	4072.17988
919.265	3908.34733
919.442	4080.57818
919.62	3969.27393
919.797	4170.8388
919.974	4038.58337
920.151	4095.2744
920.328	3788.54595
920.506	4063.78125
920.683	3954.56907
920.86	3824.28293
921.037	3786.44359
921.214	4233.78826
921.391	3639.2308
921.568	4000.78099
921.745	3788.54595
921.922	3998.68066
922.099	3597.15284
922.276	3754.90597
922.453	3611.88098
922.63	3601.36097
922.807	3197.05164
922.984	3154.89967
923.161	2982.01004
923.338	3302.40252
923.514	3129.60537
923.691	3382.44069
923.868	3205.48124
924.045	3384.54662
924.222	3209.69595
924.399	3595.04874
924.575	3277.12215
924.752	3411.92208
924.929	3232.87564
925.105	3293.976
925.282	3013.64399
925.459	3157.00742
925.635	2840.67113
925.812	3095.87605
925.989	2779.47479
926.165	3070.5764
926.342	2965.13722
926.518	2929.2793
926.695	2749.92762
926.871	2728.82089
927.048	2530.35557
927.224	2644.38098
927.401	2625.3792
927.577	2650.71468
927.754	2498.67575
927.93	2836.45107
928.107	2752.03822
928.283	2939.82619
928.459	2903.96528
928.636	2863.88047
928.812	2644.38098
928.988	2777.36436
929.165	2365.59352
929.341	2549.36222
929.517	2431.08373
929.693	2549.36222
929.87	2471.21785
930.046	2745.70638
930.222	2431.08373
930.398	2566.25623
930.574	2338.12697
930.751	2500.78782
930.927	2243.03788
931.103	2369.819
931.279	2367.70627
931.455	2473.33006
931.631	2073.94715
931.807	2435.30856
931.983	2073.94715
932.159	2221.90444
932.335	2027.4386
932.511	2247.26446
932.687	2128.90725
932.863	2238.81126
933.039	1824.45712
933.215	1999.95473
933.391	1980.92679
933.566	2012.63973
933.742	1750.44196
933.918	1796.96637
934.094	1655.27313
934.27	1771.58965
934.445	1538.94892
934.621	1851.94711
934.797	1452.23208
934.973	1507.22337
935.148	1405.70098
935.324	1667.96266
935.5	1297.83507
935.675	1388.78064
935.851	1312.63997
936.027	1399.35585
936.202	1109.61373
936.378	1327.44495
936.553	1041.9467
936.729	999.65772
936.904	832.64368
937.08	883.37696
937.255	714.28698
937.431	792.48349
937.606	775.57496
937.782	832.64368
937.957	739.64646
938.133	701.60782
938.308	688.92907
938.483	691.04216
938.659	636.1054
938.834	665.68575
939.009	513.58486
939.185	555.82823
939.36	503.0249
939.535	500.91295
939.71	435.44996
939.886	534.70585
940.061	536.81802
940.236	467.12378
940.411	412.22473
940.586	401.66845
940.761	344.67174
940.937	435.44996
941.112	391.11258
941.287	408.00217
941.462	340.45025
941.637	344.67174
941.812	268.69598
941.987	336.22884
942.162	329.89685
942.337	334.11816
942.512	348.89329
942.687	416.44736
942.862	351.00409
943.037	408.00217
943.212	283.46719
943.386	344.67174
943.561	283.46719
943.736	302.46008
943.911	201.1824
944.086	279.24676
944.26	302.46008
944.435	399.55725
944.61	281.35697
944.785	241.26619
944.959	205.40141
945.134	239.15634
945.309	230.71714
945.483	272.91624
945.658	310.90184
945.833	281.35697
946.007	251.81573
946.182	317.23335
946.357	306.68093
946.531	317.23335
946.706	264.47581
946.88	285.57744
947.055	285.57744
947.229	313.01233
947.404	264.47581
947.578	241.26619
947.752	228.60739
947.927	226.49765
948.101	226.49765
948.276	256.03568
948.45	315.12283
948.624	408.00217
948.799	319.34389
948.973	353.11491
949.147	281.35697
949.321	247.59586
949.496	224.38794
949.67	180.08857
949.844	289.79799
950.018	291.9083
950.193	207.51095
950.367	386.89035
950.541	281.35697
950.715	298.23931
950.889	279.24676
951.063	260.25571
951.237	272.91624
951.411	372.11307
951.585	277.13656
951.759	306.68093
951.933	334.11816
952.107	302.46008
952.281	253.9257
952.455	315.12283
952.629	203.2919
952.803	275.02639
952.977	256.03568
953.151	365.78019
953.325	241.26619
953.499	361.55837
953.672	427.0042
953.846	424.8928
954.02	260.25571
954.194	359.44748
954.368	264.47581
954.541	291.9083
954.715	253.9257
954.889	325.67561
955.062	317.23335
955.236	313.01233
955.41	300.34969
955.583	408.00217
955.757	245.48595
955.93	306.68093
956.104	281.35697
956.278	391.11258
956.451	361.55837
956.625	264.47581
956.798	268.69598
956.972	374.22406
957.145	260.25571
957.319	323.56502
957.492	251.81573
957.665	319.34389
957.839	380.55713
958.012	317.23335
958.185	230.71714
958.359	361.55837
958.532	308.79138
958.705	467.12378
958.879	281.35697
959.052	414.33604
959.225	355.22575
959.398	363.66927
959.572	340.45025
959.745	315.12283
959.918	253.9257
960.091	325.67561
960.264	384.77926
960.438	357.33661
960.611	340.45025
960.784	367.89113
960.957	294.01862
961.13	302.46008
961.303	224.38794
961.476	281.35697
961.649	327.78622
961.822	327.78622
961.995	234.9367
962.168	393.22373
962.341	359.44748
962.514	353.11491
962.686	277.13656
962.859	382.66819
963.032	289.79799
963.205	317.23335
963.378	300.34969
963.551	355.22575
963.723	205.40141
963.896	283.46719
964.069	285.57744
964.242	213.83967
964.414	239.15634
964.587	308.79138
964.76	249.70578
964.932	270.8061
965.105	342.56099
965.278	302.46008
965.45	224.38794
965.623	277.13656
965.795	226.49765
965.968	194.85404
966.14	277.13656
966.313	359.44748
966.485	268.69598
966.658	188.52586
966.83	203.2919
967.003	336.22884
967.175	209.6205
967.348	256.03568
967.52	258.14568
967.692	351.00409
967.865	272.91624
968.037	196.96348
968.209	146.34273
968.382	272.91624
968.554	224.38794
968.726	264.47581
968.898	142.12488
969.071	268.69598
969.243	196.96348
969.415	302.46008
969.587	218.05892
969.759	264.47581
969.932	253.9257
970.104	277.13656
970.276	251.81573
970.448	222.27825
970.62	203.2919
970.792	199.07293
970.964	218.05892
971.136	222.27825
971.308	222.27825
971.48	213.83967
971.652	239.15634
971.824	247.59586
971.996	182.19786
972.168	256.03568
972.339	188.52586
972.511	224.38794
972.683	152.66967
972.855	175.87005
973.027	167.43326
973.199	165.32411
973.37	146.34273
973.542	277.13656
973.714	146.34273
973.886	220.16857
974.057	249.70578
974.229	182.19786
974.401	234.9367
974.572	241.26619
974.744	154.77869
974.915	171.65161
975.087	213.83967
975.259	192.74463
975.43	184.30718
975.602	154.77869
975.773	203.2919
975.945	158.99679
976.116	194.85404
976.288	169.54242
976.459	215.94929
976.63	161.10588
976.802	232.82691
976.973	161.10588
977.145	146.34273
977.316	237.04651
977.487	121.0369
977.659	146.34273
977.83	173.76082
978.001	205.40141
978.172	158.99679
978.344	156.88773
978.515	45.13842
978.686	97.84262
978.857	142.12488
979.028	175.87005
979.2	121.0369
979.371	194.85404
979.542	192.74463
979.713	192.74463
979.884	165.32411
980.055	205.40141
980.226	148.45169
980.397	173.76082
980.568	127.36306
980.739	87.30066
980.91	137.90711
981.081	140.01598
981.252	102.05957
981.423	108.38515
981.594	150.56067
981.765	180.08857
981.936	154.77869
982.106	112.60231
982.277	131.58062
982.448	97.84262
982.619	72.54284
982.79	87.30066
982.96	121.0369
983.131	175.87005
983.302	116.81956
983.472	118.92822
983.643	154.77869
983.814	89.40901
983.984	137.90711
984.155	112.60231
984.326	158.99679
984.496	108.38515
984.667	28.27611
984.837	129.47183
985.008	106.2766
985.178	97.84262
985.349	135.79826
985.519	108.38515
985.69	114.71092
985.86	129.47183
986.031	99.95108
986.201	57.78613
986.371	64.1103
986.542	121.0369
986.712	62.00222
986.882	150.56067
987.053	97.84262
987.223	154.77869
987.393	140.01598
987.563	89.40901
987.734	146.34273
987.904	53.57014
988.074	19.84552
988.244	89.40901
988.414	62.00222
988.585	106.2766
988.755	59.89417
988.925	121.0369
989.095	53.57014
989.265	80.97574
989.435	45.13842
989.605	106.2766
989.775	89.40901
989.945	104.16807
990.115	36.70708
990.285	64.1103
990.455	28.27611
990.625	116.81956
990.795	91.51738
990.965	55.67812
991.134	87.30066
991.304	95.73419
991.474	53.57014
991.644	47.24632
991.814	55.67812
991.984	150.56067
992.153	74.65103
992.323	70.43467
992.493	87.30066
992.662	129.47183
992.832	137.90711
993.002	125.25432
993.171	129.47183
993.341	144.23379
993.511	85.19233
993.68	188.52586
993.85	32.49155
994.019	104.16807
994.189	123.1456
994.358	78.86748
994.528	70.43467
994.697	-18.08741
994.867	129.47183
995.036	93.62577
995.206	32.49155
995.375	97.84262
995.544	64.1103
995.714	66.2184
995.883	57.78613
996.052	140.01598
996.222	137.90711
996.391	45.13842
996.56	91.51738
996.73	-22.3017
996.899	129.47183
997.068	70.43467
997.237	80.97574
997.406	140.01598
997.576	83.08402
997.745	47.24632
997.914	30.38382
998.083	76.75925
998.252	47.24632
998.421	59.89417
998.59	26.16843
998.759	95.73419
998.928	87.30066
999.097	112.60231
999.266	32.49155
999.435	72.54284
999.604	59.89417
999.773	36.70708
999.942	180.08857
1000.111	40.92271
1000.28	15.63036
1000.448	51.46218
1000.617	106.2766
1000.786	104.16807
1000.955	38.81488
1001.124	40.92271
1001.292	36.70708
1001.461	26.16843
1001.63	66.2184
1001.798	-41.26476
1001.967	68.32652
1002.136	36.70708
1002.304	49.35423
1002.473	11.4153
1002.642	38.81488
1002.81	62.00222
1002.979	78.86748
1003.147	9.30781
1003.316	87.30066
1003.484	53.57014
1003.653	64.1103
1003.821	40.92271
1003.99	78.86748
1004.158	32.49155
1004.327	70.43467
1004.495	21.95313
1004.663	78.86748
1004.832	-18.08741
1005	80.97574
1005.168	70.43467
1005.337	47.24632
1005.505	112.60231
1005.673	21.95313
1005.842	9.30781
1006.01	106.2766
1006.178	70.43467
1006.346	15.63036
1006.514	15.63036
1006.683	74.65103
1006.851	78.86748
1007.019	51.46218
1007.187	19.84552
1007.355	104.16807
1007.523	70.43467
1007.691	87.30066
1007.859	57.78613
1008.027	87.30066
1008.195	40.92271
1008.363	78.86748
1008.531	36.70708
1008.699	15.63036
1008.867	43.03055
1009.035	104.16807
1009.203	62.00222
1009.37	85.19233
1009.538	49.35423
1009.706	36.70708
1009.874	0.87808
1010.042	40.92271
1010.209	38.81488
1010.377	78.86748
1010.545	51.46218
1010.713	-1.2293
1010.88	78.86748
1011.048	40.92271
1011.216	47.24632
1011.383	106.2766
1011.551	28.27611
1011.718	112.60231
1011.886	28.27611
1012.054	11.4153
1012.221	36.70708
1012.389	-60.2258
1012.556	36.70708
1012.724	24.06077
1012.891	121.0369
1013.058	93.62577
1013.226	38.81488
1013.393	-3.33665
1013.561	91.51738
1013.728	11.4153
1013.895	45.13842
1014.063	2.98547
1014.23	-5.44397
1014.397	-18.08741
1014.565	78.86748
1014.732	40.92271
1014.899	49.35423
1015.066	-1.2293
1015.233	34.5993
1015.401	78.86748
1015.568	57.78613
1015.735	30.38382
1015.902	-28.62294
1016.069	30.38382
1016.236	59.89417
1016.403	24.06077
1016.57	-1.2293
1016.737	78.86748
1016.904	30.38382
1017.071	38.81488
1017.238	7.20034
1017.405	32.49155
1017.572	40.92271
1017.739	28.27611
1017.906	19.84552
1018.073	2.98547
1018.24	78.86748
1018.407	87.30066
1018.573	80.97574
1018.74	51.46218
1018.907	45.13842
1019.074	5.09289
1019.241	57.78613
1019.407	-3.33665
1019.574	-18.08741
1019.741	24.06077
1019.907	15.63036
1020.074	70.43467
1020.241	15.63036
1020.407	-1.2293
1020.574	53.57014
1020.74	2.98547
1020.907	45.13842
1021.073	7.20034
1021.24	-28.62294
1021.406	32.49155
1021.573	70.43467
1021.739	47.24632
1021.906	47.24632
1022.072	78.86748
1022.239	28.27611
1022.405	-3.33665
1022.571	7.20034
1022.738	43.03055
1022.904	-41.26476
1023.07	51.46218
1023.237	19.84552
1023.403	-26.51589
1023.569	72.54284
1023.735	-13.87303
1023.902	36.70708
1024.068	47.24632
1024.234	78.86748
1024.4	11.4153
1024.566	-13.87303
1024.732	76.75925
1024.898	9.30781
1025.065	53.57014
1025.231	-53.90568
1025.397	104.16807
1025.563	78.86748
1025.729	80.97574
1025.895	40.92271
1026.061	19.84552
1026.227	95.73419
1026.392	26.16843
1026.558	53.57014
1026.724	-20.19457
1026.89	-13.87303
1027.056	55.67812
1027.222	47.24632
1027.388	74.65103
1027.553	21.95313
1027.719	34.5993
1027.885	127.36306
1028.051	83.08402
1028.216	5.09289
1028.382	87.30066
1028.548	57.78613
1028.713	34.5993
1028.879	-5.44397
1029.045	57.78613
1029.21	36.70708
1029.376	55.67812
1029.541	-37.05092
1029.707	19.84552
1029.873	49.35423
1030.038	-9.65855
1030.204	24.06077
1030.369	-34.94396
1030.534	2.98547
1030.7	45.13842
1030.865	26.16843
1031.031	80.97574
1031.196	21.95313
1031.361	53.57014
1031.527	-13.87303
1031.692	36.70708
1031.857	57.78613
1032.023	45.13842
1032.188	30.38382
1032.353	-5.44397
1032.518	30.38382
1032.684	2.98547
1032.849	78.86748
1033.014	-24.40881
1033.179	-13.87303
1033.344	19.84552
1033.509	-3.33665
1033.674	30.38382
1033.839	-26.51589
1034.004	62.00222
1034.17	-18.08741
1034.335	66.2184
1034.5	30.38382
1034.664	-7.55127
1034.829	99.95108
1034.994	11.4153
1035.159	-77.07833
1035.324	7.20034
1035.489	-11.7658
1035.654	28.27611
1035.819	64.1103
1035.984	-3.33665
1036.148	-1.2293
1036.313	11.4153
1036.478	26.16843
1036.643	-20.19457
1036.807	19.84552
1036.972	80.97574
1037.137	45.13842
1037.301	13.52282
1037.466	49.35423
1037.631	-9.65855
1037.795	40.92271
1037.96	11.4153
1038.124	-13.87303
1038.289	15.63036
1038.454	53.57014
1038.618	24.06077
1038.783	2.98547
1038.947	45.13842
1039.111	28.27611
1039.276	38.81488
1039.44	15.63036
1039.605	66.2184
1039.769	-5.44397
1039.933	49.35423
1040.098	-24.40881
1040.262	112.60231
1040.426	-9.65855
1040.591	13.52282
1040.755	55.67812
1040.919	57.78613
1041.083	15.63036
1041.248	87.30066
1041.412	47.24632
1041.576	30.38382
1041.74	26.16843
1041.904	78.86748
1042.068	-53.90568
1042.232	2.98547
1042.397	74.65103
1042.561	24.06077
1042.725	2.98547
1042.889	-26.51589
1043.053	2.98547
1043.217	2.98547
1043.381	-5.44397
1043.544	53.57014
1043.708	30.38382
1043.872	64.1103
1044.036	62.00222
1044.2	-9.65855
1044.364	-1.2293
1044.528	72.54284
1044.691	-5.44397
1044.855	-68.65227
1045.019	-64.43909
1045.183	19.84552
1045.346	-37.05092
1045.51	38.81488
1045.674	0.87808
1045.837	26.16843
1046.001	62.00222
1046.165	57.78613
1046.328	32.49155
1046.492	24.06077
1046.655	47.24632
1046.819	57.78613
1046.983	49.35423
1047.146	-5.44397
1047.31	-11.7658
1047.473	-11.7658
1047.636	87.30066
1047.8	-1.2293
1047.963	38.81488
1048.127	55.67812
1048.29	5.09289
