Data from absorb_only_2.23.25_USB4F045381__21__0126.txt Node

Date: Sun Feb 23 19:15:51 EST 2025
User: ssocol
Spectrometer: USB4F04538
Trigger mode: 4
Integration Time (sec): 2.600000E-3
Scans to average: 1
Electric dark correction enabled: true
Nonlinearity correction enabled: true
Boxcar width: 0
XAxis mode: Wavelengths
Number of Pixels in Spectrum: 3648
>>>>>Begin Spectral Data<<<<<
345.52	-25.81353
345.736	-25.81353
345.952	-25.81353
346.168	-42.66935
346.384	-27.92059
346.6	14.22533
346.816	-57.41689
347.032	-17.38502
347.248	-4.74153
347.464	28.97868
347.68	-32.13465
347.896	62.70491
348.112	96.437
348.328	10.01031
348.544	-2.6342
348.76	-30.02763
348.975	-67.95008
349.191	-57.41689
349.407	24.76332
349.623	12.11781
349.839	-6.84884
350.055	-0.52684
350.27	-40.56246
350.486	-42.66935
350.702	-61.63024
350.918	-6.84884
351.133	-17.38502
351.349	-101.65198
351.565	-55.31017
351.781	-46.88306
351.996	-80.58907
352.212	41.62532
352.428	-34.24164
352.644	-40.56246
352.859	24.76332
353.075	41.62532
353.291	-99.54581
353.506	-57.41689
353.722	-34.24164
353.938	-63.73688
354.153	-74.26969
354.369	-53.20343
354.584	75.35377
354.8	-89.01455
355.016	-32.13465
355.231	-2.6342
355.447	18.44046
355.662	18.44046
355.878	-46.88306
356.093	-0.52684
356.309	16.33288
356.524	-63.73688
356.74	-21.59933
356.955	-27.92059
357.171	-84.80186
357.386	-57.41689
357.602	-27.92059
357.817	-55.31017
358.033	-13.17063
358.248	-2.6342
358.464	-8.95613
358.679	-114.28848
358.895	-0.52684
359.11	20.54805
359.325	28.97868
359.541	-32.13465
359.756	24.76332
359.972	-44.77622
360.187	-19.49219
360.402	-55.31017
360.618	1.58054
360.833	-46.88306
361.048	-42.66935
361.264	-4.74153
361.479	-55.31017
361.694	7.90283
361.909	-4.74153
362.125	-70.05664
362.34	-17.38502
362.555	35.30189
362.77	3.68794
362.986	-61.63024
363.201	-59.52357
363.416	-48.98987
363.631	-32.13465
363.847	-0.52684
364.062	-25.81353
364.277	-30.02763
364.492	7.90283
364.707	-42.66935
364.922	-89.01455
365.138	-32.13465
365.353	5.79537
365.568	-34.24164
365.783	-23.70644
365.998	-78.48264
366.213	-38.45555
366.428	-25.81353
366.643	-34.24164
366.858	-46.88306
367.073	-67.95008
367.288	-51.09666
367.503	-36.3486
367.718	-13.17063
367.933	-4.74153
368.148	5.79537
368.363	-4.74153
368.578	-80.58907
368.793	3.68794
369.008	-51.09666
369.223	-8.95613
369.438	1.58054
369.653	-55.31017
369.868	7.90283
370.083	26.87099
370.298	-4.74153
370.513	-30.02763
370.728	-51.09666
370.943	35.30189
371.157	-17.38502
371.372	14.22533
371.587	-65.84349
371.802	-95.33338
372.017	-27.92059
372.232	28.97868
372.446	-17.38502
372.661	-46.88306
372.876	-21.59933
373.091	-91.12085
373.306	-76.37618
373.52	45.84105
373.735	12.11781
373.95	-51.09666
374.165	-59.52357
374.379	-21.59933
374.594	3.68794
374.809	58.48881
375.023	45.84105
375.238	-57.41689
375.453	-2.6342
375.667	-72.16318
375.882	7.90283
376.097	22.65567
376.311	-38.45555
376.526	-67.95008
376.741	-32.13465
376.955	-4.74153
377.17	-25.81353
377.384	-11.06339
377.599	-0.52684
377.813	-38.45555
378.028	-30.02763
378.242	1.58054
378.457	-34.24164
378.672	1.58054
378.886	24.76332
379.101	-36.3486
379.315	-48.98987
379.53	3.68794
379.744	-17.38502
379.958	-25.81353
380.173	-67.95008
380.387	-74.26969
380.602	1.58054
380.816	31.08639
381.031	-25.81353
381.245	-8.95613
381.459	16.33288
381.674	43.73317
381.888	-42.66935
382.103	-63.73688
382.317	18.44046
382.531	26.87099
382.746	12.11781
382.96	16.33288
383.174	-17.38502
383.388	-21.59933
383.603	-2.6342
383.817	1.58054
384.031	-17.38502
384.246	75.35377
384.46	7.90283
384.674	-30.02763
384.888	24.76332
385.103	-34.24164
385.317	-17.38502
385.531	14.22533
385.745	-4.74153
385.959	-13.17063
386.174	-38.45555
386.388	-40.56246
386.602	-8.95613
386.816	-23.70644
387.03	-27.92059
387.244	66.92111
387.458	-15.27784
387.672	20.54805
387.887	3.68794
388.101	-51.09666
388.315	-38.45555
388.529	-4.74153
388.743	-72.16318
388.957	16.33288
389.171	-59.52357
389.385	-76.37618
389.599	-15.27784
389.813	33.19413
390.027	-30.02763
390.241	-70.05664
390.455	1.58054
390.669	35.30189
390.883	7.90283
391.097	-13.17063
391.311	-23.70644
391.525	33.19413
391.738	-15.27784
391.952	-17.38502
392.166	-51.09666
392.38	90.11179
392.594	35.30189
392.808	-63.73688
393.022	-21.59933
393.236	-15.27784
393.449	-67.95008
393.663	16.33288
393.877	28.97868
394.091	-30.02763
394.305	-17.38502
394.518	-27.92059
394.732	-93.22713
394.946	7.90283
395.16	-38.45555
395.373	3.68794
395.587	-0.52684
395.801	14.22533
396.015	7.90283
396.228	-25.81353
396.442	-27.92059
396.656	-23.70644
396.869	-15.27784
397.083	-30.02763
397.297	-21.59933
397.51	10.01031
397.724	20.54805
397.938	-82.69548
398.151	-17.38502
398.365	41.62532
398.578	1.58054
398.792	-59.52357
399.005	35.30189
399.219	-25.81353
399.433	24.76332
399.646	-65.84349
399.86	-4.74153
400.073	39.51749
400.287	-25.81353
400.5	52.16483
400.714	-40.56246
400.927	-34.24164
401.141	-11.06339
401.354	39.51749
401.567	-55.31017
401.781	-23.70644
401.994	-0.52684
402.208	-55.31017
402.421	-34.24164
402.635	1.58054
402.848	24.76332
403.061	-8.95613
403.275	24.76332
403.488	-13.17063
403.701	26.87099
403.915	-48.98987
404.128	-8.95613
404.341	-59.52357
404.555	-44.77622
404.768	-23.70644
404.981	7.90283
405.195	77.46199
405.408	-57.41689
405.621	-19.49219
405.834	-42.66935
406.048	-21.59933
406.261	-8.95613
406.474	-21.59933
406.687	-13.17063
406.9	-38.45555
407.114	-95.33338
407.327	39.51749
407.54	66.92111
407.753	26.87099
407.966	-25.81353
408.179	-27.92059
408.392	66.92111
408.605	10.01031
408.819	-46.88306
409.032	-6.84884
409.245	-80.58907
409.458	10.01031
409.671	-25.81353
409.884	37.40968
410.097	28.97868
410.31	109.088
410.523	-44.77622
410.736	26.87099
410.949	-17.38502
411.162	-19.49219
411.375	-27.92059
411.588	50.05688
411.801	58.48881
412.014	-48.98987
412.227	3.68794
412.44	41.62532
412.653	-0.52684
412.865	16.33288
413.078	26.87099
413.291	100.65391
413.504	-51.09666
413.717	71.13739
413.93	-21.59933
414.143	-4.74153
414.356	-32.13465
414.568	52.16483
414.781	18.44046
414.994	100.65391
415.207	-67.95008
415.42	3.68794
415.632	5.79537
415.845	16.33288
416.058	-32.13465
416.271	-46.88306
416.483	28.97868
416.696	12.11781
416.909	-27.92059
417.121	10.01031
417.334	52.16483
417.547	3.68794
417.759	50.05688
417.972	79.57023
418.185	-38.45555
418.397	-0.52684
418.61	-13.17063
418.823	45.84105
419.035	16.33288
419.248	-2.6342
419.46	54.2728
419.673	24.76332
419.885	18.44046
420.098	-0.52684
420.311	-30.02763
420.523	35.30189
420.736	41.62532
420.948	22.65567
421.161	75.35377
421.373	24.76332
421.586	33.19413
421.798	-25.81353
422.01	-0.52684
422.223	16.33288
422.435	77.46199
422.648	18.44046
422.86	24.76332
423.073	22.65567
423.285	69.02924
423.497	33.19413
423.71	58.48881
423.922	16.33288
424.134	10.01031
424.347	-0.52684
424.559	66.92111
424.771	92.22017
424.984	45.84105
425.196	1.58054
425.408	16.33288
425.621	102.7624
425.833	60.59685
426.045	60.59685
426.257	7.90283
426.47	69.02924
426.682	69.02924
426.894	73.24557
427.106	33.19413
427.318	119.63111
427.531	16.33288
427.743	50.05688
427.955	83.78679
428.167	92.22017
428.379	119.63111
428.591	43.73317
428.804	109.088
429.016	62.70491
429.228	39.51749
429.44	79.57023
429.652	20.54805
429.864	88.00344
430.076	69.02924
430.288	-8.95613
430.5	52.16483
430.712	-0.52684
430.924	66.92111
431.136	54.2728
431.348	52.16483
431.56	62.70491
431.772	75.35377
431.984	1.58054
432.196	41.62532
432.408	102.7624
432.62	96.437
432.832	119.63111
433.044	83.78679
433.256	117.52244
433.468	79.57023
433.679	142.82785
433.891	83.78679
434.103	106.97945
434.315	142.82785
434.527	201.88557
434.739	125.95723
434.95	85.8951
435.162	128.06598
435.374	75.35377
435.586	197.66663
435.798	134.39237
436.009	147.04571
436.221	83.78679
436.433	58.48881
436.645	106.97945
436.856	83.78679
437.068	64.813
437.28	197.66663
437.491	142.82785
437.703	168.13631
437.915	159.69982
438.126	195.55718
438.338	149.15468
438.55	149.15468
438.761	172.35468
438.973	178.68239
439.184	75.35377
439.396	106.97945
439.608	185.01029
439.819	187.11962
440.031	109.088
440.242	170.24549
440.454	197.66663
440.665	163.91802
440.877	159.69982
441.088	246.18925
441.3	176.57313
441.511	214.54287
441.723	193.44776
441.934	153.37267
442.146	111.19658
442.357	161.80891
442.569	197.66663
442.78	170.24549
442.991	277.83996
443.203	220.8718
443.414	279.95016
443.626	197.66663
443.837	256.73901
444.048	248.29916
444.26	298.94277
444.471	265.17916
444.682	225.09118
444.894	168.13631
445.105	191.33836
445.316	332.71105
445.528	244.07936
445.739	277.83996
445.95	210.32369
446.161	273.61962
446.373	324.26855
446.584	220.8718
446.795	239.85962
447.006	246.18925
447.217	246.18925
447.429	362.262
447.64	313.71583
447.851	298.94277
448.062	298.94277
448.273	214.54287
448.484	265.17916
448.695	296.83241
448.907	263.0691
449.118	282.06037
449.329	244.07936
449.54	345.37533
449.751	265.17916
449.962	311.60534
450.173	330.6004
450.384	391.8163
450.595	457.26933
450.806	463.6043
451.017	374.92772
451.228	313.71583
451.439	286.28086
451.65	353.81853
451.861	320.04741
452.072	273.61962
452.283	362.262
452.494	484.72183
452.705	402.37219
452.915	512.17684
453.126	379.14977
453.337	446.71136
453.548	480.4982
453.759	421.37383
453.97	539.63428
454.181	552.30774
454.391	520.62503
454.602	526.96132
454.813	472.05113
455.024	550.19546
455.235	465.71598
455.445	531.18558
455.656	486.83367
455.867	535.4099
456.078	488.94552
456.288	493.16926
456.499	526.96132
456.71	539.63428
456.921	583.99353
457.131	666.39007
457.342	488.94552
457.553	651.59957
457.763	583.99353
457.974	698.0859
458.184	628.35855
458.395	776.27947
458.606	691.74653
458.816	810.0972
459.027	909.45008
459.237	805.86985
459.448	753.03124
459.659	674.84204
459.869	810.0972
460.08	784.73367
460.29	947.50485
460.501	920.02061
460.711	903.10786
460.922	827.00696
461.132	1004.59131
461.343	896.76571
461.553	972.876
461.764	983.44761
461.974	998.24813
462.184	886.19561
462.395	1108.20395
462.605	1207.59829
462.816	958.07604
463.026	1203.36858
463.236	1055.3387
463.447	1319.68995
463.657	1080.71362
463.867	1283.73527
464.078	1317.57495
464.288	1243.55141
464.498	1400.06086
464.709	1378.91046
464.919	1431.78658
465.129	1440.24679
465.339	1448.707
465.55	1510.04342
465.76	1410.63609
465.97	1406.406
466.18	1433.90163
466.391	1689.81661
466.601	1732.11366
466.811	1804.01535
467.021	1651.74825
467.231	1793.44186
467.441	1734.22848
467.651	2049.28395
467.862	1930.88797
468.072	2171.88521
468.282	2083.10751
468.492	2089.44923
468.702	2146.52157
468.912	2343.05699
469.122	2188.79365
469.332	2400.10036
469.542	2273.32756
469.752	2499.37978
469.962	2467.69747
470.172	2503.60389
470.382	2607.08025
470.592	2493.04352
470.802	2708.41647
471.012	2803.39198
471.222	2784.39906
471.432	2938.41996
471.642	2832.93431
471.852	2936.3106
472.062	2807.61248
472.272	3130.30802
472.482	3235.68516
472.691	3307.31787
472.901	3178.78658
473.111	3423.15217
473.321	3345.23308
473.531	3435.78542
473.741	3383.14267
473.95	3642.03573
474.16	3549.45544
474.37	3951.06777
474.58	3837.59524
474.79	4049.7828
474.999	3894.33882
475.209	3921.65459
475.419	3852.30793
475.628	4330.97248
475.838	4219.80114
476.048	4299.51501
476.258	4347.74781
476.467	4527.99448
476.677	4504.94873
476.886	4879.62918
477.096	4749.9334
477.306	4787.59602
477.515	4881.72033
477.725	5023.86462
477.935	4800.14859
478.144	5000.87791
478.354	5174.25391
478.563	5272.35963
478.773	5193.0441
478.982	5508.01913
479.192	5722.56202
479.401	5545.5301
479.611	5468.41594
479.82	5712.1531
480.03	5753.78525
480.239	5791.24612
480.449	5878.62508
480.658	6024.16421
480.868	6308.67151
481.077	6316.97168
481.287	6098.96796
481.496	6731.50619
481.705	6385.43384
481.915	6491.18909
482.124	6397.87877
482.333	6314.89667
482.543	6495.33512
482.752	6588.59636
482.961	6847.41075
483.171	7120.33316
483.38	7008.7305
483.589	7031.46968
483.799	7250.45414
484.008	7566.09989
484.217	7269.03568
484.426	7374.29749
484.636	7475.37796
484.845	7266.97115
485.054	7450.62837
485.263	7788.60615
485.472	7720.64426
485.682	8109.57568
485.891	7967.66985
486.1	7973.84168
486.309	8146.57879
486.518	8364.3557
486.727	7940.92313
486.936	8345.87377
487.146	8329.44406
487.355	8534.72662
487.564	8413.63317
487.773	8551.14098
487.982	8575.76024
488.191	8817.70706
488.4	8729.56971
488.609	8842.29754
488.818	8997.97739
489.027	9116.71733
489.236	8797.213
489.445	9174.01929
489.654	9149.46295
489.863	9660.56155
490.072	9241.53663
490.281	9517.55582
490.49	9486.90165
490.698	9664.6463
490.907	9460.33179
491.116	9936.14615
491.325	9693.23784
491.534	10158.46051
491.743	9825.94512
491.952	9909.6202
492.16	10213.50342
492.369	10195.1569
492.578	10256.30768
492.787	10276.68855
492.996	10572.06325
493.204	10307.25734
493.413	10643.32043
493.622	10547.6287
493.831	10592.424
494.039	10688.10295
494.248	10881.41553
494.457	10987.18444
494.665	10895.65544
494.874	10983.11697
495.083	10834.62327
495.291	11316.5062
495.5	11123.4193
495.709	11328.69805
495.917	11151.88015
496.126	11357.14429
496.335	11349.01699
496.543	11574.49168
496.752	11546.05991
496.96	11728.80437
497.169	11554.18346
497.377	11690.23106
497.586	11409.96786
497.794	11972.35379
498.003	11531.84333
498.211	11962.20828
498.42	11781.58377
498.628	11976.41194
498.837	12158.99616
499.045	12156.96778
499.254	11897.27222
499.462	12378.01784
499.671	12010.90491
499.879	12382.07302
500.087	12558.44792
500.296	12637.49688
500.504	12637.49688
500.713	12682.08451
500.921	12562.50195
501.129	12611.14827
501.338	12607.09454
501.546	12795.56753
501.754	12692.21767
501.962	12844.19767
502.171	12811.77793
502.379	13133.88971
502.587	12830.0142
502.795	13192.62629
503.004	12795.56753
503.212	13079.20041
503.42	13133.88971
503.628	13310.08822
503.837	13065.02113
504.045	13423.48633
504.253	13310.08822
504.461	13516.6256
504.669	13725.14926
504.877	13530.79828
505.085	13551.04465
505.294	13492.32917
505.502	13419.43661
505.71	13814.21688
505.918	13883.03797
506.126	13933.63968
506.334	13348.564
506.542	14044.95778
506.75	13814.21688
506.958	14131.98328
507.166	14049.00557
507.374	14285.78626
507.582	13893.15845
507.79	13970.07189
507.998	14000.43144
508.206	14560.9879
508.414	14293.88085
508.622	14239.24182
508.83	14486.11953
509.037	14637.87802
509.245	14348.51858
509.453	14399.10799
509.661	14433.50823
509.869	14805.81731
510.077	14293.88085
510.285	15012.1942
510.492	14927.21608
510.7	15176.07937
510.908	14779.51394
511.116	14876.63351
511.324	14789.63064
511.531	15202.38189
511.739	14842.23716
511.947	15163.93975
512.155	14989.93808
512.362	14975.77508
512.57	14686.43941
512.778	14894.84327
512.985	15119.42779
513.193	15123.47434
513.401	15143.70705
513.608	15297.47578
513.816	15337.94141
514.024	15137.63723
514.231	15362.22084
514.439	15594.90229
514.646	15726.42201
514.854	15738.56248
515.061	15127.52088
515.269	15645.48636
515.477	15515.99206
515.684	15730.46883
515.892	15799.26542
516.099	15938.88606
516.307	15829.61725
516.514	16426.60194
516.722	16011.73402
516.929	16193.86231
517.136	16005.66329
517.344	16309.21716
517.551	16108.86754
517.759	16357.78939
517.966	16248.50337
518.173	16179.69631
518.381	16456.96115
518.588	16341.59852
518.796	16422.55408
519.003	16347.67008
519.21	16363.86099
519.418	16541.96941
519.625	16386.12369
519.832	16746.40993
520.039	16604.71602
520.247	17090.57426
520.454	16794.99337
520.661	17165.4909
520.868	16845.60262
521.076	17019.71068
521.283	16813.21252
521.49	16794.99337
521.697	17033.88313
521.904	17122.97017
522.112	16799.04205
522.319	17262.68589
522.526	17161.44125
522.733	17598.87233
522.94	17465.19755
523.147	17414.56677
523.354	17260.66093
523.561	17414.56677
523.768	17459.12176
523.975	17718.38146
524.183	17479.37453
524.39	17779.15326
524.597	17542.16012
524.804	17809.5403
525.011	17604.94879
525.218	17611.02528
525.425	17817.64364
525.632	17669.76619
525.838	17989.85275
526.045	17925.01813
526.252	17661.66383
526.459	18243.1482
526.666	18046.58602
526.873	18018.21904
527.08	18016.19285
527.287	18687.06258
527.494	17983.77435
527.701	18320.16137
527.907	18401.23372
528.114	18537.04354
528.321	18431.63742
528.528	19013.53007
528.735	18737.74953
528.941	18798.57712
529.148	18760.05256
529.355	18938.4942
529.562	18537.04354
529.768	18926.32674
529.975	18672.87067
530.182	19177.81716
530.388	18616.10497
530.595	19173.76037
530.802	18822.90916
531.008	19540.96696
531.215	19171.73198
531.422	19309.67189
531.628	19413.13934
531.835	19173.76037
532.042	19591.69679
532.248	19707.37056
532.455	19540.96696
532.661	19445.60194
532.868	19362.41866
533.074	19585.60907
533.281	19547.05441
533.487	19837.2661
533.694	19581.55062
533.9	20188.47613
534.107	19770.28657
534.313	20097.10881
534.52	20340.77392
534.726	19794.64223
534.933	19646.48794
535.139	20082.89688
535.345	20093.04823
535.552	20151.92818
535.758	20458.56707
535.965	20645.44025
536.171	20619.03211
536.377	20696.22711
536.584	20627.15762
536.79	20769.36475
536.996	20653.56597
537.203	20645.44025
537.409	20385.45242
537.615	20631.2204
537.821	20771.39643
538.028	21017.25994
538.234	21102.61507
538.44	20893.30467
538.646	20673.88057
538.853	20901.43242
539.059	20799.84035
539.265	21440.04107
539.471	20875.01749
539.677	21064.00114
539.883	20913.62416
540.09	21005.06694
540.296	21120.90639
540.502	21064.00114
540.708	21442.07409
540.914	21669.79768
541.12	21411.57917
541.326	21354.65774
541.532	21417.67808
541.738	21954.52108
541.944	21830.45372
542.15	21930.11326
542.356	21730.80345
542.562	21932.14722
542.768	21879.2654
542.974	22086.7396
543.18	21454.27231
543.386	21793.84642
543.592	22166.07835
543.798	22284.07978
544.004	22349.18933
544.21	22607.62939
544.415	22381.7455
544.621	23035.0953
544.827	22367.50206
545.033	22917.01823
545.239	22452.96538
545.445	22974.01954
545.651	22469.24482
545.856	22790.81051
546.062	22391.9195
546.268	22754.17203
546.474	22400.05876
546.679	22247.45732
546.885	22587.27769
547.091	22438.72105
547.297	22487.55948
547.502	22442.79084
547.708	22654.43965
547.914	22786.73951
548.119	23035.0953
548.325	22870.1977
548.531	22772.49113
548.736	23145.0392
548.942	22609.66458
549.147	22652.40438
549.353	22864.09081
549.559	23397.53881
549.764	22933.30405
549.97	23155.21968
550.175	23366.99189
550.381	23615.46045
550.586	23073.77817
550.792	23322.19104
550.997	23358.84617
551.203	23454.56161
551.408	23701.00934
551.614	23756.00783
551.819	23923.05341
552.025	24004.54609
552.23	24236.82472
552.435	24136.98127
552.641	24063.6311
552.846	23937.3143
553.052	24073.81841
553.257	24159.39454
553.462	23768.23002
553.668	23764.15594
553.873	24037.14442
554.078	23888.42041
554.283	23790.63762
554.489	24257.20173
554.694	24134.94372
554.899	24084.00579
555.105	24410.03781
555.31	24263.31489
555.515	24489.51838
555.72	24668.87334
555.925	24410.03781
556.131	25019.48514
556.336	24654.60576
556.541	24872.70891
556.746	24803.40212
556.951	24760.59636
557.156	24575.11719
557.361	24522.12692
557.567	25076.568
557.772	25019.48514
557.977	25048.02635
558.182	24970.5584
558.387	24923.67152
558.592	25247.82705
558.797	24927.74859
559.002	24878.82434
559.207	24556.77421
559.412	24915.5174
559.617	24778.94156
559.822	25374.24233
560.027	25441.53119
560.232	25196.85547
560.437	25211.12738
560.642	25382.39844
560.847	25857.54708
561.051	25757.61432
561.256	25508.82229
561.461	25278.41064
561.666	25270.25497
561.871	25286.56635
562.076	25209.08853
562.281	25472.11778
562.485	25382.39844
562.69	25451.72667
562.895	25125.49757
563.1	25855.50759
563.305	25478.23515
563.509	25671.96131
563.714	25378.32038
563.919	25820.83656
564.123	25800.44209
564.328	25851.42862
564.533	25753.53553
564.737	25392.59362
564.942	26251.20214
565.147	26112.49754
565.351	26110.45782
565.556	25702.55128
565.761	25994.19703
565.965	25975.84059
566.17	25794.32379
566.374	25851.42862
566.579	25798.40265
566.784	26202.24667
566.988	26232.84372
567.193	26300.15858
567.397	26157.37169
567.602	26342.99625
567.806	26289.95924
568.011	26563.31554
568.215	26342.99625
568.42	26553.11516
568.624	26444.9936
568.828	26653.08051
569.033	26579.63622
569.237	26726.52676
569.442	26651.04036
569.646	26259.36148
569.85	26644.91993
570.055	26649.00022
570.259	26512.31405
570.463	26712.24539
570.668	26689.80339
570.872	26030.91034
571.076	26440.91363
571.281	26875.46535
571.485	26987.68443
571.689	27057.05834
571.893	27050.93705
572.098	27046.8562
572.302	26830.57893
572.506	27036.65408
572.71	26991.7652
572.914	27567.20788
573.119	27157.04119
573.323	26950.95771
573.527	26973.40176
573.731	27538.6374
573.935	27489.66
574.139	27385.58541
574.343	26908.11045
574.547	27324.3666
574.751	27246.82446
574.955	27238.66224
575.159	27155.00069
575.364	27324.3666
575.568	27444.76467
575.772	27779.45318
575.976	27724.34979
576.18	27375.38219
576.383	27438.64263
576.587	27605.98249
576.791	27448.84604
576.995	27605.98249
577.199	27236.62168
577.403	27373.34155
577.607	27801.90295
577.811	27730.47235
578.015	27622.30878
578.219	27873.33499
578.422	27514.14861
578.626	27891.70346
578.83	27785.57583
579.034	27948.8504
579.238	28212.14595
579.442	28553.02847
579.645	27842.72108
579.849	28191.73478
580.053	28540.78068
580.257	28063.14696
580.46	28252.96862
580.664	28442.79971
580.868	28334.61526
581.071	28630.5987
581.275	28491.78989
581.479	28485.66608
581.682	28112.13228
581.886	28359.10959
582.09	28226.43383
582.293	28657.13623
582.497	28934.77024
582.7	29238.96485
582.904	29283.88145
583.107	29028.68021
583.311	28828.61379
583.515	28804.11654
583.718	28677.54984
583.922	28669.38439
584.125	28914.35532
584.329	28928.64576
584.532	28869.44286
584.735	28893.9405
584.939	29179.75738
585.142	29432.92651
585.346	29367.591
585.549	29420.67602
585.753	29251.21478
585.956	29112.38443
586.159	28867.4014
586.363	29383.92478
586.566	29457.42761
586.769	29200.17365
586.973	29226.71496
587.176	29249.17313
587.379	28936.81174
587.582	28969.47585
587.786	29030.72176
587.989	29481.92885
588.192	29018.4725
588.395	29855.59201
588.599	29884.17977
588.802	30125.14249
589.005	29747.36889
589.208	30023.03771
589.411	29720.82407
589.615	29602.39554
589.818	29982.1966
590.021	29716.74026
590.224	30119.01613
590.427	30051.62676
590.63	30141.47953
590.833	29851.50806
591.036	30139.43739
591.239	30278.30514
591.442	30509.083
591.645	30427.38992
591.848	30582.60849
592.051	30641.83858
592.254	30284.43178
592.457	30086.34234
592.66	30415.13613
592.863	30733.74951
593.066	30580.5661
593.269	30321.19188
593.472	30482.53253
593.675	31393.54958
593.878	31238.28851
594.081	30541.76079
594.284	30707.19719
594.486	30888.98305
594.689	30980.90141
594.892	30433.51683
595.095	30643.88101
595.298	30797.0675
595.5	30925.75005
595.703	31360.86228
595.906	31080.9936
596.109	30754.17453
596.311	31256.67421
596.514	31242.37421
596.717	31013.58419
596.92	31166.78972
597.122	31091.20729
597.325	31266.88855
597.528	31038.09652
597.73	31851.21717
597.933	30809.32275
598.136	31401.72147
598.338	31695.92728
598.541	31738.83529
598.743	31769.48434
598.946	31324.08955
599.148	31571.29413
599.351	31522.2599
599.554	31934.99641
599.756	31375.16292
599.959	32174.0917
600.161	31320.00373
600.363	31522.2599
600.566	31544.7338
600.768	31620.32936
600.971	31757.22467
601.173	31634.63148
601.376	31928.86612
601.578	31556.99238
601.78	31706.1434
601.983	31610.1136
602.185	32008.56132
602.388	31838.95706
602.59	31589.68223
602.792	31851.21717
602.995	31667.32238
603.197	31704.10017
603.399	31671.40877
603.601	31685.7112
603.804	31422.15131
604.006	31834.87037
604.208	31904.34511
604.41	31612.15675
604.613	31922.73584
604.815	31730.66227
605.017	32339.63558
605.219	31702.05695
605.421	31413.97936
605.623	31777.6575
605.826	32151.61149
606.028	32174.0917
606.23	32523.58995
606.432	32388.68832
606.634	32429.56657
606.836	31828.74035
607.038	32382.55666
607.24	32257.88378
607.442	32302.84685
607.644	32323.28495
607.846	32347.81095
608.048	32660.54578
608.25	32519.50188
608.452	32043.30118
608.654	32225.18402
608.856	31955.43086
609.058	32016.73535
609.26	32353.9425
609.462	32188.39742
609.664	32509.28174
609.866	32145.48056
610.067	32425.47871
610.269	31953.38741
610.471	31924.77926
610.673	31861.43399
610.875	31984.0394
611.077	32329.41642
611.278	32450.00603
611.48	32080.08518
611.682	32047.38826
611.884	32625.79479
612.085	32388.68832
612.287	32832.26684
612.489	32439.78627
612.69	32552.20672
612.892	32323.28495
613.094	32965.15841
613.295	32454.09395
613.497	32476.57766
613.699	32192.48478
613.9	32437.74233
614.102	32351.89865
614.304	32159.78608
614.505	32212.92174
614.707	32711.65143
614.908	32045.34471
615.11	32155.69878
615.311	32400.95171
615.513	32407.08343
615.714	32499.06165
615.916	32552.20672
616.117	32386.64443
616.319	32311.02206
616.52	32715.73995
616.722	32971.29214
616.923	32813.86732
617.124	32860.88872
617.326	32241.53383
617.527	32411.17125
617.729	32290.58409
617.93	32509.28174
618.131	32580.82394
618.333	32615.57404
618.534	32599.22097
618.735	32742.31555
618.937	32539.94234
619.138	32611.48576
619.339	32464.31379
619.54	32709.60717
619.742	32261.97129
619.943	32337.59175
620.144	32652.36901
620.345	32760.71428
620.546	32687.12053
620.748	32535.85423
620.949	32535.85423
621.15	32979.47047
621.351	32582.86805
621.552	32811.82294
621.753	32963.11384
621.954	32954.9356
622.155	32441.83022
622.356	32601.2651
622.558	32781.15756
622.759	32676.89942
622.96	32480.66564
623.161	32595.13273
623.362	32550.16265
623.563	32607.39749
623.764	32114.82622
623.965	32531.76613
624.166	32918.13399
624.366	32689.16476
624.567	33053.07738
624.768	33012.18422
624.969	32104.60821
625.17	32548.11858
625.371	32627.83895
625.572	32433.65445
625.773	32486.79762
625.973	32848.62214
626.174	32738.22697
626.375	33134.86694
626.576	32950.84649
626.777	33093.97162
626.977	32856.79985
627.178	33024.45206
627.379	32595.13273
627.58	32548.11858
627.78	32402.99561
627.981	32676.89942
628.182	32979.47047
628.382	33194.16714
628.583	32938.57922
628.784	33014.22886
628.984	32364.1618
629.185	33343.45063
629.386	32629.88311
629.586	32899.73351
629.787	32764.80292
629.987	32584.91216
630.188	32470.44572
630.388	32907.91148
630.589	32803.64545
630.79	33163.49433
630.99	33294.36943
631.191	33635.92879
631.391	33736.16338
631.591	33118.50868
631.792	33118.50868
631.992	33605.24628
632.193	33625.70121
632.393	33300.50449
632.594	33353.6761
632.794	33431.39204
632.994	33351.631
633.195	33417.07562
633.395	32844.5333
633.595	33032.63067
633.796	32973.33671
633.996	33212.57113
634.196	33316.86477
634.397	33809.81015
634.597	33502.97638
634.797	33781.16922
634.997	32989.69344
635.198	32883.3777
635.398	33214.61603
635.598	33727.98067
635.798	33278.0094
635.998	33214.61603
636.199	33423.21121
636.399	33775.03197
636.599	33370.03699
636.799	32995.82726
636.999	33024.45206
637.199	33247.33485
637.399	33243.24496
637.599	33404.80452
637.799	33402.75935
637.999	34311.13785
638.199	33705.47849
638.399	33615.47371
638.599	33198.2569
638.799	33695.25036
638.999	33412.98524
639.199	33543.8834
639.399	33259.60459
639.599	33541.83802
639.799	32879.28877
639.999	33674.79434
640.199	33723.88934
640.399	33877.32351
640.599	32695.29746
640.799	33924.38049
640.998	33646.15646
641.198	33625.70121
641.398	33740.25475
641.598	34149.46141
641.798	34245.64582
641.997	33744.34614
642.197	33627.74672
642.397	34253.83211
642.597	33797.53539
642.796	34094.21024
642.996	33715.70671
643.196	34063.51629
643.395	33396.62385
643.595	33689.11352
643.795	33983.71582
643.994	33922.33449
644.194	33605.24628
644.394	33783.21498
644.593	34047.14652
644.793	34251.78553
644.992	33674.79434
645.192	33408.89488
645.392	33740.25475
645.591	34212.90126
645.791	34063.51629
645.99	34059.42383
646.19	33971.4393
646.389	33468.20638
646.589	33539.79264
646.788	33797.53539
646.987	34051.23894
647.187	34090.11767
647.386	33570.47364
647.586	34131.04406
647.785	34079.8863
647.984	34264.06506
648.184	33777.07772
648.383	33603.20081
648.582	33443.66338
648.782	34333.65165
648.981	34399.14901
649.18	34290.67117
649.38	34370.49342
649.579	34870.0344
649.778	34599.76009
649.977	35019.53722
650.177	34446.22772
650.376	34564.95741
650.575	34278.39135
650.774	34474.88537
650.973	34577.24057
651.173	34190.38994
651.372	34151.5078
651.571	34043.05411
651.77	34350.02561
651.969	34616.13824
652.168	34059.42383
652.367	34620.23282
652.566	34370.49342
652.765	34399.14901
652.964	34657.08479
653.163	34470.79137
653.362	34845.46088
653.561	34120.81232
653.76	34573.14617
653.959	34618.18553
654.158	34431.8992
654.357	34278.39135
654.556	33472.29692
654.755	34096.25653
654.954	33938.70254
655.153	34065.56253
655.352	34231.31996
655.551	34771.74414
655.749	34968.3349
655.948	34454.41554
656.147	34321.37134
656.346	34337.74512
656.545	34472.83837
656.743	34141.27588
656.942	34390.96162
657.141	34663.22691
657.34	34433.94612
657.538	34493.30855
657.737	34438.03997
657.936	34933.51895
658.135	33852.77277
658.333	34440.0869
658.532	34433.94612
658.731	34409.38333
658.929	33768.89474
659.128	33824.13086
659.326	34331.60492
659.525	34470.79137
659.724	34081.93256
659.922	34657.08479
660.121	34352.07238
660.319	34227.22689
660.518	34397.10215
660.716	34657.08479
660.915	34043.05411
661.113	34339.79186
661.312	34116.71965
661.51	34386.86795
661.709	34388.91478
661.907	34286.57788
662.105	34302.95114
662.304	34634.56398
662.502	34634.56398
662.701	34792.22044
662.899	34648.89534
663.097	34777.88699
663.296	33938.70254
663.494	34751.26827
663.692	34530.15591
663.891	34908.94378
664.089	34456.46251
664.287	34593.61836
664.485	34481.02639
664.684	34945.80678
664.882	34286.57788
665.08	33775.03197
665.278	33924.38049
665.476	34243.59926
665.675	33932.5645
665.873	34544.48579
666.071	34515.82623
666.269	34534.25014
666.467	34372.54022
666.665	34812.69719
666.863	34038.96172
667.061	34884.36924
667.259	34728.74531
667.457	35294.03163
667.655	34284.53124
667.853	34268.15827
668.051	33846.63516
668.249	34440.0869
668.447	34470.79137
668.645	34405.28959
668.843	34714.41279
669.041	34274.2981
669.239	33865.04808
669.437	34530.15591
669.635	33973.48538
669.833	34122.85866
670.031	34630.46934
670.229	34399.14901
670.426	34374.58703
670.624	34605.90187
670.822	34024.63846
671.02	34325.46476
671.218	33730.02634
671.415	33750.48325
671.613	33721.84367
671.811	33294.36943
672.009	33376.17238
672.206	33772.98622
672.404	33946.88664
672.602	33865.04808
672.799	34253.83211
672.997	34567.00459
673.195	34106.48805
673.392	34548.58008
673.59	34112.627
673.788	34167.87906
673.985	33768.89474
674.183	33609.33724
674.38	33545.92879
674.578	33811.85595
674.775	34081.93256
674.973	34114.67332
675.17	34106.48805
675.368	34026.68463
675.565	34208.80826
675.763	33860.9563
675.96	33298.45947
676.158	33533.65653
676.355	33173.71853
676.553	33570.47364
676.75	33071.47965
676.947	33194.16714
677.145	33245.2899
677.342	33048.98802
677.539	33367.99187
677.737	34012.36152
677.934	33584.79167
678.131	33725.935
678.329	33574.56449
678.526	33537.74727
678.723	33531.61116
678.92	33754.57467
679.118	33032.63067
679.315	32934.49016
679.512	33032.63067
679.709	32860.88872
679.906	32867.02205
680.104	33488.65921
680.301	33145.09095
680.498	32942.6683
680.695	33417.07562
680.892	33372.08212
681.089	32591.04449
681.286	33014.22886
681.483	32550.16265
681.68	33263.69453
681.877	32995.82726
682.075	32836.35565
682.272	33159.40467
682.469	33568.42821
682.665	32785.24624
682.862	32770.93589
683.059	33361.85652
683.256	33697.29598
683.453	33190.0774
683.65	32715.73995
683.847	32433.65445
684.044	32531.76613
684.241	32531.76613
684.438	32871.11095
684.635	33093.97162
684.831	33592.97348
685.028	33073.52436
685.225	32711.65143
685.422	32680.98786
685.619	32895.64454
685.815	32764.80292
686.012	32854.75542
686.209	31898.21489
686.405	32437.74233
686.602	32433.65445
686.799	32174.0917
686.996	32086.21591
687.192	32458.18188
687.389	32597.17685
687.586	32311.02206
687.782	32656.45739
687.979	32593.08861
688.175	32382.55666
688.372	32676.89942
688.568	32856.79985
688.765	32513.36979
688.962	32259.92754
689.158	32891.55558
689.355	32664.63417
689.551	32055.56244
689.748	31736.79203
689.944	31941.12673
690.14	32147.5242
690.337	32519.50188
690.533	32092.34666
690.73	32137.30603
690.926	32488.84162
691.123	32274.23387
691.319	32443.87417
691.515	32055.56244
691.712	31702.05695
691.908	31918.649
692.104	31981.99592
692.301	32031.03998
692.497	31534.51836
692.693	31385.37772
692.889	31356.7764
693.086	31775.61421
693.282	31434.40929
693.478	31744.96506
693.674	31773.57092
693.87	31503.87231
694.067	31483.44181
694.263	31373.11997
694.459	31052.39548
694.655	31499.78619
694.851	31673.45197
695.047	31757.22467
695.243	31385.37772
695.439	31058.52362
695.635	31019.71226
695.831	31681.62479
696.027	31693.88406
696.224	31718.4028
696.42	31256.67421
696.615	31446.66733
696.811	31121.84857
697.007	31127.97686
697.203	30539.71842
697.399	30954.34692
697.595	31226.03144
697.791	30619.37187
697.987	30684.73001
698.183	31166.78972
698.379	30541.76079
698.575	31352.69052
698.77	31074.86541
698.966	31471.18359
699.162	31532.47528
699.358	31127.97686
699.554	31076.90814
699.749	31117.76304
699.945	30372.24821
700.141	30511.12535
700.337	30686.77248
700.532	30774.59968
700.728	31177.00371
700.924	30999.28543
701.119	30692.89988
701.315	30807.2802
701.511	30521.33713
701.706	30801.15258
701.902	30770.51464
702.097	30780.72725
702.293	30388.5864
702.489	29959.73418
702.684	30149.64807
702.88	30494.78656
703.075	30192.53324
703.271	30566.26935
703.466	30721.49456
703.662	30460.06691
703.857	30903.28127
704.053	30200.7019
704.248	29802.50104
704.443	30351.82559
704.639	30347.74108
704.834	30249.71427
705.03	30411.05154
705.225	30511.12535
705.42	30139.43739
705.616	30006.70121
705.811	29792.29132
706.006	29865.8019
706.202	29873.96983
706.397	29741.24314
706.592	30102.67919
706.787	30319.14964
706.983	30067.96346
707.178	30447.813
707.373	30108.80553
707.568	30509.083
707.763	30053.66884
707.959	30343.65657
708.154	29931.14584
708.349	30163.94307
708.544	29824.96251
708.739	29951.56606
708.934	29661.60935
709.129	29922.97778
709.324	29731.03359
709.519	29753.49464
709.714	29155.258
709.909	29581.9772
710.104	29418.63428
710.299	29075.63602
710.494	29522.76461
710.689	29998.53299
710.884	29884.17977
711.079	30270.13629
711.274	29759.62041
711.469	30059.7951
711.664	29865.8019
711.859	30317.1074
712.054	30862.42938
712.249	30566.26935
712.443	29784.12356
712.638	30055.71093
712.833	29294.08984
713.028	29724.90787
713.223	29334.92365
713.417	29514.59742
713.612	29465.59467
713.807	29336.96535
714.002	29406.38383
714.196	29841.29821
714.391	29394.13342
714.586	29916.85176
714.78	29884.17977
714.975	30016.91151
715.17	29494.17954
715.364	29865.8019
715.559	29422.71777
715.754	29420.67602
715.948	28822.48946
716.143	29208.34019
716.337	28740.83269
716.532	29010.30635
716.726	28996.01563
716.921	29000.09869
717.115	29087.88545
717.31	29551.34988
717.504	29490.09597
717.699	29626.8977
717.893	28832.69668
718.088	29349.21558
718.282	28969.47585
718.476	28548.94587
718.671	28489.74862
718.865	28414.22239
719.059	28487.70735
719.254	28767.37096
719.448	28222.35158
719.642	28459.1297
719.837	27938.64552
720.031	28138.66626
720.225	28226.43383
720.419	28212.14595
720.614	27740.67663
720.808	28461.17096
721.002	28308.07991
721.196	28832.69668
721.39	29063.38663
721.585	28352.98599
721.779	28504.03753
721.973	28320.32697
722.167	28020.28533
722.361	28504.03753
722.555	28538.73938
722.749	28328.4917
722.943	28077.43428
723.137	27842.72108
723.331	27761.08529
723.525	27924.35874
723.719	27765.16703
723.913	28093.76271
724.107	27777.41229
724.301	27971.30123
724.495	27148.8792
724.689	27544.75963
724.883	27320.28539
725.077	27430.47993
725.271	27677.41055
725.465	26934.63487
725.659	27130.51481
725.853	27605.98249
726.046	27854.96662
726.24	27603.94171
726.434	27236.62168
726.628	27983.54719
726.822	27157.04119
727.015	27593.73783
727.209	27150.9197
727.403	27203.97303
727.596	27240.70279
727.79	27271.31125
727.984	27467.21226
728.177	27395.78865
728.371	27220.29732
728.565	27187.64883
728.758	27238.66224
728.952	27195.81092
729.146	27340.6915
729.339	27373.34155
729.533	27050.93705
729.726	26897.90882
729.92	27230.50004
730.113	27516.18934
730.307	27540.67814
730.5	27505.98572
730.694	27436.60195
730.887	27518.23006
731.081	27832.51651
731.274	27659.04319
731.468	27265.18953
731.661	27254.9867
731.854	26857.10264
732.048	26961.15953
732.241	27097.86727
732.435	27610.06406
732.628	27152.96019
732.821	27334.56966
733.014	27254.9867
733.208	27124.39337
733.401	27312.12298
733.594	27189.68935
733.788	27324.3666
733.981	27734.55406
734.174	27685.57385
734.367	27569.24864
734.56	27554.96336
734.754	27314.16358
734.947	26536.79464
735.14	26975.44214
735.333	26997.88637
735.526	27028.49242
735.719	26620.43836
735.912	26524.55432
736.105	26820.37757
736.298	26983.60366
736.491	27363.13838
736.684	27034.61366
736.877	27036.65408
737.07	26567.3957
737.263	26742.84842
737.456	27283.55471
737.649	26791.81395
737.842	27224.3784
738.035	27010.12875
738.228	27087.66499
738.421	26867.30413
738.614	27152.96019
738.807	27238.66224
739	27050.93705
739.192	26955.03843
739.385	26610.23776
739.578	26622.47848
739.771	26771.41154
739.964	26414.39397
740.156	26359.31555
740.349	26312.39784
740.542	26875.46535
740.735	26593.9169
740.927	26477.6336
741.12	26271.60054
741.313	26269.56069
741.505	25973.80099
741.698	25957.4843
741.891	25665.84337
742.083	25833.07333
742.276	25667.88268
742.468	25549.60585
742.661	25986.03859
742.854	25747.41736
743.046	26220.60486
743.239	26171.65
743.431	26212.44565
743.624	25733.14169
743.816	25584.2725
744.009	25531.25315
744.201	25910.57444
744.393	25790.24493
744.586	25771.89015
744.778	25364.04725
744.971	25278.41064
745.163	25604.66493
745.355	26214.48545
745.548	25741.2992
745.74	25763.73252
745.932	25641.37178
746.125	25152.00162
746.317	25335.5013
746.509	25337.54028
746.702	25924.85125
746.894	25592.42945
747.086	25482.31341
747.278	25531.25315
747.471	25105.11009
747.663	25121.42005
747.855	25331.42334
748.047	25435.41393
748.239	25551.64505
748.431	25213.16623
748.623	25710.70868
748.815	25178.50604
749.008	25539.40988
749.2	25714.78739
749.392	25463.96131
749.584	25482.31341
749.776	26047.22755
749.968	25635.25393
750.16	25249.86594
750.352	25084.72284
750.544	25215.20508
750.736	26014.59324
750.928	26014.59324
751.12	25604.66493
751.311	25374.24233
751.503	25474.1569
751.695	25302.87786
751.887	24899.20928
752.079	25272.29388
752.271	25137.73016
752.463	25125.49757
752.654	25017.4465
752.846	25490.46995
753.038	25045.98768
753.23	24992.98299
753.421	25421.14039
753.613	25164.23438
753.805	25820.83656
753.997	25288.60528
754.188	25176.46722
754.38	25488.43081
754.572	25255.98262
754.763	25302.87786
754.955	24880.86282
755.146	24681.10279
755.338	24658.6822
755.53	24762.63471
755.721	24868.63196
755.913	25050.06503
756.104	24825.8246
756.296	24542.50759
756.487	24611.80375
756.679	24642.37651
756.87	24110.49329
757.062	24346.86376
757.253	24440.60679
757.445	24128.83107
757.636	23849.71392
757.827	24524.16497
758.019	24281.6545
758.21	23664.34488
758.401	23654.16048
758.593	23923.05341
758.784	24273.50354
758.975	23880.27159
759.167	23591.01889
759.358	23965.8365
759.549	23835.4539
759.74	23719.34193
759.932	23825.26826
760.123	23289.60956
760.314	23197.97856
760.505	23501.4036
760.696	22974.01954
760.888	22943.48279
761.079	23289.60956
761.27	23511.58685
761.461	23646.01302
761.652	23707.12018
761.843	23187.79775
762.034	23874.16
762.225	23527.88023
762.416	23177.61701
762.607	22697.18107
762.798	23460.67134
762.989	23497.33032
763.18	23678.60317
763.371	23821.19402
763.562	23415.8673
763.753	23151.14748
763.944	23083.95807
764.135	23051.38268
764.326	23234.63018
764.517	23155.21968
764.708	22935.33979
764.899	22581.17224
765.089	22587.27769
765.28	22385.81509
765.471	22414.30261
765.662	22172.18157
765.853	22735.85321
766.043	22298.32218
766.234	22691.07506
766.425	22129.45976
766.615	22609.66458
766.806	22780.63304
766.997	22393.95431
767.187	22290.18364
767.378	22552.6806
767.569	22509.94445
767.759	22424.47689
767.95	22593.38316
768.141	22336.981
768.331	22190.49142
768.522	22025.71368
768.712	21671.83115
768.903	21891.46867
769.093	21852.82547
769.284	21901.63817
769.474	21659.63039
769.665	21753.1731
769.855	21993.16791
770.046	22117.25383
770.236	21724.70271
770.426	21580.32893
770.617	21903.67208
770.807	21503.06661
770.998	21836.55506
771.188	21501.03347
771.378	21425.81002
771.569	21631.16252
771.759	21328.23099
771.949	21604.72875
772.139	22039.95276
772.33	21618.96223
772.52	21525.43143
772.71	21545.7635
772.9	21403.44735
773.09	21328.23099
773.281	21135.1332
773.471	21175.78233
773.661	21037.58194
773.851	20899.40048
774.041	21025.38869
774.231	20846.57142
774.421	20495.12643
774.611	20633.25179
774.802	20578.40559
774.992	20580.43687
775.182	20564.1867
775.372	20805.93558
775.562	20805.93558
775.752	20610.90668
775.942	20273.75998
776.131	20803.90384
776.321	20342.80471
776.511	20415.91619
776.701	20736.85847
776.891	21017.25994
777.081	20399.66873
777.271	20543.87435
777.461	20409.82336
777.651	20342.80471
777.84	20489.03311
778.03	20576.3743
778.22	20633.25179
778.41	20688.10104
778.599	20084.92714
778.789	20401.69965
778.979	20115.38159
779.169	19987.47926
779.358	19869.74267
779.548	20444.3499
779.738	20237.20885
779.927	20379.35978
780.117	20452.47397
780.307	20056.50384
780.496	19754.04979
780.686	19997.62963
780.875	19954.99879
781.065	20287.97467
781.254	19944.84886
781.444	19683.01706
781.633	19800.73124
781.823	19516.61757
782.012	19689.10538
782.202	19796.6719
782.391	19569.37535
782.581	19405.02386
782.77	19569.37535
782.96	19512.5594
783.149	19157.53336
783.338	19425.31269
783.528	19309.67189
783.717	18926.32674
783.906	18776.27326
784.096	18928.35464
784.285	19151.44829
784.474	18970.94146
784.663	19072.34583
784.853	19524.73397
785.042	19185.9308
785.231	19409.08159
785.42	19021.64238
785.61	18839.13084
785.799	18865.49161
785.988	19242.72809
786.177	18664.7611
786.366	18701.25467
786.555	18778.30086
786.744	18705.30959
786.933	18695.17232
787.122	18387.04563
787.312	18478.25808
787.501	18081.0326
787.69	18543.12498
787.879	18549.20645
788.068	18226.93558
788.257	18453.934
788.445	18855.35277
788.634	18845.21404
788.823	18780.32847
789.012	18636.37808
789.201	18259.36105
789.39	18374.88455
789.579	18123.58568
789.768	18555.28796
789.957	18612.05039
790.145	18545.15213
790.334	18259.36105
790.523	17661.66383
790.712	17866.26485
790.9	18093.19046
791.089	18004.03581
791.278	18224.90902
791.467	18190.45805
791.655	18305.97433
791.844	18178.29914
792.033	18038.4811
792.221	17724.4585
792.41	17513.80496
792.599	17493.55165
792.787	17651.53595
792.976	17637.35707
793.164	17975.66987
793.353	17663.68941
793.541	17894.62813
793.73	17653.56152
793.918	17837.90224
794.107	17428.74319
794.295	17159.41643
794.484	17424.69277
794.672	17412.54158
794.861	17633.30599
795.049	17969.59154
795.238	17238.38651
795.426	17430.76841
795.614	17295.08572
795.803	17592.7959
795.991	17440.89453
796.179	17224.21207
796.368	17169.54056
796.556	17240.41145
796.744	16904.31133
796.932	17291.0357
797.121	16942.77682
797.309	17301.16078
797.497	17120.9454
797.685	17025.78457
797.874	16782.84738
798.062	17274.83574
798.25	16659.36805
798.438	16950.87494
798.626	16730.21576
798.814	16752.48279
799.002	16519.70498
799.19	16807.13945
799.378	16786.89603
799.566	16722.11874
799.755	16720.09448
799.943	16677.58576
800.131	16718.07024
800.318	16979.2187
800.506	16705.92479
800.694	16829.40749
800.882	16948.85041
801.07	16711.9975
801.258	16792.96903
801.446	16991.36618
801.634	16952.89948
801.822	16543.99346
802.01	16412.43446
802.197	16714.02175
802.385	16483.27283
802.573	16596.61957
802.761	16722.11874
802.949	16681.63416
803.136	16104.82024
803.324	16242.43207
803.512	16201.9572
803.699	16333.50314
803.887	16127.08046
804.075	16333.50314
804.262	16293.02665
804.45	16705.92479
804.638	16665.4406
804.825	17199.91336
805.013	16760.57996
805.201	16697.82788
805.388	16693.77944
805.576	16606.74014
805.763	16669.48897
805.951	16750.4585
806.138	16685.68258
806.326	16869.89562
806.513	16574.35449
806.701	16596.61957
806.888	16167.5541
807.075	16416.4823
807.263	16116.96216
807.45	16661.39223
807.638	16517.68095
807.825	16786.89603
808.012	16527.80111
808.2	16685.68258
808.387	16950.87494
808.574	16669.48897
808.761	16467.08099
808.949	16669.48897
809.136	16452.91323
809.323	16570.30633
809.51	16730.21576
809.698	16511.60889
809.885	15971.26271
810.072	16317.31246
810.259	16139.22249
810.446	16323.38395
810.633	16291.00285
810.82	16744.38565
811.008	16343.62238
811.195	16365.88486
811.382	16345.64623
811.569	16378.02814
811.756	15991.4983
811.943	16355.76552
812.13	16347.67008
812.317	16683.65837
812.504	16956.94856
812.691	16586.49905
812.878	16487.32082
813.064	16491.36881
813.251	16635.07806
813.438	16349.69394
813.625	15900.43921
813.812	16082.5602
813.999	16406.36272
814.186	16586.49905
814.372	16707.94903
814.559	16695.80366
814.746	16776.77442
814.933	16552.08969
815.12	16541.96941
815.306	16307.19334
815.493	16236.3608
815.68	16295.05046
815.866	16151.36457
816.053	16382.07591
816.24	16106.84389
816.426	16424.57801
816.613	16311.24098
816.799	16341.59852
816.986	16408.38663
817.173	16248.50337
817.359	16131.1278
817.546	16418.50623
817.732	15793.19508
817.919	16337.55083
818.105	16056.25312
818.292	16349.69394
818.478	16042.08788
818.665	16171.6015
818.851	16066.3712
819.037	16181.72002
819.224	16272.78869
819.41	16203.98093
819.597	16284.93145
819.783	16114.9385
819.969	16159.45932
820.156	16179.69631
820.342	15811.40612
820.528	15991.4983
820.714	15795.21853
820.901	15920.67434
821.087	15673.81367
821.273	15995.54543
821.459	15829.61725
821.646	15855.92238
821.832	15538.24868
822.018	15564.55207
822.204	15524.08537
822.39	15857.94586
822.576	15580.73883
822.762	15876.15723
822.948	15702.14116
823.134	16096.72566
823.32	15827.59379
823.507	15995.54543
823.693	15544.31869
823.879	15694.04757
824.065	15694.04757
824.25	15625.25267
824.436	15607.04242
824.622	15904.48623
824.808	15900.43921
824.994	15548.36536
825.18	15372.33729
825.366	15528.13203
825.552	15234.75424
825.738	15301.52234
825.923	15297.47578
826.109	15477.54897
826.295	15139.6605
826.481	15271.17318
826.667	15337.94141
826.852	15471.47903
827.038	15178.10264
827.224	15469.45572
827.409	15184.17246
827.595	15293.42923
827.781	15091.10198
827.966	15180.12592
828.152	14965.65864
828.338	15012.1942
828.523	14737.02362
828.709	14822.00394
828.894	14787.6073
829.08	14747.14039
829.266	14615.62052
829.451	14939.35585
829.637	15022.3106
829.822	14927.21608
830.008	15032.42699
830.193	15004.10107
830.378	14836.1672
830.564	14726.90682
830.749	14447.6729
830.935	14299.95177
831.12	13856.72441
831.305	14168.41135
831.491	13953.8799
831.676	14160.31628
831.861	14085.43527
832.047	14285.78626
832.232	14214.95736
832.417	14338.40058
832.602	14168.41135
832.788	14247.33657
832.973	13905.30293
833.158	13994.35958
833.343	13935.66372
833.528	14085.43527
833.714	14071.26826
833.899	14012.5751
834.084	14140.07846
834.269	14146.14983
834.454	14018.6469
834.639	14172.45887
834.824	14107.69751
835.009	14488.14303
835.194	14192.69636
835.379	14354.58936
835.564	14455.76697
835.749	14431.48469
835.934	14081.38757
836.119	14109.72134
836.304	13915.42326
836.489	13789.92628
836.674	13670.49115
836.859	13996.38353
837.044	13832.43454
837.228	14034.83826
837.413	13591.53633
837.598	13461.95787
837.783	13785.87781
837.968	13783.85357
838.152	13429.56088
838.337	13662.39346
838.522	13235.15731
838.707	13672.51557
838.891	13326.28873
839.076	13676.56439
839.261	13399.1878
839.445	13484.23024
839.63	13251.35908
839.815	13164.27118
839.999	13342.48898
840.184	13162.24578
840.368	12900.92886
840.553	13546.9954
840.737	13135.91518
840.922	13200.72759
841.106	13026.53332
841.291	12880.66821
841.475	12896.87677
841.66	13002.22431
841.844	13087.30275
842.029	13192.62629
842.213	13042.73893
842.397	12755.03995
842.582	12915.11101
842.766	12704.37725
842.951	12686.13779
843.135	12981.96625
843.319	12864.45929
843.504	12775.30402
843.688	12601.01391
843.872	12649.65743
844.056	12943.47452
844.241	12943.47452
844.425	12661.81777
844.609	12688.16442
844.793	12497.63456
844.977	12546.28571
845.161	12197.53384
845.346	12205.6467
845.53	12163.05288
845.714	12442.89756
845.898	12092.05587
846.082	12400.32102
846.266	12152.91102
846.45	12266.48942
846.634	11856.68289
846.818	12019.02057
847.002	11872.91902
847.186	11810.00102
847.37	11564.33769
847.554	12092.05587
847.738	11978.441
847.922	11958.15002
848.106	12106.25601
848.29	12000.76016
848.473	11862.77151
848.657	11773.46424
848.841	11732.86453
849.025	11854.65334
849.209	11580.58397
849.392	11596.82966
849.576	11751.13483
849.76	11783.61363
849.944	11726.77428
850.127	11956.12088
850.311	11676.01904
850.495	12004.81808
850.678	11546.05991
850.862	11751.13483
851.046	11485.12848
851.229	11550.1217
851.413	11389.65189
851.596	11645.56322
851.78	11592.76829
851.964	11598.86033
852.147	11151.88015
852.331	11464.8161
852.514	11397.77839
852.698	11407.9363
852.881	11290.08928
853.065	11481.06608
853.248	10891.58695
853.431	11107.15501
853.615	10879.38121
853.798	11371.36668
853.982	11253.50917
854.165	11312.44217
854.348	11184.40428
854.532	11359.17609
854.715	10942.43979
854.898	10936.33782
855.081	11058.35802
855.265	11038.02409
855.448	10901.75809
855.631	10732.8796
855.814	10602.6039
855.997	10736.94992
856.181	10506.90043
856.364	10698.27998
856.547	10543.5561
856.73	10692.1738
856.913	10191.07974
857.096	10545.59241
857.279	10447.83538
857.462	10443.76153
857.645	10345.9735
857.828	10460.05662
858.011	10325.59717
858.194	10738.98506
858.377	10191.07974
858.56	10761.37081
858.743	10533.37438
858.926	10804.10326
859.109	10227.77217
859.292	10235.92545
859.475	10023.86836
859.658	10417.28024
859.841	10027.94782
860.023	10496.71757
860.206	10164.57688
860.389	10392.83402
860.572	10048.34424
860.755	10266.49828
860.937	9879.01025
861.12	9923.90371
861.303	9717.74248
861.486	9817.78036
861.668	9717.74248
861.851	9832.06853
862.034	9797.36741
862.216	9570.68123
862.399	9394.91742
862.581	9640.13685
862.764	9280.40193
862.947	9591.11123
863.129	9409.22823
863.312	9729.99398
863.494	9460.33179
863.677	9403.09512
863.859	9337.66614
864.042	9405.13951
864.224	9229.26212
864.406	9378.56122
864.589	9083.96732
864.771	9394.91742
864.954	9413.31689
865.136	9288.58333
865.318	8920.15031
865.501	9004.12055
865.683	8889.42204
865.865	9194.48104
866.048	8977.49905
866.23	9063.49631
866.412	8807.46026
866.594	9038.92881
866.777	8836.15016
866.959	9004.12055
867.141	8743.91995
867.323	8932.44049
867.505	8836.15016
867.687	9161.74143
867.869	9196.52712
868.052	9370.38273
868.234	8883.2759
868.416	9077.8262
868.598	9020.50154
868.78	8985.6906
868.962	9100.34288
869.144	9118.76406
869.326	8807.46026
869.508	8879.17839
869.69	8594.22291
869.872	8756.21944
870.054	8434.16217
870.236	8803.36141
870.417	8614.73521
870.599	8920.15031
870.781	8493.68544
870.963	8944.73004
871.145	8704.9672
871.327	8571.65722
871.508	8222.62044
871.69	8538.83033
871.872	8411.58016
872.054	8684.46308
872.235	8411.58016
872.417	8659.8557
872.599	8458.79444
872.78	8805.41084
872.962	8514.20698
873.144	8372.56938
873.325	8512.15491
873.507	8618.83745
873.689	8417.73912
873.87	8522.41506
874.052	8308.90518
874.233	8637.29658
874.415	8428.00367
874.596	8177.40977
874.778	7959.44046
874.959	8376.67611
875.141	8052.00233
875.322	8477.26683
875.503	8128.07804
875.685	8202.07132
875.866	8185.6306
876.048	8300.68907
876.229	8243.16757
876.41	8485.47628
876.592	8142.46765
876.773	8483.42395
876.954	8029.3799
877.136	8364.3557
877.317	8360.24874
877.498	8544.98574
877.679	8573.70874
877.86	8526.51899
878.042	8304.79716
878.223	8471.10954
878.404	8191.79602
878.585	8643.44929
878.766	8317.12096
878.947	8329.44406
879.128	8148.63433
879.309	8460.847
879.49	8185.6306
879.672	8444.42595
879.853	8370.51599
880.034	8352.03458
880.215	8557.29605
880.396	8352.03458
880.576	8084.90332
880.757	8538.83033
880.938	8430.05653
881.119	8610.6329
881.3	8415.68616
881.481	8569.60568
881.662	8302.74313
881.843	8315.06705
882.023	8012.92568
882.204	8144.52323
882.385	8004.69808
882.566	8103.40786
882.747	8343.82012
882.927	8366.40915
883.108	8251.38588
883.289	8651.65264
883.469	8479.31922
883.65	8686.51357
883.831	8352.03458
884.011	8512.15491
884.192	8319.17486
884.373	8374.62276
884.553	8222.62044
884.734	8335.60535
884.914	8142.46765
885.095	8364.3557
885.275	8103.40786
885.456	8409.52714
885.636	8401.31485
885.817	8368.46258
885.997	8538.83033
886.178	8579.86319
886.358	8296.58091
886.538	8358.19523
886.719	8049.94585
886.899	8604.4793
887.08	8397.20858
887.26	8382.83605
887.44	8352.03458
887.621	8684.46308
887.801	8343.82012
887.981	8553.19269
888.161	8362.30223
888.342	8395.15542
888.522	8547.0375
888.702	8526.51899
888.882	8313.01311
889.062	8430.05653
889.242	8315.06705
889.423	8282.2017
889.603	8362.30223
889.783	8723.41933
889.963	8014.98253
890.143	8612.68407
890.323	7879.18666
890.503	8148.63433
890.683	8280.14745
890.863	8395.15542
891.043	8160.96714
891.223	8647.551
891.403	8354.08815
891.583	8727.5196
891.763	8105.46382
891.943	8430.05653
892.122	8321.22874
892.302	8430.05653
892.482	8206.1813
892.662	8045.83282
892.842	8195.9062
893.022	8395.15542
893.201	8327.39026
893.381	8411.58016
893.561	8271.93025
893.741	8395.15542
893.92	8148.63433
894.1	7959.44046
894.28	8004.69808
894.459	8253.4404
894.639	7811.25505
894.819	8058.17166
894.998	7996.47016
895.178	8074.62232
895.357	7893.59349
895.537	7994.41312
895.716	8029.3799
895.896	8167.13327
896.075	7862.72046
896.255	7827.7254
896.434	7710.345
896.614	7794.78337
896.793	7640.29609
896.973	7537.23833
897.152	7337.15277
897.331	7555.79267
897.511	7483.62713
897.69	7522.80597
897.87	7390.80399
898.049	7469.19085
898.228	7310.32162
898.407	7434.12692
898.587	7279.35799
898.766	7330.9613
898.945	6928.08783
899.124	7184.37194
899.304	7056.27295
899.483	7446.50314
899.662	6969.44733
899.841	7101.73725
900.02	7153.3881
900.199	7382.55092
900.378	7196.76408
900.557	7171.97901
900.737	6921.88312
900.916	7209.15542
901.095	6936.36045
901.274	7120.33316
901.453	6948.76871
901.632	7002.52843
901.811	7087.27251
901.989	7227.74094
902.168	6919.81484
902.347	7145.1249
902.526	6505.6998
902.705	6783.25815
902.884	6383.3596
903.063	6648.67326
903.242	6472.53079
903.42	6731.50619
903.599	6458.01748
903.778	6567.87569
903.957	6211.11645
904.135	6464.23761
904.314	6424.83992
904.493	6698.37743
904.672	6441.42945
904.85	6389.58224
905.029	6194.50618
905.207	6117.66413
905.386	5968.04138
905.565	5710.07124
905.743	5710.07124
905.922	5695.49759
906.1	5474.66964
906.279	5695.49759
906.457	5378.75634
906.636	5757.94795
906.814	5370.4137
906.993	5928.53723
907.171	5495.51378
907.35	5662.18205
907.528	5332.86719
907.707	5624.69484
907.885	5211.8324
908.063	5155.46183
908.242	4887.99364
908.42	5305.74555
908.598	4831.52644
908.777	5228.53153
908.955	4802.24061
909.133	5032.22273
909.311	4701.79827
909.49	5015.50614
909.668	5032.22273
909.846	5510.10327
910.024	4984.15855
910.202	5318.26372
910.38	5092.80797
910.559	5025.95418
910.737	5048.93785
910.915	5349.55547
911.093	5055.20563
911.271	5318.26372
911.449	5124.13751
911.627	5303.65911
911.805	4984.15855
911.983	5086.54144
912.161	5048.93785
912.339	5176.3418
912.517	5122.04904
912.695	5524.69161
912.872	5203.48228
913.05	5357.89904
913.228	5368.32798
913.406	5205.56985
913.584	5289.05334
913.762	5595.53284
913.939	5282.79337
914.117	5362.07069
914.295	4927.71982
914.473	5255.66443
914.65	4942.35369
914.828	5201.39469
915.006	5084.45254
915.184	5405.86731
915.361	4961.16701
915.539	5266.09911
915.716	4910.99402
915.894	5071.91871
916.072	4894.26675
916.249	4795.96449
916.427	4881.72033
916.604	5253.57742
916.782	4860.80781
916.959	5241.0549
917.137	4860.80781
917.314	5195.13178
917.492	4714.35641
917.669	4950.7154
917.847	4835.70977
918.024	4998.78807
918.201	4860.80781
918.379	4856.62503
918.556	4883.81146
918.733	5011.32676
918.911	4576.17237
919.088	4795.96449
919.265	4324.68137
919.442	4507.04391
919.62	4379.19782
919.797	4630.62016
919.974	4312.09858
920.151	4475.61392
920.328	4144.25442
920.506	4672.49278
920.683	4530.08941
920.86	4429.50765
921.037	4423.2196
921.214	4620.15061
921.391	4515.4244
921.568	4613.8686
921.745	4286.93066
921.922	4513.32931
922.099	4496.5678
922.276	4521.70954
922.453	4333.06947
922.63	4404.3543
922.807	3925.85672
922.984	3932.15975
923.161	3915.35125
923.338	4270.15033
923.514	3883.83184
923.691	4112.76857
923.868	3827.08558
924.045	3921.65459
924.222	3917.45239
924.399	4009.88217
924.575	3824.98359
924.752	4047.68295
924.929	3766.11985
925.105	3984.67796
925.282	3742.99061
925.459	3852.30793
925.635	3492.62705
925.812	3583.12518
925.989	3597.8542
926.165	3501.04691
926.342	3395.77794
926.518	3410.51828
926.695	3138.73969
926.871	3442.1018
927.048	3374.7188
927.224	3896.44015
927.401	3473.6813
927.577	3852.30793
927.754	3442.1018
927.93	3627.30948
928.107	3172.46378
928.283	3391.56625
928.459	3098.68698
928.636	3330.48894
928.812	2961.62193
928.988	3176.679
929.165	2923.65415
929.341	3204.07633
929.517	2908.88761
929.693	3166.14083
929.87	3094.47057
930.046	3052.30303
930.222	2797.06113
930.398	3117.66003
930.574	2754.85233
930.751	3168.2485
930.927	2769.62603
931.103	2927.87302
931.279	2765.40504
931.455	3024.89079
931.631	2630.30568
931.807	2771.7365
931.983	2687.30717
932.159	2602.85728
932.335	2672.52989
932.511	2672.52989
932.687	2406.43805
932.863	2585.96494
933.039	2537.39518
933.215	2723.19221
933.391	2528.94764
933.566	2552.17794
933.742	2425.45056
933.918	2467.69747
934.094	2011.2303
934.27	2235.28905
934.445	2095.79087
934.621	2349.3955
934.797	1956.26019
934.973	1954.14587
935.148	1943.57418
935.324	1892.82812
935.5	1869.56846
935.675	1916.08713
935.851	1723.65435
936.027	1808.24471
936.202	1632.71376
936.378	1746.91731
936.553	1342.95502
936.729	1446.59194
936.904	1252.0111
937.08	1264.7007
937.255	1235.09178
937.431	1161.07218
937.606	1046.88057
937.782	996.13375
937.957	953.84754
938.133	953.84754
938.308	693.85964
938.483	871.39783
938.659	742.46427
938.834	915.79237
939.009	666.39007
939.185	793.18802
939.36	693.85964
939.535	674.84204
939.71	531.18558
939.886	702.31221
940.061	560.75699
940.236	641.03529
940.411	564.98169
940.586	577.65613
940.761	564.98169
940.937	531.18558
941.112	404.48342
941.287	520.62503
941.462	374.92772
941.637	524.84921
941.812	505.84085
941.987	374.92772
942.162	353.81853
942.337	400.26098
942.512	320.04741
942.687	440.37677
942.862	362.262
943.037	364.37291
943.212	324.26855
943.386	345.37533
943.561	256.73901
943.736	391.8163
943.911	313.71583
944.086	332.71105
944.26	284.17061
944.435	341.15383
944.61	279.95016
944.785	429.81942
944.959	298.94277
945.134	360.15111
945.309	317.93686
945.483	391.8163
945.658	366.48384
945.833	391.8163
946.007	301.05315
946.182	330.6004
946.357	288.39113
946.531	341.15383
946.706	320.04741
946.88	282.06037
947.055	345.37533
947.229	362.262
947.404	227.2009
947.578	362.262
947.752	328.48976
947.927	410.8172
948.101	320.04741
948.276	358.04023
948.45	345.37533
948.624	442.48828
948.799	393.92744
948.973	334.82172
949.147	286.28086
949.321	339.04311
949.496	265.17916
949.67	396.03861
949.844	334.82172
950.018	372.81673
950.193	326.37915
950.367	286.28086
950.541	301.05315
950.715	406.59467
950.889	260.95905
951.063	408.70593
951.237	345.37533
951.411	353.81853
951.585	379.14977
951.759	377.03874
951.933	286.28086
952.107	353.81853
952.281	364.37291
952.455	311.60534
952.629	298.94277
952.803	408.70593
952.977	322.15797
953.151	484.72183
953.325	353.81853
953.499	423.48521
953.672	396.03861
953.846	478.38641
954.02	341.15383
954.194	404.48342
954.368	317.93686
954.541	248.29916
954.715	296.83241
954.889	446.71136
955.062	349.59689
955.236	410.8172
955.41	372.81673
955.583	391.8163
955.757	305.27397
955.93	349.59689
956.104	358.04023
956.278	330.6004
956.451	311.60534
956.625	349.59689
956.798	387.59405
956.972	360.15111
957.145	328.48976
957.319	421.37383
957.492	294.72206
957.665	349.59689
957.839	317.93686
958.012	427.708
958.185	383.37188
958.359	429.81942
958.532	412.9285
958.705	472.05113
958.879	438.26527
959.052	507.95283
959.225	341.15383
959.398	497.39307
959.572	423.48521
959.745	370.70575
959.918	423.48521
960.091	434.04231
960.264	415.03981
960.438	421.37383
960.611	345.37533
960.784	482.61001
960.957	370.70575
961.13	324.26855
961.303	324.26855
961.476	347.4861
961.649	322.15797
961.822	406.59467
961.995	480.4982
962.168	450.9345
962.341	364.37291
962.514	400.26098
962.686	360.15111
962.859	398.14978
963.032	362.262
963.205	476.27464
963.378	351.7077
963.551	341.15383
963.723	322.15797
963.896	303.16355
964.069	301.05315
964.242	320.04741
964.414	313.71583
964.587	421.37383
964.76	294.72206
964.932	313.71583
965.105	339.04311
965.278	381.26081
965.45	241.96948
965.623	364.37291
965.795	324.26855
965.968	296.83241
966.14	284.17061
966.313	358.04023
966.485	235.63997
966.658	248.29916
966.83	252.51905
967.003	322.15797
967.175	193.44776
967.348	307.38441
967.52	250.4091
967.692	187.11962
967.865	180.79167
968.037	358.04023
968.209	303.16355
968.382	328.48976
968.554	222.98148
968.726	341.15383
968.898	239.85962
969.071	320.04741
969.243	130.17476
969.415	227.2009
969.587	298.94277
969.759	222.98148
969.932	176.57313
970.104	301.05315
970.276	231.42039
970.448	298.94277
970.62	227.2009
970.792	254.62902
970.964	231.42039
971.136	206.10459
971.308	151.26366
971.48	227.2009
971.652	269.39935
971.824	227.2009
971.996	176.57313
972.168	62.70491
972.339	303.16355
972.511	248.29916
972.683	197.66663
972.855	182.90097
973.027	244.07936
973.199	155.4817
973.37	229.31064
973.542	301.05315
973.714	109.088
973.886	208.21413
974.057	195.55718
974.229	220.8718
974.401	96.437
974.572	225.09118
974.744	174.4639
974.915	199.77609
975.087	233.53017
975.259	125.95723
975.43	208.21413
975.602	185.01029
975.773	109.088
975.945	142.82785
976.116	94.32857
976.288	203.99507
976.459	168.13631
976.63	191.33836
976.802	153.37267
976.973	163.91802
977.145	157.59075
977.316	187.11962
977.487	214.54287
977.659	147.04571
977.83	136.50121
978.001	130.17476
978.172	138.61006
978.344	227.2009
978.515	153.37267
978.686	113.30518
978.857	111.19658
979.028	100.65391
979.2	77.46199
979.371	33.19413
979.542	69.02924
979.713	159.69982
979.884	66.92111
980.055	161.80891
980.226	140.71894
980.397	102.7624
980.568	130.17476
980.739	41.62532
980.91	100.65391
981.081	96.437
981.252	117.52244
981.423	104.87091
981.594	113.30518
981.765	83.78679
981.936	92.22017
982.106	79.57023
982.277	174.4639
982.448	134.39237
982.619	66.92111
982.79	77.46199
982.96	75.35377
983.131	14.22533
983.302	191.33836
983.472	85.8951
983.643	60.59685
983.814	100.65391
983.984	50.05688
984.155	69.02924
984.326	94.32857
984.496	128.06598
984.667	69.02924
984.837	18.44046
985.008	71.13739
985.178	125.95723
985.349	100.65391
985.519	35.30189
985.69	117.52244
985.86	94.32857
986.031	43.73317
986.201	83.78679
986.371	66.92111
986.542	109.088
986.712	75.35377
986.882	45.84105
987.053	134.39237
987.223	83.78679
987.393	134.39237
987.563	163.91802
987.734	31.08639
987.904	66.92111
988.074	14.22533
988.244	35.30189
988.414	24.76332
988.585	24.76332
988.755	69.02924
988.925	134.39237
989.095	47.94895
989.265	-32.13465
989.435	37.40968
989.605	37.40968
989.775	50.05688
989.945	16.33288
990.115	43.73317
990.285	41.62532
990.455	14.22533
990.625	28.97868
990.795	20.54805
990.965	24.76332
991.134	20.54805
991.304	102.7624
991.474	22.65567
991.644	3.68794
991.814	96.437
991.984	113.30518
992.153	94.32857
992.323	10.01031
992.493	28.97868
992.662	33.19413
992.832	102.7624
993.002	62.70491
993.171	7.90283
993.341	12.11781
993.511	-27.92059
993.68	-2.6342
993.85	37.40968
994.019	75.35377
994.189	142.82785
994.358	-4.74153
994.528	-0.52684
994.697	92.22017
994.867	7.90283
995.036	-30.02763
995.206	45.84105
995.375	92.22017
995.544	52.16483
995.714	28.97868
995.883	75.35377
996.052	-72.16318
996.222	16.33288
996.391	-13.17063
996.56	58.48881
996.73	12.11781
996.899	7.90283
997.068	62.70491
997.237	-42.66935
997.406	45.84105
997.576	28.97868
997.745	16.33288
997.914	66.92111
998.083	-17.38502
998.252	3.68794
998.421	12.11781
998.59	3.68794
998.759	-4.74153
998.928	37.40968
999.097	58.48881
999.266	41.62532
999.435	-8.95613
999.604	18.44046
999.773	5.79537
999.942	-23.70644
1000.111	-6.84884
1000.28	-0.52684
1000.448	-74.26969
1000.617	16.33288
1000.786	62.70491
1000.955	-32.13465
1001.124	37.40968
1001.292	22.65567
1001.461	22.65567
1001.63	7.90283
1001.798	58.48881
1001.967	24.76332
1002.136	24.76332
1002.304	-6.84884
1002.473	18.44046
1002.642	-8.95613
1002.81	52.16483
1002.979	28.97868
1003.147	-36.3486
1003.316	-4.74153
1003.484	-42.66935
1003.653	52.16483
1003.821	41.62532
1003.99	-6.84884
1004.158	-40.56246
1004.327	54.2728
1004.495	-21.59933
1004.663	20.54805
1004.832	-72.16318
1005	-6.84884
1005.168	-44.77622
1005.337	37.40968
1005.505	33.19413
1005.673	58.48881
1005.842	-8.95613
1006.01	66.92111
1006.178	1.58054
1006.346	-25.81353
1006.514	-0.52684
1006.683	-48.98987
1006.851	-30.02763
1007.019	-59.52357
1007.187	-13.17063
1007.355	20.54805
1007.523	20.54805
1007.691	-27.92059
1007.859	-59.52357
1008.027	-23.70644
1008.195	-40.56246
1008.363	33.19413
1008.531	16.33288
1008.699	-34.24164
1008.867	-0.52684
1009.035	16.33288
1009.203	-32.13465
1009.37	-17.38502
1009.538	81.6785
1009.706	-27.92059
1009.874	-70.05664
1010.042	-36.3486
1010.209	58.48881
1010.377	18.44046
1010.545	33.19413
1010.713	-25.81353
1010.88	-8.95613
1011.048	5.79537
1011.216	18.44046
1011.383	35.30189
1011.551	3.68794
1011.718	37.40968
1011.886	-0.52684
1012.054	24.76332
1012.221	-55.31017
1012.389	-21.59933
1012.556	-4.74153
1012.724	10.01031
1012.891	37.40968
1013.058	10.01031
1013.226	18.44046
1013.393	-17.38502
1013.561	-42.66935
1013.728	77.46199
1013.895	7.90283
1014.063	-23.70644
1014.23	1.58054
1014.397	52.16483
1014.565	35.30189
1014.732	-32.13465
1014.899	-13.17063
1015.066	7.90283
1015.233	16.33288
1015.401	-84.80186
1015.568	28.97868
1015.735	16.33288
1015.902	-13.17063
1016.069	-8.95613
1016.236	24.76332
1016.403	-8.95613
1016.57	12.11781
1016.737	-86.90822
1016.904	-17.38502
1017.071	35.30189
1017.238	28.97868
1017.405	-42.66935
1017.572	-27.92059
1017.739	79.57023
1017.906	-23.70644
1018.073	20.54805
1018.24	50.05688
1018.407	50.05688
1018.573	-15.27784
1018.74	47.94895
1018.907	-76.37618
1019.074	1.58054
1019.241	-40.56246
1019.407	54.2728
1019.574	5.79537
1019.741	-0.52684
1019.907	41.62532
1020.074	-51.09666
1020.241	16.33288
1020.407	-23.70644
1020.574	37.40968
1020.74	-15.27784
1020.907	-6.84884
1021.073	10.01031
1021.24	18.44046
1021.406	-48.98987
1021.573	58.48881
1021.739	-21.59933
1021.906	43.73317
1022.072	-25.81353
1022.239	-65.84349
1022.405	-17.38502
1022.571	-30.02763
1022.738	-74.26969
1022.904	41.62532
1023.07	-25.81353
1023.237	-30.02763
1023.403	-23.70644
1023.569	33.19413
1023.735	-27.92059
1023.902	-32.13465
1024.068	26.87099
1024.234	24.76332
1024.4	45.84105
1024.566	3.68794
1024.732	26.87099
1024.898	16.33288
1025.065	-55.31017
1025.231	1.58054
1025.397	-91.12085
1025.563	-6.84884
1025.729	45.84105
1025.895	-51.09666
1026.061	16.33288
1026.227	12.11781
1026.392	10.01031
1026.558	-48.98987
1026.724	-17.38502
1026.89	-6.84884
1027.056	-0.52684
1027.222	-65.84349
1027.388	7.90283
1027.553	28.97868
1027.719	-23.70644
1027.885	-0.52684
1028.051	-46.88306
1028.216	10.01031
1028.382	-67.95008
1028.548	-48.98987
1028.713	24.76332
1028.879	12.11781
1029.045	-6.84884
1029.21	-21.59933
1029.376	37.40968
1029.541	-8.95613
1029.707	-4.74153
1029.873	12.11781
1030.038	1.58054
1030.204	33.19413
1030.369	56.38079
1030.534	-32.13465
1030.7	-55.31017
1030.865	-15.27784
1031.031	39.51749
1031.196	7.90283
1031.361	-65.84349
1031.527	50.05688
1031.692	50.05688
1031.857	-23.70644
1032.023	-15.27784
1032.188	-15.27784
1032.353	-59.52357
1032.518	-34.24164
1032.684	-21.59933
1032.849	-42.66935
1033.014	-2.6342
1033.179	-17.38502
1033.344	16.33288
1033.509	-17.38502
1033.674	-6.84884
1033.839	-25.81353
1034.004	-70.05664
1034.17	5.79537
1034.335	10.01031
1034.5	-63.73688
1034.664	-99.54581
1034.829	-25.81353
1034.994	50.05688
1035.159	-2.6342
1035.324	35.30189
1035.489	-78.48264
1035.654	-15.27784
1035.819	16.33288
1035.984	-21.59933
1036.148	18.44046
1036.313	39.51749
1036.478	7.90283
1036.643	-51.09666
1036.807	22.65567
1036.972	-11.06339
1037.137	16.33288
1037.301	-82.69548
1037.466	-32.13465
1037.631	1.58054
1037.795	41.62532
1037.96	33.19413
1038.124	16.33288
1038.289	1.58054
1038.454	41.62532
1038.618	-17.38502
1038.783	-34.24164
1038.947	-40.56246
1039.111	-42.66935
1039.276	-21.59933
1039.44	-6.84884
1039.605	-42.66935
1039.769	-25.81353
1039.933	-67.95008
1040.098	16.33288
1040.262	-65.84349
1040.426	62.70491
1040.591	24.76332
1040.755	3.68794
1040.919	-21.59933
1041.083	5.79537
1041.248	52.16483
1041.412	-32.13465
1041.576	-46.88306
1041.74	-27.92059
1041.904	-34.24164
1042.068	-23.70644
1042.232	-15.27784
1042.397	18.44046
1042.561	41.62532
1042.725	-57.41689
1042.889	-59.52357
1043.053	-51.09666
1043.217	-82.69548
1043.381	-51.09666
1043.544	-0.52684
1043.708	-0.52684
1043.872	88.00344
1044.036	-36.3486
1044.2	-6.84884
1044.364	3.68794
1044.528	-0.52684
1044.691	-91.12085
1044.855	-17.38502
1045.019	5.79537
1045.183	31.08639
1045.346	-15.27784
1045.51	-42.66935
1045.674	-59.52357
1045.837	-67.95008
1046.001	-48.98987
1046.165	-46.88306
1046.328	45.84105
1046.492	-84.80186
1046.655	7.90283
1046.819	-21.59933
1046.983	-53.20343
1047.146	-139.55859
1047.31	-101.65198
1047.473	-30.02763
1047.636	-124.81816
1047.8	-42.66935
1047.963	-63.73688
1048.127	-40.56246
1048.29	-27.92059
