Data from absorb_only_2.23.25_USB4F045381__83__0188.txt Node

Date: Sun Feb 23 19:29:35 EST 2025
User: ssocol
Spectrometer: USB4F04538
Trigger mode: 4
Integration Time (sec): 2.600000E-3
Scans to average: 1
Electric dark correction enabled: true
Nonlinearity correction enabled: true
Boxcar width: 0
XAxis mode: Wavelengths
Number of Pixels in Spectrum: 3648
>>>>>Begin Spectral Data<<<<<
345.52	-20.37016
345.736	-20.37016
345.952	-20.37016
346.168	-11.94141
346.384	-14.04863
346.6	-11.94141
346.816	59.7185
347.032	-81.46674
347.248	2.80986
347.464	-37.2265
347.68	-1.40491
347.896	21.7775
348.112	28.10047
348.328	23.88513
348.544	30.20817
348.76	-33.01256
348.975	-1.40491
349.191	47.07066
349.407	-18.26301
349.623	-39.33343
349.839	57.61047
350.055	2.80986
350.27	47.07066
350.486	-11.94141
350.702	11.23968
350.918	21.7775
351.133	-22.47729
351.349	2.80986
351.565	4.91728
351.781	-43.54722
351.996	-73.04089
352.212	-60.40135
352.428	40.74705
352.644	-14.04863
352.859	-30.90556
353.075	-3.51226
353.291	19.66988
353.506	19.66988
353.722	11.23968
353.938	23.88513
354.153	-11.94141
354.369	-9.83416
354.584	-11.94141
354.8	-1.40491
355.016	61.82655
355.231	-5.61958
355.447	19.66988
355.662	-41.44034
355.878	82.90833
356.093	28.10047
356.309	19.66988
356.524	38.63923
356.74	-11.94141
356.955	-45.65407
357.171	-35.11954
357.386	-56.18797
357.602	47.07066
357.817	21.7775
358.033	9.13219
358.248	49.17857
358.464	-5.61958
358.679	-16.15583
358.895	28.10047
359.11	-64.61464
359.325	-51.97449
359.541	-39.33343
359.756	-5.61958
359.972	-39.33343
360.187	-5.61958
360.402	-1.40491
360.618	-66.72124
360.833	-60.40135
361.048	101.88386
361.264	-39.33343
361.479	36.53143
361.694	51.28651
361.909	-9.83416
362.125	7.02472
362.34	2.80986
362.555	-11.94141
362.77	7.02472
362.986	-64.61464
363.201	4.91728
363.416	2.80986
363.631	13.34719
363.847	9.13219
364.062	-51.97449
364.277	0.70246
364.492	-73.04089
364.707	-39.33343
364.922	28.10047
365.138	17.5623
365.353	28.10047
365.568	19.66988
365.783	-24.5844
365.998	-11.94141
366.213	-5.61958
366.428	-5.61958
366.643	23.88513
366.858	38.63923
367.073	-56.18797
367.288	-5.61958
367.503	4.91728
367.718	-1.40491
367.933	47.07066
368.148	-30.90556
368.363	53.39447
368.578	19.66988
368.793	66.04272
369.008	53.39447
369.223	-3.51226
369.438	-24.5844
369.653	-16.15583
369.868	-37.2265
370.083	19.66988
370.298	-24.5844
370.513	-45.65407
370.728	-26.69148
370.943	2.80986
371.157	95.55848
371.372	15.45473
371.587	4.91728
371.802	-3.51226
372.017	11.23968
372.232	-5.61958
372.446	19.66988
372.661	11.23968
372.876	11.23968
373.091	-96.21098
373.306	-5.61958
373.52	23.88513
373.735	2.80986
373.95	38.63923
374.165	21.7775
374.379	-22.47729
374.594	57.61047
374.809	34.42366
375.023	47.07066
375.238	-62.50801
375.453	40.74705
375.667	-20.37016
375.882	23.88513
376.097	2.80986
376.311	-68.82782
376.526	13.34719
376.741	2.80986
376.955	-16.15583
377.17	28.10047
377.384	-1.40491
377.599	15.45473
377.813	-18.26301
378.028	-5.61958
378.242	-45.65407
378.457	38.63923
378.672	-60.40135
378.886	47.07066
379.101	0.70246
379.315	23.88513
379.53	-7.72688
379.744	9.13219
379.958	-56.18797
380.173	4.91728
380.387	-60.40135
380.602	-16.15583
380.816	21.7775
381.031	-56.18797
381.245	44.96277
381.459	25.99279
381.674	-49.86771
381.888	-26.69148
382.103	38.63923
382.317	-5.61958
382.531	-3.51226
382.746	-98.3172
382.96	47.07066
383.174	-30.90556
383.388	-47.7609
383.603	-45.65407
383.817	-14.04863
384.031	2.80986
384.246	-20.37016
384.46	7.02472
384.674	-14.04863
384.888	11.23968
385.103	-11.94141
385.317	-81.46674
385.531	-77.25387
385.745	-30.90556
385.959	-39.33343
386.174	-26.69148
386.388	28.10047
386.602	28.10047
386.816	32.3159
387.03	-14.04863
387.244	-5.61958
387.458	0.70246
387.672	82.90833
387.887	-3.51226
388.101	-26.69148
388.315	17.5623
388.529	36.53143
388.743	9.13219
388.957	-14.04863
389.171	36.53143
389.385	-1.40491
389.599	19.66988
389.813	61.82655
390.027	-24.5844
390.241	-3.51226
390.455	11.23968
390.669	32.3159
390.883	-20.37016
391.097	11.23968
391.311	-64.61464
391.525	36.53143
391.738	-16.15583
391.952	-26.69148
392.166	-79.36032
392.38	28.10047
392.594	-39.33343
392.808	-1.40491
393.022	-54.08124
393.236	-5.61958
393.449	-28.79853
393.663	-73.04089
393.877	-123.58973
394.091	-22.47729
394.305	7.02472
394.518	21.7775
394.732	-30.90556
394.946	9.13219
395.16	13.34719
395.373	-54.08124
395.587	-39.33343
395.801	23.88513
396.015	-14.04863
396.228	-43.54722
396.442	7.02472
396.656	13.34719
396.869	-9.83416
397.083	40.74705
397.297	2.80986
397.51	55.50246
397.724	4.91728
397.938	-22.47729
398.151	47.07066
398.365	-1.40491
398.578	2.80986
398.792	55.50246
399.005	0.70246
399.219	-5.61958
399.433	32.3159
399.646	-77.25387
399.86	19.66988
400.073	-7.72688
400.287	-47.7609
400.5	34.42366
400.714	-35.11954
400.927	57.61047
401.141	-35.11954
401.354	-11.94141
401.567	-7.72688
401.781	32.3159
401.994	11.23968
402.208	7.02472
402.421	13.34719
402.635	-5.61958
402.848	-14.04863
403.061	36.53143
403.275	-28.79853
403.488	2.80986
403.701	-47.7609
403.915	80.80005
404.128	-9.83416
404.341	-30.90556
404.555	28.10047
404.768	-28.79853
404.981	32.3159
405.195	19.66988
405.408	36.53143
405.621	-5.61958
405.834	-22.47729
406.048	-14.04863
406.261	34.42366
406.474	-35.11954
406.687	-9.83416
406.9	40.74705
407.114	-30.90556
407.327	25.99279
407.54	78.6918
407.753	-37.2265
407.966	-20.37016
408.179	-39.33343
408.392	15.45473
408.605	40.74705
408.819	34.42366
409.032	19.66988
409.245	-14.04863
409.458	-3.51226
409.671	9.13219
409.884	38.63923
410.097	-70.93437
410.31	89.23331
410.523	-16.15583
410.736	57.61047
410.949	2.80986
411.162	-39.33343
411.375	-30.90556
411.588	34.42366
411.801	-18.26301
412.014	70.25899
412.227	-64.61464
412.44	-22.47729
412.653	47.07066
412.865	-73.04089
413.078	36.53143
413.291	-18.26301
413.504	-79.36032
413.717	47.07066
413.93	61.82655
414.143	61.82655
414.356	-39.33343
414.568	70.25899
414.781	-5.61958
414.994	9.13219
415.207	-22.47729
415.42	53.39447
415.632	19.66988
415.845	-22.47729
416.058	2.80986
416.271	-14.04863
416.483	-7.72688
416.696	44.96277
416.909	17.5623
417.121	-41.44034
417.334	116.64384
417.547	-26.69148
417.759	-5.61958
417.972	15.45473
418.185	-35.11954
418.397	-28.79853
418.61	-5.61958
418.823	59.7185
419.035	7.02472
419.248	-20.37016
419.46	-51.97449
419.673	44.96277
419.885	25.99279
420.098	-56.18797
420.311	25.99279
420.523	36.53143
420.736	13.34719
420.948	-64.61464
421.161	32.3159
421.373	-11.94141
421.586	-11.94141
421.798	-22.47729
422.01	15.45473
422.223	-64.61464
422.435	-64.61464
422.648	-14.04863
422.86	-47.7609
423.073	-14.04863
423.285	32.3159
423.497	55.50246
423.71	7.02472
423.922	11.23968
424.134	-18.26301
424.347	19.66988
424.559	-35.11954
424.771	99.77538
424.984	-22.47729
425.196	76.58356
425.408	-30.90556
425.621	44.96277
425.833	61.82655
426.045	7.02472
426.257	2.80986
426.47	32.3159
426.682	55.50246
426.894	19.66988
427.106	-5.61958
427.318	80.80005
427.531	-37.2265
427.743	11.23968
427.955	-35.11954
428.167	28.10047
428.379	-3.51226
428.591	-18.26301
428.804	36.53143
429.016	99.77538
429.228	21.7775
429.44	-26.69148
429.652	23.88513
429.864	38.63923
430.076	-26.69148
430.288	19.66988
430.5	-14.04863
430.712	21.7775
430.924	-24.5844
431.136	-43.54722
431.348	-11.94141
431.56	72.36716
431.772	4.91728
431.984	-20.37016
432.196	40.74705
432.408	13.34719
432.62	28.10047
432.832	-20.37016
433.044	-18.26301
433.256	112.42659
433.468	21.7775
433.679	42.8549
433.891	9.13219
434.103	2.80986
434.315	30.20817
434.527	23.88513
434.739	23.88513
434.95	13.34719
435.162	-30.90556
435.374	-9.83416
435.586	-14.04863
435.798	28.10047
436.009	49.17857
436.221	19.66988
436.433	34.42366
436.645	2.80986
436.856	-11.94141
437.068	38.63923
437.28	38.63923
437.491	55.50246
437.703	23.88513
437.915	66.04272
438.126	15.45473
438.338	19.66988
438.55	44.96277
438.761	66.04272
438.973	63.93463
439.184	55.50246
439.396	23.88513
439.608	63.93463
439.819	-96.21098
440.031	74.47535
440.242	32.3159
440.454	0.70246
440.665	7.02472
440.877	-30.90556
441.088	36.53143
441.3	74.47535
441.511	57.61047
441.723	-43.54722
441.934	47.07066
442.146	-14.04863
442.357	17.5623
442.569	-51.97449
442.78	30.20817
442.991	-14.04863
443.203	-5.61958
443.414	2.80986
443.626	15.45473
443.837	21.7775
444.048	36.53143
444.26	-1.40491
444.471	25.99279
444.682	2.80986
444.894	36.53143
445.105	95.55848
445.316	72.36716
445.528	30.20817
445.739	-14.04863
445.95	7.02472
446.161	-28.79853
446.373	82.90833
446.584	-33.01256
446.795	80.80005
447.006	95.55848
447.217	42.8549
447.429	0.70246
447.64	61.82655
447.851	4.91728
448.062	28.10047
448.273	23.88513
448.484	-28.79853
448.695	19.66988
448.907	34.42366
449.118	49.17857
449.329	-77.25387
449.54	59.7185
449.751	53.39447
449.962	-9.83416
450.173	122.96987
450.384	-22.47729
450.595	47.07066
450.806	47.07066
451.017	61.82655
451.228	0.70246
451.439	15.45473
451.65	-5.61958
451.861	30.20817
452.072	21.7775
452.283	28.10047
452.494	63.93463
452.705	4.91728
452.915	28.10047
453.126	17.5623
453.337	-22.47729
453.548	34.42366
453.759	72.36716
453.97	61.82655
454.181	-35.11954
454.391	47.07066
454.602	21.7775
454.813	59.7185
455.024	-20.37016
455.235	-5.61958
455.445	-20.37016
455.656	13.34719
455.867	19.66988
456.078	63.93463
456.288	57.61047
456.499	61.82655
456.71	55.50246
456.921	103.99236
457.131	87.12496
457.342	13.34719
457.553	30.20817
457.763	91.34168
457.974	95.55848
458.184	17.5623
458.395	-5.61958
458.606	-30.90556
458.816	21.7775
459.027	49.17857
459.237	80.80005
459.448	95.55848
459.659	49.17857
459.869	-5.61958
460.08	-39.33343
460.29	70.25899
460.501	82.90833
460.711	-3.51226
460.922	21.7775
461.132	72.36716
461.343	19.66988
461.553	53.39447
461.764	63.93463
461.974	53.39447
462.184	49.17857
462.395	32.3159
462.605	28.10047
462.816	-16.15583
463.026	-9.83416
463.236	78.6918
463.447	87.12496
463.657	53.39447
463.867	-64.61464
464.078	36.53143
464.288	78.6918
464.498	61.82655
464.709	2.80986
464.919	61.82655
465.129	38.63923
465.339	80.80005
465.55	44.96277
465.76	-22.47729
465.97	70.25899
466.18	-11.94141
466.391	97.66692
466.601	95.55848
466.811	78.6918
467.021	95.55848
467.231	-16.15583
467.441	70.25899
467.651	82.90833
467.862	47.07066
468.072	-7.72688
468.282	87.12496
468.492	68.15085
468.702	103.99236
468.912	99.77538
469.122	87.12496
469.332	68.15085
469.542	87.12496
469.752	87.12496
469.962	53.39447
470.172	70.25899
470.382	87.12496
470.592	30.20817
470.802	70.25899
471.012	87.12496
471.222	36.53143
471.432	137.73137
471.642	120.86117
471.852	55.50246
472.062	156.71198
472.272	158.82104
472.482	-1.40491
472.691	101.88386
472.901	160.93012
473.111	122.96987
473.321	129.2961
473.531	131.40488
473.741	99.77538
473.95	103.99236
474.16	110.318
474.37	179.9128
474.58	87.12496
474.79	133.51369
474.999	131.40488
475.209	49.17857
475.419	122.96987
475.628	207.33515
475.838	122.96987
476.048	194.67826
476.258	190.45945
476.467	217.88312
476.677	163.03922
476.886	222.10244
477.096	213.66387
477.306	207.33515
477.515	108.20943
477.725	272.74039
477.935	209.44471
478.144	234.76089
478.354	289.62213
478.563	173.58505
478.773	150.38492
478.982	314.94696
479.192	298.06345
479.401	264.29997
479.611	314.94696
479.82	300.17382
480.03	306.50506
480.239	374.04814
480.449	291.73244
480.658	304.39463
480.868	317.05747
481.077	323.38914
481.287	338.16365
481.496	357.1607
481.705	397.27012
481.915	464.83611
482.124	348.71739
482.333	393.0478
482.543	361.38246
482.752	409.9375
482.961	390.93666
483.171	496.5131
483.38	492.28931
483.589	530.30552
483.799	479.61829
484.008	572.55109
484.217	483.8419
484.426	551.42762
484.636	572.55109
484.845	528.19339
485.054	479.61829
485.263	616.91466
485.472	534.52983
485.682	737.357
485.891	610.57666
486.1	623.25277
486.309	659.17083
486.518	724.67713
486.727	678.18766
486.936	815.55758
487.146	669.73562
487.355	690.86607
487.564	633.81654
487.773	747.92384
487.982	813.44387
488.191	840.92273
488.4	724.67713
488.609	851.49193
488.818	728.90371
489.027	999.48152
489.236	866.28916
489.445	982.56663
489.654	821.89874
489.863	832.46754
490.072	1024.85461
490.281	1077.71793
490.49	991.02402
490.698	967.76645
490.907	1003.71031
491.116	1084.06175
491.325	1041.77049
491.534	1210.94683
491.743	1003.71031
491.952	1198.25768
492.16	1096.74954
492.369	1168.65017
492.578	1194.028
492.787	1155.96146
492.996	1174.99458
493.204	1306.11875
493.413	1320.9237
493.622	1320.9237
493.831	1217.29145
494.039	1479.5515
494.248	1325.1537
494.457	1371.68409
494.665	1371.68409
494.874	1507.04711
495.083	1534.54261
495.291	1526.08247
495.5	1435.13541
495.709	1418.21501
495.917	1392.83446
496.126	1566.26795
496.335	1507.04711
496.543	1540.8877
496.752	1619.14275
496.96	1526.08247
497.169	1483.7816
497.377	1832.73944
497.586	1460.51604
497.794	1606.4529
498.003	1602.22294
498.211	1739.69174
498.42	1716.42865
498.628	1775.64292
498.837	1697.39492
499.045	1824.2809
499.254	1845.42712
499.462	1972.29357
499.671	1750.26573
499.879	1828.51018
500.087	1849.6563
500.296	1756.61008
500.504	1754.4953
500.713	1925.77819
500.921	1921.54938
501.129	1991.32175
501.338	1845.42712
501.546	2196.36705
501.754	2073.77098
501.962	1984.97908
502.171	1862.34375
502.379	2158.32286
502.587	2010.3494
502.795	2171.00455
503.004	2042.06097
503.212	2158.32286
503.42	2137.18605
503.628	2200.59402
503.837	2143.52718
504.045	2141.41348
504.253	2209.04784
504.461	2382.31912
504.669	2225.95509
504.877	2380.20645
505.085	2302.03058
505.294	2496.38767
505.502	2130.84485
505.71	2202.70749
505.918	2384.43178
506.126	2449.91909
506.334	2225.95509
506.542	2517.50796
506.75	2302.03058
506.958	2449.91909
507.166	2342.17663
507.374	2553.40981
507.582	2519.61992
507.79	2593.5314
507.998	2371.75566
508.206	2549.18624
508.414	2477.37844
508.622	2703.31517
508.83	2468.92961
509.037	2709.64781
509.245	2504.83592
509.453	2608.31194
509.661	2688.53858
509.869	2696.98243
510.077	2646.31629
510.285	2734.97716
510.492	2734.97716
510.7	2791.96119
510.908	2504.83592
511.116	2690.64956
511.324	2538.6271
511.531	2798.29214
511.739	2739.19853
511.947	2715.98032
512.155	2895.351
512.362	2884.80257
512.57	2758.19406
512.778	2916.44676
512.985	2943.86907
513.193	2867.92435
513.401	2939.65041
513.608	2994.48828
513.816	2914.33725
514.024	2990.27035
514.231	2908.00863
514.439	3007.14173
514.646	3028.2296
514.854	3201.09086
515.061	3061.96698
515.269	2986.05235
515.477	3009.25059
515.684	3142.07715
515.892	3005.03286
516.099	3260.09163
516.307	3091.48391
516.514	3289.58708
516.722	2960.7431
516.929	3243.2356
517.136	3112.56554
517.344	3350.67415
517.551	3171.5856
517.759	3382.26519
517.966	3163.15494
518.173	3413.85229
518.381	3215.84227
518.588	3207.41299
518.796	3264.30547
519.003	3209.52034
519.21	3072.50909
519.418	3455.96219
519.625	3247.44971
519.832	3521.21831
520.039	3196.87602
520.247	3437.01362
520.454	3369.62925
520.661	3664.29867
520.868	3493.85496
521.076	3685.33255
521.283	3401.21793
521.49	3628.5367
521.697	3592.76929
521.904	3639.05549
522.112	3569.62278
522.319	3908.17223
522.526	3521.21831
522.733	3811.49535
522.94	3535.95114
523.147	3693.74557
523.354	3502.27478
523.561	3975.40066
523.768	3510.69431
523.975	4051.0077
524.183	3664.29867
524.39	4021.60812
524.597	3792.5754
524.804	3975.40066
525.011	3693.74557
525.218	4080.40322
525.425	3931.28434
525.632	4076.20411
525.838	3878.7533
526.045	3950.19243
526.252	3903.96977
526.459	4197.94438
526.666	3918.67804
526.873	4229.41739
527.08	3962.79691
527.287	4218.92691
527.494	3937.58722
527.701	4164.36791
527.907	3822.00574
528.114	4252.49455
528.321	4013.20751
528.528	4174.86114
528.735	4319.61339
528.941	4223.12317
529.148	4059.40683
529.355	4416.05798
529.562	4118.19147
529.768	4441.20986
529.975	4088.80119
530.182	4269.27632
530.388	4172.76253
530.595	4292.34902
530.802	4231.51542
531.008	4428.63432
531.215	4453.78462
531.422	4617.18413
531.628	4462.16735
531.835	4581.58293
532.042	4399.28832
532.248	4579.48854
532.455	4432.82625
532.661	4652.77887
532.868	4392.99933
533.074	4719.76314
533.281	4682.08732
533.487	4600.43143
533.694	4631.84157
533.9	4922.66739
534.107	4470.54973
534.313	4826.47147
534.52	4715.5773
534.726	4602.52559
534.933	4659.05963
535.139	4801.36894
535.345	4661.15317
535.552	4742.78365
535.758	4979.10761
535.965	5221.3998
536.171	4813.92061
536.377	4878.75786
536.584	4654.87248
536.79	5008.36631
536.996	4839.02151
537.203	4983.2877
537.409	4912.21366
537.615	4859.93641
537.821	4847.38774
538.028	5144.15088
538.234	4868.30173
538.44	5022.99396
538.646	5089.8488
538.853	5077.31532
539.059	4908.032
539.265	4995.82742
539.471	4960.29607
539.677	5160.85605
539.883	5175.47185
540.09	5179.64758
540.296	5281.92392
540.502	5302.78975
540.708	5175.47185
540.914	5400.82775
541.12	5139.97435
541.326	5331.99797
541.532	5379.97294
541.738	5315.30812
541.944	5379.97294
542.15	5513.40312
542.356	5284.01061
542.562	5705.03999
542.768	5369.54466
542.974	5605.08043
543.18	5346.60036
543.386	5719.61289
543.592	5413.33951
543.798	5569.66506
544.004	5480.0546
544.21	5627.99263
544.415	5494.64532
544.621	5569.66506
544.827	5663.39678
545.033	5940.14679
545.239	5496.72961
545.445	5900.63663
545.651	5415.42472
545.856	5763.32463
546.062	5730.02139
546.268	5798.7027
546.474	5746.67376
546.679	5692.54802
546.885	5723.77636
547.091	5609.2465
547.297	5650.90198
547.502	5538.41054
547.708	5648.81943
547.914	5727.93973
548.119	5911.03486
548.325	5782.05504
548.531	5688.38384
548.736	5898.55691
548.942	5644.65426
549.147	5836.1544
549.353	5890.2378
549.559	5921.43251
549.764	5829.91298
549.97	5927.67081
550.175	5765.40588
550.381	6093.94737
550.586	5938.06752
550.792	6085.63712
550.997	6193.64102
551.203	6029.53309
551.408	5994.19953
551.614	6309.88197
551.819	6143.80096
552.025	6131.33883
552.23	6033.68953
552.435	6496.54436
552.641	6220.63207
552.846	6372.12374
553.052	6226.86022
553.257	6293.28062
553.462	6498.61733
553.668	6384.56957
553.873	6145.8779
554.078	6361.75157
554.283	6222.70814
554.489	6508.98182
554.694	6492.39836
554.899	6461.30035
555.105	6251.77068
555.31	6378.34676
555.515	6293.28062
555.72	6666.45093
555.925	6264.22464
556.131	6567.01228
556.336	6531.78167
556.541	6676.80607
556.746	6409.45872
556.951	6641.59624
557.156	6517.273
557.361	6656.09521
557.567	6579.44502
557.772	6361.75157
557.977	6384.56957
558.182	6645.73892
558.387	6614.66659
558.592	6629.16766
558.797	6651.95276
559.002	6821.71785
559.207	6616.73824
559.412	6931.36245
559.617	6550.434
559.822	6823.7872
560.027	6660.23757
560.232	6889.99462
560.437	6774.11634
560.642	6827.92585
560.847	6728.57315
561.051	6935.49874
561.256	6732.7139
561.461	7090.54439
561.666	6836.20287
561.871	6765.83658
562.076	6861.03174
562.281	6912.74805
562.485	6821.71785
562.69	6889.99462
562.895	6896.20037
563.1	7204.16456
563.305	6753.41626
563.509	6832.0644
563.714	6881.71996
563.919	7200.0341
564.123	6894.13181
564.328	6970.65351
564.533	7030.60839
564.737	7001.66702
564.942	6885.85734
565.147	7185.57677
565.351	7191.7729
565.556	7228.94549
565.761	6956.17881
565.965	7231.01043
566.17	6968.58577
566.374	6881.71996
566.579	7140.13238
566.784	7175.24944
566.988	7092.61081
567.193	7212.42522
567.397	7129.80261
567.602	7340.42041
567.806	7063.67886
568.011	7328.03747
568.215	7402.32332
568.42	7480.70558
568.624	7228.94549
568.828	7361.0569
569.033	7228.94549
569.237	7427.079
569.442	7119.47228
569.646	7451.83155
569.85	7255.78791
570.055	7365.18393
570.259	7272.30447
570.463	7334.22904
570.668	7311.52566
570.872	7379.62787
571.076	7402.32332
571.281	7392.00753
571.485	7408.51253
571.689	7447.70634
571.893	7511.63736
572.098	7542.56429
572.302	7321.84571
572.506	7369.31088
572.71	7402.32332
572.914	7641.49811
573.119	7431.20464
573.323	7546.68752
573.527	7462.14419
573.731	7569.36373
573.935	7592.03735
574.139	7826.8676
574.343	7499.26523
574.547	7800.1025
574.751	7649.74038
574.955	7686.8264
575.159	7592.03735
575.364	7703.30688
575.568	7608.52563
575.772	7878.32908
575.976	7707.42679
576.18	7711.54661
576.383	7657.98231
576.587	7668.28425
576.791	7800.1025
576.995	7773.33387
577.199	7686.8264
577.403	7612.64749
577.607	7775.39312
577.811	7913.3155
578.015	7668.28425
578.219	7938.00821
578.422	7750.68074
578.626	8042.91938
578.83	7830.98499
579.034	7966.81264
579.238	8047.03246
579.442	7991.49896
579.645	7798.0435
579.849	8063.48399
580.053	8007.95488
580.257	7962.69797
580.46	7923.60449
580.664	8127.22149
580.868	8012.06865
581.071	8238.2022
581.275	8032.63631
581.479	8125.16574
581.682	7740.38302
581.886	8123.10997
582.09	7849.51225
582.293	8305.99534
582.497	8182.71909
582.7	8184.77428
582.904	8067.59667
583.107	8184.77428
583.311	7913.3155
583.515	8182.71909
583.718	8098.43921
583.922	8254.63887
584.125	8244.3661
584.329	8221.76426
584.532	8018.23916
584.735	8312.1573
584.939	8131.33292
585.142	8540.02722
585.346	8291.61676
585.549	8459.99177
585.753	8242.31148
585.956	8427.14831
586.159	8482.5688
586.363	8503.09138
586.566	8515.40401
586.769	8492.83033
586.973	8423.04253
587.176	8324.48068
587.379	8347.07172
587.582	8531.81979
587.786	8466.14937
587.989	8661.05195
588.192	8537.97539
588.395	8496.93481
588.599	8533.87168
588.802	8695.91144
589.005	8429.20117
589.208	8595.41952
589.411	8439.46518
589.615	8685.6592
589.818	8316.26517
590.021	8849.64002
590.224	8515.40401
590.427	8872.1783
590.63	8681.55818
590.833	8786.1113
591.036	8679.50764
591.239	8790.21045
591.442	8416.88372
591.645	8943.87662
591.848	8796.35905
592.051	8839.39463
592.254	8661.05195
592.457	8603.62462
592.66	8488.72578
592.863	9099.49001
593.066	8816.85318
593.269	8954.11746
593.472	8837.3455
593.675	9001.21963
593.878	9007.36271
594.081	9046.2652
594.284	8997.12416
594.486	8874.22713
594.689	8917.24837
594.892	8878.32473
595.095	9033.98088
595.298	8868.0806
595.5	9076.97325
595.703	9457.43619
595.906	9017.60082
596.109	9187.49013
596.311	8851.68905
596.514	8988.93301
596.717	9056.50165
596.92	9295.91227
597.122	9021.69594
597.325	9363.39673
597.528	9119.95798
597.73	9285.68578
597.933	9148.61026
598.136	9216.13454
598.338	9201.81275
598.541	9347.03851
598.743	9338.85901
598.946	9142.47077
599.148	9009.41037
599.351	9144.51728
599.554	9236.5928
599.756	9486.05009
599.959	9392.02109
600.161	9396.11002
600.363	9344.99366
600.566	9408.37642
600.768	9242.72995
600.971	9381.79847
601.173	9389.9766
601.376	9731.18506
601.578	9439.03987
601.78	9455.39222
601.983	9453.34823
602.185	9398.15446
602.388	9389.9766
602.59	9704.63958
602.792	9389.9766
602.995	9555.52795
603.197	9475.8312
603.399	9725.05941
603.601	9420.64224
603.804	9631.11545
604.006	9400.19888
604.208	9518.74785
604.41	9488.09382
604.613	9604.56013
604.815	9312.27379
605.017	9457.43619
605.219	9277.50428
605.421	9561.65747
605.623	9500.35587
605.826	9921.01306
606.028	9439.03987
606.23	9665.83768
606.432	9404.28769
606.634	9806.72353
606.836	9563.70061
607.038	9718.93362
607.24	9618.85948
607.442	9690.34479
607.644	9657.66814
607.846	9684.21822
608.048	9622.94486
608.25	9737.31058
608.452	9396.11002
608.654	9765.8945
608.856	9398.15446
609.058	9751.60291
609.26	9725.05941
609.462	9696.47122
609.664	9725.05941
609.866	9602.5173
610.067	9671.96466
610.269	9782.22683
610.471	9479.91881
610.673	9765.8945
610.875	9653.58329
611.077	9790.39264
611.278	9604.56013
611.48	9563.70061
611.682	9563.70061
611.884	9737.31058
612.085	9659.71055
612.287	9802.6409
612.489	9753.64461
612.69	9610.68851
612.892	9610.68851
613.094	9941.41704
613.295	9733.22692
613.497	9755.6863
613.699	9610.68851
613.9	9859.79231
614.102	9731.18506
614.304	9916.93209
614.505	9637.24323
614.707	9706.68163
614.908	9818.97107
615.11	9753.64461
615.311	9716.89166
615.513	9772.01924
615.714	9426.77493
615.916	10267.68717
616.117	9582.08817
616.319	9774.06079
616.52	9884.2822
616.722	10008.73988
616.923	9806.72353
617.124	9890.40434
617.326	9500.35587
617.527	10104.59701
617.729	9794.47545
617.93	9951.61849
618.131	9863.8741
618.333	9949.57823
618.534	9865.91498
618.735	10018.93894
618.937	9720.97557
619.138	10129.06618
619.339	9627.03019
619.54	9935.296
619.742	9702.59752
619.943	9880.2007
620.144	9686.26043
620.345	9880.2007
620.546	9782.22683
620.748	9890.40434
620.949	9878.15993
621.15	10080.12583
621.351	9578.00216
621.552	9974.06038
621.753	9676.04924
621.954	9969.98017
622.155	9669.92235
622.356	9990.38067
622.558	10047.49441
622.759	9941.41704
622.96	9857.75139
623.161	9810.8061
623.362	9481.96259
623.563	10031.17735
623.764	10023.01847
623.965	10094.40093
624.166	10110.71449
624.366	10035.2567
624.567	10012.81955
624.768	10157.611
624.969	9804.68222
625.17	9892.44502
625.371	9786.30977
625.572	9867.95584
625.773	9900.60761
625.973	10014.85936
626.174	9741.39418
626.375	9876.11914
626.576	9984.26067
626.777	10120.91001
626.977	10045.45483
627.178	10216.73094
627.379	9923.05352
627.58	9792.43405
627.78	10102.55783
627.981	10020.97871
628.182	9896.52635
628.382	9961.81957
628.583	10047.49441
628.784	9867.95584
628.984	9835.30028
629.185	10157.611
629.386	10023.01847
629.586	10277.8774
629.787	10096.44018
629.987	10143.33893
630.188	9808.76482
630.388	10020.97871
630.589	9649.49836
630.79	10267.68717
630.99	9927.13441
631.191	10259.53474
631.391	10039.33599
631.591	10076.0471
631.792	10023.01847
631.992	10259.53474
632.193	10161.68861
632.393	9961.81957
632.594	10120.91001
632.794	10090.3224
632.994	10023.01847
633.195	9923.05352
633.395	9847.54656
633.595	10292.14315
633.796	10108.67535
633.996	10257.4966
634.196	10279.9154
634.397	10406.24572
634.597	10147.41673
634.797	10273.80134
634.997	10104.59701
635.198	10345.12451
635.398	10251.38209
635.598	10253.42028
635.798	10118.87094
635.998	10092.36167
636.199	10039.33599
636.399	10190.23033
636.599	10165.76616
636.799	10157.611
636.999	10253.42028
637.199	10218.76935
637.399	10127.02716
637.599	10084.2045
637.799	10175.95981
637.999	10294.18106
638.199	10475.50225
638.399	10369.57441
638.599	10196.34606
638.799	10394.02243
638.999	10214.69251
639.199	10432.72793
639.399	10353.27469
639.599	10410.32005
639.799	10088.28311
639.999	10353.27469
640.199	10175.95981
640.399	10353.27469
640.599	9949.57823
640.799	10518.27091
640.998	10124.98812
641.198	10404.20854
641.398	10524.38027
641.598	10605.82747
641.798	10422.54272
641.997	10581.39541
642.197	10371.61182
642.397	10556.96156
642.597	10239.15272
642.796	10514.19795
642.996	10446.98666
643.196	10459.20794
643.395	10288.06729
643.595	10630.25775
643.795	10147.41673
643.994	10721.85559
644.194	10524.38027
644.394	10673.00647
644.593	10589.53963
644.793	10465.3184
644.992	10304.37042
645.192	10381.79866
645.392	10373.64921
645.591	10727.96124
645.791	10434.76493
645.99	10756.45285
646.19	10469.39198
646.389	10410.32005
646.589	10188.19172
646.788	10548.81654
646.987	10381.79866
647.187	10563.07019
647.386	10497.90558
647.586	10630.25775
647.785	10442.9128
647.984	10495.86898
648.184	10428.65388
648.383	10589.53963
648.582	10412.3572
648.782	10634.32929
648.981	10469.39198
649.18	10618.04283
649.38	10632.29353
649.579	10760.52289
649.778	10453.09736
649.977	10736.10194
650.177	10558.99778
650.376	10868.36178
650.575	10605.82747
650.774	10697.4319
650.973	10607.8634
651.173	10538.63498
651.372	10601.75559
651.571	10933.4563
651.77	11000.57288
651.969	10854.12079
652.168	10453.09736
652.367	10858.1897
652.566	10532.52589
652.765	10756.45285
652.964	10567.14255
653.163	10833.77553
653.362	10752.38276
653.561	10776.80258
653.76	10497.90558
653.959	10654.68625
654.158	10717.78509
654.357	10603.79154
654.556	10565.10638
654.755	10727.96124
654.954	10565.10638
655.153	10778.83748
655.352	10599.71963
655.551	10990.40449
655.749	10784.94213
655.948	10699.46728
656.147	10697.4319
656.346	10902.9447
656.545	10705.57332
656.743	10687.25485
656.942	10727.96124
657.141	11010.741
657.34	10860.22414
657.538	10939.55831
657.737	10791.04668
657.936	11018.8753
658.135	10793.0815
658.333	10632.29353
658.532	10626.18616
658.731	10835.8101
658.929	10361.42466
659.128	10825.63709
659.326	10927.35419
659.525	10882.60221
659.724	10811.39439
659.922	10587.5036
660.121	10679.11299
660.319	10809.35967
660.518	10776.80258
660.716	10907.01306
660.915	10880.5679
661.113	10892.7736
661.312	10687.25485
661.51	10939.55831
661.709	10752.38276
661.907	10795.11631
662.105	10605.82747
662.304	10907.01306
662.502	10679.11299
662.701	10929.38824
662.899	10992.43819
663.097	10929.38824
663.296	10784.94213
663.494	11012.77459
663.692	10536.59863
663.891	10709.64396
664.089	10548.81654
664.287	10823.60246
664.485	10675.04199
664.684	10872.43053
664.882	10563.07019
665.08	10894.80784
665.278	10782.90726
665.476	10978.20205
665.675	10394.02243
665.873	10990.40449
666.071	10723.89082
666.269	10821.56781
666.467	10622.11452
666.665	10852.08631
666.863	10854.12079
667.061	11167.29557
667.259	10813.4291
667.457	10965.9992
667.655	10852.08631
667.853	10886.6708
668.051	10656.72188
668.249	11004.64016
668.447	10699.46728
668.645	10815.46379
668.843	10996.50556
669.041	10915.14965
669.239	10473.4655
669.437	10823.60246
669.635	10870.39616
669.833	10837.84467
670.031	10789.01184
670.229	10882.60221
670.426	10923.28605
670.624	11077.84368
670.822	10632.29353
671.02	11008.7074
671.218	10862.25857
671.415	10705.57332
671.613	10679.11299
671.811	10764.59288
672.009	10752.38276
672.206	10888.70508
672.404	10542.70764
672.602	10776.80258
672.799	10632.29353
672.997	11006.67379
673.195	10646.54362
673.392	10911.08138
673.59	10571.21486
673.788	10577.32323
673.985	10634.32929
674.183	10766.62786
674.38	10508.08841
674.578	10729.99643
674.775	10658.7575
674.973	10701.50264
675.17	10438.83889
675.368	10442.9128
675.565	10583.43149
675.763	10638.40078
675.96	10463.28159
676.158	10457.17109
676.355	10253.42028
676.553	10626.18616
676.75	10391.98516
676.947	10768.66283
677.145	10345.12451
677.342	10719.82035
677.539	10630.25775
677.737	10898.87629
677.934	10516.23444
678.131	10736.10194
678.329	10471.42875
678.526	10589.53963
678.723	10446.98666
678.92	10666.89984
679.118	10175.95981
679.315	10436.80192
679.512	10508.08841
679.709	10571.21486
679.906	10389.94789
680.104	10597.68365
680.301	10768.66283
680.498	10558.99778
680.695	10365.49956
680.892	10803.25545
681.089	10575.28712
681.286	10597.68365
681.483	10357.3497
681.68	10292.14315
681.877	10171.88239
682.075	10546.78025
682.272	10281.95339
682.469	10666.89984
682.665	10414.39433
682.862	10369.57441
683.059	10467.35519
683.256	10493.83236
683.453	10241.19099
683.65	10451.06047
683.847	10206.53867
684.044	10430.69091
684.241	10501.97875
684.438	10469.39198
684.635	10159.64981
684.831	10491.79574
685.028	10023.01847
685.225	10294.18106
685.422	9943.45736
685.619	10385.8733
685.815	10108.67535
686.012	10184.11447
686.209	10057.69212
686.405	10182.07583
686.602	10124.98812
686.799	10161.68861
686.996	10163.72739
687.192	10206.53867
687.389	10230.99954
687.586	10214.69251
687.782	10361.42466
687.979	10534.56227
688.175	10088.28311
688.372	10149.45561
688.568	10110.71449
688.765	10212.65407
688.962	10045.45483
689.158	10184.11447
689.355	9990.38067
689.551	9976.10047
689.748	9865.91498
689.944	10016.89916
690.14	10149.45561
690.337	10173.92111
690.533	10031.17735
690.73	10080.12583
690.926	9943.45736
691.123	10020.97871
691.319	9949.57823
691.515	10014.85936
691.712	9718.93362
691.908	9963.85974
692.104	10061.7711
692.301	10061.7711
692.497	10122.94908
692.693	10051.57354
692.889	9806.72353
693.086	9902.64822
693.282	10092.36167
693.478	10308.44607
693.674	9969.98017
693.87	10267.68717
694.067	9729.1432
694.263	9874.07834
694.459	9712.8077
694.655	10139.26107
694.851	9841.42349
695.047	9872.03752
695.243	9927.13441
695.439	9914.89158
695.635	9549.39829
695.831	9927.13441
696.027	9818.97107
696.224	9998.54046
696.42	9882.24146
696.615	10039.33599
696.811	9755.6863
697.007	9882.24146
697.203	9653.58329
697.399	9896.52635
697.595	9774.06079
697.791	9655.62572
697.987	9602.5173
698.183	10086.24381
698.379	9545.31177
698.575	9947.53795
698.77	9753.64461
698.966	9710.76569
699.162	9686.26043
699.358	9665.83768
699.554	9659.71055
699.749	9573.91608
699.945	9244.77563
700.141	9616.81676
700.337	9496.26858
700.532	9647.45588
700.728	9584.13116
700.924	9908.76997
701.119	9788.35121
701.315	9653.58329
701.511	9428.81913
701.706	9831.21806
701.902	9426.77493
702.097	9788.35121
702.293	9898.56699
702.489	9737.31058
702.684	9488.09382
702.88	9651.54083
703.075	9371.57545
703.271	9647.45588
703.466	9414.5094
703.662	9796.51684
703.857	9406.33206
704.053	9573.91608
704.248	9720.97557
704.443	9651.54083
704.639	9304.09317
704.834	9569.82994
705.03	9657.66814
705.225	9357.26252
705.42	9195.67459
705.616	9596.38873
705.811	9398.15446
706.006	9647.45588
706.202	9500.35587
706.397	9512.61733
706.592	9353.17297
706.787	9631.11545
706.983	9475.8312
707.178	9639.28579
707.373	9475.8312
707.568	9469.69968
707.763	9400.19888
707.959	9757.72797
708.154	9201.81275
708.349	9469.69968
708.544	9326.58926
708.739	9312.27379
708.934	9320.45416
709.129	9289.77643
709.324	9289.77643
709.519	9459.48014
709.714	9434.95162
709.909	9355.21775
710.104	9334.76916
710.299	9107.67741
710.494	9136.33112
710.689	9539.18188
710.884	9273.41344
711.079	9400.19888
711.274	9191.58239
711.469	9573.91608
711.664	9128.14469
711.859	9604.56013
712.054	9332.72421
712.249	9289.77643
712.443	8978.69367
712.638	9244.77563
712.833	8986.88517
713.028	9426.77493
713.223	9097.44312
713.417	9015.55323
713.612	8997.12416
713.807	9344.99366
714.002	8841.44374
714.196	9152.70316
714.391	8988.93301
714.586	9347.03851
714.78	9328.63426
714.975	9218.18044
715.17	9162.93514
715.364	9119.95798
715.559	9079.02031
715.754	9128.14469
715.948	9015.55323
716.143	8855.78704
716.337	8691.8106
716.532	9218.18044
716.726	8868.0806
716.921	9046.2652
717.115	9105.63058
717.31	9220.22632
717.504	9201.81275
717.699	9220.22632
717.893	8861.9339
718.088	8964.35786
718.282	8812.7545
718.476	9119.95798
718.671	8741.0158
718.865	9355.21775
719.059	8825.05032
719.254	8945.92482
719.448	9019.64839
719.642	9007.36271
719.837	8597.47082
720.031	8882.42226
720.225	8632.34011
720.419	8874.22713
720.614	8722.56509
720.808	8741.0158
721.002	8833.24718
721.196	8933.63534
721.39	8700.0122
721.585	8775.8631
721.779	8663.10266
721.973	8784.0617
722.167	8449.72872
722.361	8650.79814
722.555	8628.23812
722.749	9005.31503
722.943	8736.91578
723.137	8663.10266
723.331	8464.09686
723.525	8767.66421
723.719	8330.6421
723.913	8529.76788
724.107	8406.61865
724.301	8825.05032
724.495	8546.1826
724.689	8697.96183
724.883	8369.6604
725.077	8464.09686
725.271	8172.44286
725.465	8373.76719
725.659	8373.76719
725.853	8517.45605
726.046	8521.56007
726.24	8482.5688
726.434	8482.5688
726.628	8656.95048
726.822	8420.98962
727.015	8591.31685
727.209	8480.51644
727.403	8478.46406
727.596	8443.57066
727.79	8494.88258
727.984	8332.69587
728.177	8743.06579
728.371	8468.20187
728.565	8340.91076
728.758	8462.04432
728.952	8665.15335
729.146	8318.31907
729.339	8792.26
729.533	8693.86103
729.726	8507.19566
729.92	8507.19566
730.113	8812.7545
730.307	8599.5221
730.5	8564.64772
730.694	8427.14831
730.887	8503.09138
731.081	8357.33959
731.274	8681.55818
731.468	8511.29988
731.661	8782.01207
731.854	8416.88372
732.048	8775.8631
732.241	8542.07904
732.435	8990.98082
732.628	8960.26175
732.821	8652.84894
733.014	8554.38951
733.208	8589.26549
733.401	8784.0617
733.594	8449.72872
733.788	8277.23723
733.981	8464.09686
734.174	8266.96554
734.367	8229.98339
734.56	8365.55354
734.754	8279.29151
734.947	8501.03921
735.14	8271.07427
735.333	8166.27688
735.526	8384.0338
735.719	8151.88889
735.912	8252.58435
736.105	8330.6421
736.298	8406.61865
736.491	8217.65458
736.684	8451.78137
736.877	8308.04935
737.07	8244.3661
737.263	8398.40625
737.456	8505.14353
737.649	8112.83084
737.842	8305.99534
738.035	8455.88661
738.228	8334.74962
738.421	8466.14937
738.614	8269.01992
738.807	8301.88728
739	8316.26517
739.192	8044.97593
739.385	8131.33292
739.578	8020.29596
739.771	8390.19354
739.964	8061.42762
740.156	8051.14547
740.349	8012.06865
740.542	8090.21498
740.735	7905.08393
740.927	8036.7496
741.12	8001.78406
741.313	8057.31482
741.505	8209.43498
741.698	7944.18093
741.891	8010.01177
742.083	8192.99483
742.276	8028.52294
742.468	8252.58435
742.661	8168.33222
742.854	8112.83084
743.046	8042.91938
743.239	8190.93972
743.431	8065.54034
743.624	7985.32766
743.816	7905.08393
744.009	8012.06865
744.201	7841.27812
744.393	7917.43115
744.586	8184.77428
744.778	7907.14186
744.971	7938.00821
745.163	8192.99483
745.355	7993.55602
745.548	7890.67791
745.74	8053.20194
745.932	8197.10499
746.125	7931.83531
746.317	8192.99483
746.509	7956.5258
746.702	7981.21335
746.894	7905.08393
747.086	7905.08393
747.278	8236.14752
747.471	7898.91005
747.663	7713.60649
747.855	8069.65298
748.047	7670.34457
748.239	7874.21263
748.431	7970.92723
748.623	7868.03782
748.815	7728.02506
749.008	7851.57073
749.2	7878.32908
749.392	7905.08393
749.584	7948.29597
749.776	7960.6406
749.968	7777.45235
750.16	7884.50358
750.352	7845.39522
750.544	7938.00821
750.736	7900.96803
750.928	7855.68762
751.12	7567.30236
751.311	7649.74038
751.503	7878.32908
751.695	7798.0435
751.887	7748.62124
752.079	7791.86638
752.271	7810.39719
752.463	7921.54673
752.654	7660.04274
752.846	7954.46838
753.038	7787.74819
753.23	7686.8264
753.421	7532.25585
753.613	7736.26378
753.805	7608.52563
753.997	7657.98231
754.188	7575.5477
754.38	7742.4426
754.572	7707.42679
754.763	7657.98231
754.955	7668.28425
755.146	7711.54661
755.338	7509.57539
755.53	7616.76926
755.721	7431.20464
755.913	7808.33829
756.104	7425.01614
756.296	7666.2239
756.487	7509.57539
756.679	7565.24097
756.87	7319.78174
757.062	7295.01244
757.253	7420.89037
757.445	6956.17881
757.636	7222.75056
757.827	7534.31758
758.019	7332.16521
758.21	7538.44098
758.401	7212.42522
758.593	7548.7491
758.784	7288.81962
758.975	7164.92156
759.167	7418.82745
759.358	7404.38641
759.549	7088.47795
759.74	7191.7729
759.932	7239.26994
760.123	7094.67721
760.314	7154.59312
760.505	7195.90354
760.696	6978.92428
760.888	7286.75531
761.079	7092.61081
761.27	6937.56684
761.461	7146.32997
761.652	7140.13238
761.843	7065.74557
762.034	7088.47795
762.225	6877.5825
762.416	6885.85734
762.607	6740.99512
762.798	6873.44495
762.989	7055.41178
763.18	7131.86861
763.371	6724.43231
763.562	6881.71996
763.753	6676.80607
763.944	6809.30123
764.135	6627.09615
764.326	6747.20579
764.517	6701.65606
764.708	6958.24669
764.899	6743.06537
765.089	6935.49874
765.28	6881.71996
765.471	6968.58577
765.662	6591.87693
765.853	6815.50964
766.043	6716.15036
766.234	6765.83658
766.425	6417.75436
766.615	6724.43231
766.806	6645.73892
766.997	6579.44502
767.187	6660.23757
767.378	6790.67475
767.569	6666.45093
767.759	6496.54436
767.95	6463.37372
768.141	6695.44387
768.331	6475.8134
768.522	6618.80987
768.712	6338.93075
768.903	6649.88151
769.093	6583.58908
769.284	6272.52682
769.474	6193.64102
769.665	6552.50637
769.855	6556.65103
770.046	6496.54436
770.236	6355.52799
770.426	6477.8866
770.617	6533.85424
770.807	6504.8361
770.998	6372.12374
771.188	6670.59305
771.378	6330.63156
771.569	6550.434
771.759	6299.5063
771.949	6654.024
772.139	6537.99932
772.33	6222.70814
772.52	6195.71739
772.71	6239.31587
772.9	6228.93622
773.09	6419.82821
773.281	6170.79934
773.471	6367.97494
773.661	6012.90638
773.851	6185.33528
774.041	5919.35303
774.231	6206.09892
774.421	6023.29825
774.611	6118.87585
774.802	6212.32755
774.992	6224.78419
775.182	6187.41175
775.372	6177.02917
775.562	6006.67097
775.752	5979.64843
775.942	6054.47033
776.131	6004.59246
776.321	5815.34884
776.511	6031.61132
776.701	5977.56961
776.891	5971.333
777.081	5854.87738
777.271	5990.04219
777.461	5788.29809
777.651	6125.10745
777.84	5690.46594
778.03	6027.45483
778.22	5990.04219
778.41	6077.32649
778.599	5821.59076
778.789	5800.78355
778.979	6023.29825
779.169	6089.79229
779.358	5761.24335
779.548	6206.09892
779.738	6060.70411
779.927	6110.56673
780.117	5742.51081
780.307	5796.62183
780.496	5736.26621
780.686	5894.3974
780.875	5569.66506
781.065	5682.13739
781.254	5473.80109
781.444	5725.85806
781.633	5538.41054
781.823	5621.74414
782.012	5515.4872
782.202	5700.8761
782.391	5609.2465
782.581	5511.31901
782.77	5177.55973
782.96	5498.81388
783.149	5329.91182
783.338	5577.9987
783.528	5294.4437
783.717	5602.99737
783.906	5586.33197
784.096	5263.14267
784.285	5450.86971
784.474	5507.15073
784.663	5452.9545
784.853	5563.41458
785.042	5359.11578
785.231	5382.05853
785.42	5165.03211
785.61	5217.22499
785.799	5315.30812
785.988	5288.18391
786.177	5104.47013
786.366	5288.18391
786.555	5277.75047
786.744	5231.83639
786.933	5169.20807
787.122	5135.79773
787.312	5169.20807
787.501	5373.71604
787.69	5152.50365
787.879	5219.31241
788.068	5018.81475
788.257	5248.53373
788.445	4987.4677
788.634	5302.78975
788.823	5286.09727
789.012	5110.73607
789.201	5094.02644
789.39	5275.66371
789.579	5077.31532
789.768	5202.61245
789.957	5104.47013
790.145	5165.03211
790.334	5152.50365
790.523	5102.38144
790.712	5098.20399
790.9	5411.25428
791.089	5227.66182
791.278	5190.08651
791.467	4987.4677
791.655	5117.0018
791.844	5031.35211
792.033	5148.32731
792.221	4759.52412
792.41	5039.70989
792.599	4834.83825
792.787	4885.03127
792.976	4583.67729
793.164	4901.75935
793.353	4895.48649
793.541	5039.70989
793.73	4813.92061
793.918	4887.12236
794.107	4608.80796
794.295	4728.13455
794.484	4659.05963
794.672	4688.36713
794.861	4912.21366
795.049	4914.30445
795.238	4721.85602
795.426	4818.10432
795.614	4592.05454
795.803	5027.17308
795.991	4688.36713
796.179	4772.07852
796.368	4793.0007
796.556	4772.07852
796.744	4533.40635
796.932	4726.04173
797.121	4441.20986
797.309	4583.67729
797.497	4472.64527
797.685	4340.58351
797.874	4462.16735
798.062	4545.97528
798.25	4508.26609
798.438	4491.50415
798.626	4483.12265
798.814	4742.78365
799.002	4294.4464
799.19	4621.37208
799.378	4558.54342
799.566	4592.05454
799.755	4321.7105
799.943	4518.74158
800.131	4489.4088
800.318	4667.43365
800.506	4191.6492
800.694	4348.97095
800.882	4214.73058
801.07	4445.40154
801.258	4311.22474
801.446	4378.32427
801.634	4214.73058
801.822	4246.20103
802.01	4516.64653
802.197	4449.59312
802.385	4195.84601
802.573	4392.99933
802.761	4172.76253
802.949	4673.71393
803.136	4265.08101
803.324	4441.20986
803.512	4365.7448
803.699	4514.55145
803.887	4342.6804
804.075	4491.50415
804.262	4248.29889
804.45	4659.05963
804.638	4357.35805
804.825	4581.58293
805.013	4772.07852
805.201	4646.49792
805.388	4321.7105
805.576	4512.45635
805.763	4585.77164
805.951	4449.59312
806.138	4554.35413
806.326	4604.61974
806.513	4170.66391
806.701	4462.16735
806.888	4413.96185
807.075	4602.52559
807.263	4476.83629
807.45	4453.78462
807.638	4281.86175
807.825	4575.29969
808.012	4443.30571
808.2	4575.29969
808.387	4227.31933
808.574	4416.05798
808.761	4078.30367
808.949	4441.20986
809.136	3962.79691
809.323	4273.47155
809.51	4315.41911
809.698	4166.4666
809.885	4051.0077
810.072	4239.90733
810.259	4191.6492
810.446	4376.22775
810.633	4273.47155
810.82	4403.48086
811.008	4453.78462
811.195	4453.78462
811.382	4158.07172
811.569	4483.12265
811.756	4537.59608
811.943	4646.49792
812.13	4348.97095
812.317	4575.29969
812.504	4449.59312
812.691	4585.77164
812.878	4244.10315
813.064	4692.55356
813.251	4460.0717
813.438	4560.63803
813.625	4497.79004
813.812	4610.90203
813.999	4309.12752
814.186	4510.36123
814.372	4619.27812
814.559	4533.40635
814.746	4499.88529
814.933	4506.17092
815.12	4334.2927
815.306	4692.55356
815.493	4348.97095
815.68	4510.36123
815.866	4348.97095
816.053	4311.22474
816.24	4409.76952
816.426	4504.07574
816.613	4483.12265
816.799	4594.14879
816.986	4107.69541
817.173	4351.06776
817.359	4168.56527
817.546	4269.27632
817.732	4151.77535
817.919	4516.64653
818.105	4216.82876
818.292	4481.02722
818.478	4292.34902
818.665	4365.7448
818.851	4311.22474
819.037	4298.64112
819.224	4170.66391
819.41	4252.49455
819.597	4225.22126
819.783	4319.61339
819.969	4147.57766
820.156	4250.39673
820.342	4233.61343
820.528	4281.86175
820.714	4145.47878
820.901	4378.32427
821.087	4046.80801
821.273	4250.39673
821.459	4065.70596
821.646	4072.00491
821.832	4048.90786
822.018	4093.00005
822.204	3979.60175
822.39	4105.59614
822.576	4042.60823
822.762	4193.74761
822.948	4063.60627
823.134	4082.50274
823.32	4013.20751
823.507	4298.64112
823.693	4181.15682
823.879	4208.43591
824.065	4023.70823
824.25	4069.90528
824.436	3845.12686
824.622	4283.95924
824.808	4032.10844
824.994	4374.1312
825.18	3836.71946
825.366	4233.61343
825.552	3849.33044
825.738	4051.0077
825.923	3824.10776
826.109	4147.57766
826.295	3807.29105
826.481	4004.80656
826.667	3611.70565
826.852	3895.5646
827.038	3573.83141
827.224	4105.59614
827.409	3775.75634
827.595	4046.80801
827.781	3649.57382
827.966	3916.57692
828.152	3624.32905
828.338	3977.50122
828.523	3756.83339
828.709	3895.5646
828.894	3744.21722
829.08	3956.49476
829.266	3683.22925
829.451	3786.2684
829.637	3723.18872
829.822	3939.68814
830.008	3773.65386
830.193	4080.40322
830.378	3723.18872
830.564	3897.66592
830.749	3687.43584
830.935	3735.80605
831.12	3563.30971
831.305	3710.57069
831.491	3687.43584
831.676	3626.43289
831.861	3550.68306
832.047	3502.27478
832.232	3495.95995
832.417	3559.1009
832.602	3491.74996
832.788	3361.20494
832.973	3424.38043
833.158	3510.69431
833.343	3485.43485
833.528	3689.5391
833.714	3428.59156
833.899	3681.12593
834.084	3338.03664
834.269	3517.00876
834.454	3264.30547
834.639	3639.05549
834.824	3449.64616
835.009	3832.51564
835.194	3466.48855
835.379	3586.45683
835.564	3325.3985
835.749	3737.90887
835.934	3460.17279
836.119	3521.21831
836.304	3255.87773
836.489	3399.11214
836.674	3163.15494
836.859	3422.27484
837.044	3274.83977
837.228	3493.85496
837.413	3087.2674
837.598	3232.70004
837.783	3249.55674
837.968	3356.99268
838.152	3156.83177
838.337	3314.86625
838.522	3198.98344
838.707	3247.44971
838.891	3186.33863
839.076	2988.16135
839.261	3217.94955
839.445	3462.27806
839.63	3188.44614
839.815	3114.67362
839.999	3192.66111
840.184	3142.07715
840.368	3078.83417
840.553	3323.29208
840.737	3209.52034
840.922	3171.5856
841.106	3005.03286
841.291	3163.15494
841.475	3040.88158
841.66	3005.03286
841.844	3002.92398
842.029	2994.48828
842.213	2941.75975
842.397	3188.44614
842.582	2876.36358
842.766	3118.88972
842.951	2703.31517
843.135	3133.64559
843.319	3009.25059
843.504	3002.92398
843.688	2819.39441
843.872	2992.37932
844.056	2910.11818
844.241	3182.12356
844.425	3123.10576
844.609	2910.11818
844.793	2945.97837
844.977	3047.20736
845.161	2682.20556
845.346	2901.67988
845.53	2680.09453
845.714	2810.95367
845.898	2519.61992
846.082	2707.53694
846.266	2694.87148
846.45	2977.61617
846.634	2648.42752
846.818	2808.84345
847.002	2745.53049
847.186	2804.62297
847.37	2479.49062
847.554	2551.29803
847.738	2585.08511
847.922	2884.80257
848.106	2620.9805
848.29	2642.09378
848.473	2500.61181
848.657	2671.65027
848.841	2553.40981
849.025	2836.27523
849.209	2525.95575
849.392	2538.6271
849.576	2547.07444
849.76	2690.64956
849.944	2382.31912
850.127	2625.20325
850.311	2502.72387
850.495	2572.41531
850.678	2500.61181
850.862	2585.08511
851.046	2318.93461
851.229	2555.52158
851.413	2420.34543
851.596	2559.74508
851.78	2337.9509
851.964	2616.75769
852.147	2244.97506
852.331	2523.84382
852.514	2331.61222
852.698	2437.24492
852.881	2071.65703
853.065	2416.12046
853.248	2306.25664
853.431	2445.69441
853.615	2077.99887
853.798	2162.55012
853.982	2238.63515
854.165	2441.46969
854.348	2255.5414
854.532	2348.51516
854.715	2200.59402
854.898	2259.76788
855.081	2090.68233
855.265	2378.09376
855.448	2069.54308
855.631	2234.4085
855.814	2217.50153
855.997	2253.42815
856.181	2071.65703
856.364	2225.95509
856.547	2154.09556
856.73	2285.12595
856.913	2086.45454
857.096	2225.95509
857.279	2001.89273
857.462	2187.91302
857.645	2077.99887
857.828	2137.18605
858.011	2120.27604
858.194	2194.25356
858.377	1963.83644
858.56	2084.34063
858.743	1991.32175
858.926	1965.95074
859.109	2149.86823
859.292	1932.12136
859.475	1904.63391
859.658	1993.43595
859.841	1900.40499
860.023	2077.99887
860.206	1875.03101
860.389	1902.51945
860.572	1921.54938
860.755	2042.06097
860.937	1729.11766
861.12	1883.48909
861.303	1756.61008
861.486	1930.00698
861.668	1722.77317
861.851	1735.46212
862.034	1718.5435
862.216	1913.09169
862.399	1646.63715
862.581	1830.62481
862.764	1684.70563
862.947	1889.83259
863.129	1597.99297
863.312	1796.79014
863.494	1610.68286
863.677	1786.21658
863.859	1765.06916
864.042	1858.11462
864.224	1686.82052
864.406	1672.01624
864.589	1566.26795
864.771	1729.11766
864.954	1523.96743
865.136	1746.03614
865.318	1566.26795
865.501	1669.90133
865.683	1644.52221
865.865	1650.86703
866.048	1640.29233
866.23	1695.28005
866.412	1458.40099
866.594	1540.8877
866.777	1534.54261
866.959	1517.62232
867.141	1566.26795
867.323	1433.02036
867.505	1498.58693
867.687	1650.86703
867.869	1490.12675
868.052	1602.22294
868.234	1543.00272
868.416	1695.28005
868.598	1422.44511
868.78	1545.11775
868.962	1490.12675
869.144	1633.94748
869.326	1354.76387
869.508	1536.65764
869.69	1312.46372
869.872	1388.60438
870.054	1350.53383
870.236	1574.72799
870.417	1282.85404
870.599	1507.04711
870.781	1373.79913
870.963	1676.24605
871.145	1424.56016
871.327	1481.66655
871.508	1304.00377
871.69	1515.50728
871.872	1380.14423
872.054	1399.17959
872.235	1291.3139
872.417	1511.2772
872.599	1346.30379
872.78	1350.53383
872.962	1397.06455
873.144	1392.83446
873.325	1320.9237
873.507	1304.00377
873.689	1363.22397
873.87	1490.12675
874.052	1354.76387
874.233	1401.29464
874.415	1151.73193
874.596	1464.74614
874.778	1257.47466
874.959	1375.91416
875.141	1304.00377
875.322	1339.95875
875.503	1464.74614
875.685	1394.94951
875.866	1187.68349
876.048	1367.45403
876.229	1219.40633
876.41	1346.30379
876.592	1244.78512
876.773	1380.14423
876.954	1213.0617
877.136	1403.40968
877.317	1354.76387
877.498	1449.94078
877.679	1329.3837
877.86	1483.7816
878.042	1210.94683
878.223	1445.71067
878.404	1236.32547
878.585	1452.05583
878.766	1327.2687
878.947	1358.99392
879.128	1255.35973
879.309	1287.08397
879.49	1244.78512
879.672	1411.86987
879.853	1268.04936
880.034	1314.57871
880.215	1185.56866
880.396	1369.56906
880.576	1183.45384
880.757	1339.95875
880.938	1246.90003
881.119	1375.91416
881.3	1236.32547
881.481	1422.44511
881.662	1168.65017
881.843	1416.09996
882.023	1086.17637
882.204	1323.03869
882.385	1274.39421
882.566	1447.82572
882.747	1342.07376
882.927	1356.8789
883.108	1274.39421
883.289	1405.52473
883.469	1194.028
883.65	1430.90531
883.831	1498.58693
884.011	1413.98491
884.192	1443.59562
884.373	1475.3214
884.553	1249.01495
884.734	1405.52473
884.914	1361.10895
885.095	1261.70453
885.275	1196.14284
885.456	1356.8789
885.636	1145.38765
885.817	1373.79913
885.997	1213.0617
886.178	1223.6361
886.358	1090.40563
886.538	1287.08397
886.719	1126.35506
886.899	1386.48934
887.08	1253.2448
887.26	1490.12675
887.44	1162.3058
887.621	1350.53383
887.801	1295.54385
887.981	1363.22397
888.161	1287.08397
888.342	1490.12675
888.522	1331.49871
888.702	1485.89665
888.882	1397.06455
889.062	1384.37431
889.242	1424.56016
889.423	1358.99392
889.603	1363.22397
889.783	1358.99392
889.963	1346.30379
890.143	1399.17959
890.323	1244.78512
890.503	1373.79913
890.683	1289.19893
890.863	1183.45384
891.043	1194.028
891.223	1236.32547
891.403	1280.73908
891.583	1388.60438
891.763	1238.44038
891.943	1331.49871
892.122	1170.76497
892.302	1365.339
892.482	1268.04936
892.662	1259.5896
892.842	1293.42888
893.022	1382.25927
893.201	1219.40633
893.381	1350.53383
893.561	1270.16431
893.741	1430.90531
893.92	1229.98077
894.1	1392.83446
894.28	1227.86588
894.459	1291.3139
894.639	1134.81395
894.819	1331.49871
894.998	1143.2729
895.178	1229.98077
895.357	1033.3125
895.537	1223.6361
895.716	1084.06175
895.896	1147.50241
896.075	1077.71793
896.255	1291.3139
896.434	1007.93912
896.614	1236.32547
896.793	1124.24035
896.973	1194.028
897.152	1056.57218
897.331	1253.2448
897.511	1109.43751
897.69	1160.19102
897.87	1071.37415
898.049	1124.24035
898.228	936.05293
898.407	1143.2729
898.587	959.30936
898.766	999.48152
898.945	878.97283
899.124	984.68097
899.304	927.59627
899.483	1079.83253
899.662	1067.14499
899.841	965.65217
900.02	906.45513
900.199	1048.11404
900.378	978.33798
900.557	940.28131
900.737	794.42096
900.916	1035.42699
901.095	821.89874
901.274	948.73815
901.453	807.10282
901.632	904.34106
901.811	838.80892
901.989	834.58132
902.168	764.83132
902.347	893.77083
902.526	758.49094
902.705	849.37807
902.884	695.0923
903.063	950.85238
903.242	750.03724
903.42	925.48212
903.599	627.47824
903.778	800.76185
903.957	669.73562
904.135	642.26777
904.314	733.13033
904.493	705.65806
904.672	600.01358
904.85	705.65806
905.029	602.12617
905.207	815.55758
905.386	707.77125
905.565	699.31857
905.743	608.46402
905.922	663.39671
906.1	633.81654
906.279	680.3007
906.457	513.40885
906.636	707.77125
906.814	589.45082
906.993	678.18766
907.171	545.09085
907.35	564.10154
907.528	428.93966
907.707	555.65221
907.885	456.38949
908.063	526.08127
908.242	424.71685
908.42	526.08127
908.598	551.42762
908.777	488.06558
908.955	498.62502
909.133	534.52983
909.311	340.27436
909.49	509.18483
909.668	403.60374
909.846	547.20309
910.024	479.61829
910.202	492.28931
910.38	509.18483
910.559	595.78844
910.737	523.96917
910.915	517.63294
911.093	528.19339
911.271	597.901
911.449	540.8664
911.627	635.92933
911.805	572.55109
911.983	646.49347
912.161	532.41767
912.339	532.41767
912.517	559.87685
912.695	602.12617
912.872	452.16626
913.05	619.02735
913.228	545.09085
913.406	515.52089
913.584	504.96086
913.762	587.33831
913.939	547.20309
914.117	538.7542
914.295	534.52983
914.473	509.18483
914.65	433.16254
914.828	494.4012
915.006	441.60848
915.184	511.29683
915.361	399.38131
915.539	479.61829
915.716	456.38949
915.894	485.95373
916.072	382.49226
916.249	479.61829
916.427	395.15895
916.604	462.72443
916.782	460.61277
916.959	578.88839
917.137	483.8419
917.314	526.08127
917.492	418.38275
917.669	483.8419
917.847	452.16626
918.024	494.4012
918.201	433.16254
918.379	488.06558
918.556	464.83611
918.733	407.82623
918.911	363.49336
919.088	433.16254
919.265	357.1607
919.442	450.05468
919.62	365.60428
919.797	426.82825
919.974	382.49226
920.151	374.04814
920.328	393.0478
920.506	450.05468
920.683	365.60428
920.86	393.0478
921.037	399.38131
921.214	365.60428
921.391	390.93666
921.568	401.49252
921.745	310.72597
921.922	325.49973
922.099	384.60334
922.276	414.16009
922.453	281.18111
922.63	443.72001
922.807	257.96985
922.984	338.16365
923.161	329.72097
923.338	340.27436
923.514	310.72597
923.691	348.71739
923.868	323.38914
924.045	279.07091
924.222	247.42003
924.399	340.27436
924.575	247.42003
924.752	329.72097
924.929	289.62213
925.105	306.50506
925.282	243.20024
925.459	331.83161
925.635	238.98052
925.812	325.49973
925.989	285.40159
926.165	217.88312
926.342	260.07987
926.518	295.95309
926.695	281.18111
926.871	222.10244
927.048	310.72597
927.224	211.55428
927.401	219.99277
927.577	308.61551
927.754	283.29134
927.93	194.67826
928.107	224.21213
928.283	241.09037
928.459	230.54133
928.636	226.32184
928.812	87.12496
928.988	283.29134
929.165	150.38492
929.341	190.45945
929.517	184.1314
929.693	209.44471
929.87	224.21213
930.046	152.49392
930.222	158.82104
930.398	247.42003
930.574	175.69428
930.751	215.77348
930.927	198.89714
931.103	262.18991
931.279	224.21213
931.455	148.27594
931.631	76.58356
931.807	247.42003
931.983	152.49392
932.159	211.55428
932.335	177.80353
932.511	118.75249
932.687	44.96277
932.863	173.58505
933.039	207.33515
933.215	131.40488
933.391	131.40488
933.566	226.32184
933.742	150.38492
933.918	209.44471
934.094	137.73137
934.27	207.33515
934.445	70.25899
934.621	205.22562
934.797	112.42659
934.973	190.45945
935.148	156.71198
935.324	116.64384
935.5	146.16698
935.675	80.80005
935.851	95.55848
936.027	57.61047
936.202	61.82655
936.378	34.42366
936.553	137.73137
936.729	154.60294
936.904	89.23331
937.08	32.3159
937.255	91.34168
937.431	78.6918
937.606	112.42659
937.782	42.8549
937.957	44.96277
938.133	21.7775
938.308	118.75249
938.483	51.28651
938.659	55.50246
938.834	36.53143
939.009	-14.04863
939.185	59.7185
939.36	87.12496
939.535	89.23331
939.71	85.01664
939.886	-24.5844
940.061	19.66988
940.236	44.96277
940.411	19.66988
940.586	53.39447
940.761	25.99279
940.937	53.39447
941.112	63.93463
941.287	15.45473
941.462	87.12496
941.637	53.39447
941.812	7.02472
941.987	21.7775
942.162	87.12496
942.337	42.8549
942.512	32.3159
942.687	23.88513
942.862	36.53143
943.037	44.96277
943.212	19.66988
943.386	95.55848
943.561	118.75249
943.736	-60.40135
943.911	21.7775
944.086	-7.72688
944.26	131.40488
944.435	87.12496
944.61	76.58356
944.785	13.34719
944.959	2.80986
945.134	30.20817
945.309	44.96277
945.483	11.23968
945.658	11.23968
945.833	97.66692
946.007	47.07066
946.182	15.45473
946.357	-22.47729
946.531	53.39447
946.706	53.39447
946.88	112.42659
947.055	51.28651
947.229	95.55848
947.404	19.66988
947.578	70.25899
947.752	87.12496
947.927	53.39447
948.101	91.34168
948.276	49.17857
948.45	38.63923
948.624	120.86117
948.799	28.10047
948.973	-1.40491
949.147	72.36716
949.321	70.25899
949.496	28.10047
949.67	61.82655
949.844	-33.01256
950.018	-16.15583
950.193	-14.04863
950.367	53.39447
950.541	32.3159
950.715	-11.94141
950.889	74.47535
951.063	44.96277
951.237	-1.40491
951.411	87.12496
951.585	7.02472
951.759	36.53143
951.933	57.61047
952.107	-7.72688
952.281	23.88513
952.455	-24.5844
952.629	40.74705
952.803	47.07066
952.977	57.61047
953.151	11.23968
953.325	47.07066
953.499	74.47535
953.672	0.70246
953.846	15.45473
954.02	55.50246
954.194	68.15085
954.368	49.17857
954.541	42.8549
954.715	122.96987
954.889	19.66988
955.062	2.80986
955.236	82.90833
955.41	36.53143
955.583	2.80986
955.757	44.96277
955.93	4.91728
956.104	44.96277
956.278	51.28651
956.451	74.47535
956.625	61.82655
956.798	-26.69148
956.972	99.77538
957.145	89.23331
957.319	59.7185
957.492	61.82655
957.665	15.45473
957.839	133.51369
958.012	-47.7609
958.185	23.88513
958.359	23.88513
958.532	-5.61958
958.705	53.39447
958.879	-85.67951
959.052	44.96277
959.225	49.17857
959.398	-1.40491
959.572	17.5623
959.745	-14.04863
959.918	-14.04863
960.091	135.62252
960.264	72.36716
960.438	7.02472
960.611	53.39447
960.784	70.25899
960.957	-54.08124
961.13	59.7185
961.303	17.5623
961.476	51.28651
961.649	-18.26301
961.822	38.63923
961.995	30.20817
962.168	49.17857
962.341	15.45473
962.514	23.88513
962.686	47.07066
962.859	21.7775
963.032	91.34168
963.205	82.90833
963.378	28.10047
963.551	15.45473
963.723	28.10047
963.896	-16.15583
964.069	36.53143
964.242	78.6918
964.414	-43.54722
964.587	-33.01256
964.76	-18.26301
964.932	-35.11954
965.105	23.88513
965.278	19.66988
965.45	23.88513
965.623	57.61047
965.795	23.88513
965.968	19.66988
966.14	53.39447
966.313	61.82655
966.485	-22.47729
966.658	78.6918
966.83	68.15085
967.003	4.91728
967.175	40.74705
967.348	19.66988
967.52	15.45473
967.692	-1.40491
967.865	-45.65407
968.037	38.63923
968.209	66.04272
968.382	-1.40491
968.554	63.93463
968.726	42.8549
968.898	25.99279
969.071	97.66692
969.243	-9.83416
969.415	44.96277
969.587	0.70246
969.759	15.45473
969.932	40.74705
970.104	49.17857
970.276	53.39447
970.448	11.23968
970.62	28.10047
970.792	66.04272
970.964	32.3159
971.136	80.80005
971.308	-14.04863
971.48	-18.26301
971.652	74.47535
971.824	-39.33343
971.996	80.80005
972.168	66.04272
972.339	49.17857
972.511	-47.7609
972.683	44.96277
972.855	21.7775
973.027	11.23968
973.199	-37.2265
973.37	70.25899
973.542	4.91728
973.714	53.39447
973.886	23.88513
974.057	11.23968
974.229	-18.26301
974.401	-3.51226
974.572	-35.11954
974.744	70.25899
974.915	19.66988
975.087	-16.15583
975.259	28.10047
975.43	55.50246
975.602	-51.97449
975.773	51.28651
975.945	74.47535
976.116	21.7775
976.288	2.80986
976.459	-43.54722
976.63	38.63923
976.802	15.45473
976.973	15.45473
977.145	-20.37016
977.316	28.10047
977.487	76.58356
977.659	40.74705
977.83	101.88386
978.001	-33.01256
978.172	13.34719
978.344	59.7185
978.515	55.50246
978.686	85.01664
978.857	34.42366
979.028	-9.83416
979.2	23.88513
979.371	97.66692
979.542	74.47535
979.713	-7.72688
979.884	-51.97449
980.055	17.5623
980.226	55.50246
980.397	-35.11954
980.568	66.04272
980.739	4.91728
980.91	30.20817
981.081	36.53143
981.252	28.10047
981.423	4.91728
981.594	44.96277
981.765	-1.40491
981.936	55.50246
982.106	-7.72688
982.277	61.82655
982.448	61.82655
982.619	44.96277
982.79	19.66988
982.96	55.50246
983.131	19.66988
983.302	-62.50801
983.472	28.10047
983.643	70.25899
983.814	11.23968
983.984	-54.08124
984.155	-16.15583
984.326	25.99279
984.496	44.96277
984.667	7.02472
984.837	34.42366
985.008	47.07066
985.178	19.66988
985.349	-1.40491
985.519	-11.94141
985.69	-43.54722
985.86	-22.47729
986.031	-37.2265
986.201	44.96277
986.371	-16.15583
986.542	32.3159
986.712	25.99279
986.882	53.39447
987.053	-7.72688
987.223	55.50246
987.393	-43.54722
987.563	-45.65407
987.734	38.63923
987.904	19.66988
988.074	32.3159
988.244	-22.47729
988.414	-37.2265
988.585	-5.61958
988.755	-5.61958
988.925	-3.51226
989.095	61.82655
989.265	-14.04863
989.435	28.10047
989.605	110.318
989.775	-51.97449
989.945	36.53143
990.115	78.6918
990.285	36.53143
990.455	13.34719
990.625	-60.40135
990.795	68.15085
990.965	-26.69148
991.134	36.53143
991.304	7.02472
991.474	55.50246
991.644	-1.40491
991.814	57.61047
991.984	-9.83416
992.153	-39.33343
992.323	-20.37016
992.493	70.25899
992.662	-79.36032
992.832	30.20817
993.002	-28.79853
993.171	13.34719
993.341	-56.18797
993.511	25.99279
993.68	-39.33343
993.85	-30.90556
994.019	17.5623
994.189	-54.08124
994.358	51.28651
994.528	-39.33343
994.697	15.45473
994.867	57.61047
995.036	63.93463
995.206	17.5623
995.375	25.99279
995.544	25.99279
995.714	-22.47729
995.883	15.45473
996.052	25.99279
996.222	36.53143
996.391	-7.72688
996.56	34.42366
996.73	-14.04863
996.899	47.07066
997.068	36.53143
997.237	30.20817
997.406	44.96277
997.576	38.63923
997.745	-81.46674
997.914	38.63923
998.083	36.53143
998.252	74.47535
998.421	-20.37016
998.59	-16.15583
998.759	21.7775
998.928	82.90833
999.097	-18.26301
999.266	-5.61958
999.435	13.34719
999.604	-26.69148
999.773	-22.47729
999.942	2.80986
1000.111	-37.2265
1000.28	-5.61958
1000.448	36.53143
1000.617	30.20817
1000.786	2.80986
1000.955	7.02472
1001.124	7.02472
1001.292	21.7775
1001.461	53.39447
1001.63	61.82655
1001.798	-20.37016
1001.967	-45.65407
1002.136	-30.90556
1002.304	28.10047
1002.473	-14.04863
1002.642	53.39447
1002.81	-9.83416
1002.979	-20.37016
1003.147	23.88513
1003.316	66.04272
1003.484	51.28651
1003.653	30.20817
1003.821	-73.04089
1003.99	28.10047
1004.158	116.64384
1004.327	47.07066
1004.495	-51.97449
1004.663	23.88513
1004.832	-98.3172
1005	38.63923
1005.168	82.90833
1005.337	23.88513
1005.505	61.82655
1005.673	-14.04863
1005.842	-60.40135
1006.01	7.02472
1006.178	103.99236
1006.346	-64.61464
1006.514	-11.94141
1006.683	-35.11954
1006.851	74.47535
1007.019	-22.47729
1007.187	-1.40491
1007.355	32.3159
1007.523	-9.83416
1007.691	63.93463
1007.859	32.3159
1008.027	13.34719
1008.195	11.23968
1008.363	-26.69148
1008.531	-66.72124
1008.699	47.07066
1008.867	-37.2265
1009.035	-56.18797
1009.203	-56.18797
1009.37	-43.54722
1009.538	36.53143
1009.706	32.3159
1009.874	-14.04863
1010.042	-30.90556
1010.209	28.10047
1010.377	-28.79853
1010.545	4.91728
1010.713	-37.2265
1010.88	2.80986
1011.048	-9.83416
1011.216	13.34719
1011.383	11.23968
1011.551	120.86117
1011.718	32.3159
1011.886	15.45473
1012.054	66.04272
1012.221	36.53143
1012.389	40.74705
1012.556	53.39447
1012.724	23.88513
1012.891	-18.26301
1013.058	40.74705
1013.226	-33.01256
1013.393	7.02472
1013.561	-5.61958
1013.728	-1.40491
1013.895	-22.47729
1014.063	13.34719
1014.23	-28.79853
1014.397	-56.18797
1014.565	7.02472
1014.732	-75.1474
1014.899	38.63923
1015.066	11.23968
1015.233	53.39447
1015.401	-1.40491
1015.568	-16.15583
1015.735	-11.94141
1015.902	15.45473
1016.069	-5.61958
1016.236	42.8549
1016.403	13.34719
1016.57	-7.72688
1016.737	66.04272
1016.904	-22.47729
1017.071	-18.26301
1017.238	-9.83416
1017.405	103.99236
1017.572	-5.61958
1017.739	78.6918
1017.906	-20.37016
1018.073	-9.83416
1018.24	32.3159
1018.407	-22.47729
1018.573	7.02472
1018.74	30.20817
1018.907	74.47535
1019.074	15.45473
1019.241	13.34719
1019.407	4.91728
1019.574	11.23968
1019.741	72.36716
1019.907	57.61047
1020.074	-39.33343
1020.241	11.23968
1020.407	-18.26301
1020.574	87.12496
1020.74	-49.86771
1020.907	-51.97449
1021.073	-24.5844
1021.24	-33.01256
1021.406	17.5623
1021.573	15.45473
1021.739	-7.72688
1021.906	49.17857
1022.072	-9.83416
1022.239	34.42366
1022.405	-35.11954
1022.571	-56.18797
1022.738	-14.04863
1022.904	15.45473
1023.07	2.80986
1023.237	25.99279
1023.403	7.02472
1023.569	-37.2265
1023.735	-18.26301
1023.902	-11.94141
1024.068	-7.72688
1024.234	-37.2265
1024.4	-5.61958
1024.566	49.17857
1024.732	-47.7609
1024.898	51.28651
1025.065	-56.18797
1025.231	-3.51226
1025.397	-11.94141
1025.563	-26.69148
1025.729	-30.90556
1025.895	11.23968
1026.061	-39.33343
1026.227	17.5623
1026.392	2.80986
1026.558	25.99279
1026.724	32.3159
1026.89	-28.79853
1027.056	-7.72688
1027.222	68.15085
1027.388	-18.26301
1027.553	-70.93437
1027.719	53.39447
1027.885	38.63923
1028.051	-9.83416
1028.216	-26.69148
1028.382	38.63923
1028.548	9.13219
1028.713	-14.04863
1028.879	-5.61958
1029.045	-30.90556
1029.21	23.88513
1029.376	-11.94141
1029.541	-24.5844
1029.707	-26.69148
1029.873	-14.04863
1030.038	76.58356
1030.204	-81.46674
1030.369	2.80986
1030.534	32.3159
1030.7	-3.51226
1030.865	-68.82782
1031.031	19.66988
1031.196	-58.29468
1031.361	-45.65407
1031.527	-11.94141
1031.692	-30.90556
1031.857	-22.47729
1032.023	-11.94141
1032.188	-5.61958
1032.353	61.82655
1032.518	-47.7609
1032.684	28.10047
1032.849	-79.36032
1033.014	30.20817
1033.179	-5.61958
1033.344	-5.61958
1033.509	47.07066
1033.674	-22.47729
1033.839	44.96277
1034.004	34.42366
1034.17	-45.65407
1034.335	13.34719
1034.5	49.17857
1034.664	-20.37016
1034.829	-54.08124
1034.994	-22.47729
1035.159	4.91728
1035.324	19.66988
1035.489	-22.47729
1035.654	72.36716
1035.819	44.96277
1035.984	-14.04863
1036.148	-11.94141
1036.313	-26.69148
1036.478	-14.04863
1036.643	-14.04863
1036.807	-7.72688
1036.972	11.23968
1037.137	2.80986
1037.301	53.39447
1037.466	-35.11954
1037.631	11.23968
1037.795	11.23968
1037.96	38.63923
1038.124	30.20817
1038.289	-28.79853
1038.454	-22.47729
1038.618	-28.79853
1038.783	44.96277
1038.947	-35.11954
1039.111	-22.47729
1039.276	-11.94141
1039.44	-43.54722
1039.605	32.3159
1039.769	4.91728
1039.933	19.66988
1040.098	-45.65407
1040.262	-58.29468
1040.426	-39.33343
1040.591	28.10047
1040.755	-14.04863
1040.919	-11.94141
1041.083	133.51369
1041.248	-22.47729
1041.412	36.53143
1041.576	-9.83416
1041.74	-9.83416
1041.904	13.34719
1042.068	40.74705
1042.232	0.70246
1042.397	0.70246
1042.561	-20.37016
1042.725	-30.90556
1042.889	57.61047
1043.053	-18.26301
1043.217	2.80986
1043.381	-47.7609
1043.544	-11.94141
1043.708	2.80986
1043.872	-14.04863
1044.036	-9.83416
1044.2	19.66988
1044.364	-70.93437
1044.528	-3.51226
1044.691	-35.11954
1044.855	11.23968
1045.019	53.39447
1045.183	-26.69148
1045.346	-9.83416
1045.51	32.3159
1045.674	66.04272
1045.837	0.70246
1046.001	-54.08124
1046.165	-9.83416
1046.328	7.02472
1046.492	-20.37016
1046.655	-3.51226
1046.819	28.10047
1046.983	-98.3172
1047.146	-43.54722
1047.31	-96.21098
1047.473	21.7775
1047.636	-14.04863
1047.8	76.58356
1047.963	21.7775
1048.127	66.04272
1048.29	-37.2265
