Data from absorb_only_2.23.25_USB4F045381__43__0148.txt Node

Date: Sun Feb 23 19:20:31 EST 2025
User: ssocol
Spectrometer: USB4F04538
Trigger mode: 4
Integration Time (sec): 2.600000E-3
Scans to average: 1
Electric dark correction enabled: true
Nonlinearity correction enabled: true
Boxcar width: 0
XAxis mode: Wavelengths
Number of Pixels in Spectrum: 3648
>>>>>Begin Spectral Data<<<<<
345.52	30.38382
345.736	30.38382
345.952	30.38382
346.168	-74.97185
346.384	7.20034
346.6	-20.19457
346.816	2.98547
347.032	-37.05092
347.248	-28.62294
347.464	5.09289
347.68	13.52282
347.896	-15.98024
348.112	89.40901
348.328	-20.19457
348.544	-45.4785
348.76	-24.40881
348.975	80.97574
349.191	5.09289
349.407	2.98547
349.623	30.38382
349.839	17.73793
350.055	-66.54569
350.27	17.73793
350.486	47.24632
350.702	7.20034
350.918	-13.87303
351.133	-18.08741
351.349	-22.3017
351.565	-3.33665
351.781	21.95313
351.996	9.30781
352.212	-66.54569
352.428	-32.83698
352.644	19.84552
352.859	55.67812
353.075	7.20034
353.291	-66.54569
353.506	-3.33665
353.722	53.57014
353.938	-53.90568
354.153	-26.51589
354.369	-45.4785
354.584	123.1456
354.8	21.95313
355.016	7.20034
355.231	30.38382
355.447	24.06077
355.662	55.67812
355.878	55.67812
356.093	-11.7658
356.309	-83.39761
356.524	-34.94396
356.74	-24.40881
356.955	13.52282
357.171	-18.08741
357.386	53.57014
357.602	34.5993
357.817	-26.51589
358.033	51.46218
358.248	13.52282
358.464	-11.7658
358.679	-53.90568
358.895	13.52282
359.11	55.67812
359.325	80.97574
359.541	-24.40881
359.756	51.46218
359.972	-22.3017
360.187	7.20034
360.402	59.89417
360.618	26.16843
360.833	36.70708
361.048	9.30781
361.264	-9.65855
361.479	-11.7658
361.694	-22.3017
361.909	-37.05092
362.125	5.09289
362.34	80.97574
362.555	7.20034
362.77	13.52282
362.986	47.24632
363.201	15.63036
363.416	-3.33665
363.631	0.87808
363.847	43.03055
364.062	13.52282
364.277	-41.26476
364.492	32.49155
364.707	-20.19457
364.922	-24.40881
365.138	59.89417
365.353	-5.44397
365.568	72.54284
365.783	15.63036
365.998	-41.26476
366.213	87.30066
366.428	-20.19457
366.643	5.09289
366.858	5.09289
367.073	47.24632
367.288	-9.65855
367.503	-13.87303
367.718	21.95313
367.933	49.35423
368.148	72.54284
368.363	21.95313
368.578	38.81488
368.793	21.95313
369.008	-20.19457
369.223	64.1103
369.438	32.49155
369.653	49.35423
369.868	-34.94396
370.083	-53.90568
370.298	30.38382
370.513	24.06077
370.728	-37.05092
370.943	-18.08741
371.157	9.30781
371.372	99.95108
371.587	32.49155
371.802	34.5993
372.017	-41.26476
372.232	-45.4785
372.446	13.52282
372.661	-22.3017
372.876	-45.4785
373.091	-26.51589
373.306	28.27611
373.52	-13.87303
373.735	-24.40881
373.95	-62.33245
374.165	55.67812
374.379	83.08402
374.594	26.16843
374.809	-3.33665
375.023	-24.40881
375.238	0.87808
375.453	62.00222
375.667	-11.7658
375.882	-18.08741
376.097	-9.65855
376.311	-28.62294
376.526	66.2184
376.741	38.81488
376.955	13.52282
377.17	-24.40881
377.384	55.67812
377.599	0.87808
377.813	15.63036
378.028	-28.62294
378.242	30.38382
378.457	-22.3017
378.672	53.57014
378.886	13.52282
379.101	-60.2258
379.315	-11.7658
379.53	-28.62294
379.744	40.92271
379.958	-1.2293
380.173	-18.08741
380.387	72.54284
380.602	-3.33665
380.816	-41.26476
381.031	-66.54569
381.245	30.38382
381.459	49.35423
381.674	34.5993
381.888	-28.62294
382.103	9.30781
382.317	21.95313
382.531	-49.69214
382.746	2.98547
382.96	57.78613
383.174	-34.94396
383.388	30.38382
383.603	47.24632
383.817	-3.33665
384.031	-15.98024
384.246	40.92271
384.46	17.73793
384.674	24.06077
384.888	47.24632
385.103	0.87808
385.317	-39.15785
385.531	28.27611
385.745	-7.55127
385.959	36.70708
386.174	-41.26476
386.388	-5.44397
386.602	-1.2293
386.816	15.63036
387.03	-43.37164
387.244	13.52282
387.458	57.78613
387.672	80.97574
387.887	-60.2258
388.101	43.03055
388.315	-1.2293
388.529	-11.7658
388.743	5.09289
388.957	5.09289
389.171	-18.08741
389.385	7.20034
389.599	-30.72997
389.813	45.13842
390.027	-34.94396
390.241	5.09289
390.455	28.27611
390.669	32.49155
390.883	0.87808
391.097	-3.33665
391.311	0.87808
391.525	-53.90568
391.738	49.35423
391.952	55.67812
392.166	57.78613
392.38	24.06077
392.594	78.86748
392.808	-41.26476
393.022	55.67812
393.236	40.92271
393.449	34.5993
393.663	-3.33665
393.877	32.49155
394.091	34.5993
394.305	74.65103
394.518	-9.65855
394.732	-28.62294
394.946	-22.3017
395.16	-53.90568
395.373	13.52282
395.587	-15.98024
395.801	5.09289
396.015	-26.51589
396.228	-11.7658
396.442	-34.94396
396.656	51.46218
396.869	19.84552
397.083	38.81488
397.297	114.71092
397.51	57.78613
397.724	-26.51589
397.938	59.89417
398.151	28.27611
398.365	30.38382
398.578	40.92271
398.792	38.81488
399.005	45.13842
399.219	5.09289
399.433	-32.83698
399.646	38.81488
399.86	-18.08741
400.073	17.73793
400.287	21.95313
400.5	74.65103
400.714	-18.08741
400.927	-5.44397
401.141	13.52282
401.354	30.38382
401.567	-79.18478
401.781	64.1103
401.994	30.38382
402.208	-37.05092
402.421	-20.19457
402.635	-53.90568
402.848	-96.03546
403.061	7.20034
403.275	108.38515
403.488	62.00222
403.701	5.09289
403.915	-7.55127
404.128	38.81488
404.341	19.84552
404.555	51.46218
404.768	-24.40881
404.981	24.06077
405.195	21.95313
405.408	-11.7658
405.621	5.09289
405.834	15.63036
406.048	80.97574
406.261	15.63036
406.474	64.1103
406.687	21.95313
406.9	47.24632
407.114	-41.26476
407.327	0.87808
407.54	32.49155
407.753	47.24632
407.966	102.05957
408.179	62.00222
408.392	0.87808
408.605	17.73793
408.819	55.67812
409.032	55.67812
409.245	-34.94396
409.458	-49.69214
409.671	43.03055
409.884	40.92271
410.097	-30.72997
410.31	-53.90568
410.523	-1.2293
410.736	-53.90568
410.949	34.5993
411.162	30.38382
411.375	78.86748
411.588	68.32652
411.801	-1.2293
412.014	15.63036
412.227	-28.62294
412.44	28.27611
412.653	13.52282
412.865	95.73419
413.078	-3.33665
413.291	13.52282
413.504	-1.2293
413.717	-20.19457
413.93	-7.55127
414.143	114.71092
414.356	0.87808
414.568	72.54284
414.781	-3.33665
414.994	11.4153
415.207	-37.05092
415.42	-1.2293
415.632	80.97574
415.845	-34.94396
416.058	-11.7658
416.271	-49.69214
416.483	89.40901
416.696	32.49155
416.909	-3.33665
417.121	68.32652
417.334	7.20034
417.547	-7.55127
417.759	91.51738
417.972	59.89417
418.185	0.87808
418.397	13.52282
418.61	-7.55127
418.823	9.30781
419.035	-1.2293
419.248	13.52282
419.46	5.09289
419.673	59.89417
419.885	40.92271
420.098	106.2766
420.311	30.38382
420.523	30.38382
420.736	2.98547
420.948	76.75925
421.161	30.38382
421.373	34.5993
421.586	5.09289
421.798	-70.75882
422.01	57.78613
422.223	17.73793
422.435	64.1103
422.648	13.52282
422.86	2.98547
423.073	21.95313
423.285	93.62577
423.497	40.92271
423.71	24.06077
423.922	68.32652
424.134	-39.15785
424.347	-5.44397
424.559	-1.2293
424.771	34.5993
424.984	-11.7658
425.196	38.81488
425.408	-11.7658
425.621	2.98547
425.833	-43.37164
426.045	30.38382
426.257	-13.87303
426.47	55.67812
426.682	43.03055
426.894	13.52282
427.106	-7.55127
427.318	68.32652
427.531	47.24632
427.743	-3.33665
427.955	51.46218
428.167	76.75925
428.379	64.1103
428.591	59.89417
428.804	43.03055
429.016	-56.01241
429.228	7.20034
429.44	7.20034
429.652	47.24632
429.864	24.06077
430.076	13.52282
430.288	-20.19457
430.5	91.51738
430.712	-9.65855
430.924	76.75925
431.136	47.24632
431.348	13.52282
431.56	49.35423
431.772	76.75925
431.984	13.52282
432.196	148.45169
432.408	51.46218
432.62	9.30781
432.832	-37.05092
433.044	-5.44397
433.256	13.52282
433.468	-11.7658
433.679	19.84552
433.891	68.32652
434.103	24.06077
434.315	49.35423
434.527	13.52282
434.739	9.30781
434.95	-37.05092
435.162	9.30781
435.374	17.73793
435.586	80.97574
435.798	72.54284
436.009	-7.55127
436.221	36.70708
436.433	-18.08741
436.645	34.5993
436.856	57.78613
437.068	34.5993
437.28	47.24632
437.491	13.52282
437.703	40.92271
437.915	26.16843
438.126	59.89417
438.338	21.95313
438.55	30.38382
438.761	5.09289
438.973	34.5993
439.184	-60.2258
439.396	55.67812
439.608	15.63036
439.819	13.52282
440.031	76.75925
440.242	64.1103
440.454	64.1103
440.665	89.40901
440.877	72.54284
441.088	32.49155
441.3	9.30781
441.511	55.67812
441.723	7.20034
441.934	28.27611
442.146	99.95108
442.357	26.16843
442.569	-3.33665
442.78	53.57014
442.991	-3.33665
443.203	110.49372
443.414	-7.55127
443.626	72.54284
443.837	30.38382
444.048	0.87808
444.26	-45.4785
444.471	9.30781
444.682	95.73419
444.894	21.95313
445.105	116.81956
445.316	19.84552
445.528	-9.65855
445.739	-15.98024
445.95	55.67812
446.161	76.75925
446.373	76.75925
446.584	-43.37164
446.795	80.97574
447.006	68.32652
447.217	80.97574
447.429	-13.87303
447.64	7.20034
447.851	127.36306
448.062	21.95313
448.273	91.51738
448.484	80.97574
448.695	38.81488
448.907	32.49155
449.118	5.09289
449.329	28.27611
449.54	80.97574
449.751	43.03055
449.962	32.49155
450.173	30.38382
450.384	43.03055
450.595	47.24632
450.806	53.57014
451.017	55.67812
451.228	26.16843
451.439	74.65103
451.65	106.2766
451.861	30.38382
452.072	66.2184
452.283	59.89417
452.494	47.24632
452.705	47.24632
452.915	-9.65855
453.126	112.60231
453.337	55.67812
453.548	51.46218
453.759	2.98547
453.97	68.32652
454.181	74.65103
454.391	45.13842
454.602	106.2766
454.813	114.71092
455.024	125.25432
455.235	118.92822
455.445	57.78613
455.656	99.95108
455.867	116.81956
456.078	80.97574
456.288	114.71092
456.499	80.97574
456.71	144.23379
456.921	106.2766
457.131	127.36306
457.342	97.84262
457.553	91.51738
457.763	118.92822
457.974	140.01598
458.184	137.90711
458.395	80.97574
458.606	74.65103
458.816	158.99679
459.027	51.46218
459.237	131.58062
459.448	110.49372
459.659	93.62577
459.869	-3.33665
460.08	106.2766
460.29	123.1456
460.501	106.2766
460.711	47.24632
460.922	80.97574
461.132	175.87005
461.343	146.34273
461.553	112.60231
461.764	142.12488
461.974	137.90711
462.184	167.43326
462.395	188.52586
462.605	142.12488
462.816	129.47183
463.026	123.1456
463.236	102.05957
463.447	80.97574
463.657	190.63523
463.867	180.08857
464.078	127.36306
464.288	161.10588
464.498	125.25432
464.709	142.12488
464.919	102.05957
465.129	142.12488
465.339	201.1824
465.55	175.87005
465.76	169.54242
465.97	80.97574
466.18	173.76082
466.391	207.51095
466.601	201.1824
466.811	152.66967
467.021	237.04651
467.231	148.45169
467.441	156.88773
467.651	184.30718
467.862	194.85404
468.072	256.03568
468.282	190.63523
468.492	209.6205
468.702	215.94929
468.912	237.04651
469.122	220.16857
469.332	296.12896
469.542	201.1824
469.752	346.78251
469.962	237.04651
470.172	380.55713
470.382	353.11491
470.592	289.79799
470.802	291.9083
471.012	279.24676
471.222	325.67561
471.432	315.12283
471.642	329.89685
471.852	334.11816
472.062	410.11344
472.272	446.00751
472.482	351.00409
472.691	460.78874
472.901	412.22473
473.111	359.44748
473.321	418.55869
473.531	477.68249
473.741	443.89597
473.95	553.71593
474.16	484.01789
474.37	570.61472
474.58	452.34223
474.79	731.19313
474.999	522.03308
475.209	557.94055
475.419	659.3469
475.628	570.61472
475.838	705.83416
476.048	726.96652
476.258	691.04216
476.467	741.75982
476.677	885.49095
476.886	887.60495
477.096	809.39263
477.306	714.28698
477.515	805.16529
477.725	834.75747
477.935	851.66808
478.144	853.78195
478.354	976.39985
478.563	1035.6032
478.773	1008.11532
478.982	1035.6032
479.192	1139.21965
479.401	1158.25247
479.611	1080.00875
479.82	1139.21965
480.03	1170.9412
480.239	1115.95778
480.449	1164.59682
480.658	1302.06503
480.868	1297.83507
481.077	1435.31167
481.287	1314.75496
481.496	1382.43552
481.705	1333.78997
481.915	1477.6127
482.124	1348.59506
482.333	1581.24925
482.543	1500.87823
482.752	1623.54893
482.961	1672.19248
483.171	1849.83252
483.38	1572.78923
483.589	1686.99676
483.799	1706.03063
484.008	1983.04103
484.217	1695.45629
484.426	1951.32677
484.636	1959.78404
484.845	2035.89495
485.054	1957.66973
485.263	2109.88318
485.472	1851.94711
485.682	2128.90725
485.891	2092.97237
486.1	2219.79105
486.309	2171.18068
486.518	2374.04443
486.727	2133.13474
486.936	2336.01409
487.146	2306.43273
487.355	2371.93172
487.564	2272.62317
487.773	2393.05837
487.982	2359.25524
488.191	2490.22737
488.4	2507.12396
488.609	2502.89988
488.818	2511.34799
489.027	2627.49056
489.236	2644.38098
489.445	3007.31747
489.654	2714.0454
489.863	2908.18443
490.072	2882.86866
490.281	2946.15415
490.49	2863.88047
490.698	2939.82619
490.907	2870.21
491.116	3165.43827
491.325	3165.43827
491.534	3116.95735
491.743	3060.03421
491.952	3300.29592
492.16	3175.97647
492.369	3371.91079
492.578	3186.51426
492.787	3342.42473
492.996	3253.94633
493.204	3352.95586
493.413	3401.39341
493.622	3635.02335
493.831	3336.10585
494.039	3561.38068
494.248	3462.4535
494.457	3561.38068
494.665	3731.77559
494.874	3672.88773
495.083	3712.849
495.291	3794.85289
495.5	3733.87845
495.709	3767.52155
495.917	3706.53978
496.126	3845.30201
496.335	3706.53978
496.543	3906.24611
496.752	3738.08411
496.96	3994.47995
497.169	3826.38492
497.377	4023.88324
497.586	3981.87731
497.794	4206.5125
498.003	4116.26723
498.211	4191.82407
498.42	4028.08338
498.628	4263.15813
498.837	4214.90542
499.045	4183.43021
499.254	4112.06883
499.462	4309.30229
499.671	4391.07766
499.879	4374.30591
500.087	4300.91322
500.296	4470.72436
500.504	4477.01091
500.713	4493.77408
500.921	4275.74393
501.129	4602.7001
501.338	4359.62949
501.546	4669.70155
501.754	4562.90717
501.962	4696.91433
502.171	4590.13478
502.379	4732.49451
502.587	4430.90496
502.795	4606.88837
503.004	4673.88838
503.212	4753.42099
503.42	4874.74975
503.628	4864.29339
503.837	4822.46226
504.045	4872.65852
504.253	4878.93213
504.461	5127.61825
504.669	4939.56637
504.877	4889.38768
505.085	5000.1813
505.294	5010.63019
505.502	4920.75091
505.71	5217.39895
505.918	4855.92789
506.126	5175.64584
506.334	4847.56203
506.542	5169.38207
506.75	4889.38768
506.958	5209.04907
507.166	5232.01033
507.374	5163.11809
507.582	5092.1117
507.79	5371.80417
507.998	5179.82157
508.206	5486.48161
508.414	5367.63274
508.622	5563.58821
508.83	5179.82157
509.037	5544.83552
509.245	5430.19429
509.453	5440.61916
509.661	5421.85397
509.869	5692.72153
510.077	5346.77419
510.285	5759.3355
510.492	5661.48791
510.7	5925.76469
510.908	5692.72153
511.116	5730.19486
511.324	5430.19429
511.531	5788.47151
511.739	5713.54099
511.947	5844.64932
512.155	5626.08339
512.362	5703.13155
512.57	5615.669
512.778	5775.98521
512.985	5767.66054
513.193	5894.57072
513.401	5846.72965
513.608	5892.49093
513.816	5746.84722
514.024	5979.82167
514.231	5707.2954
514.439	6029.70628
514.646	5871.69176
514.854	6179.27878
515.061	5621.91771
515.269	6046.33147
515.477	6094.12049
515.684	6181.35531
515.892	6123.20337
516.099	6316.28001
516.307	6376.44531
516.514	6083.73263
516.722	6272.69977
516.929	6307.97981
517.136	6137.74308
517.344	6143.97404
517.551	6299.67923
517.759	6278.92615
517.966	6417.92718
518.173	6370.22222
518.381	6521.59118
518.588	6519.51846
518.796	6353.6263
519.003	6699.75791
519.21	6312.12996
519.418	6587.90571
519.625	6345.32778
519.832	6515.37297
520.039	6422.07486
520.247	6867.41085
520.454	6639.69749
520.661	6848.79013
520.868	6407.55759
521.076	6867.41085
521.283	6627.26877
521.49	6712.18179
521.697	6794.9866
521.904	6780.4984
522.112	6720.46392
522.319	6983.23182
522.526	6799.12588
522.733	6888.09837
522.94	6863.27307
523.147	7222.92264
523.354	6888.09837
523.561	7059.7176
523.768	6991.50204
523.975	7117.57832
524.183	7024.5793
524.39	7243.57163
524.597	7163.02806
524.804	7189.87966
525.011	7206.40186
525.218	7012.176
525.425	7119.64445
525.632	7328.20947
525.838	7132.04077
526.045	7497.37498
526.252	7053.51719
526.459	7670.51627
526.666	7392.17947
526.873	7408.68445
527.08	7332.3372
527.287	7530.36591
527.494	7086.58368
527.701	7515.93305
527.907	7449.94084
528.114	7472.62816
528.321	7505.62323
528.528	7783.80151
528.735	7668.45594
528.941	7839.39109
529.148	7581.90325
529.355	7769.38692
529.562	7363.29239
529.768	7684.93793
529.975	7546.85931
530.182	7651.9726
530.388	7474.69051
530.595	7783.80151
530.802	7668.45594
531.008	7829.09787
531.215	7643.73043
531.422	8069.82434
531.628	8030.75103
531.835	7911.42913
532.042	7701.41856
532.248	8205.49631
532.455	7975.21318
532.661	8283.57119
532.868	7956.69726
533.074	8010.18318
533.281	8170.55883
533.487	8248.64648
533.694	8199.33129
533.9	8503.26239
534.107	8036.92098
534.313	8297.9503
534.52	8256.86457
534.726	8371.88492
534.933	8145.8936
535.139	8316.43633
535.345	8267.13674
535.552	8423.21361
535.758	8427.31938
535.965	8488.8968
536.171	8466.32041
536.377	8581.23082
536.584	8306.16651
536.79	8521.73107
536.996	8849.81078
537.203	8671.47618
537.409	8252.75556
537.615	8730.93643
537.821	8373.9383
538.028	8749.38647
538.234	8753.48628
538.44	8845.71268
538.646	8464.2679
538.853	8892.83649
539.059	8868.25134
539.265	8911.27367
539.471	8730.93643
539.677	8950.19186
539.883	8778.08358
540.09	8915.37062
540.296	8886.69044
540.502	9206.07527
540.708	9025.96162
540.914	8999.34255
541.12	9105.80115
541.326	9377.87969
541.532	9001.39028
541.738	9003.43798
541.944	9064.8611
542.15	9473.9577
542.356	9269.49298
542.562	9471.91386
542.768	9179.47592
542.974	9351.29857
543.18	9032.10406
543.386	9236.76328
543.592	9428.98947
543.798	9326.75967
544.004	9555.69822
544.21	9506.65697
544.415	9183.56832
544.621	9702.76769
544.827	9441.25431
545.033	9980.3506
545.239	9490.30785
545.445	9682.34618
545.651	9410.59113
545.856	9625.15776
546.062	9612.90151
546.268	9590.43026
546.474	9666.00787
546.679	9467.82613
546.885	9473.9577
547.091	9539.35215
547.297	9390.14697
547.502	9653.75349
547.708	9733.39707
547.914	9661.92314
548.119	9588.38732
548.325	9753.81475
548.531	9627.20041
548.736	9766.06463
548.942	9866.08505
549.147	9800.76967
549.353	9770.1478
549.559	9827.30589
549.764	9727.27147
549.97	10049.70395
550.175	9753.81475
550.381	10000.75037
550.586	9837.51145
550.792	10331.03099
550.997	9845.67563
551.203	10151.66439
551.408	10388.08037
551.614	10165.93606
551.819	9884.45226
552.025	10021.14869
552.23	10127.19708
552.435	10165.93606
552.641	10463.45133
552.846	10253.59012
553.052	10351.40696
553.257	10546.94994
553.462	10290.27505
553.668	10355.48199
553.873	10276.00921
554.078	10551.0225
554.283	10241.36084
554.489	10569.34839
554.694	10638.57043
554.899	10691.49533
555.105	10573.42067
555.31	10819.70271
555.515	10770.86736
555.72	10669.10503
555.925	10640.60615
556.131	10746.44714
556.336	10589.7093
556.541	10795.28588
556.746	10648.74893
556.951	10779.00706
557.156	10717.9547
557.361	10791.21625
557.567	10569.34839
557.772	10593.78133
557.977	10534.73196
558.182	10634.49894
558.387	10567.31223
558.592	10701.67225
558.797	10719.98995
559.002	10738.30668
559.207	10754.5874
559.412	10947.86367
559.617	10846.15236
559.822	11021.07831
560.027	11124.77462
560.232	11165.4322
560.437	11149.16968
560.642	10958.03324
560.847	11073.94663
561.051	11169.49772
561.256	10888.8746
561.461	11139.00526
561.666	11332.08461
561.871	11267.05775
562.076	11169.49772
562.281	11311.76483
562.485	10882.77173
562.69	11163.39942
562.895	11157.30102
563.1	11271.12223
563.305	11049.54678
563.509	11388.97467
563.714	10974.30396
563.919	11179.66135
564.123	10984.4728
564.328	11244.70235
564.533	11134.93942
564.737	11185.7594
564.942	11167.46497
565.147	11429.60569
565.351	11358.49882
565.556	11325.98878
565.761	11307.70075
565.965	11325.98878
566.17	11161.36663
566.374	11431.63714
566.579	11653.00816
566.784	11502.73176
566.988	11413.35376
567.193	11439.76284
567.397	11382.87968
567.602	11604.27541
567.806	11291.44404
568.011	11600.21411
568.215	11577.8763
568.42	11435.70001
568.624	11543.35202
568.828	11399.1328
569.033	11618.48967
569.237	11644.8864
569.442	11644.8864
569.646	11449.91974
569.85	11624.58136
570.055	11693.61481
570.259	11661.12978
570.463	11809.32444
570.668	11697.67528
570.872	11689.55431
571.076	11679.40289
571.281	11805.26493
571.485	11687.52404
571.689	11728.12767
571.893	11663.16016
572.098	11937.18183
572.302	12022.40205
572.506	12211.0552
572.71	11657.06899
572.914	11973.70651
573.119	11888.47815
573.323	12008.19966
573.527	11720.00723
573.731	12117.75109
573.935	11770.7577
574.139	12101.52267
574.343	11742.33811
574.547	11900.65451
574.751	12209.02702
574.955	12286.09292
575.159	11821.50277
575.364	11993.99688
575.568	12109.63694
575.772	12095.43689
575.976	11819.47307
576.18	11973.70651
576.383	12162.37676
576.587	12545.61002
576.791	12131.95057
576.995	12213.08338
577.199	12444.24915
577.403	12395.59011
577.607	12430.05733
577.811	12413.8377
578.015	12030.51753
578.219	12371.25914
578.422	12105.57982
578.626	12632.76772
578.83	12176.57508
579.034	12484.79544
579.238	12576.01517
579.442	12559.79927
579.645	12636.82128
579.849	12393.56257
580.053	12663.1689
580.257	12452.35862
580.46	12346.92718
580.664	12636.82128
580.868	12444.24915
581.071	12922.53965
581.275	12517.2306
581.479	12523.31201
581.682	12541.5559
581.886	12462.49531
582.09	12618.58003
582.293	12983.3168
582.497	12770.57579
582.7	12395.59011
582.904	12819.20758
583.107	12636.82128
583.311	12699.64855
583.515	12671.27566
583.718	12796.91841
583.922	12884.04502
584.125	12503.04042
584.329	12730.0468
584.532	12691.54213
584.735	12914.43567
584.939	12784.76039
585.142	12965.08414
585.346	12663.1689
585.549	13033.96093
585.753	13189.92584
585.956	12995.47168
586.159	12902.27955
586.363	13307.38811
586.566	13056.24336
586.769	13015.7294
586.973	13001.54905
587.176	12975.21345
587.379	12853.65316
587.582	13149.41815
587.786	13088.65313
587.989	13072.4484
588.192	13191.95118
588.395	13645.52309
588.599	12995.47168
588.802	13424.83623
589.005	12768.54939
589.208	13416.73679
589.411	13163.59605
589.615	13311.43827
589.818	13218.28015
590.021	13360.03895
590.224	13100.80647
590.427	13398.51283
590.63	13455.20858
590.833	13283.08676
591.036	13564.54203
591.239	13426.86108
591.442	13396.48792
591.645	13238.5327
591.848	13400.53773
592.051	13546.32053
592.254	13200.05248
592.457	13358.01397
592.66	13289.16216
592.863	13649.572
593.066	13566.56663
593.269	13724.47448
593.472	13613.13132
593.675	13769.00904
593.878	13708.27972
594.081	13754.83912
594.284	13947.13319
594.486	14113.09437
594.689	13805.44532
594.892	13645.52309
595.095	13837.83233
595.298	13728.52314
595.5	13991.66096
595.703	14305.34813
595.906	14042.25925
596.109	14137.38007
596.311	13829.73565
596.514	13683.9872
596.717	14054.40261
596.92	14196.06925
597.122	13926.89288
597.325	13939.0371
597.528	13831.75982
597.73	14402.48058
597.933	14102.97524
598.136	14355.93843
598.338	13979.51715
598.541	14238.56725
598.743	14107.0229
598.946	14303.3245
599.148	13999.75679
599.351	14402.48058
599.554	14254.75674
599.756	14329.63161
599.959	13993.68492
600.161	14274.99344
600.363	14153.57037
600.566	14153.57037
600.768	14234.51986
600.971	14258.8041
601.173	13983.5651
601.376	14404.50413
601.578	14295.22995
601.78	14321.53714
601.983	14355.93843
602.185	14444.97488
602.388	14189.99804
602.59	14293.2063
602.792	14270.94611
602.995	14222.37764
603.197	13827.71147
603.399	14299.27723
603.601	14372.1271
603.804	14471.28054
604.006	14529.96158
604.208	14511.75034
604.41	14382.24496
604.613	14487.46853
604.815	14495.56249
605.017	14380.22139
605.219	14252.73306
605.421	14125.23726
605.623	14519.84424
605.826	14580.54782
606.028	14327.60799
606.23	14473.30405
606.432	13975.46919
606.634	14898.21544
606.836	14438.9043
607.038	14410.57478
607.24	14493.539
607.442	14726.23236
607.644	14849.656
607.846	15068.17155
608.048	14378.19782
608.25	14469.25704
608.452	14396.40991
608.654	14586.61812
608.856	14465.21003
609.058	14515.79729
609.26	14400.45703
609.462	14703.97533
609.664	14641.25036
609.866	14467.23353
610.067	14590.66498
610.269	14325.58438
610.471	14147.49902
610.673	14487.46853
610.875	14281.06441
611.077	14641.25036
611.278	14113.09437
611.48	14710.04544
611.682	14471.28054
611.884	14922.49505
612.085	14525.91465
612.287	14724.209
612.489	14230.47246
612.69	14758.60605
612.892	14566.38375
613.094	14805.14287
613.295	14353.91483
613.497	14671.60127
613.699	14602.80553
613.9	14606.85237
614.102	14665.5311
614.304	14590.66498
614.505	14430.81018
614.707	14659.46093
614.908	14550.19617
615.11	14744.44259
615.311	14616.96946
615.513	14760.6294
615.714	14582.57126
615.916	14618.99287
616.117	14333.67883
616.319	14481.39804
616.52	14301.30086
616.722	15001.40336
616.923	14499.60946
617.124	14865.84252
617.326	14331.65522
617.527	14556.26652
617.729	14738.37252
617.93	14612.92263
618.131	14657.43754
618.333	14531.98505
618.534	14562.33686
618.735	14849.656
618.937	14825.37615
619.138	14782.88618
619.339	14542.10235
619.54	14558.28997
619.742	14584.59469
619.943	14671.60127
620.144	14380.22139
620.345	14948.79789
620.546	14542.10235
620.748	14829.42279
620.949	14483.42154
621.15	14778.83949
621.351	15173.38168
621.552	15110.66028
621.753	14960.93763
621.954	15005.44992
622.155	14653.39075
622.356	14821.3295
622.558	15088.40429
622.759	15070.19482
622.96	14657.43754
623.161	14964.98421
623.362	14578.52439
623.563	14752.536
623.764	14643.27376
623.965	14940.70472
624.166	14566.38375
624.366	14645.29716
624.567	14440.92783
624.768	14906.30866
624.969	14697.90521
625.17	14610.89921
625.371	14493.539
625.572	14404.50413
625.773	14712.06881
625.973	14784.90951
626.174	14685.76495
626.375	14962.96092
626.576	14912.37856
626.777	14971.05408
626.977	14716.11554
627.178	15201.70747
627.379	14764.67609
627.58	14534.00851
627.78	14695.88184
627.981	14906.30866
628.182	14853.70263
628.382	15021.63617
628.583	14722.18564
628.784	14716.11554
628.984	14301.30086
629.185	14924.51835
629.386	14888.09892
629.586	15013.54305
629.787	14960.93763
629.987	14639.22695
630.188	14877.98238
630.388	15331.19713
630.589	14877.98238
630.79	15112.68355
630.99	14772.76947
631.191	15141.00935
631.391	15387.84919
631.591	14987.24037
631.792	14661.48432
631.992	14991.28694
632.193	14736.34916
632.393	15070.19482
632.594	15017.58961
632.794	15068.17155
632.994	14918.44846
633.195	15013.54305
633.395	15031.75257
633.595	15136.96281
633.796	14993.31022
633.996	14962.96092
634.196	15098.52065
634.397	15673.13921
634.597	15104.59047
634.797	15145.05589
634.997	14772.76947
635.198	15039.84568
635.398	14758.60605
635.598	15074.24137
635.798	14962.96092
635.998	15021.63617
636.199	14708.02207
636.399	14922.49505
636.599	15021.63617
636.799	15104.59047
636.999	14863.8192
637.199	14932.61154
637.399	14991.28694
637.599	14873.93576
637.799	15157.19552
637.999	15096.49738
638.199	15383.80261
638.399	15525.43425
638.599	15221.94019
638.799	15282.63841
638.999	15444.50157
639.199	15385.8259
639.399	15507.22432
639.599	15646.83528
639.799	15181.47476
639.999	15495.08439
640.199	14892.14553
640.399	14888.09892
640.599	14797.04953
640.799	15406.05885
640.998	15232.05655
641.198	15331.19713
641.398	14924.51835
641.598	15602.32125
641.798	15547.69091
641.997	15456.64142
642.197	14979.14723
642.397	15580.06438
642.597	15325.12728
642.796	15422.24524
642.996	15719.67731
643.196	15608.39132
643.395	14956.89105
643.595	15529.48091
643.795	15290.73152
643.994	15151.1257
644.194	15039.84568
644.394	15448.54819
644.593	15349.40669
644.793	15561.85428
644.992	15153.14897
645.192	15414.15204
645.392	15268.47548
645.591	15122.79991
645.791	15626.60158
645.99	15671.11583
646.19	15408.08214
646.389	15266.4522
646.589	15165.2886
646.788	15236.10309
646.987	15232.05655
647.187	15491.03775
647.386	15264.42893
647.586	15586.13443
647.785	15397.96566
647.984	15456.64142
648.184	15509.24764
648.383	15808.70818
648.582	15531.50424
648.782	16071.76752
648.981	15739.91143
649.18	16073.79115
649.38	15748.0051
649.579	15733.84118
649.778	15387.84919
649.977	15877.50623
650.177	15588.15778
650.376	15871.43576
650.575	15331.19713
650.774	15729.79436
650.973	15476.87454
651.173	15329.17385
651.372	15555.78426
651.571	15379.75602
651.77	15315.01087
651.969	15644.8119
652.168	15555.78426
652.367	15658.97554
652.566	15954.39983
652.765	15436.40835
652.964	15312.98759
653.163	15569.94765
653.362	15782.4034
653.561	15539.59757
653.76	15217.89364
653.959	15286.68497
654.158	15642.78853
654.357	15430.33844
654.556	15272.52203
654.755	15745.98168
654.954	15165.2886
655.153	15070.19482
655.352	15294.77808
655.551	15513.29429
655.749	15602.32125
655.948	15926.07039
656.147	15582.08773
656.346	15679.20937
656.545	15440.45496
656.743	15565.90097
656.942	15822.87238
657.141	15873.45925
657.34	15321.08072
657.538	15529.48091
657.737	15760.14564
657.936	16146.64264
658.135	15422.24524
658.333	15606.36797
658.532	15489.01443
658.731	15555.78426
658.929	15553.76092
659.128	15476.87454
659.326	15578.04104
659.525	15837.03663
659.724	15665.04568
659.922	15432.36175
660.121	15600.2979
660.319	15828.94276
660.518	15766.21593
660.716	15790.49716
660.915	15660.99891
661.113	16172.95063
661.312	15685.27954
661.51	15895.7177
661.709	15513.29429
661.907	15830.96623
662.105	15588.15778
662.304	15917.97631
662.502	15861.31833
662.701	16075.81477
662.899	15725.74754
663.097	16274.13788
663.296	15962.494
663.494	16286.28065
663.692	15938.21155
663.891	15934.16449
664.089	15798.59094
664.287	15966.5411
664.485	15832.98969
664.684	15849.17746
664.882	15529.48091
665.08	15440.45496
665.278	15974.6353
665.476	15881.55321
665.675	15584.11108
665.873	15408.08214
666.071	15442.47827
666.269	15598.27454
666.467	15464.73466
666.665	15578.04104
666.863	15347.38341
667.061	15701.46669
667.259	15547.69091
667.457	15505.201
667.655	15387.84919
667.853	15711.58369
668.051	15480.92117
668.249	15557.8076
668.447	15335.2437
668.645	15614.4614
668.843	15573.99434
669.041	15764.1925
669.239	15507.22432
669.437	15367.61628
669.635	15359.52313
669.833	15507.22432
670.031	15082.33447
670.229	15551.73759
670.426	15511.27097
670.624	15452.5948
670.822	15153.14897
671.02	15232.05655
671.218	15436.40835
671.415	15472.82791
671.613	15347.38341
671.811	15284.66169
672.009	15049.96207
672.206	15408.08214
672.404	15232.05655
672.602	15280.61514
672.799	15563.87762
672.997	15697.4199
673.195	15780.37996
673.392	16128.42957
673.59	15543.64424
673.788	15375.70944
673.985	15310.96431
674.183	15644.8119
674.38	15543.64424
674.578	15681.23276
674.775	15691.34971
674.973	15377.73273
675.17	15480.92117
675.368	15588.15778
675.565	15371.66286
675.763	15100.54392
675.96	15205.75401
676.158	15088.40429
676.355	15031.75257
676.553	15371.66286
676.75	14993.31022
676.947	15076.26464
677.145	14906.30866
677.342	15181.47476
677.539	14833.46944
677.737	15072.2181
677.934	15179.45149
678.131	15114.70683
678.329	15116.7301
678.526	15278.59186
678.723	15110.66028
678.92	15270.49875
679.118	14730.27909
679.315	14956.89105
679.512	15278.59186
679.709	15183.49803
679.906	14932.61154
680.104	15393.91907
680.301	15045.91551
680.498	14983.1938
680.695	14849.656
680.892	14892.14553
681.089	15080.31119
681.286	15049.96207
681.483	14540.07889
681.68	14918.44846
681.877	14718.13891
682.075	14890.12223
682.272	14720.16227
682.469	15078.28792
682.665	14855.72595
682.862	14861.79589
683.059	14764.67609
683.256	14884.05231
683.453	15240.14964
683.65	15167.31187
683.847	14981.17051
684.044	14884.05231
684.241	14784.90951
684.438	14817.28284
684.635	14487.46853
684.831	14938.68142
685.028	14817.28284
685.225	15205.75401
685.422	14649.34395
685.619	14948.79789
685.815	14916.42516
686.012	14695.88184
686.209	14434.85725
686.405	14803.11953
686.602	14667.55449
686.799	14538.05543
686.996	14639.22695
687.192	14703.97533
687.389	14600.78211
687.586	14475.32755
687.782	14697.90521
687.979	14414.62188
688.175	14673.62465
688.372	14469.25704
688.568	14525.91465
688.765	14989.26366
688.962	14799.07287
689.158	14908.33196
689.355	14797.04953
689.551	14562.33686
689.748	14380.22139
689.944	14637.20355
690.14	14200.11672
690.337	14631.13333
690.533	14618.99287
690.73	14337.72604
690.926	14728.25573
691.123	14556.26652
691.319	14647.32056
691.515	14774.79281
691.712	14274.99344
691.908	14349.86765
692.104	14527.93812
692.301	14432.83372
692.497	14592.68841
692.693	14507.70339
692.889	14210.23535
693.086	14355.93843
693.282	14319.51352
693.478	14566.38375
693.674	14493.539
693.87	14659.46093
694.067	14683.74157
694.263	14335.70244
694.459	14495.56249
694.655	14428.78665
694.851	14133.33248
695.047	14345.82045
695.243	14398.43347
695.439	14234.51986
695.635	14066.54589
695.831	14414.62188
696.027	14495.56249
696.224	14325.58438
696.42	13926.89288
696.615	14214.28279
696.811	14212.25907
697.007	14104.99907
697.203	13878.31506
697.399	14048.33094
697.595	13995.70888
697.791	13827.71147
697.987	13734.5961
698.183	14206.1879
698.379	14044.28315
698.575	14129.28487
698.77	13872.24272
698.966	13941.06113
699.162	13847.95312
699.358	13870.2186
699.554	13833.78399
699.749	13898.55601
699.945	13481.53058
700.141	13722.45015
700.337	13671.84077
700.532	14062.49814
700.728	14115.11819
700.924	14129.28487
701.119	13981.54112
701.315	13882.36327
701.511	14072.6175
701.706	14281.06441
701.902	13661.71865
702.097	13947.13319
702.293	14171.78429
702.489	13991.66096
702.684	13819.61473
702.88	13971.42122
703.075	13939.0371
703.271	13922.84479
703.466	13534.1727
703.662	13841.88065
703.857	13760.91196
704.053	13797.34846
704.248	13928.91693
704.443	13651.59645
704.639	13594.91057
704.834	13686.01159
705.03	13728.52314
705.225	13653.62089
705.42	13400.53773
705.616	13708.27972
705.811	13722.45015
706.006	13967.37324
706.202	13667.79193
706.397	13566.56663
706.592	13562.51743
706.787	13562.51743
706.983	13376.23866
707.178	13785.20306
707.373	13825.68729
707.568	13995.70888
707.763	13603.00872
707.959	13651.59645
708.154	13515.95071
708.349	13611.10681
708.544	13463.30772
708.739	13023.83235
708.934	12882.01893
709.129	13169.67223
709.324	12956.9806
709.519	13119.03617
709.714	13112.95965
709.909	13603.00872
710.104	13007.62637
710.299	13299.28773
710.494	13242.58316
710.689	13343.83899
710.884	13222.3307
711.079	13520.00006
711.274	13191.95118
711.469	13515.95071
711.664	13173.72299
711.859	13370.1638
712.054	13522.02473
712.249	13084.60198
712.443	12853.65316
712.638	13465.3325
712.833	12995.47168
713.028	13436.98527
713.223	13068.39717
713.417	13198.02717
713.612	13177.77373
713.807	13076.49961
714.002	13165.62145
714.196	12829.3388
714.391	12699.64855
714.586	13386.36334
714.78	12902.27955
714.975	13252.70922
715.17	12865.81005
715.364	13153.469
715.559	13208.15372
715.754	12835.41746
715.948	12811.1025
716.143	13104.85755
716.337	12971.16174
716.532	13027.8838
716.726	12762.47017
716.921	13250.68402
717.115	12948.87698
717.31	13272.96102
717.504	13100.80647
717.699	13368.13884
717.893	13222.3307
718.088	13254.73442
718.282	13068.39717
718.476	13374.21371
718.671	12948.87698
718.865	12963.05826
719.059	13038.01233
719.254	13056.24336
719.448	12472.63183
719.642	12752.33803
719.837	12525.33913
720.031	12719.9142
720.225	12330.70532
720.419	12776.65494
720.614	12598.31139
720.808	12750.31158
721.002	12365.17624
721.196	12507.09479
721.39	12405.72773
721.585	12419.92011
721.779	12521.28488
721.973	12576.01517
722.167	12411.81022
722.361	12296.2324
722.555	12434.11217
722.749	12466.54994
722.943	12280.00914
723.137	12434.11217
723.331	12012.25753
723.525	12498.98603
723.719	12389.50746
723.913	12555.74523
724.107	12158.32003
724.301	12415.86518
724.495	12038.63289
724.689	12505.06761
724.883	12204.97063
725.077	12369.23151
725.271	12294.20452
725.465	12391.53502
725.659	12403.70022
725.853	12472.63183
726.046	12776.65494
726.24	12782.73404
726.434	12253.64538
726.628	12348.95488
726.822	12403.70022
727.015	12501.01323
727.209	12089.35103
727.403	12432.08475
727.596	12097.46549
727.79	12247.56127
727.984	12450.33126
728.177	12454.38597
728.371	12136.00749
728.565	12158.32003
728.758	12127.89361
728.952	11977.76465
729.146	12273.92531
729.339	12148.17808
729.533	12253.64538
729.726	12221.19601
729.92	12062.9782
730.113	12115.72257
730.307	12249.58931
730.5	12004.14176
730.694	11880.3604
730.887	12353.01026
731.081	11916.8892
731.274	12446.27653
731.468	12071.09306
731.661	12379.36957
731.854	12065.00693
732.048	12269.86938
732.241	12109.63694
732.435	12154.26328
732.628	12231.33664
732.821	12316.51083
733.014	12346.92718
733.208	12219.16786
733.401	11902.68388
733.594	11983.8518
733.788	12040.66171
733.981	12188.74478
734.174	12202.94242
734.367	12322.59423
734.56	11933.12337
734.754	11886.44872
734.947	12081.23645
735.14	12032.54638
735.333	12405.72773
735.526	12198.88599
735.719	11819.47307
735.912	12008.19966
736.105	11486.4826
736.298	11821.50277
736.491	12109.63694
736.684	11993.99688
736.877	11590.06069
737.07	11965.59014
737.263	12062.9782
737.456	12146.14967
737.649	11991.96788
737.842	11890.50756
738.035	11927.03562
738.228	11813.38392
738.421	11819.47307
738.614	11912.83058
738.807	12069.06436
739	11900.65451
739.192	11884.41929
739.385	11884.41929
739.578	11927.03562
739.771	11659.09939
739.964	11819.47307
740.156	11973.70651
740.349	11419.44831
740.542	11929.06488
740.735	11563.66075
740.927	11949.35702
741.12	11878.33095
741.313	11872.24253
741.505	11671.2816
741.698	11588.02998
741.891	11299.57248
742.083	11254.86405
742.276	11655.03858
742.468	11799.1756
742.661	11488.51378
742.854	11872.24253
743.046	11551.47562
743.239	11415.38528
743.431	11518.98032
743.624	11206.08554
743.816	11210.15065
744.009	11171.53047
744.201	10888.8746
744.393	11254.86405
744.586	11368.65769
744.778	11179.66135
744.971	11409.29067
745.163	11657.06899
745.355	11458.04509
745.548	11456.01377
745.74	11332.08461
745.932	11401.16439
746.125	11665.19053
746.317	11551.47562
746.509	11191.85735
746.702	11567.72238
746.894	11338.18035
747.086	11453.98244
747.278	11423.51129
747.471	11401.16439
747.663	11380.848
747.855	11527.10437
748.047	11346.30786
748.239	11378.8163
748.431	11069.8801
748.623	11409.29067
748.815	11086.14596
749.008	11502.73176
749.2	11482.42021
749.392	11592.0914
749.584	11330.05268
749.776	11291.44404
749.968	11169.49772
750.16	11293.47616
750.352	11248.76706
750.544	11069.8801
750.736	11456.01377
750.928	11319.89286
751.12	11222.34571
751.311	11075.97988
751.503	11275.18668
751.695	11388.97467
751.887	10935.65982
752.079	11214.21571
752.271	11226.41065
752.463	11023.11184
752.654	11008.87687
752.846	11305.6687
753.038	10958.03324
753.23	11073.94663
753.421	10986.50653
753.613	11143.07106
753.805	11027.17888
753.997	11055.64689
754.188	10921.42148
754.38	11014.97764
754.572	11175.59593
754.763	11049.54678
754.955	11002.776
755.146	11120.70863
755.338	10825.80665
755.53	10734.23638
755.721	11039.37972
755.913	11167.46497
756.104	10838.01422
756.296	10762.72748
756.487	10966.16869
756.679	10923.45556
756.87	10754.5874
757.062	10679.28262
757.253	10933.6258
757.445	10744.41204
757.636	10917.35328
757.827	10888.8746
758.019	10742.37693
758.21	10290.27505
758.401	10318.80477
758.593	10318.80477
758.784	10367.70678
758.975	10408.45266
759.167	10192.4388
759.358	10263.78082
759.549	10314.72926
759.74	10402.34111
759.932	10585.63722
760.123	10347.33187
760.314	10314.72926
760.505	10170.01356
760.696	9825.26473
760.888	10227.09272
761.079	10174.091
761.27	10463.45133
761.461	10306.57807
761.652	10310.65369
761.843	10180.20706
762.034	10229.13107
762.225	9933.42566
762.416	10267.85701
762.607	9988.51068
762.798	9784.43843
762.989	9949.74825
763.18	10165.93606
763.371	9825.26473
763.562	10306.57807
763.753	10163.89729
763.944	10110.88442
764.135	10170.01356
764.326	10163.89729
764.517	10104.76695
764.708	10261.74271
764.899	9982.39064
765.089	9919.14262
765.28	10123.119
765.471	10057.86208
765.662	9653.75349
765.853	10145.54775
766.043	9876.2892
766.234	9808.93493
766.425	9686.43061
766.615	9878.32999
766.806	9837.51145
766.997	10072.13826
767.187	9694.59927
767.378	9841.59357
767.569	9674.17715
767.759	9663.96551
767.95	9643.54108
768.141	9694.59927
768.331	9570.0002
768.522	9704.80975
768.712	9610.85874
768.903	9798.72832
769.093	9800.76967
769.284	9813.01747
769.474	9361.52241
769.665	9482.1329
769.855	8991.15147
770.046	9275.62932
770.236	9142.64131
770.426	9289.94687
770.617	9336.9845
770.807	9377.87969
770.998	9269.49298
771.188	9244.94611
771.378	9132.40849
771.569	9294.03745
771.759	9156.96654
771.949	9159.01293
772.139	9606.77317
772.33	9251.08305
772.52	9099.66058
772.71	9107.84797
772.9	9144.68782
773.09	9312.44422
773.281	9050.53044
773.471	9269.49298
773.661	9105.80115
773.851	9138.54823
774.041	9011.62864
774.231	9048.48313
774.421	8952.24001
774.611	8901.03097
774.802	8659.17212
774.992	8853.9088
775.182	8935.85432
775.372	9066.90826
775.562	9095.56679
775.752	9017.77145
775.942	9138.54823
776.131	9177.4297
776.321	8982.96011
776.511	8946.09551
776.701	8929.7094
776.891	8839.56539
777.081	8814.97462
777.271	8761.68567
777.461	8513.52296
777.651	8581.23082
777.84	8687.88056
778.03	8718.63558
778.22	8661.22284
778.41	8804.7277
778.599	8691.98147
778.789	8519.67907
778.979	8552.50879
779.169	8657.12138
779.358	8642.76566
779.548	8655.07062
779.738	8761.68567
779.927	8583.28226
780.117	8478.63509
780.307	8540.19821
780.496	8365.72467
780.686	8525.83501
780.875	8375.99166
781.065	8433.4779
781.254	8187.00071
781.444	8302.05845
781.633	8326.70566
781.823	8034.86435
782.012	8061.59899
782.202	8217.82582
782.391	8172.61413
782.581	8542.25002
782.77	8273.2998
782.96	8638.66387
783.149	8001.95548
783.338	8127.3928
783.528	8156.17113
783.717	8063.65536
783.906	8125.33705
784.096	8289.73378
784.285	8090.38632
784.474	7707.59845
784.663	7857.91757
784.853	7845.56677
785.042	7672.57657
785.231	7787.91978
785.42	7882.61695
785.61	7835.27386
785.799	7610.75832
785.988	8032.8077
786.177	7658.15402
786.366	7839.39109
786.555	7892.90748
786.744	7592.20911
786.933	7476.75284
787.122	7917.60264
787.312	7719.95765
787.501	7814.68648
787.69	7699.35855
787.879	8028.69433
788.068	7693.17841
788.257	7956.69726
788.445	7569.53551
788.634	7742.61424
788.823	7800.27408
789.012	7713.77815
789.201	7662.27485
789.39	7672.57657
789.579	7524.18053
789.768	7583.96446
789.957	7575.71947
790.145	7509.74722
790.334	7456.12855
790.523	7686.99808
790.712	7561.28992
790.9	7526.24234
791.089	7379.79981
791.278	7530.36591
791.467	7241.50683
791.655	7528.30414
791.844	7431.37654
792.033	7499.43707
792.221	7251.83061
792.41	7359.16531
792.599	7222.92264
792.787	7553.04399
792.976	7233.24741
793.164	7123.77665
793.353	7218.79258
793.541	7524.18053
793.73	7117.57832
793.918	7264.21842
794.107	7028.71356
794.295	7148.56795
794.484	6863.27307
794.672	7222.92264
794.861	7125.84271
795.049	7189.87966
795.238	7167.15932
795.426	7268.34751
795.614	7001.8393
795.803	7119.64445
795.991	7123.77665
796.179	7216.72751
796.368	7010.10871
796.556	7119.64445
796.744	6660.41016
796.932	7086.58368
797.121	6743.23789
797.309	7078.3176
797.497	7152.69952
797.685	6888.09837
797.874	7082.45069
798.062	7067.98449
798.25	6863.27307
798.438	6993.56954
798.626	6819.82092
798.814	7032.84772
799.002	6668.69459
799.19	6859.1352
799.378	6912.92041
799.566	6871.54854
799.755	6473.91295
799.943	6691.47486
800.131	6587.90571
800.318	7138.23863
800.506	6656.26781
800.694	6676.97865
800.882	6753.58877
801.07	6770.149
801.258	6805.33463
801.446	7032.84772
801.634	6687.3332
801.822	6548.53431
802.01	6478.05937
802.197	6759.79903
802.385	6490.49807
802.573	6480.13255
802.761	6440.73825
802.949	6565.11276
803.136	6560.96829
803.324	6834.30608
803.512	6650.05411
803.699	6776.35871
803.887	6681.12054
804.075	6720.46392
804.262	6482.2057
804.45	6728.74568
804.638	6480.13255
804.825	6743.23789
805.013	6737.02708
805.201	6819.82092
805.388	6705.96995
805.576	6772.21893
805.763	6770.149
805.951	6883.96105
806.138	6573.40143
806.326	6469.76644
806.513	6291.37828
806.701	6647.98283
806.888	6656.26781
807.075	6979.09658
807.263	6720.46392
807.45	7057.65082
807.638	6563.04054
807.825	6809.47368
808.012	6710.1112
808.2	6772.21893
808.387	6647.98283
808.574	6809.47368
808.761	6813.61265
808.949	6846.72105
809.136	6668.69459
809.323	6596.19337
809.51	6720.46392
809.698	6596.19337
809.885	6606.55241
810.072	6695.61643
810.259	6596.19337
810.446	6486.35193
810.633	6422.07486
810.82	6834.30608
811.008	6890.167
811.195	6966.69031
811.382	6823.95965
811.569	6819.82092
811.756	6614.83923
811.943	7084.5172
812.13	6826.02898
812.317	6768.07905
812.504	6712.18179
812.691	7057.65082
812.878	6606.55241
813.064	6908.78363
813.251	6641.76886
813.438	6865.34197
813.625	6685.26234
813.812	6819.82092
813.999	6888.09837
814.186	6763.93909
814.372	6571.3293
814.559	6703.8993
814.746	6465.61983
814.933	6772.21893
815.12	6618.98251
815.306	6948.07938
815.493	6461.47313
815.68	6743.23789
815.866	6635.55467
816.053	7119.64445
816.24	6571.3293
816.426	6790.84723
816.613	6478.05937
816.799	6755.65888
816.986	6737.02708
817.173	6815.68209
817.359	6643.8402
817.546	6788.77751
817.732	6482.2057
817.919	6908.78363
818.105	6610.69587
818.292	6658.339
818.478	6933.60295
818.665	6964.62252
818.851	6712.18179
819.037	6542.31701
819.224	6486.35193
819.41	6461.47313
819.597	6515.37297
819.783	6509.15456
819.969	6511.22739
820.156	6361.92445
820.342	6278.92615
820.528	6440.73825
820.714	6262.32201
820.901	6436.59099
821.087	6403.40959
821.273	6455.25291
821.459	6513.30019
821.646	6670.76564
821.832	6527.80917
822.018	6471.83971
822.204	6133.589
822.39	6581.68973
822.576	6341.17838
822.762	6654.1966
822.948	6430.36993
823.134	6465.61983
823.32	6183.43183
823.507	6670.76564
823.693	6351.5517
823.879	6513.30019
824.065	6065.033
824.25	6125.28054
824.436	5981.90046
824.622	6420.00103
824.808	6266.47318
824.994	6214.57673
825.18	5946.55772
825.366	6139.82009
825.552	5900.80994
825.738	6025.54974
825.923	5746.84722
826.109	5954.87427
826.295	5763.49807
826.481	5952.79517
826.667	5948.63689
826.852	6170.97239
827.038	6100.35293
827.224	6100.35293
827.409	5913.28774
827.595	5996.45138
827.781	5923.68525
827.966	5880.01171
828.152	5852.9705
828.338	6021.39312
828.523	5471.89025
828.709	5653.15805
828.894	5530.24877
829.08	5946.55772
829.266	5800.95695
829.451	5813.44155
829.637	5630.24898
829.822	5528.16486
830.008	5678.1465
830.193	5738.52123
830.378	5769.74174
830.564	6073.34418
830.749	5661.48791
830.935	5703.13155
831.12	5596.92161
831.305	5684.39308
831.491	5348.86015
831.676	5596.92161
831.861	5471.89025
832.047	5646.9104
832.232	5576.08894
832.417	5684.39308
832.602	5432.27931
832.788	5513.57679
832.973	5267.49035
833.158	5478.14383
833.343	5413.51328
833.528	5651.07552
833.714	5388.48894
833.899	5638.57988
834.084	5300.87714
834.269	5634.41448
834.454	5138.06008
834.639	5461.46714
834.824	5405.17221
835.009	5567.75521
835.194	5265.40348
835.379	5413.51328
835.564	5298.79064
835.749	5096.28929
835.934	5039.88401
836.119	5179.82157
836.304	5152.67766
836.489	5359.2896
836.674	5087.93402
836.859	5277.92437
837.044	5123.44136
837.228	5259.14272
837.413	5112.99872
837.598	5300.87714
837.783	4941.65687
837.968	5240.35918
838.152	5098.37805
838.337	5257.05575
838.522	5012.7199
838.707	5196.52356
838.891	5108.8215
839.076	5150.5895
839.261	4970.92134
839.445	5150.5895
839.63	4966.74097
839.815	5163.11809
839.999	4895.66074
840.184	4996.00158
840.368	4954.19933
840.553	5025.25766
840.737	4845.47051
840.922	4738.77269
841.106	4824.55403
841.291	4958.37997
841.475	4745.05067
841.66	4908.20624
841.844	4822.46226
842.029	5010.63019
842.213	4745.05067
842.397	4791.08293
842.582	4828.73751
842.766	5046.1521
842.951	4705.28672
843.135	5106.73286
843.319	4780.62202
843.504	4740.86538
843.688	4661.32763
843.872	4753.42099
844.056	4719.93755
844.241	4765.97578
844.425	4397.3667
844.609	4634.10989
844.793	4493.77408
844.977	4583.85182
845.161	4202.31591
845.346	4636.2037
845.53	4286.23151
845.714	4730.40174
845.898	4409.94421
846.082	4686.44833
846.266	4514.72604
846.45	4638.29748
846.634	4336.56441
846.818	4627.82833
847.002	4462.34199
847.186	4447.67199
847.37	4233.78826
847.554	4596.41754
847.738	4399.46301
847.922	4544.05508
848.106	4661.32763
848.29	4585.94616
848.473	4447.67199
848.657	4332.37047
848.841	4349.14569
849.025	4380.59548
849.209	4133.05999
849.392	4286.23151
849.576	4273.64635
849.76	4338.66134
849.944	4282.03654
850.127	4433.00092
850.311	4130.96097
850.495	4179.23316
850.678	3994.47995
850.862	4183.43021
851.046	4074.27949
851.229	4250.57155
851.413	4084.7772
851.596	4191.82407
851.78	4107.87035
851.964	3990.27915
852.147	3780.13642
852.331	4133.05999
852.514	3714.95203
852.698	3948.26668
852.881	3725.4669
853.065	3962.97197
853.248	3881.0299
853.431	4013.38252
853.615	3868.42072
853.798	3843.20019
853.982	3820.07887
854.165	3754.90597
854.348	3729.67271
854.532	3824.28293
854.715	3605.56903
854.898	3717.05504
855.081	3460.34823
855.265	3729.67271
855.448	3647.64549
855.631	3632.91959
855.814	3504.5551
855.997	3820.07887
856.181	3696.02404
856.364	3843.20019
856.547	3647.64549
856.73	3643.43819
856.913	3489.82036
857.096	3647.64549
857.279	3609.77702
857.462	3666.57743
857.645	3336.10585
857.828	3607.67303
858.011	3510.86971
858.194	3622.40052
858.377	3403.49918
858.56	3767.52155
858.743	3597.15284
858.926	3761.21384
859.109	3555.06739
859.292	3714.95203
859.475	3369.80475
859.658	3350.84967
859.841	3361.38045
860.023	3285.54921
860.206	3397.18182
860.389	3401.39341
860.572	3315.04179
860.755	3536.12652
860.937	3148.57631
861.12	3281.33571
861.303	3359.27433
861.486	3367.6987
861.668	3283.44247
861.851	3327.68043
862.034	3047.38307
862.216	3234.98278
862.399	3072.68479
862.581	3243.41119
862.764	2988.3371
862.947	3251.83934
863.129	3123.28143
863.312	2861.7706
863.494	2657.04827
863.677	2967.24637
863.859	2802.68856
864.042	3041.0573
864.224	2893.41715
864.406	2802.68856
864.589	2817.46009
864.771	2954.59122
864.954	2661.2706
865.136	2855.44091
865.318	2735.15305
865.501	2895.5268
865.683	2627.49056
865.865	2861.7706
866.048	2699.26927
866.23	2990.44609
866.412	2606.37643
866.594	2633.82456
866.777	2600.04195
866.959	2714.0454
867.141	2692.93644
867.323	2828.01078
867.505	2654.93708
867.687	2946.15415
867.869	2868.10017
868.052	3022.07913
868.234	2922.95099
868.416	3207.5886
868.598	2823.79055
868.78	2984.11908
868.962	2941.93553
869.144	3003.09972
869.326	2663.38174
869.508	2709.82371
869.69	2441.64572
869.872	2903.96528
870.054	2528.24367
870.236	2676.04835
870.417	2570.47961
870.599	2633.82456
870.781	2475.44227
870.963	2718.26703
871.145	2663.38174
871.327	2625.3792
871.508	2540.91494
871.69	2716.15622
871.872	2287.41515
872.054	2762.59101
872.235	2625.3792
872.417	2752.03822
872.599	2785.80598
872.78	2842.78114
872.962	2625.3792
873.144	2703.49108
873.325	2608.48789
873.507	2785.80598
873.689	2583.14947
873.87	2819.57026
874.052	2663.38174
874.233	2686.6035
874.415	2464.88115
874.596	2595.8189
874.778	2329.67539
874.959	2568.36792
875.141	2492.33948
875.322	2509.23598
875.503	2505.01192
875.685	2433.19615
875.866	2450.09512
876.048	2416.2965
876.229	2357.14246
876.41	2545.1386
876.592	2228.24457
876.773	2399.39617
876.954	2323.33659
877.136	2519.79592
877.317	2431.08373
877.498	2678.15941
877.679	2507.12396
877.86	2692.93644
878.042	2574.70294
878.223	2743.59574
878.404	2545.1386
878.585	2502.89988
878.766	2304.3197
878.947	2625.3792
879.128	2414.18399
879.309	2616.93365
879.49	2350.80405
879.672	2646.49222
879.853	2509.23598
880.034	2756.25938
880.215	2576.81459
880.396	2570.47961
880.576	2481.77881
880.757	2600.04195
880.938	2424.74641
881.119	2718.26703
881.3	2414.18399
881.481	2583.14947
881.662	2532.46747
881.843	2663.38174
882.023	2543.02678
882.204	2709.82371
882.385	2450.09512
882.566	2667.60399
882.747	2498.67575
882.927	2574.70294
883.108	2287.41515
883.289	2435.30856
883.469	2217.67765
883.65	2450.09512
883.831	2494.45158
884.011	2667.60399
884.192	2447.98279
884.373	2543.02678
884.553	2483.89096
884.734	2547.25042
884.914	2492.33948
885.095	2587.37266
885.275	2274.73634
885.456	2606.37643
885.636	2278.96265
885.817	2543.02678
885.997	2371.93172
886.178	2464.88115
886.358	2401.50875
886.538	2519.79592
886.719	2540.91494
886.899	2758.36994
887.08	2572.59128
887.26	2853.33099
887.44	2409.95895
887.621	2705.60197
887.801	2310.65875
887.981	2680.27045
888.161	2492.33948
888.342	2435.30856
888.522	2532.46747
888.702	2673.93728
888.882	2530.35557
889.062	2629.60191
889.242	2475.44227
889.423	2610.59935
889.603	2515.57198
889.783	2796.3577
889.963	2528.24367
890.143	2695.0474
890.323	2426.85886
890.503	2490.22737
890.683	2524.01982
890.863	2583.14947
891.043	2397.28358
891.223	2551.47401
891.403	2431.08373
891.583	2728.82089
891.763	2272.62317
891.943	2591.5958
892.122	2367.70627
892.302	2532.46747
892.482	2325.44953
892.662	2490.22737
892.842	2232.47127
893.022	2327.56246
893.201	2386.72048
893.381	2483.89096
893.561	2517.68395
893.741	2627.49056
893.92	2215.56424
894.1	2625.3792
894.28	2342.3527
894.459	2310.65875
894.639	2131.021
894.819	2426.85886
894.998	2021.09627
895.178	2270.51
895.357	2120.45219
895.537	2226.1312
895.716	2061.26334
895.896	2171.18068
896.075	2086.6307
896.255	2196.54317
896.434	1976.69829
896.614	2270.51
896.793	2190.20267
896.973	2291.64134
897.152	2103.54168
897.331	2304.3197
897.511	2179.63498
897.69	2135.24847
897.87	1906.92457
898.049	2270.51
898.228	2240.92457
898.407	2230.35792
898.587	1868.86362
898.766	2124.67973
898.945	1925.95439
899.124	2095.08625
899.304	1832.91566
899.483	1949.21243
899.662	1818.11317
899.841	2078.17503
900.02	1957.66973
900.199	2114.1108
900.378	1843.48873
900.557	1978.81254
900.737	1822.34247
900.916	1830.80103
901.095	1746.21237
901.274	1902.69566
901.453	1706.03063
901.632	1932.29756
901.811	1577.01925
901.989	1818.11317
902.168	1612.97409
902.347	1915.38232
902.526	1483.95785
902.705	1674.30739
902.884	1467.03745
903.063	1551.63908
903.242	1460.69229
903.42	1725.06424
903.599	1390.89568
903.778	1583.36425
903.957	1397.2408
904.135	1767.36015
904.314	1348.59506
904.493	1661.61791
904.672	1519.91361
904.85	1526.25872
905.029	1418.39126
905.207	1534.71886
905.386	1441.65682
905.565	1378.20545
905.743	1299.95005
905.922	1460.69229
906.1	1363.40023
906.279	1566.4442
906.457	1297.83507
906.636	1401.47089
906.814	1101.15507
906.993	1304.18002
907.171	1147.67864
907.35	1242.84644
907.528	1069.43578
907.707	1122.30187
907.885	1010.22973
908.063	1274.57045
908.242	1170.9412
908.42	1170.9412
908.598	1022.91636
908.777	1151.90816
908.955	1001.77211
909.133	1056.7484
909.311	877.03503
909.49	1027.14528
909.668	1044.06121
909.846	970.05694
910.024	953.1428
910.202	1126.53129
910.38	902.40317
910.559	942.57169
910.737	908.74539
910.915	1080.00875
911.093	1048.29025
911.271	1090.58185
911.449	1077.89414
911.627	1170.9412
911.805	965.82836
911.983	1137.10491
912.161	1052.51931
912.339	1037.71769
912.517	1115.95778
912.695	1094.81112
912.872	1031.37423
913.05	1107.49906
913.228	1006.00091
913.406	1130.76072
913.584	1086.35259
913.762	1204.77848
913.939	1145.56388
914.117	1120.18717
914.295	940.45749
914.473	1027.14528
914.65	1052.51931
914.828	1029.25975
915.006	959.48555
915.184	1022.91636
915.361	934.11494
915.539	1086.35259
915.716	948.91433
915.894	995.42896
916.072	974.28554
916.249	1056.7484
916.427	843.21271
916.604	1027.14528
916.782	934.11494
916.959	1128.646
917.137	951.02856
917.314	999.65772
917.492	847.44038
917.669	946.80011
917.847	927.77245
918.024	993.31459
918.201	796.71072
918.379	779.80203
918.556	817.84743
918.733	921.43002
918.911	836.87127
919.088	1003.88651
919.265	638.2182
919.442	862.23749
919.62	819.96116
919.797	828.41614
919.974	707.94735
920.151	824.18863
920.328	710.06055
920.506	834.75747
920.683	707.94735
920.86	705.83416
921.037	726.96652
921.214	781.91558
921.391	714.28698
921.568	811.50632
921.745	726.96652
921.922	841.09888
922.099	642.44384
922.276	781.91558
922.453	633.9926
922.63	790.36989
922.807	564.27757
922.984	676.25072
923.161	572.72712
923.338	633.9926
923.514	572.72712
923.691	646.66954
923.868	541.04242
924.045	617.09072
924.222	562.16522
924.399	758.66706
924.575	606.52744
924.752	621.31611
924.929	545.26687
925.105	574.83955
925.282	608.64007
925.459	598.07705
925.635	481.90607
925.812	623.42883
925.989	568.50232
926.165	585.40185
926.342	414.33604
926.518	617.09072
926.695	460.78874
926.871	648.7824
927.048	545.26687
927.224	579.06443
927.401	418.55869
927.577	452.34223
927.754	511.47284
927.93	545.26687
928.107	452.34223
928.283	538.93021
928.459	393.22373
928.636	410.11344
928.812	397.44606
928.988	477.68249
929.165	386.89035
929.341	374.22406
929.517	241.26619
929.693	441.78444
929.87	363.66927
930.046	397.44606
930.222	405.89092
930.398	414.33604
930.574	344.67174
930.751	475.57071
930.927	382.66819
931.103	410.11344
931.279	395.33488
931.455	460.78874
931.631	370.00209
931.807	420.67004
931.983	300.34969
932.159	346.78251
932.335	268.69598
932.511	395.33488
932.687	291.9083
932.863	395.33488
933.039	310.90184
933.215	367.89113
933.391	281.35697
933.566	346.78251
933.742	300.34969
933.918	253.9257
934.094	266.58589
934.27	298.23931
934.445	211.73008
934.621	277.13656
934.797	173.76082
934.973	224.38794
935.148	228.60739
935.324	186.41651
935.5	182.19786
935.675	275.02639
935.851	222.27825
936.027	251.81573
936.202	209.6205
936.378	165.32411
936.553	234.9367
936.729	144.23379
936.904	148.45169
937.08	106.2766
937.255	114.71092
937.431	133.68943
937.606	142.12488
937.782	148.45169
937.957	156.88773
938.133	15.63036
938.308	150.56067
938.483	142.12488
938.659	85.19233
938.834	110.49372
939.009	102.05957
939.185	114.71092
939.36	110.49372
939.535	55.67812
939.71	99.95108
939.886	72.54284
940.061	43.03055
940.236	74.65103
940.411	-3.33665
940.586	5.09289
940.761	49.35423
940.937	114.71092
941.112	97.84262
941.287	59.89417
941.462	55.67812
941.637	70.43467
941.812	47.24632
941.987	76.75925
942.162	99.95108
942.337	95.73419
942.512	80.97574
942.687	-11.7658
942.862	43.03055
943.037	38.81488
943.212	68.32652
943.386	51.46218
943.561	55.67812
943.736	66.2184
943.911	106.2766
944.086	140.01598
944.26	17.73793
944.435	-3.33665
944.61	53.57014
944.785	24.06077
944.959	104.16807
945.134	53.57014
945.309	59.89417
945.483	40.92271
945.658	102.05957
945.833	47.24632
946.007	80.97574
946.182	26.16843
946.357	38.81488
946.531	123.1456
946.706	97.84262
946.88	80.97574
947.055	38.81488
947.229	108.38515
947.404	-9.65855
947.578	43.03055
947.752	59.89417
947.927	72.54284
948.101	0.87808
948.276	45.13842
948.45	66.2184
948.624	43.03055
948.799	68.32652
948.973	34.5993
949.147	66.2184
949.321	40.92271
949.496	89.40901
949.67	74.65103
949.844	68.32652
950.018	32.49155
950.193	114.71092
950.367	140.01598
950.541	80.97574
950.715	30.38382
950.889	38.81488
951.063	110.49372
951.237	85.19233
951.411	43.03055
951.585	45.13842
951.759	97.84262
951.933	68.32652
952.107	133.68943
952.281	59.89417
952.455	38.81488
952.629	182.19786
952.803	59.89417
952.977	83.08402
953.151	72.54284
953.325	38.81488
953.499	114.71092
953.672	74.65103
953.846	89.40901
954.02	68.32652
954.194	108.38515
954.368	57.78613
954.541	38.81488
954.715	15.63036
954.889	93.62577
955.062	-9.65855
955.236	-5.44397
955.41	30.38382
955.583	64.1103
955.757	40.92271
955.93	57.78613
956.104	93.62577
956.278	127.36306
956.451	24.06077
956.625	24.06077
956.798	-20.19457
956.972	64.1103
957.145	74.65103
957.319	59.89417
957.492	59.89417
957.665	36.70708
957.839	34.5993
958.012	102.05957
958.185	0.87808
958.359	30.38382
958.532	89.40901
958.705	17.73793
958.879	121.0369
959.052	83.08402
959.225	85.19233
959.398	40.92271
959.572	102.05957
959.745	55.67812
959.918	87.30066
960.091	99.95108
960.264	57.78613
960.438	133.68943
960.611	123.1456
960.784	91.51738
960.957	72.54284
961.13	102.05957
961.303	97.84262
961.476	72.54284
961.649	34.5993
961.822	99.95108
961.995	85.19233
962.168	64.1103
962.341	89.40901
962.514	-7.55127
962.686	64.1103
962.859	30.38382
963.032	97.84262
963.205	80.97574
963.378	28.27611
963.551	-11.7658
963.723	45.13842
963.896	66.2184
964.069	38.81488
964.242	70.43467
964.414	85.19233
964.587	30.38382
964.76	57.78613
964.932	55.67812
965.105	40.92271
965.278	59.89417
965.45	146.34273
965.623	0.87808
965.795	72.54284
965.968	0.87808
966.14	72.54284
966.313	38.81488
966.485	102.05957
966.658	64.1103
966.83	-7.55127
967.003	57.78613
967.175	-11.7658
967.348	-28.62294
967.52	116.81956
967.692	17.73793
967.865	-32.83698
968.037	114.71092
968.209	68.32652
968.382	80.97574
968.554	30.38382
968.726	38.81488
968.898	93.62577
969.071	68.32652
969.243	32.49155
969.415	21.95313
969.587	49.35423
969.759	13.52282
969.932	102.05957
970.104	89.40901
970.276	91.51738
970.448	-26.51589
970.62	38.81488
970.792	26.16843
970.964	45.13842
971.136	85.19233
971.308	47.24632
971.48	28.27611
971.652	51.46218
971.824	5.09289
971.996	70.43467
972.168	9.30781
972.339	-24.40881
972.511	114.71092
972.683	89.40901
972.855	64.1103
973.027	89.40901
973.199	26.16843
973.37	55.67812
973.542	68.32652
973.714	28.27611
973.886	-1.2293
974.057	15.63036
974.229	-15.98024
974.401	9.30781
974.572	21.95313
974.744	97.84262
974.915	47.24632
975.087	13.52282
975.259	55.67812
975.43	34.5993
975.602	72.54284
975.773	-9.65855
975.945	68.32652
976.116	26.16843
976.288	13.52282
976.459	64.1103
976.63	80.97574
976.802	21.95313
976.973	32.49155
977.145	51.46218
977.316	53.57014
977.487	-62.33245
977.659	19.84552
977.83	-37.05092
978.001	7.20034
978.172	15.63036
978.344	40.92271
978.515	2.98547
978.686	15.63036
978.857	89.40901
979.028	32.49155
979.2	21.95313
979.371	9.30781
979.542	93.62577
979.713	76.75925
979.884	64.1103
980.055	51.46218
980.226	7.20034
980.397	131.58062
980.568	-1.2293
980.739	62.00222
980.91	32.49155
981.081	59.89417
981.252	108.38515
981.423	-24.40881
981.594	34.5993
981.765	9.30781
981.936	24.06077
982.106	13.52282
982.277	24.06077
982.448	38.81488
982.619	5.09289
982.79	83.08402
982.96	85.19233
983.131	-28.62294
983.302	74.65103
983.472	49.35423
983.643	55.67812
983.814	47.24632
983.984	47.24632
984.155	28.27611
984.326	76.75925
984.496	89.40901
984.667	83.08402
984.837	83.08402
985.008	0.87808
985.178	40.92271
985.349	43.03055
985.519	-22.3017
985.69	28.27611
985.86	97.84262
986.031	24.06077
986.201	21.95313
986.371	72.54284
986.542	30.38382
986.712	19.84552
986.882	21.95313
987.053	51.46218
987.223	30.38382
987.393	11.4153
987.563	0.87808
987.734	89.40901
987.904	38.81488
988.074	28.27611
988.244	0.87808
988.414	57.78613
988.585	30.38382
988.755	95.73419
988.925	72.54284
989.095	-77.07833
989.265	72.54284
989.435	26.16843
989.605	28.27611
989.775	0.87808
989.945	-28.62294
990.115	80.97574
990.285	36.70708
990.455	38.81488
990.625	-34.94396
990.795	0.87808
990.965	55.67812
991.134	76.75925
991.304	64.1103
991.474	26.16843
991.644	49.35423
991.814	-20.19457
991.984	72.54284
992.153	13.52282
992.323	32.49155
992.493	19.84552
992.662	5.09289
992.832	-15.98024
993.002	32.49155
993.171	13.52282
993.341	32.49155
993.511	55.67812
993.68	57.78613
993.85	66.2184
994.019	76.75925
994.189	24.06077
994.358	15.63036
994.528	17.73793
994.697	-9.65855
994.867	57.78613
995.036	-26.51589
995.206	80.97574
995.375	64.1103
995.544	13.52282
995.714	49.35423
995.883	47.24632
996.052	5.09289
996.222	30.38382
996.391	123.1456
996.56	5.09289
996.73	0.87808
996.899	9.30781
997.068	38.81488
997.237	-20.19457
997.406	114.71092
997.576	112.60231
997.745	-56.01241
997.914	-26.51589
998.083	62.00222
998.252	-129.73178
998.421	11.4153
998.59	-11.7658
998.759	19.84552
998.928	-30.72997
999.097	-3.33665
999.266	30.38382
999.435	-45.4785
999.604	7.20034
999.773	13.52282
999.942	89.40901
1000.111	-26.51589
1000.28	30.38382
1000.448	9.30781
1000.617	51.46218
1000.786	26.16843
1000.955	-3.33665
1001.124	47.24632
1001.292	30.38382
1001.461	30.38382
1001.63	30.38382
1001.798	30.38382
1001.967	-70.75882
1002.136	55.67812
1002.304	30.38382
1002.473	-1.2293
1002.642	30.38382
1002.81	17.73793
1002.979	5.09289
1003.147	38.81488
1003.316	17.73793
1003.484	5.09289
1003.653	43.03055
1003.821	24.06077
1003.99	24.06077
1004.158	-32.83698
1004.327	72.54284
1004.495	-30.72997
1004.663	-41.26476
1004.832	57.78613
1005	-77.07833
1005.168	30.38382
1005.337	68.32652
1005.505	-20.19457
1005.673	43.03055
1005.842	121.0369
1006.01	38.81488
1006.178	-11.7658
1006.346	30.38382
1006.514	0.87808
1006.683	-20.19457
1006.851	-3.33665
1007.019	-22.3017
1007.187	-34.94396
1007.355	57.78613
1007.523	34.5993
1007.691	38.81488
1007.859	32.49155
1008.027	-9.65855
1008.195	59.89417
1008.363	-11.7658
1008.531	-11.7658
1008.699	-18.08741
1008.867	-3.33665
1009.035	-20.19457
1009.203	11.4153
1009.37	93.62577
1009.538	-11.7658
1009.706	-11.7658
1009.874	15.63036
1010.042	-20.19457
1010.209	-1.2293
1010.377	66.2184
1010.545	66.2184
1010.713	-20.19457
1010.88	-13.87303
1011.048	89.40901
1011.216	-1.2293
1011.383	21.95313
1011.551	17.73793
1011.718	34.5993
1011.886	49.35423
1012.054	0.87808
1012.221	40.92271
1012.389	72.54284
1012.556	9.30781
1012.724	36.70708
1012.891	13.52282
1013.058	55.67812
1013.226	-18.08741
1013.393	85.19233
1013.561	11.4153
1013.728	-24.40881
1013.895	-53.90568
1014.063	7.20034
1014.23	80.97574
1014.397	19.84552
1014.565	2.98547
1014.732	9.30781
1014.899	5.09289
1015.066	55.67812
1015.233	2.98547
1015.401	30.38382
1015.568	-11.7658
1015.735	57.78613
1015.902	-3.33665
1016.069	49.35423
1016.236	-15.98024
1016.403	59.89417
1016.57	64.1103
1016.737	74.65103
1016.904	21.95313
1017.071	47.24632
1017.238	9.30781
1017.405	5.09289
1017.572	89.40901
1017.739	38.81488
1017.906	17.73793
1018.073	0.87808
1018.24	-41.26476
1018.407	43.03055
1018.573	-18.08741
1018.74	83.08402
1018.907	13.52282
1019.074	-64.43909
1019.241	-32.83698
1019.407	-37.05092
1019.574	-37.05092
1019.741	5.09289
1019.907	9.30781
1020.074	11.4153
1020.241	17.73793
1020.407	40.92271
1020.574	-7.55127
1020.74	-47.58533
1020.907	13.52282
1021.073	49.35423
1021.24	34.5993
1021.406	-9.65855
1021.573	-26.51589
1021.739	-30.72997
1021.906	68.32652
1022.072	5.09289
1022.239	30.38382
1022.405	-9.65855
1022.571	38.81488
1022.738	-11.7658
1022.904	-3.33665
1023.07	53.57014
1023.237	83.08402
1023.403	-3.33665
1023.569	87.30066
1023.735	-9.65855
1023.902	5.09289
1024.068	13.52282
1024.234	9.30781
1024.4	34.5993
1024.566	47.24632
1024.732	110.49372
1024.898	28.27611
1025.065	-49.69214
1025.231	-11.7658
1025.397	38.81488
1025.563	59.89417
1025.729	-34.94396
1025.895	-79.18478
1026.061	-26.51589
1026.227	-15.98024
1026.392	21.95313
1026.558	-28.62294
1026.724	40.92271
1026.89	-34.94396
1027.056	-11.7658
1027.222	72.54284
1027.388	38.81488
1027.553	30.38382
1027.719	-5.44397
1027.885	5.09289
1028.051	-43.37164
1028.216	55.67812
1028.382	5.09289
1028.548	-39.15785
1028.713	34.5993
1028.879	-15.98024
1029.045	30.38382
1029.21	-62.33245
1029.376	28.27611
1029.541	5.09289
1029.707	15.63036
1029.873	55.67812
1030.038	-1.2293
1030.204	-11.7658
1030.369	53.57014
1030.534	-20.19457
1030.7	-1.2293
1030.865	78.86748
1031.031	28.27611
1031.196	5.09289
1031.361	-79.18478
1031.527	17.73793
1031.692	38.81488
1031.857	7.20034
1032.023	83.08402
1032.188	-37.05092
1032.353	9.30781
1032.518	2.98547
1032.684	-7.55127
1032.849	15.63036
1033.014	40.92271
1033.179	45.13842
1033.344	9.30781
1033.509	0.87808
1033.674	2.98547
1033.839	2.98547
1034.004	-11.7658
1034.17	-51.79892
1034.335	-3.33665
1034.5	-68.65227
1034.664	-20.19457
1034.829	26.16843
1034.994	-41.26476
1035.159	-3.33665
1035.324	-28.62294
1035.489	-3.33665
1035.654	9.30781
1035.819	-22.3017
1035.984	45.13842
1036.148	40.92271
1036.313	32.49155
1036.478	-11.7658
1036.643	-1.2293
1036.807	-58.11912
1036.972	47.24632
1037.137	-56.01241
1037.301	47.24632
1037.466	-41.26476
1037.631	0.87808
1037.795	-22.3017
1037.96	47.24632
1038.124	-11.7658
1038.289	30.38382
1038.454	26.16843
1038.618	26.16843
1038.783	-1.2293
1038.947	114.71092
1039.111	-28.62294
1039.276	13.52282
1039.44	59.89417
1039.605	59.89417
1039.769	7.20034
1039.933	17.73793
1040.098	40.92271
1040.262	55.67812
1040.426	28.27611
1040.591	9.30781
1040.755	-34.94396
1040.919	-7.55127
1041.083	-47.58533
1041.248	34.5993
1041.412	-1.2293
1041.576	-20.19457
1041.74	51.46218
1041.904	47.24632
1042.068	-51.79892
1042.232	-28.62294
1042.397	-7.55127
1042.561	15.63036
1042.725	55.67812
1042.889	34.5993
1043.053	-3.33665
1043.217	5.09289
1043.381	13.52282
1043.544	47.24632
1043.708	108.38515
1043.872	38.81488
1044.036	-20.19457
1044.2	-34.94396
1044.364	-18.08741
1044.528	-3.33665
1044.691	-11.7658
1044.855	-11.7658
1045.019	68.32652
1045.183	47.24632
1045.346	26.16843
1045.51	34.5993
1045.674	21.95313
1045.837	7.20034
1046.001	7.20034
1046.165	32.49155
1046.328	9.30781
1046.492	40.92271
1046.655	66.2184
1046.819	7.20034
1046.983	21.95313
1047.146	0.87808
1047.31	30.38382
1047.473	-7.55127
1047.636	-28.62294
1047.8	36.70708
1047.963	-53.90568
1048.127	-13.87303
1048.29	-9.65855
