Data from absorb_only_2.23.25_USB4F045381__9__0114.txt Node

Date: Sun Feb 23 19:13:44 EST 2025
User: ssocol
Spectrometer: USB4F04538
Trigger mode: 4
Integration Time (sec): 2.600000E-3
Scans to average: 1
Electric dark correction enabled: true
Nonlinearity correction enabled: true
Boxcar width: 0
XAxis mode: Wavelengths
Number of Pixels in Spectrum: 3648
>>>>>Begin Spectral Data<<<<<
345.52	32.3159
345.736	32.3159
345.952	32.3159
346.168	-3.51226
346.384	11.23968
346.6	19.66988
346.816	7.02472
347.032	-22.47729
347.248	78.6918
347.464	-7.72688
347.68	38.63923
347.896	-35.11954
348.112	23.88513
348.328	-26.69148
348.544	-39.33343
348.76	-39.33343
348.975	2.80986
349.191	2.80986
349.407	44.96277
349.623	-28.79853
349.839	19.66988
350.055	-39.33343
350.27	47.07066
350.486	44.96277
350.702	40.74705
350.918	70.25899
351.133	74.47535
351.349	38.63923
351.565	2.80986
351.781	66.04272
351.996	11.23968
352.212	36.53143
352.428	17.5623
352.644	-18.26301
352.859	-3.51226
353.075	-5.61958
353.291	28.10047
353.506	66.04272
353.722	51.28651
353.938	15.45473
354.153	34.42366
354.369	-14.04863
354.584	32.3159
354.8	15.45473
355.016	4.91728
355.231	72.36716
355.447	32.3159
355.662	53.39447
355.878	57.61047
356.093	38.63923
356.309	36.53143
356.524	15.45473
356.74	78.6918
356.955	-18.26301
357.171	7.02472
357.386	2.80986
357.602	25.99279
357.817	19.66988
358.033	42.8549
358.248	23.88513
358.464	95.55848
358.679	2.80986
358.895	32.3159
359.11	38.63923
359.325	7.02472
359.541	49.17857
359.756	-5.61958
359.972	13.34719
360.187	95.55848
360.402	2.80986
360.618	70.25899
360.833	38.63923
361.048	-39.33343
361.264	17.5623
361.479	-39.33343
361.694	40.74705
361.909	34.42366
362.125	38.63923
362.34	19.66988
362.555	9.13219
362.77	-14.04863
362.986	32.3159
363.201	-35.11954
363.416	11.23968
363.631	44.96277
363.847	63.93463
364.062	-22.47729
364.277	19.66988
364.492	61.82655
364.707	74.47535
364.922	-66.72124
365.138	55.50246
365.353	15.45473
365.568	61.82655
365.783	11.23968
365.998	-28.79853
366.213	15.45473
366.428	-18.26301
366.643	-14.04863
366.858	-1.40491
367.073	13.34719
367.288	53.39447
367.503	15.45473
367.718	28.10047
367.933	40.74705
368.148	7.02472
368.363	-3.51226
368.578	133.51369
368.793	-30.90556
369.008	-18.26301
369.223	89.23331
369.438	7.02472
369.653	-43.54722
369.868	-43.54722
370.083	87.12496
370.298	2.80986
370.513	13.34719
370.728	38.63923
370.943	61.82655
371.157	44.96277
371.372	19.66988
371.587	7.02472
371.802	2.80986
372.017	-24.5844
372.232	74.47535
372.446	32.3159
372.661	-22.47729
372.876	-9.83416
373.091	11.23968
373.306	87.12496
373.52	-5.61958
373.735	9.13219
373.95	95.55848
374.165	-22.47729
374.379	40.74705
374.594	-5.61958
374.809	80.80005
375.023	11.23968
375.238	-22.47729
375.453	-22.47729
375.667	53.39447
375.882	25.99279
376.097	44.96277
376.311	61.82655
376.526	-20.37016
376.741	-5.61958
376.955	49.17857
377.17	-14.04863
377.384	61.82655
377.599	-35.11954
377.813	55.50246
378.028	91.34168
378.242	32.3159
378.457	36.53143
378.672	7.02472
378.886	30.20817
379.101	-28.79853
379.315	55.50246
379.53	19.66988
379.744	4.91728
379.958	28.10047
380.173	-49.86771
380.387	70.25899
380.602	11.23968
380.816	51.28651
381.031	2.80986
381.245	82.90833
381.459	44.96277
381.674	32.3159
381.888	34.42366
382.103	-45.65407
382.317	70.25899
382.531	70.25899
382.746	-26.69148
382.96	36.53143
383.174	44.96277
383.388	61.82655
383.603	13.34719
383.817	25.99279
384.031	66.04272
384.246	-56.18797
384.46	53.39447
384.674	72.36716
384.888	36.53143
385.103	23.88513
385.317	82.90833
385.531	38.63923
385.745	95.55848
385.959	44.96277
386.174	-20.37016
386.388	11.23968
386.602	108.20943
386.816	17.5623
387.03	17.5623
387.244	108.20943
387.458	40.74705
387.672	-73.04089
387.887	34.42366
388.101	-22.47729
388.315	125.07859
388.529	21.7775
388.743	70.25899
388.957	28.10047
389.171	74.47535
389.385	47.07066
389.599	38.63923
389.813	82.90833
390.027	19.66988
390.241	158.82104
390.455	40.74705
390.669	57.61047
390.883	40.74705
391.097	63.93463
391.311	7.02472
391.525	66.04272
391.738	70.25899
391.952	44.96277
392.166	-26.69148
392.38	38.63923
392.594	-11.94141
392.808	-28.79853
393.022	7.02472
393.236	28.10047
393.449	-22.47729
393.663	-1.40491
393.877	53.39447
394.091	-3.51226
394.305	11.23968
394.518	13.34719
394.732	40.74705
394.946	7.02472
395.16	32.3159
395.373	47.07066
395.587	49.17857
395.801	70.25899
396.015	-9.83416
396.228	32.3159
396.442	59.7185
396.656	36.53143
396.869	49.17857
397.083	-3.51226
397.297	76.58356
397.51	49.17857
397.724	36.53143
397.938	-39.33343
398.151	-28.79853
398.365	55.50246
398.578	19.66988
398.792	-14.04863
399.005	13.34719
399.219	28.10047
399.433	89.23331
399.646	11.23968
399.86	30.20817
400.073	87.12496
400.287	-1.40491
400.5	19.66988
400.714	59.7185
400.927	61.82655
401.141	28.10047
401.354	70.25899
401.567	19.66988
401.781	40.74705
401.994	-14.04863
402.208	32.3159
402.421	61.82655
402.635	40.74705
402.848	78.6918
403.061	68.15085
403.275	28.10047
403.488	-1.40491
403.701	7.02472
403.915	30.20817
404.128	-35.11954
404.341	9.13219
404.555	42.8549
404.768	91.34168
404.981	44.96277
405.195	34.42366
405.408	-24.5844
405.621	9.13219
405.834	95.55848
406.048	30.20817
406.261	59.7185
406.474	38.63923
406.687	28.10047
406.9	38.63923
407.114	-26.69148
407.327	21.7775
407.54	-70.93437
407.753	13.34719
407.966	34.42366
408.179	74.47535
408.392	63.93463
408.605	15.45473
408.819	59.7185
409.032	103.99236
409.245	57.61047
409.458	78.6918
409.671	17.5623
409.884	-1.40491
410.097	44.96277
410.31	82.90833
410.523	-30.90556
410.736	9.13219
410.949	47.07066
411.162	120.86117
411.375	106.10089
411.588	66.04272
411.801	66.04272
412.014	34.42366
412.227	49.17857
412.44	70.25899
412.653	61.82655
412.865	61.82655
413.078	108.20943
413.291	40.74705
413.504	-7.72688
413.717	120.86117
413.93	11.23968
414.143	53.39447
414.356	55.50246
414.568	101.88386
414.781	112.42659
414.994	21.7775
415.207	4.91728
415.42	87.12496
415.632	95.55848
415.845	72.36716
416.058	66.04272
416.271	70.25899
416.483	91.34168
416.696	13.34719
416.909	21.7775
417.121	19.66988
417.334	23.88513
417.547	146.16698
417.759	120.86117
417.972	95.55848
418.185	78.6918
418.397	49.17857
418.61	133.51369
418.823	99.77538
419.035	47.07066
419.248	95.55848
419.46	91.34168
419.673	63.93463
419.885	42.8549
420.098	38.63923
420.311	61.82655
420.523	21.7775
420.736	55.50246
420.948	95.55848
421.161	57.61047
421.373	66.04272
421.586	61.82655
421.798	44.96277
422.01	36.53143
422.223	129.2961
422.435	82.90833
422.648	-1.40491
422.86	103.99236
423.073	-16.15583
423.285	95.55848
423.497	127.18734
423.71	80.80005
423.922	99.77538
424.134	74.47535
424.347	97.66692
424.559	158.82104
424.771	108.20943
424.984	112.42659
425.196	87.12496
425.408	78.6918
425.621	146.16698
425.833	122.96987
426.045	80.80005
426.257	137.73137
426.47	139.84024
426.682	47.07066
426.894	40.74705
427.106	2.80986
427.318	74.47535
427.531	61.82655
427.743	156.71198
427.955	106.10089
428.167	146.16698
428.379	171.47585
428.591	139.84024
428.804	51.28651
429.016	175.69428
429.228	139.84024
429.44	129.2961
429.652	120.86117
429.864	129.2961
430.076	91.34168
430.288	108.20943
430.5	139.84024
430.712	70.25899
430.924	103.99236
431.136	131.40488
431.348	156.71198
431.56	91.34168
431.772	112.42659
431.984	72.36716
432.196	129.2961
432.408	152.49392
432.62	207.33515
432.832	129.2961
433.044	112.42659
433.256	91.34168
433.468	78.6918
433.679	169.36666
433.891	139.84024
434.103	222.10244
434.315	150.38492
434.527	156.71198
434.739	150.38492
434.95	154.60294
435.162	131.40488
435.374	160.93012
435.586	150.38492
435.798	188.35008
436.009	139.84024
436.221	158.82104
436.433	163.03922
436.645	87.12496
436.856	188.35008
437.068	268.52014
437.28	179.9128
437.491	260.07987
437.703	230.54133
437.915	241.09037
438.126	150.38492
438.338	238.98052
438.55	203.11611
438.761	243.20024
438.973	203.11611
439.184	222.10244
439.396	272.74039
439.608	228.43158
439.819	217.88312
440.031	205.22562
440.242	188.35008
440.454	137.73137
440.665	230.54133
440.877	232.6511
441.088	188.35008
441.3	245.31013
441.511	165.14835
441.723	171.47585
441.934	209.44471
442.146	182.02209
442.357	283.29134
442.569	283.29134
442.78	245.31013
442.991	205.22562
443.203	257.96985
443.414	251.6399
443.626	325.49973
443.837	327.61034
444.048	247.42003
444.26	338.16365
444.471	247.42003
444.682	268.52014
444.894	289.62213
445.105	260.07987
445.316	293.84276
445.528	245.31013
445.739	266.41005
445.95	308.61551
446.161	253.74986
446.373	363.49336
446.584	279.07091
446.795	312.83645
447.006	331.83161
447.217	293.84276
447.429	306.50506
447.64	298.06345
447.851	323.38914
448.062	323.38914
448.273	287.51185
448.484	329.72097
448.695	424.71685
448.907	357.1607
449.118	462.72443
449.329	283.29134
449.54	376.15915
449.751	312.83645
449.962	450.05468
450.173	340.27436
450.384	437.38548
450.595	450.05468
450.806	367.71522
451.017	378.27017
451.228	466.9478
451.439	428.93966
451.65	422.60547
451.861	496.5131
452.072	441.60848
452.283	420.4941
452.494	479.61829
452.705	435.274
452.915	502.8489
453.126	500.73695
453.337	542.97862
453.548	466.9478
453.759	475.39473
453.97	578.88839
454.181	576.77594
454.391	504.96086
454.602	635.92933
454.813	559.87685
455.024	576.77594
455.235	610.57666
455.445	504.96086
455.656	602.12617
455.867	568.32629
456.078	545.09085
456.288	593.67589
456.499	623.25277
456.71	644.38061
456.921	616.91466
457.131	796.53458
457.342	695.0923
457.553	587.33831
457.763	661.28376
457.974	807.10282
458.184	758.49094
458.395	798.64821
458.606	762.71785
458.816	830.35376
459.027	921.25385
459.237	950.85238
459.448	851.49193
459.659	933.93875
459.869	1071.37415
460.08	864.17524
460.29	1010.05353
460.501	1075.60333
460.711	1045.99952
460.922	933.93875
461.132	1086.17637
461.343	988.90967
461.553	1071.37415
461.764	1130.5845
461.974	1005.82471
462.184	881.08681
462.395	1234.21057
462.605	1160.19102
462.816	978.33798
463.026	1253.2448
463.236	1107.32284
463.447	1234.21057
463.657	1168.65017
463.867	1477.43645
464.078	1439.36552
464.288	1365.339
464.498	1447.82572
464.709	1532.42757
464.919	1490.12675
465.129	1466.86119
465.339	1559.9229
465.55	1378.0292
465.76	1485.89665
465.97	1595.87798
466.18	1659.32674
466.391	1733.3473
466.601	1678.36095
466.811	1801.01954
467.021	1811.59295
467.231	1980.7506
467.441	1936.35012
467.651	2202.70749
467.862	1932.12136
468.072	2217.50153
468.282	2141.41348
468.492	2039.94691
468.702	2149.86823
468.912	2441.46969
469.122	2244.97506
469.332	2422.45791
469.542	2350.62798
469.752	2599.86599
469.962	2656.87234
470.172	2734.97716
470.382	2496.38767
470.592	2745.53049
470.802	2661.09467
471.012	2758.19406
471.222	3017.68586
471.432	3026.12088
471.642	2975.50709
471.852	3215.84227
472.062	2973.39799
472.272	3053.533
472.482	3205.30563
472.691	3298.01374
472.901	3260.09163
473.111	3426.48601
473.321	3491.74996
473.531	3575.93569
473.741	3466.48855
473.95	3937.58722
474.16	3599.08158
474.37	4063.60627
474.58	3822.00574
474.79	4105.59614
474.999	4004.80656
475.209	4065.70596
475.419	4101.39753
475.628	4428.63432
475.838	4309.12752
476.048	4342.6804
476.258	4533.40635
476.467	4694.64674
476.677	4569.01626
476.886	4995.82742
477.096	4920.57669
477.306	4880.84902
477.515	4841.1131
477.725	5177.55973
477.935	4901.75935
478.144	5016.72511
478.354	4956.11547
478.563	5621.74414
478.773	5444.61521
478.982	5648.81943
479.192	5548.82931
479.401	5675.89074
479.611	5527.99119
479.82	5684.21957
480.03	6012.90638
480.239	6135.49297
480.449	5821.59076
480.658	5990.04219
480.868	6226.86022
481.077	6270.45131
481.287	6401.16271
481.496	6504.8361
481.705	6465.44705
481.915	6637.45347
482.124	6683.01887
482.333	6720.29138
482.543	6732.7139
482.752	6960.31455
482.961	7045.07743
483.171	7286.75531
483.38	7065.74557
483.589	7057.47858
483.799	7371.37432
484.008	7606.46467
484.217	7418.82745
484.426	7738.32341
484.636	7517.82313
484.845	7830.98499
485.054	7484.8301
485.263	7682.70607
485.472	7709.48671
485.682	7915.37334
485.891	8139.55555
486.1	8012.06865
486.309	8209.43498
486.518	8217.65458
486.727	8273.12861
486.936	8355.28606
487.146	8443.57066
487.355	8425.09543
487.564	8431.25401
487.773	8751.26556
487.982	8581.05987
488.191	9031.93344
488.4	8835.29635
488.609	8986.88517
488.818	8943.87662
489.027	9164.98148
489.236	9349.08335
489.445	9398.15446
489.654	9242.72995
489.863	9553.48475
490.072	9357.26252
490.281	9718.93362
490.49	9535.0952
490.698	9702.59752
490.907	9929.17483
491.116	10031.17735
491.325	9798.55821
491.534	10104.59701
491.743	10002.62027
491.952	10283.99137
492.16	10084.2045
492.369	10218.76935
492.578	10296.21896
492.787	10628.22196
492.996	10518.27091
493.204	10662.8287
493.413	10789.01184
493.622	10850.05183
493.831	10638.40078
494.039	10939.55831
494.248	10900.9105
494.457	11088.00972
494.665	10959.89763
494.874	11083.94333
495.083	11203.8836
495.291	11459.90713
495.5	11073.77719
495.709	11342.0748
495.917	11197.78583
496.126	11439.59356
496.335	11630.50375
496.543	11608.16745
496.752	11687.35485
496.96	11878.16183
497.169	11581.76857
497.377	11701.56653
497.586	11965.42105
497.794	11955.2754
498.003	11805.09578
498.211	12456.24437
498.42	11965.42105
498.628	12190.60401
498.837	12227.1114
499.045	12446.10758
499.254	12277.81221
499.462	12547.46816
499.671	12450.16232
499.879	12437.99803
500.087	12399.47622
500.296	12663.00001
500.504	12460.29904
500.713	12778.51244
500.921	12859.56278
501.129	12551.52225
501.338	12452.18967
501.546	13023.66354
501.754	12869.69346
501.962	13047.97192
502.171	13029.7407
502.379	13207.98494
502.587	12918.31884
502.795	13309.24443
503.004	12912.24083
503.212	13507.68322
503.42	13240.38916
503.628	13503.63382
503.837	13153.30022
504.045	13363.92015
504.253	13450.99025
504.461	13592.71731
504.669	13811.34926
504.877	13813.37346
505.085	13896.36325
505.294	13918.62802
505.502	13831.59114
505.71	13983.39643
505.918	14007.68392
506.126	14143.2828
506.334	13706.08667
506.542	14086.61585
506.75	13610.9381
506.958	14193.87687
507.166	14175.66315
507.374	14313.27402
507.582	14155.4255
507.79	14422.54741
507.998	14369.93489
508.206	14687.61971
508.414	14256.61178
508.622	14719.99366
508.83	14378.02919
509.037	14851.5107
509.245	14671.43265
509.453	14865.67391
509.661	14724.04039
509.869	14851.5107
510.077	14987.07176
510.285	14930.41963
510.492	14981.00191
510.7	15302.70259
510.908	14962.79232
511.116	15057.88656
511.324	14809.02092
511.531	15021.46757
511.739	15155.00364
511.947	15134.77093
512.155	15264.26032
512.362	15239.98103
512.57	15231.88794
512.778	15092.28223
512.985	15280.44653
513.193	15262.23705
513.401	15389.70388
513.608	15490.86914
513.816	15436.23974
514.024	15434.21644
514.231	15393.75047
514.439	15707.36827
514.646	15598.10593
514.854	15836.86801
515.061	15484.79919
515.269	15654.76016
515.477	15859.12622
515.684	15974.46667
515.892	15822.70376
516.099	16174.80569
516.307	16318.49302
516.514	16456.11783
516.722	16012.91445
516.929	16288.1358
517.136	16188.97166
517.344	16221.35133
517.551	16160.6398
517.759	16450.04595
517.966	16452.06991
518.173	16371.11321
518.381	16275.99302
518.588	16322.54068
518.796	16567.43888
519.003	16759.7365
519.21	16549.22227
519.418	16879.17429
519.625	16761.7608
519.832	16836.66154
520.039	16858.92998
520.247	17148.44871
520.454	17028.99024
520.661	17397.52151
520.868	16786.05256
521.076	17361.069
521.283	17365.11923
521.49	17197.04479
521.697	17186.92047
521.904	17454.22739
522.112	17057.33545
522.319	17508.91038
522.526	17280.06696
522.733	17646.64084
522.94	17269.94204
523.147	17539.29082
523.354	17701.33213
523.561	17602.07935
523.768	17622.33438
523.975	18165.29601
524.183	17853.26523
524.39	17976.85177
524.597	17869.47257
524.804	17867.44664
525.011	17792.4897
525.218	17885.68012
525.425	17895.80995
525.632	18068.03058
525.838	18173.40184
526.045	18250.41017
526.252	18357.82549
526.459	18232.17088
526.666	18280.80967
526.873	18361.8791
527.08	18254.46339
527.287	18513.9006
527.494	18315.26344
527.701	18597.01481
527.907	18412.55055
528.114	18901.14732
528.321	18809.89821
528.528	19065.41621
528.735	18923.45389
528.941	18710.54722
529.148	18749.06995
529.355	19223.62626
529.562	18822.06429
529.768	19156.68821
529.975	18607.15113
530.182	19166.83005
530.388	18978.20844
530.595	19477.22017
530.802	19093.81106
531.008	19651.73046
531.215	19578.67589
531.422	19562.44227
531.628	19724.79045
531.835	19519.8303
532.042	19686.23033
532.248	19690.28922
532.455	19584.76356
532.661	19870.92674
532.868	19586.79279
533.074	19663.90675
533.281	19925.73345
533.487	20025.20533
533.694	19901.37453
533.9	20356.17423
534.107	19966.333
534.313	20382.57533
534.52	20262.76065
534.726	20356.17423
534.933	19946.03302
535.139	20258.69939
535.345	20614.12299
535.552	20528.80963
535.758	20841.66117
535.965	20754.2966
536.171	20433.34867
536.377	20961.54591
536.584	20918.87343
536.79	20829.4703
536.996	21032.67075
537.203	20721.79081
537.409	20610.06028
537.615	20786.80345
537.821	21057.05757
538.028	21085.50959
538.234	20981.86678
538.44	21028.60634
538.646	20545.05923
538.853	21089.57423
539.059	20967.64213
539.265	21335.51522
539.471	21109.89768
539.677	21118.02717
539.883	20924.96939
540.09	21042.83185
540.296	21579.48173
540.502	21650.64937
540.708	21565.24878
540.914	21764.52758
541.12	21563.21551
541.326	21845.87662
541.532	21518.48473
541.738	21935.36767
541.944	21866.21484
542.15	22177.43714
542.356	22087.92625
542.562	22155.05874
542.768	21648.61594
542.974	22028.93441
543.18	21927.23182
543.386	22712.61585
543.592	22517.23662
543.798	22505.02651
544.004	22411.41991
544.21	22570.14861
544.415	22464.32705
544.621	22985.38619
544.827	22500.9565
545.033	23015.92398
545.239	22592.53518
545.445	23042.39066
545.651	22895.81306
545.856	22940.59881
546.062	22879.52774
546.268	22804.21097
546.474	22635.27435
546.679	22039.10519
546.885	22568.11349
547.091	22633.23912
547.297	22594.57034
547.502	22859.17139
547.708	22505.02651
547.914	22893.77738
548.119	22975.2071
548.325	23064.78599
548.531	22875.45644
548.736	23231.74552
548.942	22875.45644
549.147	22785.89139
549.353	22879.52774
549.559	23335.59719
549.764	23036.28292
549.97	23307.08806
550.175	23412.98224
550.381	23846.82795
550.586	23374.28915
550.792	23543.32517
550.997	23708.3084
551.203	23712.38231
551.408	24022.03364
551.614	24121.86948
551.819	23987.39829
552.025	24454.02336
552.23	23891.646
552.435	23975.17424
552.641	24517.20163
552.846	24250.23956
553.052	24036.2955
553.257	24492.74523
553.462	24484.59318
553.668	24413.2645
553.873	24158.54554
554.078	24494.78325
554.283	24341.93901
554.489	24580.38234
554.694	24333.78773
554.899	24435.68175
555.105	24517.20163
555.31	25251.05529
555.515	24653.75651
555.72	24751.5937
555.925	24688.40654
556.131	25126.68684
556.336	24898.3599
556.541	25463.11168
556.746	25022.713
556.951	24690.44479
557.156	24900.39841
557.361	25024.75164
557.567	25153.19091
557.772	25283.67786
557.977	24875.93649
558.182	24855.55182
558.387	25232.70534
558.592	25185.81181
558.797	25039.02223
559.002	25098.14442
559.207	25149.11334
559.412	24926.8992
559.617	25236.78309
559.822	25310.1841
560.027	25611.97226
560.232	25595.65825
560.437	25658.87574
560.642	25830.18409
560.847	25881.17129
561.051	25846.49987
561.256	25432.52523
561.461	25536.52103
561.666	25740.44946
561.871	25611.97226
562.076	25573.22669
562.281	25773.07981
562.485	25271.44433
562.69	25571.18747
562.895	25493.69859
563.1	25255.13308
563.305	25685.38686
563.509	25528.36431
563.714	25713.93766
563.919	26140.20383
564.123	25983.14915
564.328	26270.7506
564.533	25832.22355
564.737	25948.47617
564.942	26144.28331
565.147	26319.70742
565.351	26301.3485
565.556	26056.57601
565.761	26201.39676
565.965	26709.35513
566.17	26484.94366
566.374	26111.64765
566.579	26376.82492
566.784	26199.35697
566.988	26427.82376
567.193	26586.94656
567.397	26397.22433
567.602	26631.82906
567.806	26219.75494
568.011	26591.02675
568.215	26980.71312
568.42	26507.38396
568.624	26407.4241
568.828	26401.30424
569.033	26252.39204
569.237	26878.69584
569.442	26656.31074
569.646	26601.22727
569.85	27056.20816
570.055	27037.84433
570.259	26882.77646
570.463	26786.88335
570.668	26784.84311
570.872	26595.10696
571.076	26809.32613
571.281	26980.71312
571.485	27258.21759
571.689	27696.96849
571.893	27405.14166
572.098	27254.13647
572.302	27092.93617
572.506	27243.93367
572.71	27243.93367
572.914	27831.66613
573.119	27217.40655
573.323	27009.27859
573.527	26992.95543
573.731	27713.2952
573.935	27590.84674
574.139	27329.63818
574.343	26972.5516
574.547	27582.68366
574.751	27494.93184
574.955	27541.86858
575.159	27319.43514
575.364	27411.26364
575.568	27725.54029
575.772	28658.32703
575.976	27894.93496
576.18	27470.44337
576.383	27750.03058
576.587	28027.59899
576.791	27666.35611
576.995	28239.8713
577.199	27545.95006
577.403	27696.96849
577.607	27817.37977
577.811	27931.67221
578.015	28041.88617
578.219	27986.77877
578.422	28082.70699
578.626	28133.73364
578.83	28137.81581
579.034	28217.41885
579.238	28329.68239
579.442	28703.23711
579.645	28096.99438
579.849	28478.69176
580.053	28754.27192
580.257	28313.35294
580.46	28501.14572
580.664	28537.88884
580.868	28190.88432
581.071	29035.99576
581.275	29119.70012
581.479	29221.78099
581.682	28703.23711
581.886	28513.39339
582.09	28719.56818
582.293	28962.50068
582.497	28688.94749
582.7	29107.4506
582.904	29327.94784
583.107	29419.8253
583.311	29082.95165
583.515	28978.8328
583.718	29133.99129
583.922	29162.57377
584.125	29146.2409
584.329	29158.49055
584.532	29105.40901
584.735	29160.53216
584.939	28878.79958
585.142	29287.1141
585.346	29289.15578
585.549	29136.03289
585.753	29403.49137
585.956	29303.44755
586.159	28999.24805
586.363	29454.53511
586.566	29448.40983
586.769	29283.03075
586.973	29201.36461
587.176	29905.79089
587.379	29317.73937
587.582	29133.99129
587.786	29434.11753
587.989	29995.64008
588.192	29491.28701
588.395	30060.98632
588.599	30048.73381
588.802	30154.9236
589.005	30091.61777
589.208	30512.31672
589.411	30016.06065
589.615	29740.39235
589.818	30069.15468
590.021	30495.97793
590.224	30491.89324
590.427	30455.1313
590.63	30759.45101
590.833	30175.34507
591.036	30277.45421
591.239	30414.28517
591.442	30361.18594
591.645	30871.79122
591.848	30167.17647
592.051	30763.53604
592.254	30201.89317
592.457	30467.38524
592.66	30308.08754
592.863	30906.5154
593.066	30871.79122
593.269	30726.77099
593.472	30814.59932
593.675	31458.07417
593.878	31229.26594
594.081	31453.98814
594.284	31059.71521
594.486	30767.62107
594.689	30945.32526
594.892	30771.70611
595.095	31090.35615
595.298	30571.54552
595.5	30783.96125
595.703	31609.26229
595.906	31098.52712
596.109	31366.13989
596.311	31300.76638
596.514	31584.74467
596.717	31321.19543
596.92	31872.84281
597.122	31643.99602
597.325	31259.90875
597.528	31603.13286
597.73	31952.53597
597.933	31456.03115
598.136	31652.16873
598.338	31725.72442
598.541	31780.89271
598.743	31693.03272
598.946	31539.79633
599.148	31257.86588
599.351	31688.94629
599.554	32122.14916
599.756	32326.521
599.959	32273.3823
600.161	31983.18795
600.363	31979.101
600.566	31748.20023
600.768	31597.00345
600.971	31915.75415
601.173	31997.49236
601.376	31883.05972
601.578	31666.47105
601.78	32259.07597
601.983	31960.70979
602.185	32064.92873
602.388	31866.71269
602.59	31846.27907
602.792	32099.66952
602.995	32218.20132
603.197	32154.84726
603.399	32195.72062
603.601	31803.36906
603.804	31658.29828
604.006	31821.75896
604.208	31693.03272
604.41	31938.23186
604.613	31887.1465
604.815	32150.75997
605.017	32400.10008
605.219	31578.6153
605.421	31556.14109
605.623	32066.97229
605.826	32377.61728
606.028	31915.75415
606.23	32465.5061
606.432	32475.726
606.634	32659.69403
606.836	32369.44179
607.038	32647.4289
607.24	32678.09188
607.442	32436.89069
607.644	32447.11043
607.846	32494.12196
608.048	32510.47408
608.25	32772.12842
608.452	32549.31096
608.654	32815.05987
608.856	32165.06552
609.058	32430.75887
609.26	32463.46213
609.462	32438.93463
609.664	32481.85797
609.866	32706.71115
610.067	32620.85476
610.269	32195.72062
610.471	31997.49236
610.673	32279.51362
610.875	32622.89891
611.077	32475.726
611.278	32146.67269
611.48	32463.46213
611.682	32647.4289
611.884	32716.93243
612.085	32721.02096
612.287	33215.80889
612.489	32876.39245
612.69	32694.44569
612.892	33050.18075
613.094	32974.52939
613.295	32297.90768
613.497	32659.69403
613.699	32604.50163
613.9	32843.68146
614.102	32633.1197
614.304	32400.10008
614.505	32508.43006
614.707	32778.26141
614.908	32314.2581
615.11	32547.26689
615.311	32371.48566
615.513	32259.07597
615.714	33091.0749
615.916	32735.33089
616.117	32490.03396
616.319	32763.95112
616.52	32997.01995
616.722	33322.14782
616.923	32841.63704
617.124	33097.20912
617.326	32457.33023
617.527	32882.52584
617.729	32731.24233
617.93	33037.91271
618.131	32696.48993
618.333	32404.18789
618.534	32888.65924
618.735	32753.72956
618.937	32590.19278
619.138	33275.11234
619.339	32671.95924
619.54	32622.89891
619.742	32559.53132
619.943	32702.62265
620.144	32334.69632
620.345	33129.92537
620.546	32500.25399
620.748	32582.01634
620.949	32868.21464
621.15	32956.12825
621.351	33025.64477
621.552	32823.23742
621.753	32927.50469
621.954	33056.3148
622.155	32418.49529
622.356	32997.01995
622.558	32939.77187
622.759	33463.26365
622.96	32130.32364
623.161	32655.60564
623.362	32952.03914
623.563	32966.35108
623.764	32592.23689
623.965	32676.04767
624.166	33037.91271
624.366	32841.63704
624.567	32821.19303
624.768	33060.40418
624.969	32445.06648
625.17	32383.74893
625.371	32829.3706
625.572	32671.95924
625.773	32712.84391
625.973	33103.34336
626.174	33048.13607
626.375	33405.99754
626.576	33199.44975
626.777	33569.62138
626.977	33252.61764
627.178	33571.6668
627.379	32759.86249
627.58	32637.20803
627.78	32765.99544
627.981	33050.18075
628.182	32782.35009
628.382	32997.01995
628.583	33467.35418
628.784	33379.41051
628.984	32763.95112
629.185	33661.66856
629.386	32872.30354
629.586	33176.95621
629.787	33119.70147
629.987	32768.03976
630.188	33240.34796
630.388	33213.76399
630.589	32815.05987
630.79	33129.92537
630.99	33379.41051
631.191	33610.53044
631.391	33520.53216
631.591	33046.09139
631.792	33086.98544
631.992	33508.26013
632.193	33117.65669
632.393	33144.23895
632.594	33123.79102
632.794	33301.69742
632.994	33682.12438
633.195	33561.43971
633.395	33342.59852
633.595	33005.19842
633.796	33129.92537
633.996	33495.98822
634.196	33604.394
634.397	33853.9662
634.597	33522.5775
634.797	33939.89605
634.997	33379.41051
635.198	33060.40418
635.398	33457.12789
635.598	34091.31133
635.798	33943.9881
635.998	33577.80309
636.199	33718.94566
636.399	34160.88714
636.599	34007.41667
636.799	33659.623
636.999	32992.93073
637.199	33714.85435
637.399	33551.21271
637.599	33336.46328
637.799	33358.95928
637.999	34441.28095
638.199	33991.04768
638.399	33989.00158
638.599	33776.22532
638.799	34521.11454
638.999	34183.39787
639.199	33561.43971
639.399	33798.72876
639.599	33851.92032
639.799	33952.17224
639.999	33948.08016
640.199	34015.60125
640.399	34189.53724
640.599	33183.09078
640.799	34379.87463
640.998	33688.26118
641.198	34154.74793
641.398	33815.09515
641.598	34083.12622
641.798	33788.49987
641.997	33874.42514
642.197	33970.58677
642.397	34285.72512
642.597	34095.40391
642.796	34437.18708
642.996	33504.16948
643.196	33984.90937
643.395	33438.72074
643.595	33761.90516
643.795	33884.65473
643.994	33788.49987
644.194	33763.95089
644.394	34152.70153
644.593	34158.84073
644.793	34592.76534
644.992	33972.63284
645.192	33941.94207
645.392	34085.17249
645.591	34011.50896
645.791	34422.85868
645.99	33845.78272
646.19	33829.41592
646.389	33911.25209
646.589	33737.3567
646.788	34291.86505
646.987	34068.80241
647.187	34386.0151
647.386	33841.691
647.586	34828.22567
647.785	34594.81258
647.984	34557.96289
648.184	33882.60881
648.383	34347.12604
648.582	34111.77436
648.782	34533.39718
648.981	34122.00602
649.18	34435.14016
649.38	34803.65324
649.579	34691.03758
649.778	34916.28213
649.977	35504.22946
650.177	35002.29878
650.376	34865.08551
650.575	34343.03254
650.774	34957.24144
650.973	34856.89431
651.173	34433.09323
651.372	34666.46861
651.571	34349.1728
651.77	34590.7181
651.969	34758.60541
652.168	34336.89231
652.367	34955.19343
652.566	34897.85103
652.765	34650.08963
652.964	34627.56898
653.163	34369.64059
653.362	34973.62567
653.561	34813.89168
653.76	35180.50209
653.959	34603.00158
654.158	35139.53266
654.357	34183.39787
654.556	34087.21877
654.755	34531.35006
654.954	33993.0938
655.153	34238.65341
655.352	34367.59379
655.551	34750.41512
655.749	34977.72178
655.948	34615.28521
656.147	34418.76488
656.346	34934.7136
656.545	34381.92145
656.743	34717.65465
656.942	34465.84448
657.141	34830.2734
657.34	35112.90355
657.538	34975.67372
657.737	34836.41662
657.936	34963.38549
658.135	34557.96289
658.333	34439.23401
658.532	34844.60765
658.731	34889.65954
658.929	34465.84448
659.128	34400.34301
659.326	34801.60556
659.525	34580.48199
659.724	34658.27909
659.922	34977.72178
660.121	34443.32789
660.319	34791.36726
660.518	34731.98722
660.716	34688.99014
660.915	34625.52168
661.113	34553.86857
661.312	34388.06193
661.51	34603.00158
661.709	34555.91573
661.907	34617.33249
662.105	34768.84336
662.304	34838.46437
662.502	35063.7442
662.701	34873.27679
662.899	35000.25067
663.097	35014.58753
663.296	34684.89528
663.494	34754.51025
663.692	34670.56339
663.891	34957.24144
664.089	34926.52179
664.287	34633.71093
664.485	34656.23172
664.684	34887.61168
664.882	34576.38757
665.08	34021.73972
665.278	33937.85003
665.476	33894.88442
665.675	33813.04934
665.873	34402.38987
666.071	34541.58568
666.269	34433.09323
666.467	34326.65868
666.665	35147.72639
666.863	34197.72312
667.061	34828.22567
667.259	35119.04866
667.457	35483.73667
667.655	34502.69086
667.853	34195.67665
668.051	34185.44433
668.249	34343.03254
668.447	34719.70215
668.645	34471.98545
668.843	34541.58568
669.041	34619.37978
669.239	34048.34014
669.437	34281.63184
669.635	34383.96827
669.833	34754.51025
670.031	34723.79715
670.229	34330.75212
670.426	34109.72804
670.624	34826.17795
670.822	34074.94117
671.02	34883.51597
671.218	34210.00205
671.415	34087.21877
671.613	33739.40238
671.811	33633.03097
672.009	33514.39613
672.206	33790.54564
672.404	33592.12121
672.602	33835.55344
672.799	34277.53859
672.997	34287.77176
673.195	33892.83847
673.392	34410.57734
673.59	34140.42323
673.788	34060.61746
673.985	33905.11419
674.183	33884.65473
674.38	34148.60875
674.578	34734.03474
674.775	34130.19141
674.973	34367.59379
675.17	34242.74652
675.368	34070.84866
675.565	34426.95249
675.763	34005.37054
675.96	34214.09506
676.158	33800.77455
676.355	33338.50835
676.553	33768.04235
676.75	32978.61856
676.947	33416.22346
677.145	33446.90167
677.342	33663.71413
677.539	33770.08809
677.737	34316.42514
677.934	34189.53724
678.131	34265.25891
678.329	33761.90516
678.526	33467.35418
678.723	33575.75766
678.92	33555.3035
679.118	33299.6524
679.315	33385.54593
679.512	33442.8112
679.709	33745.53947
679.906	33365.09462
680.104	33514.39613
680.301	33516.44147
680.498	33185.13564
680.695	33273.06735
680.892	33260.79749
681.089	32982.70774
681.286	33450.99214
681.483	32716.93243
681.68	33205.5844
681.877	33528.71357
682.075	33050.18075
682.272	32919.32662
682.469	33706.67178
682.665	33575.75766
682.862	33297.60738
683.059	33481.67112
683.256	33690.30679
683.453	33185.13564
683.65	32798.7049
683.847	33033.82339
684.044	32655.60564
684.241	32798.7049
684.438	33266.93241
684.635	33042.00204
684.831	33804.86613
685.028	33383.50079
685.225	33158.55266
685.422	33234.21315
685.619	33174.91136
685.815	32790.52748
686.012	33062.44888
686.209	32490.03396
686.405	32739.41947
686.602	32876.39245
686.799	32338.78398
686.996	32610.63404
687.192	32958.17281
687.389	32782.35009
687.586	32751.68525
687.782	32997.01995
687.979	32913.1931
688.175	32426.671
688.372	32806.88237
688.568	33236.25809
688.765	32884.5703
688.962	33183.09078
689.158	33129.92537
689.355	32745.55235
689.551	32694.44569
689.748	31936.18842
689.944	32032.23204
690.14	32238.63854
690.337	31815.62898
690.533	32175.28384
690.73	32142.58541
690.926	32549.31096
691.123	32216.15761
691.319	32199.808
691.515	32138.49814
691.712	31623.56435
691.908	32054.71096
692.104	31823.80229
692.301	32034.27557
692.497	31727.76767
692.693	31780.89271
692.889	32169.15284
693.086	32064.92873
693.282	32158.93456
693.478	32167.10918
693.674	32150.75997
693.87	32244.76975
694.067	31746.15697
694.263	31511.19327
694.459	31270.1231
694.655	31799.28243
694.851	31552.05489
695.047	31690.9895
695.243	31776.80612
695.439	31208.83759
695.635	31625.60751
695.831	31478.50446
696.027	32081.27726
696.224	31674.64384
696.42	31654.21191
696.615	31656.2551
696.811	31231.30878
697.007	31061.75793
697.203	31096.48437
697.399	31137.33956
697.595	30994.34897
697.791	30888.13196
697.987	30712.47359
698.183	31378.3976
698.379	31114.86913
698.575	31345.71049
698.77	31233.35163
698.966	31447.85909
699.162	31492.80577
699.358	31071.97154
699.554	30788.04631
699.749	30988.22096
699.945	30743.11096
700.141	31100.56986
700.337	31002.51967
700.532	30990.26363
700.728	31500.97798
700.924	31221.09458
701.119	30657.32708
701.315	30340.76338
701.511	30583.79989
701.706	31020.90383
701.902	31147.55345
702.097	31002.51967
702.293	30757.4085
702.489	30248.86336
702.684	30132.46011
702.88	30328.5099
703.075	30416.32747
703.271	30871.79122
703.466	30734.94096
703.662	30928.98421
703.857	30845.23771
704.053	30661.41198
704.248	30346.89014
704.443	30277.45421
704.639	30271.32758
704.834	30841.15257
705.03	30659.36953
705.225	30404.07372
705.42	30118.16524
705.616	30044.64965
705.811	29817.98583
706.006	29822.06974
706.202	29938.46307
706.397	30056.90214
706.592	30060.98632
706.787	30751.28097
706.983	30103.87043
707.178	30679.79406
707.373	30199.851
707.568	30404.07372
707.763	30587.88469
707.959	30980.0503
708.154	30730.85598
708.349	30030.35512
708.544	30285.62307
708.739	29866.99305
708.934	29973.17758
709.129	30083.44936
709.324	30011.97653
709.519	30140.62864
709.714	29254.44741
709.909	29662.80044
710.104	29358.57342
710.299	29642.38178
710.494	29481.07811
710.689	30114.081
710.884	29793.48245
711.079	30295.83418
711.274	30083.44936
711.469	30154.9236
711.664	29932.33702
711.859	30330.55215
712.054	30346.89014
712.249	30308.08754
712.443	29730.1828
712.638	29813.90192
712.833	29530.08106
713.028	29617.87953
713.223	29397.36617
713.417	29599.50294
713.612	29393.2827
713.807	29168.69861
714.002	29491.28701
714.196	29862.90909
714.391	29691.38675
714.586	30099.7862
714.78	30046.69173
714.975	30181.47154
715.17	29583.16827
715.364	29609.71214
715.559	29681.17733
715.754	29260.57239
715.948	29033.95421
716.143	28809.39024
716.337	28656.28567
716.532	29150.32411
716.726	29215.65606
716.921	29358.57342
717.115	29246.28078
717.31	29256.48907
717.504	29342.23975
717.699	29436.15929
717.893	28923.71215
718.088	29272.82239
718.282	28935.96112
718.476	28546.05403
718.671	28152.10341
718.865	28739.98211
719.059	28403.16575
719.254	28429.70175
719.448	28211.29548
719.642	28509.31083
719.837	27715.33605
720.031	28617.50011
720.225	27903.09876
720.419	28413.37188
720.614	28127.61041
720.808	28497.06317
721.002	28627.7068
721.196	28893.08989
721.39	28660.36838
721.585	28262.32387
721.779	28113.3229
721.973	28301.10591
722.167	28411.33065
722.361	28768.56178
722.555	28856.34349
722.749	28666.49246
722.943	28472.56798
723.137	28178.63767
723.331	28166.39107
723.525	28033.72206
723.719	27917.38545
723.913	27827.58431
724.107	27599.00983
724.301	27760.23492
724.495	27433.71099
724.689	27766.35754
724.883	27435.75167
725.077	27558.19455
725.271	27248.01478
725.465	27425.5483
725.659	27539.82783
725.853	27890.85306
726.046	27866.3618
726.24	27790.84812
726.434	27745.94885
726.628	27650.02962
726.822	27233.7309
727.015	27462.28058
727.209	27276.58273
727.403	27243.93367
727.596	27115.38127
727.79	27772.48017
727.984	27486.76899
728.177	27941.87706
728.371	27411.26364
728.565	27360.24748
728.758	27505.13542
728.952	27466.36197
729.146	27660.23367
729.339	27062.32947
729.533	27068.45078
729.726	27401.06034
729.92	27427.58897
730.113	27586.7652
730.307	27819.42068
730.5	27821.46158
730.694	28199.04877
730.887	27394.93838
731.081	27654.11124
731.274	27639.8256
731.468	27250.05534
731.661	27660.23367
731.854	27364.32875
732.048	27866.3618
732.241	27107.2194
732.435	27627.58082
732.628	27654.11124
732.821	27543.90932
733.014	27601.05061
733.208	27496.97255
733.401	27378.61321
733.594	27154.15048
733.788	27654.11124
733.981	27664.3153
734.174	27572.47984
734.367	27584.72443
734.56	27584.72443
734.754	27364.32875
734.947	26895.01836
735.14	26737.91791
735.333	27192.92018
735.526	27060.28903
735.719	26976.63236
735.912	27027.64225
736.105	27213.32548
736.298	27060.28903
736.491	27329.63818
736.684	27090.89571
736.877	27135.78606
737.07	26958.26901
737.263	26858.29281
737.456	27041.92517
737.649	26994.99582
737.842	27703.091
738.035	27482.68758
738.228	27317.39454
738.421	27262.29873
738.614	27492.89112
738.807	27566.35757
739	27097.01708
739.192	26513.50408
739.385	26968.47086
739.578	26905.21999
739.771	26625.70868
739.964	26572.66592
740.156	26754.23963
740.349	26219.75494
740.542	26470.66357
740.735	26768.52121
740.927	26725.67668
741.12	26841.97049
741.313	26309.50801
741.505	26495.14377
741.698	26299.30863
741.891	25854.6578
742.083	25930.1201
742.276	25736.3707
742.468	25834.26302
742.661	25997.42642
742.854	25709.85895
743.046	25987.22836
743.239	26160.6013
743.431	26582.86637
743.624	25830.18409
743.816	25724.13447
744.009	25783.27689
744.201	26083.09183
744.393	25736.3707
744.586	25601.77599
744.778	25713.93766
744.971	25860.77627
745.163	25636.44351
745.355	26285.02958
745.548	26168.76033
745.74	26054.53634
745.932	25828.14462
746.125	25864.85526
746.317	25371.35372
746.509	25446.79885
746.702	26407.4241
746.894	25259.21088
747.086	25558.95219
747.278	25473.30726
747.471	25469.22902
747.663	25552.83458
747.855	25489.62031
748.047	25297.95041
748.239	25622.16858
748.431	26052.49668
748.623	25799.59233
748.815	25520.20762
749.008	25881.17129
749.2	25870.97376
749.392	25475.34639
749.584	25281.63894
749.776	26113.68737
749.968	25652.75783
750.16	25771.0404
750.352	24930.97628
750.544	25041.0609
750.736	25546.71699
750.928	25475.34639
751.12	25265.3276
751.311	25406.01734
751.503	25369.3147
751.695	25202.12247
751.887	25167.46248
752.079	25350.96364
752.271	25267.36651
752.463	25022.713
752.654	25279.60001
752.846	25434.56431
753.038	25228.62759
753.23	25481.46377
753.421	24853.51337
753.613	24845.35958
753.805	25528.36431
753.997	25406.01734
754.188	25246.97751
754.38	25742.48884
754.572	25477.38551
754.763	25569.14825
754.955	24800.5144
755.146	25267.36651
755.338	24786.24572
755.53	24780.13061
755.721	25206.20016
755.913	24769.9388
756.104	24592.61114
756.296	24759.74706
756.487	24692.48306
756.679	24706.75096
756.87	24311.37193
757.062	24403.07495
757.253	24454.02336
757.445	24437.7197
757.636	24480.51717
757.827	24419.37827
758.019	24608.91635
758.21	24293.03196
758.401	24077.0444
758.593	24205.41069
758.784	24091.30678
758.975	23854.97659
759.167	24077.0444
759.358	23948.68916
759.549	23840.71651
759.74	24009.80931
759.932	23814.2339
760.123	23632.94323
760.314	23575.91287
760.505	23590.17024
760.696	23148.26301
760.888	23174.73248
761.079	23533.14167
761.27	23997.58508
761.461	23893.68321
761.652	23614.61178
761.843	23504.62829
762.034	23624.79589
762.225	23319.30618
762.416	23386.5079
762.607	23303.01538
762.798	23449.63991
762.989	23272.47067
763.18	23726.64108
763.371	23779.60353
763.562	23370.21626
763.753	23437.42057
763.944	23193.05782
764.135	22867.31389
764.326	23419.09178
764.517	23024.06751
764.708	23066.82195
764.899	22918.20573
765.089	22895.81306
765.28	22816.42418
765.471	22425.6639
765.662	22330.0291
765.853	22647.48583
766.043	22678.01508
766.234	22600.67585
766.425	22407.35023
766.615	22350.37625
766.806	22661.73272
766.997	22999.63706
767.187	22472.46683
767.378	22568.11349
767.569	22358.51522
767.759	22533.51698
767.95	22912.09859
768.141	22702.43905
768.331	22297.47441
768.522	22484.6766
768.712	22106.23471
768.903	22439.90807
769.093	22018.76372
769.284	21851.97804
769.474	21959.77561
769.665	21811.30252
769.855	22035.03687
770.046	22039.10519
770.236	21866.21484
770.426	22065.54966
770.617	21612.01491
770.807	21792.99904
770.998	21854.01186
771.188	21494.08693
771.378	21483.92135
771.569	21640.48227
771.759	21864.181
771.949	21719.78826
772.139	22118.44051
772.33	21235.91214
772.52	22049.27606
772.71	21612.01491
772.9	21292.827
773.09	21333.48241
773.281	21329.41679
773.471	21162.74055
773.661	21000.15592
773.851	21052.99306
774.041	20959.51385
774.231	21026.57414
774.421	20656.78242
774.611	20411.00808
774.802	20798.99379
774.992	20953.41768
775.182	20713.66453
775.372	21000.15592
775.562	20587.71569
775.752	20638.49958
775.942	20467.87604
776.131	20618.18571
776.321	20333.83539
776.511	20656.78242
776.701	20547.09045
776.891	20512.5603
777.081	20904.64967
777.271	20307.4356
777.461	20543.02801
777.651	20343.98935
777.84	20591.7783
778.03	20772.58157
778.22	20719.75923
778.41	20605.99759
778.599	20400.85343
778.789	20504.43574
778.979	20175.4473
779.169	20027.23547
779.358	19870.92674
779.548	20557.2466
779.738	20386.6371
779.927	20124.6873
780.117	20325.71231
780.307	20207.93508
780.496	20006.93423
780.686	19974.45311
780.875	19998.81385
781.065	20197.78254
781.254	19365.63089
781.444	19645.64237
781.633	19507.65579
781.823	19647.67173
782.012	19828.3014
782.202	19996.78376
782.391	19521.8594
782.581	19952.12297
782.77	19525.91762
782.96	19258.11124
783.149	19049.19094
783.338	19331.14219
783.528	19205.36998
783.717	18888.9803
783.906	18740.95978
784.096	19164.80167
784.285	19189.14246
784.474	19361.57334
784.663	19128.29159
784.853	19278.39708
785.042	19122.20671
785.231	19249.99702
785.42	18935.62131
785.61	18943.73301
785.799	18769.34564
785.988	19030.93783
786.177	19083.66995
786.366	18858.56339
786.555	19116.12186
786.744	19116.12186
786.933	18663.91635
787.122	18493.62982
787.312	18633.50603
787.501	18424.71206
787.69	18513.9006
787.879	18341.61118
788.068	18294.99639
788.257	18428.76592
788.445	18347.69152
788.634	18809.89821
788.823	18382.1474
789.012	18374.04003
789.201	18179.48126
789.39	18217.98496
789.579	18063.97804
789.768	18517.9548
789.957	18351.74509
790.145	18669.99852
790.334	18126.79411
790.523	17962.66905
790.712	18094.37248
790.9	18266.62313
791.089	18039.66306
791.278	17936.33016
791.467	18001.16541
791.655	18088.29352
791.844	17905.93987
792.033	17930.25204
792.221	17608.15582
792.41	17851.23933
792.599	17634.48755
792.787	17786.41232
792.976	17709.43475
793.164	17510.93572
793.353	18130.84688
793.541	18045.74176
793.73	18266.62313
793.918	17940.38226
794.107	17361.069
794.295	17454.22739
794.484	17537.26543
794.672	17668.92219
794.861	17498.78372
795.049	17794.5155
795.238	17336.76788
795.426	17770.20611
795.614	17095.8048
795.803	17318.54233
795.991	17186.92047
796.179	17255.76728
796.368	16929.78618
796.556	17103.90374
796.744	16984.44885
796.932	17302.34204
797.121	17405.6222
797.309	17269.94204
797.497	16816.41776
797.685	17105.92848
797.874	17140.34952
798.062	17391.44602
798.25	17273.992
798.438	17247.66748
798.626	16717.2268
798.814	16907.51675
799.002	16626.13807
799.19	16543.1501
799.378	16745.56648
799.566	16800.22292
799.755	16739.49365
799.943	16705.08136
800.131	16905.49227
800.318	17369.16947
800.506	16790.10122
800.694	16733.42085
800.882	16573.51113
801.07	17041.13812
801.258	16877.14985
801.446	16931.81069
801.634	16753.66362
801.822	16595.77619
802.01	16425.75863
802.197	16579.58339
802.385	16249.6839
802.573	16733.42085
802.761	16690.9118
802.949	16820.4665
803.136	16636.25881
803.324	16239.56508
803.512	16091.83519
803.699	16195.04281
803.887	16336.70756
804.075	16490.52548
804.262	16211.23263
804.45	16782.00391
804.638	16632.21051
804.825	16701.0329
805.013	16413.61508
805.201	16701.0329
805.388	16571.48704
805.576	16680.79075
805.763	16512.78957
805.951	16660.54882
806.138	16792.12556
806.326	16759.7365
806.513	16676.74234
806.701	16664.59719
806.888	16417.66292
807.075	16500.64549
807.263	16658.52464
807.45	16707.1056
807.638	16425.75863
807.825	16790.10122
808.012	16670.66975
808.2	16721.2753
808.387	16684.83916
808.574	16777.95527
808.761	16909.54123
808.949	16676.74234
809.136	16330.63603
809.323	16583.63158
809.51	16725.3238
809.698	16522.90969
809.885	15940.06645
810.072	16383.25651
810.259	16496.59748
810.446	16648.40377
810.633	16524.93372
810.82	16727.34806
811.008	16561.36666
811.195	16498.62148
811.382	16267.89787
811.569	16369.08933
811.756	15925.90176
811.943	16464.21369
812.13	16379.20874
812.317	16632.21051
812.504	16423.7347
812.691	16684.83916
812.878	16616.01739
813.064	16982.42427
813.251	16597.8003
813.438	16674.71814
813.625	16184.92423
813.812	16300.27864
813.999	16476.35755
814.186	16403.49551
814.372	16678.76654
814.559	17079.60706
814.746	16670.66975
814.933	16571.48704
815.12	16577.5593
815.306	16275.99302
815.493	16263.85031
815.68	16302.30245
815.866	16448.022
816.053	16448.022
816.24	16504.6935
816.426	16575.53521
816.613	16334.68371
816.799	16393.37599
816.986	16508.74153
817.173	16336.70756
817.359	15966.37247
817.546	16514.81359
817.732	16186.94794
817.919	16563.39073
818.105	16124.21361
818.292	16490.52548
818.478	16334.68371
818.665	16162.6635
818.851	16328.61219
819.037	16389.32819
819.224	16184.92423
819.41	16257.77898
819.597	16144.45032
819.783	16338.7314
819.969	16304.32626
820.156	16097.90612
820.342	16071.59889
820.528	15940.06645
820.714	15553.59231
820.901	15952.20766
821.087	16087.78792
821.273	16012.91445
821.459	15853.05579
821.646	16265.87409
821.832	15731.64915
822.018	15535.3823
822.204	15509.07903
822.39	15788.3051
822.576	15644.64329
822.762	15806.51611
822.948	15689.1577
823.134	16110.048
823.32	15717.48529
823.507	16091.83519
823.693	15674.99398
823.879	15786.28166
824.065	15598.10593
824.25	15519.19566
824.436	15505.03238
824.622	15373.51754
824.808	15541.45229
824.994	15802.46921
825.18	15367.44767
825.366	15592.03587
825.552	15541.45229
825.738	15393.75047
825.923	15393.75047
826.109	15442.30966
826.295	15235.93449
826.481	15587.98917
826.667	15539.42896
826.852	15466.58936
827.038	15033.60724
827.224	15422.07663
827.409	15217.72504
827.595	14993.14162
827.781	15140.84075
827.966	14833.30083
828.152	14912.20995
828.338	14948.62928
828.523	14539.91027
828.709	14499.44084
828.894	14483.25292
829.08	14762.48413
829.266	14887.93031
829.451	14987.07176
829.637	14584.42607
829.822	14968.86218
830.008	14693.68985
830.193	14918.27985
830.378	14863.65059
830.564	14871.74384
830.749	14671.43265
830.935	14402.31195
831.12	14197.92434
831.305	14305.1795
831.491	13912.55584
831.676	14110.9019
831.861	14064.35336
832.047	14220.18529
832.232	14153.40172
832.417	14054.23395
832.602	14023.87538
832.788	14177.68691
832.973	13805.27664
833.158	13760.74327
833.343	13544.12718
833.528	14062.32948
833.714	13924.70017
833.899	14042.09059
834.084	13995.54022
834.269	14347.67542
834.454	13888.26689
834.639	14246.49337
834.824	14147.33037
835.009	14082.56815
835.194	14331.48658
835.379	14378.02919
835.564	14096.73508
835.749	14537.88681
835.934	14357.79338
836.119	14299.10859
836.304	13876.12227
836.489	13833.61531
836.674	13608.91358
836.859	13938.86843
837.044	13673.69648
837.228	13902.43549
837.413	13827.54279
837.598	13627.13412
837.783	13349.74525
837.968	13560.32412
838.152	13505.65852
838.337	13412.51831
838.522	13276.84257
838.707	13461.11421
838.891	13177.60495
839.076	13461.11421
839.261	13228.23771
839.445	13596.7664
839.63	13264.69159
839.815	13226.21245
839.999	13199.88371
840.184	13254.56565
840.368	13100.63768
840.553	13244.43961
840.737	13341.64522
840.922	13203.93433
841.106	12960.86356
841.291	12977.07047
841.475	12620.43796
841.66	13260.64123
841.844	13272.79226
842.029	13404.41878
842.213	13102.66322
842.397	13218.11138
842.582	13011.50908
842.766	12873.74569
842.951	12665.02671
843.135	13035.81782
843.319	12823.09123
843.504	12812.95992
843.688	12869.69346
843.872	12896.03259
844.056	12770.40692
844.241	13137.0967
844.425	12618.41113
844.609	12825.11747
844.793	12448.13495
844.977	12778.51244
845.161	12253.47638
845.346	12502.87149
845.53	12231.16763
845.714	12442.05282
845.898	12231.16763
846.082	12553.54928
846.266	12701.50626
846.45	12632.59882
846.634	12427.86095
846.818	12247.39226
847.002	11805.09578
847.186	12052.66539
847.37	11803.06602
847.554	11949.18792
847.738	11807.12554
847.922	11963.39194
848.106	12030.34846
848.29	12062.80914
848.473	12123.66759
848.657	11654.86938
848.841	11878.16183
849.025	12042.52145
849.209	11880.19128
849.392	11965.42105
849.576	11790.88722
849.76	12012.08845
849.944	11821.33363
850.127	12170.32111
850.311	11947.15874
850.495	11823.36332
850.678	11817.27422
850.862	11955.2754
851.046	11551.30638
851.229	11516.78003
851.413	11319.72353
851.596	11630.50375
851.78	11551.30638
851.964	11711.71747
852.147	11378.647
852.331	11553.33726
852.514	11541.15186
852.698	11486.31334
852.881	11230.30617
853.065	11281.11392
853.248	10951.76204
853.431	11106.3079
853.615	11037.17682
853.798	11159.16443
853.982	11195.75322
854.165	11281.11392
854.348	11175.42654
854.532	11224.20881
854.715	10835.8101
854.898	11177.45925
855.081	10809.35967
855.265	11120.53921
855.448	10681.14848
855.631	10479.5757
855.814	10434.76493
855.997	10748.31263
856.181	10279.9154
856.364	10740.17222
856.547	10461.24477
856.73	10473.4655
856.913	10430.69091
857.096	10453.09736
857.279	10379.76132
857.462	10449.02358
857.645	10391.98516
857.828	10516.23444
858.011	10255.45844
858.194	10320.67269
858.377	10324.74813
858.56	10677.0775
858.743	10265.64908
858.926	10524.38027
859.109	10157.611
859.292	10316.59721
859.475	10420.50564
859.658	10379.76132
859.841	10290.10523
860.023	10169.84366
860.206	10235.07616
860.389	10481.6124
860.572	9963.85974
860.755	10336.97412
860.937	10025.05821
861.12	10055.65261
861.303	9796.51684
861.486	9923.05352
861.668	9806.72353
861.851	9927.13441
862.034	9857.75139
862.216	9680.13376
862.399	9459.48014
862.581	9547.35504
862.764	9586.17412
862.947	9647.45588
863.129	9533.05183
863.312	9751.60291
863.494	9537.13854
863.677	9351.12817
863.859	9520.79132
864.042	9479.91881
864.224	9136.33112
864.406	9242.72995
864.589	9107.67741
864.771	9283.64043
864.954	9079.02031
865.136	9226.36388
865.318	8853.73805
865.501	9029.88597
865.683	8956.16557
865.865	9285.68578
866.048	8978.69367
866.23	9091.30234
866.412	8851.68905
866.594	8993.02862
866.777	8743.06579
866.959	8894.71442
867.141	8773.8134
867.323	8986.88517
867.505	8870.12946
867.687	9126.09804
867.869	8956.16557
868.052	9277.50428
868.234	9033.98088
868.416	9074.92617
868.598	8671.3053
868.78	9160.88878
868.962	8777.91278
869.144	9128.14469
869.326	8656.95048
869.508	8876.27594
869.69	8632.34011
869.872	8706.16321
870.054	8558.49285
870.236	8564.64772
870.417	8730.76559
870.599	8755.36533
870.781	8340.91076
870.963	8691.8106
871.145	8537.97539
871.327	8359.39311
871.508	8269.01992
871.69	8455.88661
871.872	8375.82055
872.054	8464.09686
872.235	8377.87389
872.417	8605.67585
872.599	8457.9392
872.78	8847.59098
872.962	8568.75087
873.144	8714.3643
873.325	8429.20117
873.507	8749.21564
873.689	8353.2325
873.87	8751.26556
874.052	8416.88372
874.233	8615.93171
874.415	8423.04253
874.596	8472.3068
874.778	8164.22151
874.959	8172.44286
875.141	8398.40625
875.322	8550.28609
875.503	8133.38861
875.685	8264.91114
875.866	7909.19976
876.048	8345.01808
876.229	7892.73597
876.41	8537.97539
876.592	8174.49814
876.773	8293.67091
876.954	8034.69296
877.136	8435.35964
877.317	8349.12533
877.498	8652.84894
877.679	8537.97539
877.86	8365.55354
878.042	8537.97539
878.223	8650.79814
878.404	8513.35195
878.585	8423.04253
878.766	8112.83084
878.947	8408.67171
879.128	8256.69336
879.309	8404.56558
879.49	8051.14547
879.672	8451.78137
879.853	8320.37296
880.034	8632.34011
880.215	8357.33959
880.396	8603.62462
880.576	8283.4
880.757	8730.76559
880.938	8390.19354
881.119	8753.31545
881.3	8386.08707
881.481	8714.3643
881.662	8221.76426
881.843	8359.39311
882.023	8242.31148
882.204	8032.63631
882.385	7935.9506
882.566	8275.18293
882.747	8178.60866
882.927	8153.94437
883.108	8316.26517
883.289	8476.41166
883.469	8494.88258
883.65	8622.085
883.831	8480.51644
884.011	8605.67585
884.192	8482.5688
884.373	8322.42683
884.553	8345.01808
884.734	8622.085
884.914	8264.91114
885.095	8574.90545
885.275	8373.76719
885.456	8223.81907
885.636	8201.21507
885.817	8464.09686
885.997	8373.76719
886.178	8646.69649
886.358	8443.57066
886.538	8381.98052
886.719	8398.40625
886.899	8558.49285
887.08	8607.72705
887.26	8523.61205
887.44	8410.72474
887.621	8624.13606
887.801	8232.03812
887.981	8804.55692
888.161	8425.09543
888.342	8365.55354
888.522	8505.14353
888.702	8478.46406
888.882	8447.67605
889.062	8361.44661
889.242	8308.04935
889.423	8498.98702
889.603	8225.87387
889.783	8572.85394
889.963	8038.80621
890.143	8572.85394
890.323	7872.15438
890.503	8314.21124
890.683	8012.06865
890.863	8236.14752
891.043	8416.88372
891.223	8751.26556
891.403	8464.09686
891.583	8587.21412
891.763	8215.59971
891.943	8400.45938
892.122	8258.74784
892.302	8414.83075
892.482	8308.04935
892.662	8330.6421
892.842	8217.65458
893.022	8314.21124
893.201	8186.82945
893.381	8480.51644
893.561	8242.31148
893.741	8047.03246
893.92	7896.85204
894.1	7995.61306
894.28	8071.70927
894.459	8176.55341
894.639	8028.52294
894.819	8312.1573
894.998	8141.61115
895.178	8044.97593
895.357	8114.88671
895.537	8090.21498
895.716	8086.10274
895.896	8110.77495
896.075	7874.21263
896.255	7933.89296
896.434	7703.30688
896.614	7773.33387
896.793	7559.05668
896.973	7577.60898
897.152	7408.51253
897.331	7577.60898
897.511	7404.38641
897.69	7723.90558
897.87	7462.14419
898.049	7647.67985
898.228	7328.03747
898.407	7449.76895
898.587	7154.59312
898.766	7272.30447
898.945	7121.53839
899.124	7181.4459
899.304	7136.00054
899.483	7350.73893
899.662	6985.12711
899.841	7435.33019
900.02	7140.13238
900.199	7466.2691
900.378	6952.04297
900.557	7005.80177
900.737	7018.20549
900.916	7332.16521
901.095	7160.79025
901.274	7212.42522
901.453	6918.95305
901.632	7150.46159
901.811	7007.86911
901.989	7292.94819
902.168	7009.93643
902.347	7024.40704
902.526	6544.21677
902.705	6544.21677
902.884	6722.36186
903.063	6753.41626
903.242	6533.85424
903.42	6755.48637
903.599	6575.30087
903.778	6500.69028
903.957	6311.95704
904.135	6587.73305
904.314	6465.44705
904.493	6798.95341
904.672	6380.42106
904.85	6247.61917
905.029	5944.30525
905.207	6243.46756
905.386	5811.18745
905.565	5902.71632
905.743	5575.91533
905.922	5815.34884
906.1	5425.85042
906.279	5727.93973
906.457	5623.82699
906.636	5950.54278
906.814	5519.65529
906.993	5711.28566
907.171	5655.06701
907.35	5523.82329
907.528	5190.08651
907.707	5427.93549
907.885	5263.14267
908.063	5286.09727
908.242	4995.82742
908.42	5367.45893
908.598	4951.93478
908.777	5304.8762
908.955	4855.75361
909.133	5094.02644
909.311	4889.21343
909.49	5198.43723
909.668	4910.12284
909.846	5373.71604
910.024	5261.05575
910.202	5246.44664
910.38	5223.48716
910.559	5430.02054
910.737	5146.2391
910.915	5469.63196
911.093	5167.1201
911.271	5340.34234
911.449	5217.22499
911.627	5221.3998
911.805	5177.55973
911.983	5261.05575
912.161	4968.65699
912.339	5480.0546
912.517	4981.19767
912.695	5354.94407
912.872	5121.17884
913.05	5423.76533
913.228	5142.06262
913.406	5348.68633
913.584	5213.0501
913.762	5281.92392
913.939	5256.88184
914.117	5419.59507
914.295	5160.85605
914.473	5187.99877
914.65	5144.15088
914.828	5236.01087
915.006	5031.35211
915.184	5379.97294
915.361	5002.09697
915.539	5123.26732
915.716	4885.03127
915.894	5052.24587
916.072	4667.43365
916.249	5031.35211
916.427	4905.94114
916.604	5121.17884
916.782	5010.45604
916.959	5190.08651
917.137	4839.02151
917.314	5267.31645
917.492	4763.70901
917.669	4872.48425
917.847	4688.36713
918.024	4895.48649
918.201	4713.48434
918.379	4855.75361
918.556	4688.36713
918.733	4903.85026
918.911	4694.64674
919.088	4845.29621
919.265	4577.39412
919.442	4751.15406
919.62	4342.6804
919.797	4843.20467
919.974	4302.83574
920.151	4497.79004
920.328	4348.97095
920.506	4491.50415
920.683	4545.97528
920.86	4717.67023
921.037	4650.68524
921.214	4654.87248
921.391	4197.94438
921.568	4522.93163
921.745	4172.76253
921.922	4357.35805
922.099	4428.63432
922.276	4566.92173
922.453	4097.19883
922.63	4242.00525
922.807	3937.58722
922.984	3969.09888
923.161	3718.98279
923.338	4061.50656
923.514	3971.1995
923.691	4088.80119
923.868	3908.17223
924.045	4074.10452
924.222	3914.47577
924.399	3937.58722
924.575	3832.51564
924.752	3948.09161
924.929	3622.2252
925.105	3950.19243
925.282	3742.11446
925.459	3880.85478
925.635	3525.42778
925.812	3763.14122
925.989	3552.78755
926.165	3462.27806
926.342	3571.7271
926.518	3731.60035
926.695	3556.99647
926.871	3544.36949
927.048	3424.38043
927.224	3643.26288
927.401	3314.86625
927.577	3687.43584
927.754	3466.48855
927.93	3521.21831
928.107	3335.93033
928.283	3498.06491
928.459	3112.56554
928.636	3291.69377
928.812	3165.26263
928.988	3228.4857
929.165	2893.24134
929.341	3213.73498
929.517	3192.66111
929.693	3439.11909
929.87	3070.4007
930.046	3323.29208
930.222	2842.60531
930.398	3177.90843
930.574	2878.47335
930.751	3129.42971
930.927	2810.95367
931.103	3091.48391
931.279	2897.46064
931.455	3142.07715
931.631	2751.86233
931.807	2840.4953
931.983	2658.98351
932.159	2741.3092
932.335	2576.63862
932.511	2743.41985
932.687	2500.61181
932.863	2623.09188
933.039	2437.24492
933.215	2694.87148
933.391	2394.99493
933.566	2724.42349
933.742	2551.29803
933.918	2504.83592
934.094	2329.49931
934.27	2344.28948
934.445	2107.5932
934.621	2369.64294
934.797	2008.23524
934.973	2006.12108
935.148	1754.4953
935.324	1982.86484
935.5	1820.0516
935.675	1896.17605
935.851	1703.73953
936.027	1963.83644
936.202	1754.4953
936.378	1841.19791
936.553	1447.82572
936.729	1570.49797
936.904	1354.76387
937.08	1306.11875
937.255	1234.21057
937.431	1308.23374
937.606	957.1951
937.782	1113.66687
937.957	843.03655
938.133	938.16712
938.308	790.19376
938.483	798.64821
938.659	737.357
938.834	866.28916
939.009	728.90371
939.185	796.53458
939.36	747.92384
939.535	758.49094
939.71	735.24366
939.886	838.80892
940.061	602.12617
940.236	564.10154
940.411	507.07284
940.586	661.28376
940.761	606.35139
940.937	614.80198
941.112	610.57666
941.287	587.33831
941.462	369.82618
941.637	536.64201
941.812	464.83611
941.987	439.49697
942.162	458.50112
942.337	492.28931
942.512	331.83161
942.687	498.62502
942.862	534.52983
943.037	416.27141
943.212	336.05295
943.386	407.82623
943.561	346.60661
943.736	342.38509
943.911	306.50506
944.086	323.38914
944.26	397.27012
944.435	502.8489
944.61	211.55428
944.785	323.38914
944.959	249.52996
945.134	342.38509
945.309	306.50506
945.483	466.9478
945.658	342.38509
945.833	420.4941
946.007	367.71522
946.182	371.93715
946.357	238.98052
946.531	340.27436
946.706	350.82819
946.88	340.27436
947.055	314.94696
947.229	420.4941
947.404	443.72001
947.578	393.0478
947.752	376.15915
947.927	460.61277
948.101	435.274
948.276	399.38131
948.45	367.71522
948.624	422.60547
948.799	325.49973
948.973	485.95373
949.147	331.83161
949.321	369.82618
949.496	350.82819
949.67	393.0478
949.844	374.04814
950.018	384.60334
950.193	382.49226
950.367	399.38131
950.541	338.16365
950.715	409.9375
950.889	306.50506
951.063	407.82623
951.237	399.38131
951.411	437.38548
951.585	424.71685
951.759	471.17124
951.933	382.49226
952.107	369.82618
952.281	399.38131
952.455	409.9375
952.629	374.04814
952.803	441.60848
952.977	409.9375
953.151	395.15895
953.325	382.49226
953.499	466.9478
953.672	418.38275
953.846	492.28931
954.02	319.16801
954.194	384.60334
954.368	382.49226
954.541	403.60374
954.715	390.93666
954.889	435.274
955.062	443.72001
955.236	475.39473
955.41	435.274
955.583	490.17744
955.757	371.93715
955.93	376.15915
956.104	359.27157
956.278	431.05109
956.451	386.71443
956.625	323.38914
956.798	376.15915
956.972	407.82623
957.145	437.38548
957.319	530.30552
957.492	378.27017
957.665	483.8419
957.839	390.93666
958.012	534.52983
958.185	488.06558
958.359	445.83155
958.532	401.49252
958.705	513.40885
958.879	471.17124
959.052	530.30552
959.225	409.9375
959.398	536.64201
959.572	469.05951
959.745	435.274
959.918	445.83155
960.091	540.8664
960.264	443.72001
960.438	492.28931
960.611	443.72001
960.784	485.95373
960.957	331.83161
961.13	460.61277
961.303	374.04814
961.476	439.49697
961.649	401.49252
961.822	420.4941
961.995	412.04879
962.168	454.27787
962.341	479.61829
962.514	526.08127
962.686	418.38275
962.859	416.27141
963.032	365.60428
963.205	454.27787
963.378	458.50112
963.551	450.05468
963.723	344.49584
963.896	329.72097
964.069	306.50506
964.242	433.16254
964.414	342.38509
964.587	384.60334
964.76	308.61551
964.932	424.71685
965.105	319.16801
965.278	458.50112
965.45	331.83161
965.623	420.4941
965.795	222.10244
965.968	450.05468
966.14	363.49336
966.313	331.83161
966.485	350.82819
966.658	350.82819
966.83	340.27436
967.003	342.38509
967.175	312.83645
967.348	255.85985
967.52	323.38914
967.692	302.28422
967.865	270.63026
968.037	376.15915
968.209	308.61551
968.382	276.96072
968.554	287.51185
968.726	329.72097
968.898	276.96072
969.071	298.06345
969.243	255.85985
969.415	314.94696
969.587	247.42003
969.759	190.45945
969.932	226.32184
970.104	306.50506
970.276	306.50506
970.448	317.05747
970.62	224.21213
970.792	264.29997
970.964	207.33515
971.136	247.42003
971.308	260.07987
971.48	217.88312
971.652	268.52014
971.824	255.85985
971.996	230.54133
972.168	295.95309
972.339	283.29134
972.511	209.44471
972.683	184.1314
972.855	154.60294
973.027	213.66387
973.199	234.76089
973.37	232.6511
973.542	283.29134
973.714	249.52996
973.886	222.10244
974.057	234.76089
974.229	196.78769
974.401	196.78769
974.572	276.96072
974.744	192.56884
974.915	154.60294
975.087	182.02209
975.259	255.85985
975.43	268.52014
975.602	179.9128
975.773	127.18734
975.945	272.74039
976.116	148.27594
976.288	274.85054
976.459	171.47585
976.63	224.21213
976.802	179.9128
976.973	179.9128
977.145	230.54133
977.316	224.21213
977.487	163.03922
977.659	260.07987
977.83	253.74986
978.001	268.52014
978.172	154.60294
978.344	154.60294
978.515	224.21213
978.686	127.18734
978.857	163.03922
979.028	247.42003
979.2	184.1314
979.371	163.03922
979.542	154.60294
979.713	238.98052
979.884	95.55848
980.055	182.02209
980.226	196.78769
980.397	87.12496
980.568	156.71198
980.739	150.38492
980.91	139.84024
981.081	217.88312
981.252	150.38492
981.423	177.80353
981.594	133.51369
981.765	158.82104
981.936	125.07859
982.106	146.16698
982.277	87.12496
982.448	122.96987
982.619	205.22562
982.79	103.99236
982.96	120.86117
983.131	93.45007
983.302	165.14835
983.472	158.82104
983.643	120.86117
983.814	152.49392
983.984	68.15085
984.155	144.05805
984.326	108.20943
984.496	165.14835
984.667	137.73137
984.837	146.16698
985.008	116.64384
985.178	165.14835
985.349	188.35008
985.519	226.32184
985.69	53.39447
985.86	72.36716
986.031	171.47585
986.201	108.20943
986.371	95.55848
986.542	76.58356
986.712	133.51369
986.882	120.86117
987.053	78.6918
987.223	150.38492
987.393	127.18734
987.563	152.49392
987.734	131.40488
987.904	120.86117
988.074	207.33515
988.244	47.07066
988.414	171.47585
988.585	89.23331
988.755	118.75249
988.925	66.04272
989.095	116.64384
989.265	89.23331
989.435	87.12496
989.605	21.7775
989.775	30.20817
989.945	120.86117
990.115	108.20943
990.285	103.99236
990.455	76.58356
990.625	47.07066
990.795	125.07859
990.965	80.80005
991.134	163.03922
991.304	114.5352
991.474	4.91728
991.644	72.36716
991.814	72.36716
991.984	125.07859
992.153	112.42659
992.323	108.20943
992.493	70.25899
992.662	137.73137
992.832	108.20943
993.002	78.6918
993.171	129.2961
993.341	68.15085
993.511	78.6918
993.68	167.25749
993.85	89.23331
994.019	99.77538
994.189	97.66692
994.358	40.74705
994.528	70.25899
994.697	112.42659
994.867	89.23331
995.036	91.34168
995.206	74.47535
995.375	61.82655
995.544	101.88386
995.714	47.07066
995.883	82.90833
996.052	120.86117
996.222	131.40488
996.391	97.66692
996.56	28.10047
996.73	19.66988
996.899	57.61047
997.068	82.90833
997.237	66.04272
997.406	80.80005
997.576	93.45007
997.745	36.53143
997.914	61.82655
998.083	19.66988
998.252	87.12496
998.421	13.34719
998.59	80.80005
998.759	78.6918
998.928	2.80986
999.097	103.99236
999.266	97.66692
999.435	32.3159
999.604	63.93463
999.773	95.55848
999.942	63.93463
1000.111	15.45473
1000.28	80.80005
1000.448	103.99236
1000.617	66.04272
1000.786	19.66988
1000.955	108.20943
1001.124	66.04272
1001.292	63.93463
1001.461	57.61047
1001.63	55.50246
1001.798	70.25899
1001.967	89.23331
1002.136	97.66692
1002.304	87.12496
1002.473	-11.94141
1002.642	80.80005
1002.81	66.04272
1002.979	15.45473
1003.147	85.01664
1003.316	53.39447
1003.484	154.60294
1003.653	25.99279
1003.821	61.82655
1003.99	19.66988
1004.158	53.39447
1004.327	139.84024
1004.495	97.66692
1004.663	51.28651
1004.832	82.90833
1005	44.96277
1005.168	38.63923
1005.337	38.63923
1005.505	103.99236
1005.673	21.7775
1005.842	95.55848
1006.01	-5.61958
1006.178	49.17857
1006.346	80.80005
1006.514	-5.61958
1006.683	76.58356
1006.851	108.20943
1007.019	95.55848
1007.187	95.55848
1007.355	38.63923
1007.523	49.17857
1007.691	-20.37016
1007.859	2.80986
1008.027	15.45473
1008.195	95.55848
1008.363	32.3159
1008.531	38.63923
1008.699	2.80986
1008.867	103.99236
1009.035	72.36716
1009.203	72.36716
1009.37	57.61047
1009.538	13.34719
1009.706	15.45473
1009.874	129.2961
1010.042	11.23968
1010.209	99.77538
1010.377	17.5623
1010.545	61.82655
1010.713	34.42366
1010.88	-37.2265
1011.048	44.96277
1011.216	87.12496
1011.383	129.2961
1011.551	55.50246
1011.718	95.55848
1011.886	2.80986
1012.054	103.99236
1012.221	70.25899
1012.389	-26.69148
1012.556	44.96277
1012.724	23.88513
1012.891	44.96277
1013.058	44.96277
1013.226	99.77538
1013.393	61.82655
1013.561	118.75249
1013.728	28.10047
1013.895	76.58356
1014.063	72.36716
1014.23	21.7775
1014.397	38.63923
1014.565	89.23331
1014.732	97.66692
1014.899	72.36716
1015.066	61.82655
1015.233	-26.69148
1015.401	25.99279
1015.568	93.45007
1015.735	53.39447
1015.902	57.61047
1016.069	36.53143
1016.236	63.93463
1016.403	114.5352
1016.57	40.74705
1016.737	-7.72688
1016.904	70.25899
1017.071	74.47535
1017.238	-3.51226
1017.405	32.3159
1017.572	21.7775
1017.739	25.99279
1017.906	-11.94141
1018.073	19.66988
1018.24	70.25899
1018.407	63.93463
1018.573	44.96277
1018.74	76.58356
1018.907	36.53143
1019.074	-14.04863
1019.241	-22.47729
1019.407	89.23331
1019.574	82.90833
1019.741	63.93463
1019.907	40.74705
1020.074	36.53143
1020.241	-3.51226
1020.407	57.61047
1020.574	9.13219
1020.74	15.45473
1020.907	13.34719
1021.073	11.23968
1021.24	28.10047
1021.406	120.86117
1021.573	61.82655
1021.739	23.88513
1021.906	4.91728
1022.072	36.53143
1022.239	61.82655
1022.405	53.39447
1022.571	70.25899
1022.738	-5.61958
1022.904	19.66988
1023.07	34.42366
1023.237	-14.04863
1023.403	28.10047
1023.569	32.3159
1023.735	13.34719
1023.902	61.82655
1024.068	15.45473
1024.234	55.50246
1024.4	63.93463
1024.566	-14.04863
1024.732	15.45473
1024.898	36.53143
1025.065	30.20817
1025.231	23.88513
1025.397	11.23968
1025.563	2.80986
1025.729	2.80986
1025.895	-33.01256
1026.061	42.8549
1026.227	-3.51226
1026.392	61.82655
1026.558	9.13219
1026.724	7.02472
1026.89	21.7775
1027.056	-7.72688
1027.222	53.39447
1027.388	44.96277
1027.553	40.74705
1027.719	61.82655
1027.885	47.07066
1028.051	106.10089
1028.216	44.96277
1028.382	15.45473
1028.548	2.80986
1028.713	4.91728
1028.879	68.15085
1029.045	70.25899
1029.21	15.45473
1029.376	59.7185
1029.541	28.10047
1029.707	63.93463
1029.873	32.3159
1030.038	106.10089
1030.204	51.28651
1030.369	91.34168
1030.534	47.07066
1030.7	-39.33343
1030.865	63.93463
1031.031	57.61047
1031.196	30.20817
1031.361	4.91728
1031.527	78.6918
1031.692	-24.5844
1031.857	23.88513
1032.023	32.3159
1032.188	19.66988
1032.353	-26.69148
1032.518	-66.72124
1032.684	55.50246
1032.849	30.20817
1033.014	28.10047
1033.179	7.02472
1033.344	36.53143
1033.509	61.82655
1033.674	78.6918
1033.839	2.80986
1034.004	2.80986
1034.17	82.90833
1034.335	68.15085
1034.5	-43.54722
1034.664	78.6918
1034.829	61.82655
1034.994	91.34168
1035.159	57.61047
1035.324	55.50246
1035.489	93.45007
1035.654	47.07066
1035.819	19.66988
1035.984	99.77538
1036.148	-1.40491
1036.313	7.02472
1036.478	-7.72688
1036.643	30.20817
1036.807	28.10047
1036.972	53.39447
1037.137	87.12496
1037.301	36.53143
1037.466	21.7775
1037.631	21.7775
1037.795	38.63923
1037.96	137.73137
1038.124	42.8549
1038.289	15.45473
1038.454	-35.11954
1038.618	-47.7609
1038.783	15.45473
1038.947	7.02472
1039.111	129.2961
1039.276	-28.79853
1039.44	0.70246
1039.605	-5.61958
1039.769	87.12496
1039.933	7.02472
1040.098	15.45473
1040.262	40.74705
1040.426	-5.61958
1040.591	97.66692
1040.755	-11.94141
1040.919	47.07066
1041.083	101.88386
1041.248	57.61047
1041.412	-14.04863
1041.576	49.17857
1041.74	49.17857
1041.904	70.25899
1042.068	-39.33343
1042.232	28.10047
1042.397	-1.40491
1042.561	-28.79853
1042.725	61.82655
1042.889	38.63923
1043.053	28.10047
1043.217	36.53143
1043.381	36.53143
1043.544	25.99279
1043.708	2.80986
1043.872	-28.79853
1044.036	23.88513
1044.2	36.53143
1044.364	38.63923
1044.528	42.8549
1044.691	2.80986
1044.855	40.74705
1045.019	21.7775
1045.183	72.36716
1045.346	103.99236
1045.51	36.53143
1045.674	80.80005
1045.837	70.25899
1046.001	2.80986
1046.165	106.10089
1046.328	0.70246
1046.492	78.6918
1046.655	70.25899
1046.819	-20.37016
1046.983	70.25899
1047.146	57.61047
1047.31	-66.72124
1047.473	87.12496
1047.636	57.61047
1047.8	23.88513
1047.963	-5.61958
1048.127	32.3159
1048.29	70.25899
