Data from absorb_only_2.23.25_USB4F045381__44__0149.txt Node

Date: Sun Feb 23 19:20:35 EST 2025
User: ssocol
Spectrometer: USB4F04538
Trigger mode: 4
Integration Time (sec): 2.600000E-3
Scans to average: 1
Electric dark correction enabled: true
Nonlinearity correction enabled: true
Boxcar width: 0
XAxis mode: Wavelengths
Number of Pixels in Spectrum: 3648
>>>>>Begin Spectral Data<<<<<
345.52	-13.34623
345.736	-13.34623
345.952	-13.34623
346.168	30.91075
346.384	1.40492
346.6	22.48004
346.816	-61.80579
347.032	3.51233
347.248	16.15725
347.464	-47.05863
347.68	-4.91714
347.896	-11.23899
348.112	26.69535
348.328	-2.80981
348.544	-17.56062
348.76	30.91075
348.975	45.6654
349.191	-4.91714
349.407	-148.15657
349.623	-11.23899
349.839	-9.13173
350.055	-25.98912
350.27	-51.27223
350.486	-15.45344
350.702	-13.34623
350.918	-2.80981
351.133	-28.09618
351.349	-30.20322
351.565	-55.48573
351.781	-2.80981
351.996	11.94218
352.212	-11.23899
352.428	-13.34623
352.644	-9.13173
352.859	66.74543
353.075	14.04971
353.291	-66.01904
353.506	-40.73804
353.722	3.51233
353.938	11.94218
354.153	-21.77492
354.369	37.23403
354.584	-0.70246
354.8	-19.66778
355.016	-25.98912
355.231	11.94218
355.447	-38.63112
355.662	20.37242
355.878	11.94218
356.093	7.72721
356.309	45.6654
356.524	20.37242
356.74	-30.20322
356.955	22.48004
357.171	-49.16544
357.386	7.72721
357.602	39.34183
357.817	-34.41722
358.033	18.26482
358.248	75.17808
358.464	-19.66778
358.679	28.80304
358.895	-17.56062
359.11	70.96171
359.325	20.37242
359.541	-2.80981
359.756	45.6654
359.972	22.48004
360.187	-57.59244
360.402	24.58768
360.618	3.51233
360.833	87.82774
361.048	3.51233
361.264	20.37242
361.479	3.51233
361.694	-44.95179
361.909	45.6654
362.125	3.51233
362.34	-55.48573
362.555	-38.63112
362.77	7.72721
362.986	20.37242
363.201	-23.88203
363.416	5.61975
363.631	-11.23899
363.847	-2.80981
364.062	14.04971
364.277	41.44967
364.492	70.96171
364.707	24.58768
364.922	28.80304
365.138	-9.13173
365.353	-30.20322
365.568	-34.41722
365.783	39.34183
365.998	-63.91243
366.213	-40.73804
366.428	-2.80981
366.643	11.94218
366.858	-59.69913
367.073	-9.13173
367.288	39.34183
367.503	41.44967
367.718	-114.46398
367.933	-40.73804
368.148	24.58768
368.363	-21.77492
368.578	22.48004
368.793	3.51233
369.008	14.04971
369.223	11.94218
369.438	-34.41722
369.653	-19.66778
369.868	-40.73804
370.083	-4.91714
370.298	58.31314
370.513	11.94218
370.728	37.23403
370.943	-38.63112
371.157	-28.09618
371.372	20.37242
371.587	7.72721
371.802	47.77329
372.017	-70.23219
372.232	5.61975
372.446	3.51233
372.661	-0.70246
372.876	-2.80981
373.091	-4.91714
373.306	39.34183
373.52	3.51233
373.735	47.77329
373.95	45.6654
374.165	-93.40265
374.379	47.77329
374.594	30.91075
374.809	3.51233
375.023	-55.48573
375.238	16.15725
375.453	-36.52418
375.667	-13.34623
375.882	7.72721
376.097	39.34183
376.311	35.12624
376.526	-11.23899
376.741	-2.80981
376.955	-63.91243
377.17	11.94218
377.384	-30.20322
377.599	-13.34623
377.813	16.15725
378.028	47.77329
378.242	-21.77492
378.457	30.91075
378.672	28.80304
378.886	-30.20322
379.101	-78.65817
379.315	54.09713
379.53	5.61975
379.744	-40.73804
379.958	-2.80981
380.173	-30.20322
380.387	39.34183
380.602	45.6654
380.816	70.96171
381.031	1.40492
381.245	14.04971
381.459	41.44967
381.674	-4.91714
381.888	-17.56062
382.103	-11.23899
382.317	22.48004
382.531	81.50281
382.746	26.69535
382.96	3.51233
383.174	-0.70246
383.388	66.74543
383.603	-11.23899
383.817	14.04971
384.031	-40.73804
384.246	56.20513
384.46	20.37242
384.674	5.61975
384.888	-25.98912
385.103	-47.05863
385.317	39.34183
385.531	41.44967
385.745	-0.70246
385.959	-13.34623
386.174	37.23403
386.388	5.61975
386.602	22.48004
386.816	45.6654
387.03	-4.91714
387.244	104.6952
387.458	11.94218
387.672	-30.20322
387.887	-49.16544
388.101	-9.13173
388.315	-70.23219
388.529	-49.16544
388.743	-2.80981
388.957	41.44967
389.171	33.01848
389.385	7.72721
389.599	-13.34623
389.813	-42.84492
390.027	-9.13173
390.241	-21.77492
390.455	14.04971
390.669	11.94218
390.883	35.12624
391.097	-30.20322
391.311	64.63732
391.525	30.91075
391.738	-11.23899
391.952	83.6111
392.166	45.6654
392.38	41.44967
392.594	-47.05863
392.808	-38.63112
393.022	9.83468
393.236	5.61975
393.449	5.61975
393.663	16.15725
393.877	16.15725
394.091	-15.45344
394.305	-0.70246
394.518	47.77329
394.732	22.48004
394.946	-9.13173
395.16	7.72721
395.373	11.94218
395.587	24.58768
395.801	37.23403
396.015	146.86997
396.228	-63.91243
396.442	-57.59244
396.656	-30.20322
396.869	9.83468
397.083	45.6654
397.297	-36.52418
397.51	-4.91714
397.724	-25.98912
397.938	-44.95179
398.151	-2.80981
398.365	28.80304
398.578	-76.55171
398.792	-9.13173
399.005	-0.70246
399.219	-11.23899
399.433	37.23403
399.646	7.72721
399.86	-66.01904
400.073	-21.77492
400.287	37.23403
400.5	-28.09618
400.714	-47.05863
400.927	41.44967
401.141	16.15725
401.354	-0.70246
401.567	11.94218
401.781	-23.88203
401.994	28.80304
402.208	28.80304
402.421	37.23403
402.635	-11.23899
402.848	58.31314
403.061	33.01848
403.275	54.09713
403.488	-47.05863
403.701	3.51233
403.915	26.69535
404.128	45.6654
404.341	47.77329
404.555	-21.77492
404.768	35.12624
404.981	24.58768
405.195	-2.80981
405.408	18.26482
405.621	30.91075
405.834	-30.20322
406.048	3.51233
406.261	-59.69913
406.474	-9.13173
406.687	83.6111
406.9	28.80304
407.114	45.6654
407.327	-11.23899
407.54	14.04971
407.753	73.06989
407.966	-2.80981
408.179	-0.70246
408.392	28.80304
408.605	-13.34623
408.819	-11.23899
409.032	-19.66778
409.245	-38.63112
409.458	18.26482
409.671	39.34183
409.884	104.6952
410.097	47.77329
410.31	-32.31023
410.523	-2.80981
410.736	58.31314
410.949	24.58768
411.162	100.4782
411.375	11.94218
411.588	20.37242
411.801	-34.41722
412.014	41.44967
412.227	14.04971
412.44	22.48004
412.653	-38.63112
412.865	7.72721
413.078	-36.52418
413.291	-9.13173
413.504	-2.80981
413.717	37.23403
413.93	79.39455
414.143	-15.45344
414.356	-0.70246
414.568	-44.95179
414.781	-49.16544
414.994	16.15725
415.207	-36.52418
415.42	28.80304
415.632	20.37242
415.845	14.04971
416.058	3.51233
416.271	51.98916
416.483	14.04971
416.696	11.94218
416.909	-4.91714
417.121	-0.70246
417.334	35.12624
417.547	-17.56062
417.759	37.23403
417.972	-30.20322
418.185	-57.59244
418.397	-21.77492
418.61	87.82774
418.823	37.23403
419.035	16.15725
419.248	5.61975
419.46	35.12624
419.673	-47.05863
419.885	41.44967
420.098	22.48004
420.311	1.40492
420.523	49.88122
420.736	54.09713
420.948	62.52924
421.161	-4.91714
421.373	24.58768
421.586	14.04971
421.798	1.40492
422.01	11.94218
422.223	43.55752
422.435	-0.70246
422.648	3.51233
422.86	3.51233
423.073	56.20513
423.285	-11.23899
423.497	24.58768
423.71	11.94218
423.922	3.51233
424.134	20.37242
424.347	-17.56062
424.559	45.6654
424.771	-4.91714
424.984	28.80304
425.196	-4.91714
425.408	-68.12563
425.621	-55.48573
425.833	37.23403
426.045	138.43433
426.257	-4.91714
426.47	81.50281
426.682	62.52924
426.894	-36.52418
427.106	11.94218
427.318	87.82774
427.531	47.77329
427.743	70.96171
427.955	70.96171
428.167	-28.09618
428.379	-19.66778
428.591	-4.91714
428.804	5.61975
429.016	18.26482
429.228	54.09713
429.44	79.39455
429.652	45.6654
429.864	49.88122
430.076	58.31314
430.288	16.15725
430.5	-4.91714
430.712	92.04447
430.924	11.94218
431.136	54.09713
431.348	24.58768
431.56	9.83468
431.772	-21.77492
431.984	7.72721
432.196	33.01848
432.408	-0.70246
432.62	-76.55171
432.832	45.6654
433.044	-13.34623
433.256	-2.80981
433.468	58.31314
433.679	22.48004
433.891	30.91075
434.103	45.6654
434.315	79.39455
434.527	20.37242
434.739	75.17808
434.95	-19.66778
435.162	37.23403
435.374	85.71941
435.586	-21.77492
435.798	35.12624
436.009	58.31314
436.221	7.72721
436.433	58.31314
436.645	20.37242
436.856	20.37242
437.068	-7.02445
437.28	-9.13173
437.491	47.77329
437.703	49.88122
437.915	3.51233
438.126	24.58768
438.338	-9.13173
438.55	60.42118
438.761	49.88122
438.973	-0.70246
439.184	-4.91714
439.396	58.31314
439.608	45.6654
439.819	-13.34623
440.031	92.04447
440.242	41.44967
440.454	58.31314
440.665	113.12946
440.877	28.80304
441.088	125.7815
441.3	33.01848
441.511	119.45538
441.723	1.40492
441.934	45.6654
442.146	3.51233
442.357	41.44967
442.569	-4.91714
442.78	45.6654
442.991	-0.70246
443.203	-13.34623
443.414	37.23403
443.626	14.04971
443.837	37.23403
444.048	81.50281
444.26	49.88122
444.471	132.10782
444.682	85.71941
444.894	-9.13173
445.105	70.96171
445.316	58.31314
445.528	79.39455
445.739	-11.23899
445.95	104.6952
446.161	70.96171
446.373	62.52924
446.584	3.51233
446.795	20.37242
447.006	1.40492
447.217	11.94218
447.429	60.42118
447.64	92.04447
447.851	64.63732
448.062	60.42118
448.273	102.58669
448.484	-51.27223
448.695	5.61975
448.907	47.77329
449.118	49.88122
449.329	83.6111
449.54	54.09713
449.751	39.34183
449.962	7.72721
450.173	47.77329
450.384	54.09713
450.595	41.44967
450.806	104.6952
451.017	16.15725
451.228	41.44967
451.439	45.6654
451.65	20.37242
451.861	134.21663
452.072	24.58768
452.283	41.44967
452.494	111.02086
452.705	28.80304
452.915	54.09713
453.126	-2.80981
453.337	83.6111
453.548	45.6654
453.759	37.23403
453.97	58.31314
454.181	87.82774
454.391	26.69535
454.602	58.31314
454.813	98.36974
455.024	51.98916
455.235	62.52924
455.445	54.09713
455.656	142.6521
455.867	100.4782
456.078	58.31314
456.288	54.09713
456.499	39.34183
456.71	123.67278
456.921	20.37242
457.131	73.06989
457.342	43.55752
457.553	87.82774
457.763	92.04447
457.974	129.99903
458.184	108.91229
458.395	138.43433
458.606	20.37242
458.816	104.6952
459.027	113.12946
459.237	104.6952
459.448	121.56407
459.659	92.04447
459.869	66.74543
460.08	26.69535
460.29	98.36974
460.501	22.48004
460.711	79.39455
460.922	142.6521
461.132	106.80373
461.343	96.26129
461.553	125.7815
461.764	104.6952
461.974	113.12946
462.184	-9.13173
462.395	197.49084
462.605	100.4782
462.816	89.9361
463.026	96.26129
463.236	129.99903
463.447	157.41499
463.657	54.09713
463.867	106.80373
464.078	155.30595
464.288	119.45538
464.498	165.85139
464.709	83.6111
464.919	123.67278
465.129	163.74226
465.339	123.67278
465.55	163.74226
465.76	157.41499
465.97	79.39455
466.18	189.0532
466.391	155.30595
466.601	163.74226
466.811	151.08791
467.021	70.96171
467.231	199.6003
467.441	182.72519
467.651	170.06972
467.862	248.12334
468.072	248.12334
468.282	258.67319
468.492	174.28813
468.702	157.41499
468.912	254.45319
469.122	239.6838
469.332	269.22351
469.542	300.87729
469.752	199.6003
469.962	288.21528
470.172	368.41887
470.382	408.52999
470.592	214.36707
470.802	340.97794
471.012	349.42099
471.222	370.52983
471.432	438.08931
471.642	326.20327
471.852	385.30703
472.062	256.56318
472.272	389.52924
472.482	391.64037
472.691	378.97385
472.901	302.98769
473.111	393.75151
473.321	391.64037
473.531	444.42385
473.741	465.54001
473.95	592.26753
474.16	583.81748
474.37	560.58096
474.58	598.60519
474.79	602.83037
474.999	585.92998
475.209	539.45826
475.419	634.5208
475.628	702.13611
475.838	539.45826
476.048	784.55754
476.258	719.04176
476.467	748.6283
476.677	661.98807
476.886	814.14844
477.096	797.23912
477.306	780.33042
477.515	687.34425
477.725	776.10334
477.935	841.62734
478.144	945.21445
478.354	805.69371
478.563	1000.18632
478.773	1059.39158
478.982	989.61445
479.192	1097.45443
479.401	1112.25708
479.611	1169.3551
479.82	1127.05997
480.03	1095.33978
480.239	1363.92898
480.449	1165.12552
480.658	1251.83485
480.868	1268.75434
481.077	1275.09919
481.287	1332.20371
481.496	1507.75213
481.705	1296.24884
481.915	1615.6178
482.124	1473.91137
482.333	1583.893
482.543	1359.69893
482.752	1571.20298
482.961	1611.38785
483.171	1605.04292
483.38	1550.05281
483.589	1767.88883
483.799	1706.55934
484.008	1805.95381
484.217	1750.97066
484.426	1981.45535
484.636	1795.38034
484.845	1909.56762
485.054	1854.59033
485.263	2146.34543
485.472	2008.93996
485.682	2104.07014
485.891	2127.32194
486.1	2137.89062
486.309	2243.5662
486.518	2108.29781
486.727	2190.73104
486.936	2353.44506
487.146	2135.7769
487.355	2328.0907
487.564	2416.82462
487.773	2505.53993
487.982	2357.67065
488.191	2573.1192
488.4	2440.06144
488.609	2568.89585
488.818	2583.67737
489.027	2836.97858
489.236	2600.56982
489.445	2988.86435
489.654	2729.34858
489.863	2893.94456
490.072	2893.94456
490.281	2870.73745
490.49	2851.74853
490.698	3071.1035
490.907	2826.4282
491.116	3136.45614
491.325	3146.99545
491.534	3144.88762
491.743	2967.77366
491.952	3189.14864
492.16	3302.92917
492.369	3323.99422
492.578	3163.85751
492.787	3307.14232
492.996	3366.11915
493.204	3412.4485
493.413	3404.02562
493.622	3429.29341
493.831	3492.45163
494.039	3671.31017
494.248	3452.45331
494.457	3553.48904
494.665	3302.92917
494.874	3736.50699
495.083	3643.9641
495.291	3887.85958
495.5	3646.06776
495.709	3719.68378
495.917	3635.54928
496.126	3889.96097
496.335	3751.22629
496.543	4093.69985
496.752	3906.77142
496.96	3980.30193
497.169	3990.80425
497.377	3980.30193
497.586	3946.69106
497.794	4253.19382
498.003	4005.50665
498.211	4280.46341
498.42	4055.90723
498.628	4404.17961
498.837	3999.20575
499.045	4412.56442
499.254	4238.5087
499.462	4366.44368
499.671	4355.96022
499.879	4337.08864
500.087	4334.99169
500.296	4462.8659
500.504	4311.92381
500.713	4563.43081
500.921	4334.99169
501.129	4527.8199
501.338	4364.34703
501.546	4835.53547
501.754	4374.83005
501.962	4578.09226
502.171	4534.10464
502.379	4720.46077
502.587	4552.95768
502.795	4799.97426
503.004	4672.31833
503.212	4837.6271
503.42	4831.35214
503.628	4915.00137
503.837	4835.53547
504.045	4756.03664
504.253	4770.68362
504.461	4950.5412
504.669	4887.81939
504.877	4986.07438
505.085	4726.73934
505.294	5113.52087
505.502	4940.089
505.71	5228.35759
505.918	5019.51129
506.126	5157.37593
506.334	4988.16436
506.542	5366.06843
506.75	5088.45623
506.958	5376.49691
507.166	5071.74462
507.374	5322.26241
507.582	5257.5775
507.79	5491.17144
507.998	5322.26241
508.206	5559.942
508.414	5353.55348
508.622	5495.34009
508.83	5418.20497
509.037	5518.26594
509.245	5313.91723
509.453	5445.31016
509.661	5495.34009
509.869	5582.85982
510.077	5328.52104
510.285	5584.94312
510.492	5680.74927
510.7	5728.63362
510.908	5478.66495
511.116	5616.18974
511.324	5599.52553
511.531	5674.50256
511.739	5886.77139
511.947	5834.76744
512.155	5659.92609
512.362	5639.10055
512.57	5813.96172
512.778	5699.48811
512.985	5813.96172
513.193	5809.8003
513.401	5926.28454
513.608	5878.45175
513.816	5547.44017
514.024	6038.5386
514.231	5807.71955
514.439	5838.9283
514.646	5874.29179
514.854	6167.33823
515.061	5847.24973
515.269	6337.54758
515.477	5830.60648
515.684	6102.94971
515.892	6298.12283
516.099	6258.68965
516.307	6273.21865
516.514	6310.57366
516.722	6215.09577
516.929	6186.02744
517.136	6177.72136
517.344	6360.36857
517.551	6013.59919
517.759	6318.87375
517.966	6503.45417
518.173	6048.92902
518.381	6422.59331
518.588	6575.99156
518.796	6468.21147
519.003	6439.18304
519.21	6389.40939
519.418	6509.67277
519.625	6549.05241
519.832	6617.42879
520.039	6594.63946
520.247	6772.73641
520.454	6671.2834
520.661	6749.96603
520.868	6737.54466
521.076	6843.1001
521.283	6727.19288
521.49	6660.92795
521.697	6611.21379
521.904	6932.05184
522.112	6491.01633
522.319	6776.87618
522.526	6584.27975
522.733	7039.56554
522.94	6841.03096
523.147	7006.49089
523.354	6898.95842
523.561	7097.43238
523.768	6967.20725
523.975	7056.10072
524.183	7085.03382
524.39	7429.82943
524.597	7246.1526
524.804	7058.16751
525.011	7107.7639
525.218	7204.85296
525.425	7051.96706
525.632	7219.30884
525.838	7326.66154
526.045	7287.44341
526.252	7473.14375
526.459	7378.2523
526.666	7365.87176
526.873	7413.32623
527.08	7405.07411
527.287	7512.32468
527.494	7409.20021
527.701	7567.98948
527.907	7452.51907
528.114	7765.78311
528.321	7275.0571
528.528	7436.01778
528.735	7710.17334
528.941	7666.91069
529.148	7423.6409
529.355	7788.43456
529.562	7431.89224
529.768	8111.46025
529.975	7658.66912
530.182	7755.48616
530.388	7510.26272
530.595	7708.11343
530.802	7658.66912
531.008	7938.69408
531.215	8107.34843
531.422	8088.84424
531.628	7844.02287
531.835	7802.8478
532.042	7858.43218
532.248	8253.26919
532.455	8082.67581
532.661	8177.2385
532.868	7992.18465
533.074	8251.21466
533.281	8132.01815
533.487	8236.83242
533.694	8189.56964
533.9	8388.82472
534.107	8119.68365
534.313	8341.59532
534.52	8169.01733
534.726	8598.15458
534.933	8166.96199
535.139	8477.0958
535.345	8242.99636
535.552	8415.51508
535.758	8555.0734
535.965	8431.93829
536.171	8544.81475
536.377	8661.73552
536.584	8770.39721
536.79	8569.43472
536.996	8415.51508
537.203	8479.14819
537.409	8440.14944
537.615	8567.38316
537.821	8522.24407
538.028	8702.74601
538.234	8544.81475
538.44	8823.68415
538.646	8637.12567
538.853	8620.71761
539.059	8665.8369
539.265	9030.56846
539.471	8850.32303
539.677	8973.23251
539.883	8889.25132
540.09	8907.68877
540.296	8838.02854
540.502	9128.8269
540.708	9014.18816
540.914	9239.32044
541.12	8938.41466
541.326	9155.43173
541.532	9067.42005
541.738	9376.34624
541.944	9071.51433
542.15	9325.22591
542.356	9155.43173
542.562	9409.05787
542.768	9153.38531
542.974	9439.72124
543.18	9169.75621
543.386	9533.73296
543.592	9325.22591
543.798	9552.1226
544.004	9415.19084
544.21	9742.07477
544.415	9149.29241
544.621	9603.19825
544.827	9335.4508
545.033	9623.62576
545.239	9272.04981
545.445	9650.17919
545.651	9580.72617
545.856	9746.1583
546.062	9513.29851
546.268	9650.17919
546.474	9501.03707
546.679	9335.4508
546.885	9445.85347
547.091	9329.31592
547.297	9652.22165
547.502	9842.10383
547.708	9539.86298
547.914	9674.68772
548.119	9860.47261
548.325	9786.99025
548.531	9578.68317
548.736	9854.34982
548.942	9558.2522
549.147	9756.36686
549.353	9825.77502
549.559	9684.89896
549.764	10013.49949
549.97	9919.65274
550.175	9915.57175
550.381	10086.92358
550.586	10060.41145
550.792	10250.0233
550.997	10107.31591
551.203	10262.25224
551.408	10284.6707
551.614	10319.3142
551.819	10033.89692
552.025	10174.60067
552.23	10117.51155
552.435	10194.98702
552.641	10353.95386
552.846	10294.86036
553.052	10184.79402
553.257	10305.0497
553.462	10146.05747
553.668	10199.06412
553.873	10313.20092
554.078	10639.07936
554.283	10268.36652
554.489	10773.41104
554.694	10459.88688
554.899	10516.91327
555.105	10561.71273
555.31	10940.23631
555.515	10516.91327
555.72	10659.43604
555.925	10518.94974
556.131	10928.0322
556.336	10459.88688
556.541	10765.27121
556.746	10932.10028
556.951	10746.95591
557.156	10669.61392
557.361	10767.30619
557.567	10655.3648
557.772	10948.37215
557.977	10663.50722
558.182	10810.03791
558.387	10355.99137
558.592	10736.78032
558.797	10748.99099
559.002	11027.68725
559.207	10830.38454
559.412	11011.41887
559.617	10903.62276
559.822	11149.67789
560.027	10856.8334
560.232	10964.6433
560.437	11037.85463
560.642	11237.08091
560.847	11131.38177
561.051	11074.45494
561.256	11086.65426
561.461	11029.72075
561.666	11302.11258
561.871	11346.81582
562.076	10938.20232
562.281	11269.59806
562.485	11237.08091
562.69	11367.13387
562.895	11076.48819
563.1	11306.17671
563.305	11096.82006
563.509	11318.36887
563.714	11472.77189
563.919	11155.77641
564.123	11098.85319
564.328	11549.95246
564.533	10948.37215
564.737	11271.63029
564.942	11129.34881
565.147	11428.0821
565.351	11428.0821
565.556	11322.43284
565.761	11188.30022
565.965	11424.01916
566.17	11206.59368
566.374	11484.95921
566.579	11306.17671
566.784	11586.50695
566.988	11255.37213
567.193	11478.8656
567.397	11395.57748
567.602	11712.39419
567.806	11371.19736
568.011	11535.73601
568.215	11602.75242
568.42	11509.33281
568.624	11688.03161
568.828	11527.61212
569.033	11184.23489
569.237	11629.15007
569.442	11627.11954
569.646	11460.58423
569.85	11602.75242
570.055	11531.67409
570.259	11541.82883
570.463	11752.99566
570.668	11690.06187
570.872	11551.98334
571.076	11574.32245
571.281	11736.75549
571.485	11651.48534
571.689	11862.60238
571.893	11915.36722
572.098	12077.68629
572.302	11968.12652
572.506	11730.66528
572.71	11813.89135
572.914	11962.03919
573.119	11886.95608
573.323	11994.50413
573.527	11915.36722
573.731	12195.33659
573.935	11907.24992
574.139	11960.01006
574.343	11446.36485
574.547	12059.42791
574.751	12014.79368
574.955	12047.25532
575.159	11982.33002
575.364	11921.45512
575.568	11968.12652
575.772	12045.22652
575.976	11862.60238
576.18	12091.88681
576.383	12193.30835
576.587	12323.10118
576.791	12256.18041
576.995	12335.26776
577.199	12252.12436
577.403	12507.60159
577.607	12572.46798
577.811	12554.22496
578.015	12292.6836
578.219	12201.42126
578.422	12304.85082
578.626	12517.73739
578.83	12353.51718
579.034	12458.94749
579.238	12507.60159
579.442	12639.35475
579.645	12274.43229
579.849	12773.10877
580.053	12610.97936
580.257	12681.91563
580.46	12485.30225
580.664	12854.1597
580.868	12578.54887
581.071	12714.3412
581.275	12738.6594
581.479	12767.02959
581.682	12394.06945
581.886	12566.38703
582.09	12631.24762
582.293	12821.74039
582.497	12799.4513
582.7	12564.36003
582.904	12866.31658
583.107	12819.71414
583.311	12726.50041
583.515	12677.86232
583.718	12531.92724
583.922	13087.13395
584.125	12823.76664
584.329	12702.18179
584.532	12844.02882
584.735	12945.33162
584.939	12702.18179
585.142	13121.56804
585.346	12827.81912
585.549	13046.62148
585.753	12801.47761
585.956	13212.71063
586.159	12888.60369
586.363	13439.51631
586.566	12860.23817
586.769	13099.28731
586.973	12860.23817
587.176	13101.31286
587.379	12914.94217
587.582	13172.20395
587.786	12904.8121
587.989	13077.00601
588.192	13328.14502
588.395	13293.71867
588.599	13338.27019
588.802	13536.7035
589.005	12977.74575
589.208	13415.21814
589.411	13188.40684
589.615	13255.24072
589.818	13168.15319
590.021	13376.74489
590.224	13178.28007
590.427	13554.92516
590.63	13374.71994
590.833	13494.18516
591.036	13437.49148
591.239	13625.78446
591.442	13425.34245
591.645	13433.44182
591.848	13269.41699
592.051	13613.63745
592.254	13417.24301
592.457	13544.80205
592.66	13581.24483
592.863	13621.73547
593.066	13532.65421
593.269	13816.07239
593.472	13451.66518
593.675	13917.27864
593.878	13751.29661
594.081	13807.97558
594.284	14038.71741
594.486	13941.56713
594.689	13961.80725
594.892	13816.07239
595.095	13631.85792
595.298	13755.34519
595.5	13826.19333
595.703	13961.80725
595.906	14073.12347
596.109	14026.57394
596.311	13854.53159
596.514	14022.5261
596.717	13795.83029
596.92	14081.21891
597.122	14056.93247
597.325	13884.8934
597.528	13757.36947
597.73	14326.09028
597.933	14022.5261
598.136	14317.99581
598.338	14117.64797
598.541	14287.64128
598.743	14141.93361
598.946	14095.38585
599.148	14283.59398
599.351	14216.81243
599.554	14158.12386
599.756	14356.44432
599.959	14127.76702
600.161	14107.52886
600.363	14206.69383
600.566	14386.79799
600.768	14180.38525
600.971	14243.12056
601.173	14097.40969
601.376	14063.00411
601.578	14394.89224
601.78	14354.42073
601.983	14075.14733
602.185	14388.82156
602.388	14506.18578
602.59	14477.85692
602.792	14577.00681
602.995	14054.90858
603.197	13982.04712
603.399	14415.12776
603.601	14421.19839
603.804	14344.30275
604.006	14489.99789
604.208	14516.30316
604.41	14542.60821
604.613	14384.77443
604.815	14435.36313
605.017	14481.90392
605.219	14212.765
605.421	14307.87767
605.623	14067.05186
605.826	14835.99859
606.028	14459.64537
606.23	14411.08067
606.432	14496.06836
606.634	14599.26454
606.836	14384.77443
607.038	14560.81928
607.24	14572.95993
607.442	15028.21183
607.644	14678.17727
607.846	14751.01848
608.048	14611.40507
608.25	14407.03357
608.452	14028.59786
608.654	14593.19427
608.856	14218.83615
609.058	14407.03357
609.26	14564.86617
609.462	14540.58476
609.664	14846.11519
609.866	14613.42848
610.067	14710.55128
610.269	14479.88042
610.471	14216.81243
610.673	14516.30316
610.875	14467.73941
611.077	14526.42052
611.278	14552.72548
611.48	14496.06836
611.682	14457.62186
611.884	14874.44159
612.085	14447.50428
612.287	14751.01848
612.489	14457.62186
612.69	14540.58476
612.892	14621.52214
613.094	14694.36431
613.295	14494.04487
613.497	14338.23194
613.699	14599.26454
613.9	14716.62139
614.102	14423.22193
614.304	14382.75086
614.505	14552.72548
614.707	14615.4519
614.908	14666.03695
615.11	14878.48821
615.311	14787.43869
615.513	14714.59802
615.714	14815.76535
615.916	15003.93246
616.117	14445.48076
616.319	14560.81928
616.52	14453.57483
616.722	14791.48536
616.923	14558.79583
617.124	15018.09543
617.326	14445.48076
617.527	14435.36313
617.729	14419.17485
617.93	14854.20846
618.131	14815.76535
618.333	14386.79799
618.534	14445.48076
618.735	14927.04747
618.937	14577.00681
619.138	14987.74619
619.339	14599.26454
619.54	14692.34093
619.742	14532.49091
619.943	14740.90172
620.144	14504.1623
620.345	14744.94843
620.546	14615.4519
620.748	14951.327
620.949	14548.67858
621.15	14759.11188
621.351	14842.06855
621.552	15082.84028
621.753	15163.77115
621.954	15309.44685
622.155	14463.69239
622.356	14603.31139
622.558	14993.81605
622.759	15058.56099
622.96	14467.73941
623.161	14668.06034
623.362	14370.60941
623.563	15105.09629
623.764	14556.77238
623.965	14842.06855
624.166	14795.53203
624.366	14682.22403
624.567	14498.09185
624.768	14698.41106
624.969	14886.58144
625.17	14682.22403
625.371	14338.23194
625.572	14599.26454
625.773	14441.43371
625.973	14736.855
626.174	14680.20065
626.375	14999.8859
626.576	14795.53203
626.777	14910.86108
626.977	14838.02191
627.178	15046.42133
627.379	14791.48536
627.58	14657.94338
627.78	14678.17727
627.981	14890.62805
628.182	14866.34834
628.382	14925.02418
628.583	14591.17084
628.784	14920.97758
628.984	14469.76292
629.185	15204.23656
629.386	14643.77961
629.586	15155.67806
629.787	15145.56171
629.987	14823.85865
630.188	14953.35029
630.388	14977.62976
630.589	14738.87836
630.79	14961.44346
630.99	14532.49091
631.191	14937.16395
631.391	15018.09543
631.591	15038.32822
631.792	14682.22403
631.992	14945.25713
632.193	14983.69962
632.393	15062.60754
632.594	14906.81448
632.794	15275.05113
632.994	15060.58427
633.195	15105.09629
633.395	15153.65479
633.595	15137.46863
633.796	14736.855
633.996	15212.32965
634.196	15084.86356
634.397	15064.63082
634.597	14856.23178
634.797	15074.74719
634.997	14872.41828
635.198	15131.39881
635.398	14838.02191
635.598	15018.09543
635.798	15066.65409
635.998	14961.44346
636.199	14898.72127
636.399	15105.09629
636.599	15022.14199
636.799	15086.88683
636.999	14918.95428
637.199	14989.76948
637.399	14890.62805
637.599	14997.86261
637.799	14840.04523
637.999	15358.00566
638.199	15311.47013
638.399	15210.30637
638.599	15143.53844
638.799	15343.84266
638.999	15436.91418
639.199	15325.6331
639.399	15390.37831
639.599	15341.81937
639.799	15232.56237
639.999	15264.93475
640.199	14967.51332
640.399	15024.16527
640.599	14637.7094
640.799	15525.94009
640.998	15325.6331
641.198	15097.0032
641.398	15341.81937
641.598	15582.59357
641.798	15105.09629
641.997	15554.26676
642.197	15578.54687
642.397	15604.85045
642.597	15400.49478
642.796	15511.7768
642.996	15434.89088
643.196	15625.08406
643.395	15250.77183
643.595	15210.30637
643.795	15519.8701
643.994	15198.16675
644.194	15309.44685
644.394	15697.92575
644.593	15295.2839
644.793	15527.96342
644.992	15376.21526
645.192	15619.01397
645.392	15283.14423
645.591	15461.19386
645.791	15408.58797
645.99	15471.31042
646.19	15139.4919
646.389	15392.4016
646.589	15264.93475
646.788	15382.28514
646.987	15184.00385
647.187	15228.51582
647.386	15297.30718
647.586	15311.47013
647.785	15612.94388
647.984	15384.30843
648.184	15540.10341
648.383	15742.4407
648.582	15396.44819
648.782	15896.22358
648.981	16017.63614
649.18	15871.94163
649.38	16078.34431
649.579	15760.6515
649.778	15691.85556
649.977	15958.9528
650.177	15645.31775
650.376	15867.89465
650.575	15430.84427
650.774	15837.54249
650.973	15536.05674
651.173	15503.6835
651.372	15451.07732
651.571	15574.50018
651.77	15623.06069
651.969	15590.68697
652.168	15412.63457
652.367	15550.22008
652.566	15726.25339
652.765	15532.01008
652.964	15099.02647
653.163	15592.71032
653.362	15434.89088
653.561	15517.84677
653.76	15610.92052
653.959	15449.05401
654.158	15633.17752
654.357	15546.17341
654.556	15333.72623
654.755	15614.96724
654.954	15105.09629
655.153	15220.42273
655.352	15404.54137
655.551	15748.51096
655.749	15673.64506
655.948	15776.83895
656.147	15760.6515
656.346	15714.11295
656.545	15564.38346
656.743	15576.52353
656.942	15710.06614
657.141	15701.97254
657.34	15734.34703
657.538	15355.98237
657.737	15623.06069
657.936	16238.21591
658.135	15627.10742
658.333	15649.3645
658.532	15230.53909
658.731	15392.4016
658.929	15307.42357
659.128	15447.03071
659.326	15167.81769
659.525	15758.62807
659.724	15608.89716
659.922	15661.50476
660.121	15285.16751
660.319	15801.12025
660.518	15629.13079
660.716	15754.58122
660.915	15499.63686
661.113	15882.05909
661.312	15724.22998
661.51	15985.25898
661.709	15523.91676
661.907	15971.09408
662.105	15902.2941
662.304	15991.32967
662.502	15851.7068
662.701	15797.07335
662.899	15726.25339
663.097	16258.45357
663.296	15977.16474
663.494	16307.02469
663.692	15902.2941
663.891	16100.60431
664.089	15912.41165
664.287	15853.73028
664.485	15734.34703
664.684	15671.62167
664.882	15410.61127
665.08	15839.56596
665.278	15598.78038
665.476	15683.76199
665.675	15627.10742
665.873	15521.89343
666.071	15246.72528
666.269	15910.38813
666.467	15616.9906
666.665	15793.02646
666.863	15113.18937
667.061	15703.99594
667.259	15438.93748
667.457	15236.60891
667.655	15333.72623
667.853	15339.79609
668.051	15714.11295
668.249	15641.271
668.447	15277.0744
668.645	15374.19197
668.843	15758.62807
669.041	15695.90235
669.239	15204.23656
669.437	15455.12394
669.635	15236.60891
669.833	15501.66018
670.031	15135.44536
670.229	15483.45031
670.426	15418.70446
670.624	15665.55152
670.822	15297.30718
671.02	15442.98409
671.218	15457.14725
671.415	15230.53909
671.613	15007.97903
671.811	15101.04974
672.009	15068.67737
672.206	15388.35502
672.404	15414.65786
672.602	15335.74952
672.799	15602.82709
672.997	16013.58897
673.195	15766.72178
673.392	16078.34431
673.59	15689.83217
673.788	15677.69183
673.985	15453.10063
674.183	15376.21526
674.38	15408.58797
674.578	15633.17752
674.775	15762.67493
674.973	15566.4068
675.17	15710.06614
675.368	15236.60891
675.565	15414.65786
675.763	15355.98237
675.96	15212.32965
676.158	15175.91077
676.355	14811.71869
676.553	15248.74855
676.75	14975.60648
676.947	15208.2831
677.145	15262.91147
677.342	15414.65786
677.539	15012.02559
677.737	15438.93748
677.934	15173.8875
678.131	15252.7951
678.329	15208.2831
678.526	15052.49116
678.723	14981.67634
678.92	15058.56099
679.118	14633.66259
679.315	14785.41535
679.512	14918.95428
679.709	15339.79609
679.906	15028.21183
680.104	15250.77183
680.301	15212.32965
680.498	14785.41535
680.695	14769.22862
680.892	15238.63218
681.089	14706.50454
681.286	15250.77183
681.483	14840.04523
681.68	14925.02418
681.877	14884.55813
682.075	14840.04523
682.272	14805.6487
682.469	15171.86423
682.665	14736.855
682.862	14983.69962
683.059	15048.44461
683.256	14734.83164
683.453	15012.02559
683.65	14767.20527
683.847	14890.62805
684.044	14777.32199
684.241	14617.47531
684.438	15086.88683
684.635	14489.99789
684.831	14872.41828
685.028	14676.15388
685.225	14985.72291
685.422	14959.42017
685.619	14856.23178
685.815	14864.32503
686.012	14805.6487
686.209	14317.99581
686.405	14682.22403
686.602	14690.31755
686.799	14777.32199
686.996	14637.7094
687.192	14813.74202
687.389	14562.84272
687.586	14742.92507
687.782	14605.33481
687.979	14659.96678
688.175	14487.9744
688.372	14427.269
688.568	14309.90131
688.765	15014.04887
688.962	14332.16112
689.158	14825.88198
689.355	14502.13882
689.551	14415.12776
689.748	14526.42052
689.944	14664.01356
690.14	14599.26454
690.337	14842.06855
690.533	14793.5087
690.73	14506.18578
690.926	14686.27079
691.123	14595.21769
691.319	14702.4578
691.515	14643.77961
691.712	14334.18473
691.908	14492.02138
692.104	14123.71941
692.301	14467.73941
692.497	14295.73586
692.693	14619.49873
692.889	14415.12776
693.086	14447.50428
693.282	14362.51509
693.478	14534.51437
693.674	14504.1623
693.87	14591.17084
694.067	14536.53784
694.263	14664.01356
694.459	14374.65657
694.655	14469.76292
694.851	14455.59835
695.047	14550.70203
695.243	14411.08067
695.439	14429.29253
695.635	14224.90728
695.831	14461.66888
696.027	14419.17485
696.224	14208.71756
696.42	14198.59892
696.615	14198.59892
696.811	14089.31432
697.007	14160.14764
697.203	13803.92716
697.399	13878.82109
697.595	13977.99916
697.791	14172.29023
697.987	13856.55573
698.183	14297.7595
698.379	14214.78872
698.575	14253.23898
698.77	13646.0292
698.966	14058.95635
699.162	13951.68722
699.358	14111.57651
699.554	13741.17512
699.749	13807.97558
699.945	13892.98977
700.141	13824.16915
700.337	13668.29803
700.532	14135.86223
700.728	14065.02799
700.924	13917.27864
701.119	13789.7576
701.315	13949.66321
701.511	13532.65421
701.706	14056.93247
701.902	13749.27232
702.097	14160.14764
702.293	14210.74128
702.489	14324.06667
702.684	14058.95635
702.88	13816.07239
703.075	13680.4445
703.271	13637.93134
703.466	13520.50623
703.662	13998.23883
703.857	13451.66518
704.053	13901.08611
704.248	13542.77742
704.443	13838.33837
704.639	13411.16839
704.834	13682.4689
705.03	13605.53938
705.225	13518.48156
705.42	13532.65421
705.616	13860.604
705.811	13401.04395
706.006	13931.44698
706.202	13366.62011
706.397	13629.83343
706.592	13459.76435
706.787	13540.75279
706.983	13309.91946
707.178	13803.92716
707.373	13627.80895
707.568	13779.63639
707.763	13795.83029
707.959	13917.27864
708.154	13629.83343
708.349	13603.51485
708.544	13506.33342
708.739	13281.56791
708.934	13145.87364
709.129	13018.26158
709.324	12961.53885
709.519	13488.11098
709.714	13354.47024
709.909	13591.36762
710.104	13328.14502
710.299	13494.18516
710.494	13036.49305
710.689	13427.3673
710.884	13421.29274
711.079	13502.28402
711.274	13058.77542
711.469	13684.4933
711.664	13338.27019
711.859	13579.22026
712.054	13143.8482
712.249	13455.71477
712.443	12835.92401
712.638	13277.51762
712.833	13188.40684
713.028	13334.22014
713.223	12927.09809
713.417	13283.59305
713.612	13062.8267
713.807	13156.00078
714.002	13036.49305
714.196	13374.71994
714.391	12908.86414
714.586	13151.94994
714.78	13048.64715
714.975	13170.17857
715.17	12795.39867
715.364	13484.06151
715.559	12904.8121
715.754	12916.96817
715.948	12750.81819
716.143	12856.18586
716.337	12467.05676
716.532	12923.04614
716.726	12795.39867
716.921	13241.06424
717.115	13194.48285
717.31	13158.02619
717.504	13111.44051
717.699	13423.31759
717.893	13074.98041
718.088	13172.20395
718.282	13226.88754
718.476	13064.85233
718.671	12931.15003
718.865	13024.33878
719.059	12815.66162
719.254	12803.50391
719.448	12771.08238
719.642	12872.39495
719.837	12106.08696
720.031	12657.59545
720.225	12499.49283
720.419	12610.97936
720.614	12292.6836
720.808	12835.92401
721.002	12412.31709
721.196	12673.809
721.39	12473.13865
721.585	12467.05676
721.779	12679.88898
721.973	12560.30602
722.167	12606.92564
722.361	12667.72896
722.555	12365.68315
722.749	12396.097
722.943	12140.57149
723.137	12487.3295
723.331	12515.71024
723.525	12651.51527
723.719	12233.87177
723.913	12572.46798
724.107	12294.71149
724.301	12458.94749
724.495	12199.39305
724.689	12475.16594
724.883	12024.93816
725.077	12231.84367
725.271	12290.65571
725.465	12312.96216
725.659	12321.07339
725.853	12706.23495
726.046	12566.38703
726.24	12710.28809
726.434	12586.65664
726.628	12365.68315
726.822	12203.44948
727.015	12319.04559
727.209	12018.85149
727.403	12191.2801
727.596	12187.22358
727.79	12379.87647
727.984	12225.75932
728.177	12304.85082
728.371	12126.37225
728.565	12211.56225
728.758	12256.18041
728.952	12239.95603
729.146	12024.93816
729.339	12460.97482
729.533	12152.74198
729.726	12383.93164
729.92	11955.95179
730.113	12102.02982
730.307	12215.61859
730.5	12262.26444
730.694	12106.08696
730.887	12296.73937
731.081	12223.73119
731.274	12207.50588
731.468	12081.74362
731.661	12452.86546
731.854	12304.85082
732.048	12126.37225
732.241	12057.39917
732.435	12345.4064
732.628	12377.84887
732.821	12280.51613
733.014	12093.91543
733.208	12292.6836
733.401	12254.15239
733.594	12150.71359
733.788	12089.85819
733.981	12173.02554
734.174	12219.6749
734.367	11970.15562
734.56	12136.5146
734.754	12083.77227
734.947	12235.89986
735.14	12022.90928
735.333	12317.01779
735.526	12158.82713
735.719	11972.1847
735.912	11899.13248
736.105	11830.1289
736.298	11777.35487
736.491	12085.80092
736.684	12138.54305
736.877	12008.7069
737.07	11980.30097
737.263	12126.37225
737.456	12250.09632
737.649	12233.87177
737.842	12043.19772
738.035	11931.60144
738.228	11679.91047
738.421	12160.85549
738.614	12150.71359
738.807	11830.1289
739	11734.72543
739.192	11819.9805
739.385	11826.06956
739.578	11606.8137
739.771	11710.36402
739.964	11779.38474
740.156	11690.06187
740.349	11618.99731
740.542	11799.68305
740.735	11807.80213
740.927	11874.77938
741.12	11805.77237
741.313	11884.92665
741.505	11773.29508
741.698	11415.89316
741.891	11377.29253
742.083	11367.13387
742.276	11489.02157
742.468	12018.85149
742.661	11872.7499
742.854	11704.27347
743.046	11655.54618
743.239	11535.73601
743.431	11558.07594
743.624	11011.41887
743.816	11365.10211
744.009	11176.10411
744.201	11285.85564
744.393	11224.8863
744.586	11176.10411
744.778	11208.62624
744.971	11249.27515
745.163	11346.81582
745.355	11586.50695
745.548	11464.64682
745.74	11277.72693
745.932	11446.36485
746.125	11493.0839
746.317	11724.575
746.509	11287.8878
746.702	11700.21306
746.894	11363.07034
747.086	11438.23928
747.278	11517.45704
747.471	11436.20787
747.663	11391.51423
747.855	11350.87951
748.047	11298.04841
748.239	11350.87951
748.431	11259.43673
748.623	11330.56066
748.815	11283.82348
749.008	11468.70938
749.2	11342.75209
749.392	11448.39622
749.584	11086.65426
749.776	11405.73544
749.968	11228.95121
750.16	11312.27284
750.352	11271.63029
750.544	11159.84203
750.736	11308.20876
750.928	11312.27284
751.12	11102.91941
751.311	11194.39814
751.503	11350.87951
751.695	11261.46902
751.887	11109.01866
752.079	11163.90762
752.271	11308.20876
752.463	11519.48808
752.654	11210.65878
752.846	11115.11782
753.038	11180.16952
753.23	11220.82135
753.421	11216.75635
753.613	11174.07139
753.805	11062.25523
753.997	11011.41887
754.188	11072.42168
754.38	11161.87483
754.572	10818.1767
754.763	10925.99815
754.955	10974.81241
755.146	10919.89591
755.338	10987.01496
755.53	10958.54171
755.721	11017.51959
755.913	11029.72075
756.104	10787.65528
756.296	10903.62276
756.487	10842.59195
756.679	10974.81241
756.87	10557.6403
757.062	10722.534
757.253	10635.00788
757.445	10720.49876
757.636	10537.27741
757.827	10805.96845
758.019	10765.27121
758.21	10264.29035
758.401	10327.46506
758.593	10303.01186
758.784	10398.77599
758.975	10465.99733
759.167	10358.02886
759.358	10349.87881
759.549	10400.8132
759.74	10671.64945
759.932	10482.2913
760.123	10736.78032
760.314	10378.40308
760.505	10386.5524
760.696	9844.14487
760.888	10624.82895
761.079	10349.87881
761.27	10113.43333
761.461	10176.63937
761.652	10563.74892
761.843	10176.63937
762.034	10207.21816
762.225	10115.47245
762.416	10207.21816
762.607	9731.86568
762.798	10135.86281
762.989	9923.73367
763.18	9986.98068
763.371	9750.24177
763.562	10015.5393
763.753	10007.37998
763.944	10168.4845
764.135	10111.39421
764.326	10425.25881
764.517	10060.41145
764.708	10011.45967
764.899	10040.01587
765.089	10037.97624
765.28	10245.94688
765.471	9805.36266
765.662	9731.86568
765.853	10178.67805
766.043	9878.84018
766.234	9999.22043
766.425	9627.71107
766.615	9870.67697
766.806	9813.52778
766.997	9864.5544
767.187	9760.45017
767.378	10035.93658
767.569	9829.85731
767.759	9748.20004
767.95	9701.23613
768.141	9625.66842
768.331	9488.77506
768.522	9719.61427
768.712	9725.74005
768.903	9707.36232
769.093	9599.11256
769.284	9746.1583
769.474	9545.99286
769.665	9390.65809
769.855	9249.54883
770.046	9447.89752
770.236	9182.03368
770.426	9439.72124
770.617	9239.32044
770.807	9392.70258
770.998	9349.76496
771.188	9257.73124
771.378	9126.78026
771.569	9345.67528
771.759	9046.94764
771.949	9323.18089
772.139	9274.09525
772.33	9396.7915
772.52	9046.94764
772.71	9337.49573
772.9	8895.39729
773.09	9394.74705
773.281	9329.31592
773.471	9075.60853
773.661	9198.40268
773.851	9085.84374
774.041	9173.84877
774.231	9016.23576
774.421	9053.08955
774.611	9010.09291
774.802	8854.42105
774.992	9087.89073
775.182	8794.99271
775.372	9218.8624
775.562	9008.04526
775.752	9005.99759
775.942	9038.75819
776.131	9075.60853
776.321	9108.35968
776.511	9077.65561
776.701	8762.19812
776.891	8950.7039
777.081	8633.02377
777.271	8895.39729
777.461	8628.92179
777.651	8579.69224
777.84	8680.19116
778.03	8895.39729
778.22	8633.02377
778.41	8721.19832
778.599	8739.64914
778.789	8940.46291
778.979	8661.73552
779.169	8883.10517
779.358	8555.0734
779.548	8991.66342
779.738	8563.27998
779.927	8655.58331
780.117	8433.9911
780.307	8464.78103
780.496	8351.86345
780.686	8302.57196
780.875	8368.29146
781.065	8300.5179
781.254	8127.90673
781.444	8327.21911
781.633	8325.16529
781.823	8380.61165
782.012	8047.71797
782.202	8384.71822
782.391	8251.21466
782.581	8534.55563
782.77	8394.98432
782.96	8509.93181
783.149	7955.15419
783.338	8242.99636
783.528	8242.99636
783.717	8171.07265
783.906	8497.61888
784.096	8230.6683
784.285	8228.61356
784.474	8010.6974
784.663	8002.46972
784.853	7948.9818
785.042	7594.78549
785.231	7856.37376
785.42	8111.46025
785.61	7938.69408
785.799	7683.3928
785.988	7761.66439
786.177	7786.37544
786.366	7728.71164
786.555	7794.61179
786.744	7765.78311
786.933	7605.09068
787.122	7858.43218
787.312	7699.87356
787.501	7755.48616
787.69	7809.02459
787.879	7835.78852
788.068	7646.30614
788.257	7872.84047
788.445	7683.3928
788.634	8023.03832
788.823	7796.67082
789.012	7881.07332
789.201	7631.8817
789.39	7763.72376
789.579	7549.43629
789.768	7617.45622
789.957	7582.41855
790.145	7675.15191
790.334	7481.39301
790.523	7592.72439
790.712	7374.12554
790.9	7561.80528
791.089	7442.20593
791.278	7454.58164
791.467	7233.76364
791.655	7427.76661
791.844	7452.51907
792.033	7438.08052
792.221	7306.02141
792.41	7396.82164
792.599	7215.1787
792.787	7411.26323
792.976	7526.7578
793.164	7380.31565
793.353	7372.06213
793.541	7605.09068
793.73	7277.12154
793.918	7407.13717
794.107	6901.02693
794.295	7204.85296
794.484	6954.80021
794.672	7155.2817
794.861	7126.35923
795.049	7361.74474
795.238	7101.56505
795.426	7113.96254
795.614	7082.96732
795.803	7235.82852
795.991	7221.37388
796.179	7283.31473
796.368	6996.15388
796.556	6969.27502
796.744	6708.55825
796.932	7109.83013
797.121	6882.40953
797.309	7047.83331
797.497	7049.9002
797.685	6973.41047
797.874	6961.00383
798.062	7041.63252
798.25	6853.44549
798.438	7206.91815
798.626	6783.08566
798.814	7018.89456
799.002	6907.23232
799.19	6932.05184
799.378	6569.77518
799.566	6863.7903
799.755	6551.12479
799.943	6623.64358
800.131	6565.63081
800.318	7056.10072
800.506	6853.44549
800.694	6853.44549
800.882	6662.99908
801.07	6760.31654
801.258	6667.14129
801.446	6973.41047
801.634	6575.99156
801.822	6615.35715
802.01	6497.23535
802.197	6735.47435
802.385	6432.96206
802.573	6551.12479
802.761	6522.10935
802.949	6559.41409
803.136	6428.81463
803.324	6791.36466
803.512	6522.10935
803.699	6704.41696
803.887	6588.4237
804.075	6783.08566
804.262	6544.90758
804.45	6604.99859
804.638	6528.32733
804.825	6861.72138
805.013	6712.69944
805.201	6874.13454
805.388	6598.78318
805.576	6849.3074
805.763	6963.07166
805.951	6950.66434
806.138	6743.75545
806.326	6743.75545
806.513	6546.98001
806.701	6621.572
806.888	6859.65244
807.075	7178.00345
807.263	6689.92175
807.45	6869.99691
807.638	6708.55825
807.825	6735.47435
808.012	6538.69016
808.2	6859.65244
808.387	6658.85679
808.574	6809.99106
808.761	6787.22521
808.949	6940.32429
809.136	6737.54466
809.323	6752.03618
809.51	6602.92681
809.698	6669.21235
809.885	6476.50447
810.072	6857.58348
810.259	6584.27975
810.446	6662.99908
810.633	6553.19715
810.82	6687.85091
811.008	6737.54466
811.195	7047.83331
811.382	6760.31654
811.569	6729.26328
811.756	6758.24649
811.943	7068.50116
812.13	6638.14394
812.317	6867.92807
812.504	6799.64329
812.691	6954.80021
812.878	6764.45659
813.064	6929.98367
813.251	6754.1063
813.438	6863.7903
813.625	6646.42936
813.812	6749.96603
813.999	6642.2867
814.186	6634.0011
814.372	6426.74088
814.559	6675.42541
814.746	6520.03664
814.933	6712.69944
815.12	6642.2867
815.306	6795.50402
815.493	6704.41696
815.68	6766.52658
815.866	6534.5451
816.053	6907.23232
816.24	6700.27559
816.426	6874.13454
816.613	6503.45417
816.799	6762.38658
816.986	6735.47435
817.173	6708.55825
817.359	6497.23535
817.546	6801.71289
817.732	6480.65084
817.919	6799.64329
818.105	6843.1001
818.292	6778.94603
818.478	6642.2867
818.665	7060.23429
818.851	6673.35442
819.037	6766.52658
819.224	6555.26949
819.41	6412.22398
819.597	6229.62821
819.783	6625.71513
819.969	6325.09857
820.156	6443.33023
820.342	6237.93195
820.528	6426.74088
820.714	6210.94343
820.901	6335.4728
821.087	6432.96206
821.273	6602.92681
821.459	6302.2732
821.646	6594.63946
821.832	6435.03574
822.018	6575.99156
822.204	6314.72375
822.39	6689.92175
822.576	6397.70593
822.762	6683.70917
822.948	6406.0021
823.134	6532.47253
823.32	6341.69706
823.507	6488.94328
823.693	6306.42348
823.879	6167.33823
824.065	6302.2732
824.25	6186.02744
824.436	6028.14759
824.622	6196.40951
824.808	6173.56818
824.994	6277.36958
825.18	6071.78587
825.366	6138.26234
825.552	5924.20511
825.738	5972.02597
825.923	5841.00869
826.109	6148.64711
826.295	5720.3068
826.481	6028.14759
826.667	5936.68132
826.852	5988.65639
827.038	5980.34137
827.224	5901.32986
827.409	6057.24093
827.595	5868.05167
827.781	5674.50256
827.966	5965.78918
828.152	5747.36758
828.338	6053.08502
828.523	5597.4424
828.709	5811.88102
828.894	5480.74943
829.08	5961.63119
829.266	5897.17042
829.451	5745.28612
829.637	5580.7765
829.822	5786.91077
830.008	5584.94312
830.193	5911.72806
830.378	5768.18085
830.564	5903.40955
830.749	5897.17042
830.935	5716.14325
831.12	5401.52287
831.305	5755.69317
831.491	5553.69119
831.676	5741.12314
831.861	5578.69316
832.047	5630.76968
832.232	5507.84545
832.417	5672.42028
832.602	5299.31227
832.788	5670.33797
832.973	5313.91723
833.158	5603.69172
833.343	5478.66495
833.528	5749.44901
833.714	5491.17144
833.899	5682.83146
834.084	5299.31227
834.269	5637.01787
834.454	5094.7227
834.639	5449.47984
834.824	5395.2667
835.009	5370.23989
835.194	5140.67044
835.379	5363.98266
835.564	5123.96348
835.749	5176.16781
835.934	5161.55206
836.119	5234.61938
836.304	5199.13311
836.489	5165.72811
836.674	5194.95781
836.859	5199.13311
837.044	5107.25502
837.228	5240.88097
837.413	4958.90255
837.598	5232.53214
837.783	4998.61391
837.968	5149.02337
838.152	5075.92266
838.337	5326.43485
838.522	5103.07767
838.707	5228.35759
838.891	5046.67443
839.076	5245.05524
839.261	5004.88337
839.445	5265.9252
839.63	5165.72811
839.815	5155.28782
839.999	4896.18349
840.184	5098.90024
840.368	4636.72714
840.553	5055.03153
840.737	4699.53074
840.922	4910.81978
841.106	4705.80998
841.291	4856.45075
841.475	4885.7283
841.66	5042.49574
841.844	4689.06488
842.029	5044.58509
842.213	4831.35214
842.397	5011.15262
842.582	4839.71871
842.766	4902.45632
842.951	4774.86827
843.135	4952.63157
843.319	4485.91652
843.504	4714.182
843.688	4500.58371
843.872	4822.9852
844.056	4615.78813
844.241	4850.1764
844.425	4672.31833
844.609	4636.72714
844.793	4609.50598
844.977	4542.48399
845.161	4471.24825
845.346	4760.2216
845.53	4460.77026
845.714	4479.63025
845.898	4343.37936
846.082	4542.48399
846.266	4561.33623
846.45	4538.29436
846.634	4450.29171
846.818	4584.37541
847.002	4488.0119
847.186	4649.28948
847.37	4186.05333
847.554	4552.95768
847.738	4328.70071
847.922	4684.87838
848.106	4452.38747
848.29	4529.91484
848.473	4334.99169
848.657	4278.36587
848.841	4198.64383
849.025	4469.1527
849.209	4358.05696
849.392	4316.11816
849.576	4364.34703
849.76	4311.92381
849.944	4005.50665
850.127	4349.66989
850.311	4139.88167
850.495	4307.72937
850.678	3837.42009
850.862	4173.46207
851.046	4167.16616
851.229	4194.44708
851.413	4209.13533
851.596	4251.09601
851.78	4055.90723
851.964	4081.10306
852.147	3776.45715
852.331	4148.27728
852.514	3753.32897
852.698	4114.69284
852.881	3686.03365
853.065	3887.85958
853.248	3723.8897
853.431	4120.99033
853.615	3837.42009
853.798	4026.50833
853.982	3517.71036
854.165	3938.28753
854.348	3801.6852
854.532	3847.92926
854.715	3646.06776
854.898	3702.85933
855.081	3519.81514
855.265	3799.58297
855.448	3690.24018
855.631	3618.71874
855.814	3650.27502
855.997	3637.65302
856.181	3410.34281
856.364	3778.5596
856.547	3723.8897
856.73	3841.62382
856.913	3559.80238
857.096	3774.35469
857.279	3458.76926
857.462	3648.1714
857.645	3391.39076
857.828	3622.92649
858.011	3460.87455
858.194	3595.57477
858.377	3566.11554
858.56	3822.70641
858.743	3778.5596
858.926	3587.15822
859.109	3637.65302
859.292	3608.19903
859.475	3433.50446
859.658	3494.55663
859.841	3364.01307
860.023	3610.30301
860.206	3342.9513
860.389	3410.34281
860.572	3290.28932
860.755	3469.2955
860.937	3197.57849
861.12	3286.07589
861.303	3374.5433
861.486	3298.71595
861.668	3233.40242
861.851	3410.34281
862.034	3250.25908
862.216	3235.50956
862.399	3176.50337
862.581	3054.23584
862.764	2978.31919
862.947	3121.70043
863.129	2896.05421
863.312	3073.21189
863.494	2929.80666
863.677	2957.22775
863.859	2923.47836
864.042	3117.48436
864.224	2870.73745
864.406	3022.60632
864.589	2936.13482
864.771	2993.08231
864.954	2649.13126
865.136	2919.25942
865.318	2761.00812
865.501	2974.10103
865.683	2640.68627
865.865	2777.89197
866.048	2714.57311
866.23	2720.90553
866.412	2767.33966
866.594	2822.20794
866.777	2592.12369
866.959	2767.33966
867.141	2727.23783
867.323	2915.04042
867.505	2526.65973
867.687	2860.18819
867.869	2931.91606
868.052	2969.8828
868.234	2912.9309
868.416	2936.13482
868.598	2860.18819
868.78	3092.18666
868.962	2735.68072
869.144	2817.98764
869.326	2480.19468
869.508	2704.01881
869.69	2577.3425
869.872	2609.01576
870.054	2661.79838
870.236	2771.56063
870.417	2511.87599
870.599	2716.68393
870.781	2583.67737
870.963	2786.33357
871.145	2425.27452
871.327	2729.34858
871.508	2695.57513
871.69	2682.90924
871.872	2560.449
872.054	2902.38308
872.235	2600.56982
872.417	2826.4282
872.599	2796.88527
872.78	2877.06683
872.962	2621.6843
873.144	2708.24057
873.325	2761.00812
873.507	2817.98764
873.689	2566.78415
873.87	2670.24288
874.052	2421.04959
874.233	2727.23783
874.415	2429.49941
874.596	2556.2255
874.778	2513.98799
874.959	2488.64328
875.141	2387.24864
875.322	2775.78154
875.503	2484.419
875.685	2615.35008
875.866	2268.92511
876.048	2562.56073
876.229	2347.1066
876.41	2433.72425
876.592	2336.54231
876.773	2488.64328
876.954	2114.63926
877.136	2505.53993
877.317	2414.71212
877.498	2549.89017
877.679	2522.43586
877.86	2649.13126
878.042	2501.31583
878.223	2617.4615
878.404	2585.78897
878.585	2632.24107
878.766	2520.32391
878.947	2720.90553
879.128	2465.40921
879.309	2617.4615
879.49	2437.94905
879.672	2788.44394
879.853	2497.09169
880.034	2579.45414
880.215	2575.23086
880.396	2733.57002
880.576	2418.93711
880.757	2836.97858
880.938	2450.6232
881.119	2592.12369
881.3	2374.57261
881.481	2744.1234
881.662	2338.65519
881.843	2651.24248
882.023	2454.84783
882.204	2594.23524
882.385	2467.52145
882.566	2775.78154
882.747	2404.14945
882.927	2380.91067
883.108	2290.05653
883.289	2429.49941
883.469	2364.00896
883.65	2568.89585
883.831	2463.29696
884.011	2623.79568
884.192	2406.26201
884.373	2617.4615
884.553	2264.69872
884.734	2503.42789
884.914	2218.206
885.095	2492.86751
885.275	2344.99377
885.456	2592.12369
885.636	2332.31652
885.817	2532.99544
885.997	2501.31583
886.178	2389.36128
886.358	2150.57279
886.538	2380.91067
886.719	2450.6232
886.899	2649.13126
887.08	2513.98799
887.26	2598.45831
887.44	2490.7554
887.621	2682.90924
887.801	2636.46369
887.981	2606.90429
888.161	2408.37455
888.342	2725.12708
888.522	2568.89585
888.702	2625.90704
888.882	2602.68133
889.062	2541.4429
889.242	2446.39853
889.423	2594.23524
889.603	2423.16206
889.783	2716.68393
889.963	2492.86751
890.143	2746.23404
890.323	2450.6232
890.503	2530.88355
890.683	2581.56576
890.863	2524.5478
891.043	2459.07241
891.223	2752.56586
891.403	2499.20377
891.583	2750.45527
891.763	2480.19468
891.943	2583.67737
892.122	2294.2827
892.302	2359.78343
892.482	2306.96098
892.662	2404.14945
892.842	2387.24864
893.022	2632.24107
893.201	2387.24864
893.381	2659.68723
893.561	2484.419
893.741	2600.56982
893.92	2186.504
894.1	2480.19468
894.28	2311.187
894.459	2609.01576
894.639	2167.48189
894.819	2486.53114
894.998	2144.23174
895.178	2235.11294
895.357	2093.50084
895.537	2344.99377
895.716	2116.75305
895.896	2237.22627
896.075	2129.43569
896.255	2159.0274
896.434	2116.75305
896.614	2232.99961
896.793	1966.6555
896.973	2169.59549
897.152	2120.98063
897.331	2218.206
897.511	2201.29851
897.69	2232.99961
897.87	2011.05412
898.049	2199.18503
898.228	2059.67784
898.407	2319.63893
898.587	2025.85303
898.766	2125.20818
898.945	2017.39655
899.124	2070.24773
899.304	1789.03621
899.483	1943.39799
899.662	1907.45318
899.841	2085.04527
900.02	1744.62628
900.199	2032.19531
900.378	1892.65191
900.557	2108.29781
900.737	1723.47812
900.916	1816.52717
901.095	1685.4106
901.274	1888.42293
901.453	1727.70778
901.632	1818.64183
901.811	1668.49139
901.989	1865.16316
902.168	1698.09988
902.347	1924.36859
902.526	1651.57201
902.705	1638.88236
902.884	1465.45116
903.063	1588.123
903.242	1490.83176
903.42	1634.65246
903.599	1366.04401
903.778	1630.42255
903.957	1607.1579
904.135	1609.27288
904.314	1465.45116
904.493	1748.85587
904.672	1533.13258
904.85	1746.74107
905.029	1452.76085
905.207	1442.18558
905.386	1478.14147
905.565	1435.84043
905.743	1304.70876
905.922	1450.64579
906.1	1256.06471
906.279	1431.61033
906.457	1228.57084
906.636	1376.61917
906.814	1137.63359
906.993	1313.16871
907.171	1101.68373
907.35	1260.29458
907.528	1048.81888
907.707	1308.93873
907.885	1114.37177
908.063	1186.2736
908.242	1034.01733
908.42	1148.20733
908.598	1088.99587
908.777	1103.79839
908.955	1042.47532
909.133	1114.37177
909.311	898.70358
909.49	1103.79839
909.668	924.07269
909.846	1076.30819
910.024	940.98604
910.202	970.58551
910.38	773.98982
910.559	1050.93341
910.737	949.44289
910.915	1179.92914
911.093	1072.07901
911.271	1097.45443
911.449	1114.37177
911.627	1118.60115
911.805	949.44289
911.983	1281.44406
912.161	1042.47532
912.339	1256.06471
912.517	1059.39158
912.695	1118.60115
912.872	1127.05997
913.05	1040.36082
913.228	960.01411
913.406	1230.68574
913.584	1010.75834
913.762	1247.60501
913.939	1110.1424
914.117	1156.66639
914.295	1010.75834
914.473	1171.4699
914.65	1008.64392
914.828	913.50209
915.006	1017.10163
915.184	1103.79839
915.361	1000.18632
915.539	1103.79839
915.716	930.41514
915.894	1063.6207
916.072	831.05835
916.249	1017.10163
916.427	928.30098
916.604	1063.6207
916.782	911.388
916.959	1148.20733
917.137	932.52931
917.314	936.75766
917.492	697.90981
917.669	907.15983
917.847	839.51352
918.024	972.69981
918.201	807.80738
918.379	869.10773
918.556	894.4755
918.733	1110.1424
918.911	843.74116
919.088	890.24746
919.265	738.06144
919.442	873.33561
919.62	776.10334
919.797	809.92106
919.974	695.79667
920.151	824.71707
920.328	672.55294
920.506	721.15502
920.683	716.92852
920.86	864.87988
921.037	725.38156
921.214	894.4755
921.391	714.81528
921.568	759.19542
921.745	714.81528
921.922	735.9481
922.099	695.79667
922.276	824.71707
922.453	752.85512
922.63	788.78469
922.807	577.48009
922.984	719.04176
923.161	687.34425
923.338	746.51491
923.514	585.92998
923.691	664.10102
923.868	573.25523
924.045	653.53639
924.222	613.39353
924.399	672.55294
924.575	585.92998
924.752	611.28088
924.929	520.44902
925.105	602.83037
925.282	590.155
925.459	564.80566
925.635	423.30926
925.812	596.49263
925.989	459.205
926.165	640.85922
926.342	404.30748
926.518	581.70501
926.695	531.00957
926.871	509.88883
927.048	503.55289
927.224	518.33696
927.401	416.97519
927.577	547.90718
927.754	438.08931
927.93	497.21707
928.107	503.55289
928.283	516.2249
928.459	490.88139
928.636	427.53205
928.812	423.30926
928.988	442.31232
929.165	374.75181
929.341	433.86636
929.517	452.87013
929.693	528.89743
929.87	421.19789
930.046	393.75151
930.222	334.64583
930.398	476.09866
930.574	419.08653
930.751	419.08653
930.927	319.87153
931.103	400.08505
931.279	351.5318
931.455	512.00084
931.631	400.08505
931.807	402.19626
931.983	273.44377
932.159	459.205
932.335	328.31388
932.511	444.42385
932.687	357.86432
932.863	319.87153
933.039	376.86282
933.215	349.42099
933.391	222.80567
933.566	412.75256
933.742	292.43587
933.918	315.65046
934.094	290.32557
934.27	267.11341
934.445	260.78321
934.621	294.5462
934.797	233.35436
934.973	216.47669
935.148	167.96055
935.324	275.55393
935.5	258.67319
935.675	222.80567
935.851	218.58633
936.027	227.02509
936.202	292.43587
936.378	220.69599
936.553	222.80567
936.729	136.32547
936.904	155.30595
937.08	167.96055
937.255	79.39455
937.431	129.99903
937.606	87.82774
937.782	138.43433
937.957	199.6003
938.133	83.6111
938.308	138.43433
938.483	174.28813
938.659	81.50281
938.834	62.52924
939.009	81.50281
939.185	138.43433
939.36	79.39455
939.535	106.80373
939.71	70.96171
939.886	54.09713
940.061	39.34183
940.236	64.63732
940.411	62.52924
940.586	73.06989
940.761	51.98916
940.937	58.31314
941.112	20.37242
941.287	56.20513
941.462	119.45538
941.637	92.04447
941.812	43.55752
941.987	-9.13173
942.162	22.48004
942.337	45.6654
942.512	96.26129
942.687	-2.80981
942.862	87.82774
943.037	51.98916
943.212	92.04447
943.386	111.02086
943.561	24.58768
943.736	123.67278
943.911	70.96171
944.086	121.56407
944.26	39.34183
944.435	30.91075
944.61	33.01848
944.785	54.09713
944.959	56.20513
945.134	3.51233
945.309	54.09713
945.483	104.6952
945.658	119.45538
945.833	81.50281
946.007	16.15725
946.182	43.55752
946.357	28.80304
946.531	87.82774
946.706	73.06989
946.88	111.02086
947.055	28.80304
947.229	41.44967
947.404	45.6654
947.578	49.88122
947.752	77.2863
947.927	85.71941
948.101	121.56407
948.276	104.6952
948.45	58.31314
948.624	-0.70246
948.799	96.26129
948.973	66.74543
949.147	33.01848
949.321	37.23403
949.496	100.4782
949.67	39.34183
949.844	104.6952
950.018	115.23808
950.193	68.85356
950.367	62.52924
950.541	96.26129
950.715	81.50281
950.889	73.06989
951.063	96.26129
951.237	-2.80981
951.411	62.52924
951.585	127.89025
951.759	96.26129
951.933	58.31314
952.107	30.91075
952.281	56.20513
952.455	81.50281
952.629	51.98916
952.803	20.37242
952.977	20.37242
953.151	24.58768
953.325	33.01848
953.499	83.6111
953.672	79.39455
953.846	41.44967
954.02	170.06972
954.194	47.77329
954.368	92.04447
954.541	49.88122
954.715	146.86997
954.889	58.31314
955.062	37.23403
955.236	87.82774
955.41	33.01848
955.583	75.17808
955.757	70.96171
955.93	70.96171
956.104	24.58768
956.278	81.50281
956.451	33.01848
956.625	-4.91714
956.798	98.36974
956.972	70.96171
957.145	70.96171
957.319	28.80304
957.492	56.20513
957.665	54.09713
957.839	113.12946
958.012	85.71941
958.185	54.09713
958.359	102.58669
958.532	33.01848
958.705	75.17808
958.879	49.88122
959.052	58.31314
959.225	134.21663
959.398	56.20513
959.572	56.20513
959.745	49.88122
959.918	113.12946
960.091	7.72721
960.264	7.72721
960.438	66.74543
960.611	100.4782
960.784	-30.20322
960.957	41.44967
961.13	151.08791
961.303	62.52924
961.476	43.55752
961.649	-13.34623
961.822	-17.56062
961.995	16.15725
962.168	108.91229
962.341	125.7815
962.514	16.15725
962.686	47.77329
962.859	115.23808
963.032	106.80373
963.205	108.91229
963.378	81.50281
963.551	129.99903
963.723	37.23403
963.896	47.77329
964.069	39.34183
964.242	125.7815
964.414	16.15725
964.587	96.26129
964.76	20.37242
964.932	98.36974
965.105	-13.34623
965.278	41.44967
965.45	33.01848
965.623	100.4782
965.795	115.23808
965.968	153.19692
966.14	-2.80981
966.313	7.72721
966.485	56.20513
966.658	155.30595
966.83	30.91075
967.003	3.51233
967.175	-23.88203
967.348	92.04447
967.52	33.01848
967.692	20.37242
967.865	-9.13173
968.037	51.98916
968.209	14.04971
968.382	14.04971
968.554	39.34183
968.726	83.6111
968.898	54.09713
969.071	47.77329
969.243	22.48004
969.415	66.74543
969.587	24.58768
969.759	117.34672
969.932	20.37242
970.104	66.74543
970.276	79.39455
970.448	106.80373
970.62	56.20513
970.792	-30.20322
970.964	7.72721
971.136	11.94218
971.308	68.85356
971.48	92.04447
971.652	-30.20322
971.824	-4.91714
971.996	79.39455
972.168	-40.73804
972.339	-63.91243
972.511	49.88122
972.683	16.15725
972.855	81.50281
973.027	16.15725
973.199	24.58768
973.37	37.23403
973.542	96.26129
973.714	24.58768
973.886	66.74543
974.057	75.17808
974.229	-2.80981
974.401	7.72721
974.572	20.37242
974.744	-11.23899
974.915	51.98916
975.087	87.82774
975.259	51.98916
975.43	56.20513
975.602	100.4782
975.773	64.63732
975.945	7.72721
976.116	45.6654
976.288	87.82774
976.459	81.50281
976.63	-25.98912
976.802	9.83468
976.973	35.12624
977.145	20.37242
977.316	54.09713
977.487	70.96171
977.659	37.23403
977.83	28.80304
978.001	-38.63112
978.172	20.37242
978.344	83.6111
978.515	81.50281
978.686	20.37242
978.857	66.74543
979.028	47.77329
979.2	-21.77492
979.371	64.63732
979.542	28.80304
979.713	92.04447
979.884	79.39455
980.055	-13.34623
980.226	75.17808
980.397	-91.29638
980.568	96.26129
980.739	-32.31023
980.91	11.94218
981.081	41.44967
981.252	54.09713
981.423	117.34672
981.594	22.48004
981.765	37.23403
981.936	54.09713
982.106	-25.98912
982.277	47.77329
982.448	30.91075
982.619	-21.77492
982.79	11.94218
982.96	-44.95179
983.131	62.52924
983.302	7.72721
983.472	-53.37899
983.643	30.91075
983.814	56.20513
983.984	24.58768
984.155	30.91075
984.326	-11.23899
984.496	83.6111
984.667	45.6654
984.837	33.01848
985.008	49.88122
985.178	58.31314
985.349	100.4782
985.519	58.31314
985.69	3.51233
985.86	81.50281
986.031	16.15725
986.201	54.09713
986.371	-17.56062
986.542	3.51233
986.712	-30.20322
986.882	28.80304
987.053	66.74543
987.223	28.80304
987.393	-7.02445
987.563	-21.77492
987.734	37.23403
987.904	7.72721
988.074	24.58768
988.244	-51.27223
988.414	1.40492
988.585	64.63732
988.755	28.80304
988.925	47.77329
989.095	30.91075
989.265	14.04971
989.435	16.15725
989.605	73.06989
989.775	-4.91714
989.945	49.88122
990.115	7.72721
990.285	70.96171
990.455	24.58768
990.625	-2.80981
990.795	-30.20322
990.965	-61.80579
991.134	24.58768
991.304	-17.56062
991.474	-55.48573
991.644	-9.13173
991.814	-0.70246
991.984	47.77329
992.153	39.34183
992.323	-0.70246
992.493	-7.02445
992.662	45.6654
992.832	-13.34623
993.002	30.91075
993.171	37.23403
993.341	22.48004
993.511	-13.34623
993.68	-9.13173
993.85	73.06989
994.019	113.12946
994.189	-4.91714
994.358	60.42118
994.528	47.77329
994.697	20.37242
994.867	-11.23899
995.036	28.80304
995.206	22.48004
995.375	14.04971
995.544	70.96171
995.714	-13.34623
995.883	-28.09618
996.052	3.51233
996.222	35.12624
996.391	28.80304
996.56	-55.48573
996.73	-9.13173
996.899	-34.41722
997.068	-13.34623
997.237	41.44967
997.406	-53.37899
997.576	26.69535
997.745	7.72721
997.914	-19.66778
998.083	28.80304
998.252	54.09713
998.421	-21.77492
998.59	14.04971
998.759	51.98916
998.928	87.82774
999.097	-13.34623
999.266	-17.56062
999.435	-13.34623
999.604	-44.95179
999.773	33.01848
999.942	-21.77492
1000.111	70.96171
1000.28	79.39455
1000.448	-17.56062
1000.617	-2.80981
1000.786	26.69535
1000.955	-30.20322
1001.124	-30.20322
1001.292	-23.88203
1001.461	98.36974
1001.63	16.15725
1001.798	41.44967
1001.967	-4.91714
1002.136	83.6111
1002.304	56.20513
1002.473	33.01848
1002.642	-2.80981
1002.81	1.40492
1002.979	54.09713
1003.147	-25.98912
1003.316	56.20513
1003.484	-13.34623
1003.653	49.88122
1003.821	-11.23899
1003.99	26.69535
1004.158	-34.41722
1004.327	-9.13173
1004.495	66.74543
1004.663	5.61975
1004.832	-25.98912
1005	41.44967
1005.168	-9.13173
1005.337	30.91075
1005.505	-36.52418
1005.673	-21.77492
1005.842	3.51233
1006.01	5.61975
1006.178	49.88122
1006.346	14.04971
1006.514	49.88122
1006.683	24.58768
1006.851	22.48004
1007.019	28.80304
1007.187	-17.56062
1007.355	-4.91714
1007.523	-25.98912
1007.691	39.34183
1007.859	3.51233
1008.027	54.09713
1008.195	-2.80981
1008.363	-32.31023
1008.531	30.91075
1008.699	-4.91714
1008.867	41.44967
1009.035	3.51233
1009.203	3.51233
1009.37	-21.77492
1009.538	7.72721
1009.706	-0.70246
1009.874	-36.52418
1010.042	54.09713
1010.209	-11.23899
1010.377	30.91075
1010.545	54.09713
1010.713	9.83468
1010.88	39.34183
1011.048	18.26482
1011.216	66.74543
1011.383	11.94218
1011.551	3.51233
1011.718	45.6654
1011.886	45.6654
1012.054	-11.23899
1012.221	20.37242
1012.389	-21.77492
1012.556	22.48004
1012.724	-4.91714
1012.891	64.63732
1013.058	79.39455
1013.226	11.94218
1013.393	39.34183
1013.561	45.6654
1013.728	-2.80981
1013.895	64.63732
1014.063	54.09713
1014.23	-7.02445
1014.397	-47.05863
1014.565	20.37242
1014.732	7.72721
1014.899	58.31314
1015.066	-36.52418
1015.233	-34.41722
1015.401	1.40492
1015.568	45.6654
1015.735	-28.09618
1015.902	-9.13173
1016.069	-47.05863
1016.236	-7.02445
1016.403	-2.80981
1016.57	39.34183
1016.737	-38.63112
1016.904	-40.73804
1017.071	-15.45344
1017.238	45.6654
1017.405	58.31314
1017.572	79.39455
1017.739	-30.20322
1017.906	-4.91714
1018.073	28.80304
1018.24	68.85356
1018.407	20.37242
1018.573	30.91075
1018.74	140.5432
1018.907	7.72721
1019.074	11.94218
1019.241	33.01848
1019.407	-13.34623
1019.574	-21.77492
1019.741	-21.77492
1019.907	14.04971
1020.074	-38.63112
1020.241	11.94218
1020.407	-11.23899
1020.574	-38.63112
1020.74	41.44967
1020.907	20.37242
1021.073	7.72721
1021.24	81.50281
1021.406	49.88122
1021.573	62.52924
1021.739	-55.48573
1021.906	-25.98912
1022.072	30.91075
1022.239	-4.91714
1022.405	49.88122
1022.571	-9.13173
1022.738	73.06989
1022.904	49.88122
1023.07	28.80304
1023.237	56.20513
1023.403	28.80304
1023.569	-47.05863
1023.735	117.34672
1023.902	14.04971
1024.068	-4.91714
1024.234	89.9361
1024.4	54.09713
1024.566	22.48004
1024.732	-13.34623
1024.898	22.48004
1025.065	30.91075
1025.231	-4.91714
1025.397	11.94218
1025.563	-0.70246
1025.729	-44.95179
1025.895	83.6111
1026.061	39.34183
1026.227	-21.77492
1026.392	-15.45344
1026.558	39.34183
1026.724	11.94218
1026.89	-61.80579
1027.056	14.04971
1027.222	5.61975
1027.388	20.37242
1027.553	-28.09618
1027.719	-13.34623
1027.885	-63.91243
1028.051	7.72721
1028.216	-13.34623
1028.382	-34.41722
1028.548	-9.13173
1028.713	28.80304
1028.879	3.51233
1029.045	37.23403
1029.21	58.31314
1029.376	22.48004
1029.541	24.58768
1029.707	7.72721
1029.873	-17.56062
1030.038	-0.70246
1030.204	30.91075
1030.369	-30.20322
1030.534	20.37242
1030.7	16.15725
1030.865	-47.05863
1031.031	-25.98912
1031.196	28.80304
1031.361	-59.69913
1031.527	-23.88203
1031.692	14.04971
1031.857	22.48004
1032.023	11.94218
1032.188	-61.80579
1032.353	-4.91714
1032.518	-4.91714
1032.684	7.72721
1032.849	45.6654
1033.014	20.37242
1033.179	18.26482
1033.344	20.37242
1033.509	-15.45344
1033.674	-21.77492
1033.839	-76.55171
1034.004	16.15725
1034.17	-13.34623
1034.335	33.01848
1034.5	-21.77492
1034.664	-19.66778
1034.829	47.77329
1034.994	-68.12563
1035.159	-42.84492
1035.324	37.23403
1035.489	-17.56062
1035.654	49.88122
1035.819	11.94218
1035.984	64.63732
1036.148	7.72721
1036.313	-4.91714
1036.478	24.58768
1036.643	33.01848
1036.807	-2.80981
1036.972	11.94218
1037.137	20.37242
1037.301	-7.02445
1037.466	-28.09618
1037.631	49.88122
1037.795	62.52924
1037.96	20.37242
1038.124	28.80304
1038.289	37.23403
1038.454	33.01848
1038.618	47.77329
1038.783	11.94218
1038.947	14.04971
1039.111	-17.56062
1039.276	11.94218
1039.44	41.44967
1039.605	-21.77492
1039.769	-2.80981
1039.933	62.52924
1040.098	35.12624
1040.262	47.77329
1040.426	-13.34623
1040.591	-19.66778
1040.755	-4.91714
1040.919	14.04971
1041.083	11.94218
1041.248	20.37242
1041.412	28.80304
1041.576	-70.23219
1041.74	-11.23899
1041.904	-0.70246
1042.068	-4.91714
1042.232	43.55752
1042.397	-51.27223
1042.561	-38.63112
1042.725	26.69535
1042.889	5.61975
1043.053	20.37242
1043.217	11.94218
1043.381	-9.13173
1043.544	18.26482
1043.708	-97.61513
1043.872	7.72721
1044.036	5.61975
1044.2	-4.91714
1044.364	-51.27223
1044.528	98.36974
1044.691	11.94218
1044.855	-21.77492
1045.019	1.40492
1045.183	-11.23899
1045.346	22.48004
1045.51	20.37242
1045.674	1.40492
1045.837	79.39455
1046.001	-30.20322
1046.165	30.91075
1046.328	9.83468
1046.492	-2.80981
1046.655	-9.13173
1046.819	-4.91714
1046.983	96.26129
1047.146	-11.23899
1047.31	-40.73804
1047.473	20.37242
1047.636	16.15725
1047.8	-87.08375
1047.963	-80.7646
1048.127	-13.34623
1048.29	5.61975
