Data from absorb_only_2.23.25_USB4F045381__10__0115.txt Node

Date: Sun Feb 23 19:13:48 EST 2025
User: ssocol
Spectrometer: USB4F04538
Trigger mode: 4
Integration Time (sec): 2.600000E-3
Scans to average: 1
Electric dark correction enabled: true
Nonlinearity correction enabled: true
Boxcar width: 0
XAxis mode: Wavelengths
Number of Pixels in Spectrum: 3648
>>>>>Begin Spectral Data<<<<<
345.52	-46.18078
345.736	-46.18078
345.952	-46.18078
346.168	25.46587
346.384	25.46587
346.6	-35.64629
346.816	78.16474
347.032	-44.07393
347.248	19.14299
347.464	8.60532
347.68	-23.00407
347.896	-50.3944
348.112	-44.07393
348.328	-18.7898
348.544	17.0354
348.76	50.75953
348.975	42.32793
349.191	-23.00407
349.407	-107.26832
349.623	31.78897
349.839	-6.14641
350.055	-52.50118
350.27	10.7128
350.486	-84.09974
350.702	31.78897
350.918	-77.78048
351.133	-50.3944
351.349	-27.21824
351.565	19.14299
351.781	23.35822
351.996	50.75953
352.212	-1.93175
352.428	0.17561
352.644	-4.03909
352.859	23.35822
353.075	-60.92802
353.291	42.32793
353.506	-8.2537
353.722	8.60532
353.938	19.14299
354.153	14.92785
354.369	-29.32529
354.584	61.29953
354.8	-16.68263
355.016	6.49786
355.231	-67.24789
355.447	-48.28761
355.662	31.78897
355.878	44.4358
356.093	21.25059
356.309	42.32793
356.524	-27.21824
356.74	31.78897
356.955	0.17561
357.171	59.19149
357.386	-90.41875
357.602	-46.18078
357.817	31.78897
358.033	-39.86016
358.248	6.49786
358.464	-6.14641
358.679	-50.3944
358.895	-41.96706
359.11	-27.21824
359.325	-16.68263
359.541	-60.92802
359.756	76.05651
359.972	23.35822
360.187	-18.7898
360.402	-14.57544
360.618	2.283
360.833	-33.53931
361.048	57.08346
361.264	33.89672
361.479	27.57355
361.694	44.4358
361.909	19.14299
362.125	14.92785
362.34	-41.96706
362.555	-41.96706
362.77	-12.46822
362.986	-41.96706
363.201	10.7128
363.416	8.60532
363.631	6.49786
363.847	-6.14641
364.062	-1.93175
364.277	-88.31244
364.492	-6.14641
364.707	6.49786
364.922	-33.53931
365.138	-12.46822
365.353	-14.57544
365.568	8.60532
365.783	-18.7898
365.998	-94.6313
366.213	29.68125
366.428	-18.7898
366.643	-69.35446
366.858	-44.07393
367.073	-12.46822
367.288	23.35822
367.503	0.17561
367.718	14.92785
367.933	31.78897
368.148	29.68125
368.363	-79.88693
368.578	-35.64629
368.793	-27.21824
369.008	25.46587
369.223	-18.7898
369.438	-14.57544
369.653	-37.75323
369.868	-18.7898
370.083	-12.46822
370.298	-60.92802
370.513	-8.2537
370.728	-16.68263
370.943	-6.14641
371.157	-4.03909
371.372	-48.28761
371.587	4.39042
371.802	-44.07393
372.017	-33.53931
372.232	29.68125
372.446	-12.46822
372.661	-16.68263
372.876	67.62381
373.091	-35.64629
373.306	80.27299
373.52	31.78897
373.735	-23.00407
373.95	0.17561
374.165	2.283
374.379	23.35822
374.594	-31.43231
374.809	50.75953
375.023	-27.21824
375.238	36.00449
375.453	19.14299
375.667	21.25059
375.882	46.54368
376.097	-60.92802
376.311	2.283
376.526	-65.14129
376.741	33.89672
376.955	6.49786
377.17	23.35822
377.384	6.49786
377.599	-96.73754
377.813	17.0354
378.028	65.5157
378.242	40.22009
378.457	23.35822
378.672	23.35822
378.886	-63.03467
379.101	65.5157
379.315	-35.64629
379.53	-44.07393
379.744	17.0354
379.958	0.17561
380.173	54.97546
380.387	48.65159
380.602	-6.14641
380.816	31.78897
381.031	-10.36097
381.245	-8.2537
381.459	36.00449
381.674	44.4358
381.888	-33.53931
382.103	-31.43231
382.317	-18.7898
382.531	-14.57544
382.746	2.283
382.96	61.29953
383.174	14.92785
383.388	4.39042
383.603	36.00449
383.817	52.86748
384.031	44.4358
384.246	57.08346
384.46	0.17561
384.674	10.7128
384.888	10.7128
385.103	25.46587
385.317	-25.11117
385.531	76.05651
385.745	14.92785
385.959	33.89672
386.174	109.79086
386.388	-8.2537
386.602	31.78897
386.816	-33.53931
387.03	6.49786
387.244	-60.92802
387.458	-44.07393
387.672	-58.82135
387.887	6.49786
388.101	0.17561
388.315	2.283
388.529	-35.64629
388.743	4.39042
388.957	6.49786
389.171	99.24826
389.385	-18.7898
389.599	-1.93175
389.813	-14.57544
390.027	-8.2537
390.241	23.35822
390.455	29.68125
390.669	8.60532
390.883	-1.93175
391.097	33.89672
391.311	36.00449
391.525	2.283
391.738	-4.03909
391.952	-18.7898
392.166	14.92785
392.38	-1.93175
392.594	33.89672
392.808	42.32793
393.022	17.0354
393.236	73.9483
393.449	-18.7898
393.663	-16.68263
393.877	27.57355
394.091	10.7128
394.305	59.19149
394.518	80.27299
394.732	-25.11117
394.946	57.08346
395.16	-27.21824
395.373	25.46587
395.587	31.78897
395.801	50.75953
396.015	-12.46822
396.228	42.32793
396.442	-27.21824
396.656	14.92785
396.869	42.32793
397.083	6.49786
397.297	31.78897
397.51	25.46587
397.724	42.32793
397.938	40.22009
398.151	-12.46822
398.365	-16.68263
398.578	25.46587
398.792	52.86748
399.005	-12.46822
399.219	10.7128
399.433	2.283
399.646	19.14299
399.86	29.68125
400.073	40.22009
400.287	-4.03909
400.5	-29.32529
400.714	73.9483
400.927	-48.28761
401.141	61.29953
401.354	95.03138
401.567	-35.64629
401.781	19.14299
401.994	-29.32529
402.208	59.19149
402.421	2.283
402.635	40.22009
402.848	-31.43231
403.061	52.86748
403.275	-44.07393
403.488	59.19149
403.701	6.49786
403.915	69.73195
404.128	-8.2537
404.341	-18.7898
404.555	-33.53931
404.768	67.62381
404.981	14.92785
405.195	-1.93175
405.408	57.08346
405.621	65.5157
405.834	4.39042
406.048	-10.36097
406.261	-1.93175
406.474	42.32793
406.687	44.4358
406.9	14.92785
407.114	40.22009
407.327	-18.7898
407.54	-20.89695
407.753	99.24826
407.966	42.32793
408.179	40.22009
408.392	-1.93175
408.605	36.00449
408.819	-18.7898
409.032	84.48956
409.245	-31.43231
409.458	50.75953
409.671	14.92785
409.884	-23.00407
410.097	2.283
410.31	73.9483
410.523	23.35822
410.736	50.75953
410.949	48.65159
411.162	44.4358
411.375	40.22009
411.588	-1.93175
411.801	-27.21824
412.014	23.35822
412.227	42.32793
412.44	0.17561
412.653	-46.18078
412.865	46.54368
413.078	-35.64629
413.291	84.48956
413.504	73.9483
413.717	-18.7898
413.93	19.14299
414.143	78.16474
414.356	82.38126
414.568	-18.7898
414.781	38.11228
414.994	50.75953
415.207	10.7128
415.42	-1.93175
415.632	82.38126
415.845	17.0354
416.058	42.32793
416.271	0.17561
416.483	48.65159
416.696	57.08346
416.909	31.78897
417.121	33.89672
417.334	-6.14641
417.547	65.5157
417.759	40.22009
417.972	65.5157
418.185	29.68125
418.397	4.39042
418.61	69.73195
418.823	52.86748
419.035	-12.46822
419.248	25.46587
419.46	65.5157
419.673	145.63975
419.885	29.68125
420.098	48.65159
420.311	38.11228
420.523	42.32793
420.736	6.49786
420.948	27.57355
421.161	48.65159
421.373	92.92297
421.586	-35.64629
421.798	65.5157
422.01	40.22009
422.223	36.00449
422.435	44.4358
422.648	12.82031
422.86	6.49786
423.073	76.05651
423.285	164.62107
423.497	78.16474
423.71	44.4358
423.922	57.08346
424.134	-8.2537
424.347	95.03138
424.559	71.84011
424.771	76.05651
424.984	76.05651
425.196	38.11228
425.408	65.5157
425.621	40.22009
425.833	57.08346
426.045	149.85767
426.257	109.79086
426.47	132.98649
426.682	69.73195
426.894	48.65159
427.106	105.57375
427.318	59.19149
427.531	48.65159
427.743	86.59788
427.955	61.29953
428.167	61.29953
428.379	67.62381
428.591	67.62381
428.804	57.08346
429.016	63.4076
429.228	73.9483
429.44	120.334
429.652	95.03138
429.864	42.32793
430.076	128.76891
430.288	99.24826
430.5	149.85767
430.712	132.98649
430.924	82.38126
431.136	48.65159
431.348	116.11668
431.56	114.00805
431.772	99.24826
431.984	111.89944
432.196	65.5157
432.408	145.63975
432.62	132.98649
432.832	141.42191
433.044	99.24826
433.256	185.7134
433.468	132.98649
433.679	128.76891
433.891	86.59788
434.103	120.334
434.315	164.62107
434.527	160.40285
434.739	107.68229
434.95	111.89944
435.162	137.20416
435.374	120.334
435.586	128.76891
435.798	124.55141
436.009	78.16474
436.221	217.35571
436.433	158.29377
436.645	139.31302
436.856	97.13981
437.068	128.76891
437.28	149.85767
437.491	158.29377
437.703	192.04149
437.915	126.66015
438.126	156.18471
438.338	135.09531
438.55	179.38548
438.761	162.51195
438.973	223.68471
439.184	183.60407
439.396	124.55141
439.608	217.35571
439.819	223.68471
440.031	149.85767
440.242	200.47924
440.454	168.83937
440.665	198.36978
440.877	223.68471
441.088	175.16697
441.3	261.6624
441.511	204.69824
441.723	109.79086
441.934	270.10273
442.146	154.07568
442.357	225.79441
442.569	208.91732
442.78	143.53082
442.991	255.33235
443.203	286.98428
443.414	284.87402
443.626	303.86702
443.837	200.47924
444.048	217.35571
444.26	301.75662
444.471	211.02688
444.682	293.31517
444.894	278.54336
445.105	301.75662
445.316	373.52039
445.528	217.35571
445.739	360.85473
445.95	246.89255
446.161	314.41933
446.373	219.46535
446.584	213.13647
446.795	371.40941
447.006	322.8615
447.217	251.11241
447.429	270.10273
447.64	293.31517
447.851	267.99262
448.062	310.19835
448.273	305.97745
448.484	301.75662
448.695	388.29776
448.907	314.41933
449.118	310.19835
449.329	301.75662
449.54	373.52039
449.751	316.52984
449.962	360.85473
450.173	339.74668
450.384	346.07892
450.595	436.85761
450.806	379.85345
451.017	396.74233
451.228	343.96815
451.439	369.29844
451.65	502.32091
451.861	434.74613
452.072	455.86158
452.283	489.64947
452.494	447.41521
452.705	441.0806
452.915	491.76134
453.126	379.85345
453.337	460.08485
453.548	432.63468
453.759	470.64331
453.97	506.54484
454.181	512.88085
454.391	521.32906
454.602	550.89955
454.813	561.4611
455.024	664.98142
455.235	536.11396
455.445	607.93586
455.656	489.64947
455.867	538.22615
456.078	523.44114
456.288	529.77749
456.499	550.89955
456.71	605.82323
456.921	574.1354
457.131	614.27381
457.342	652.30387
457.553	525.55324
457.763	612.16115
457.974	846.73576
458.184	715.6958
458.395	840.39428
458.606	829.82532
458.816	850.96346
459.027	808.68807
459.237	922.83945
459.448	812.91545
459.659	817.14286
459.869	886.90028
460.08	876.33038
460.29	960.89506
460.501	1034.89837
460.711	952.43805
460.922	901.69849
461.132	1087.76234
461.343	969.35217
461.553	937.63857
461.764	1189.26961
461.974	1017.98265
462.184	1020.09709
462.395	1159.66232
462.605	1375.3854
462.816	1083.5331
463.026	1140.62947
463.236	1307.70499
463.447	1316.16495
463.657	1269.63557
463.867	1487.48294
464.078	1163.89189
464.288	1432.4916
464.498	1476.90769
464.709	1523.43867
464.919	1256.94593
465.129	1472.67759
465.339	1464.21738
465.55	1584.77425
465.76	1540.35894
465.97	1542.47397
466.18	1519.2086
466.391	1737.04823
466.601	1603.80918
466.811	1789.91734
467.021	1849.12766
467.231	2041.53246
467.441	1834.32541
467.651	2005.59254
467.862	1825.86688
468.072	2197.95217
468.282	2189.49816
468.492	2208.51948
468.702	2028.848
468.912	2316.29339
469.122	2231.76682
469.332	2415.59233
469.542	2440.9416
469.752	2487.4112
469.962	2476.8504
470.172	2694.34375
470.382	2643.67723
470.592	2690.12182
470.802	2614.11842
471.012	2757.66642
471.222	2882.16541
471.432	2977.0889
471.642	2873.72634
471.852	3071.982
472.062	3069.8736
472.272	3335.40374
472.482	3419.64282
472.691	3531.21568
472.901	3348.04139
473.111	3377.52679
473.321	3461.75174
473.531	3592.24325
473.741	3487.01365
473.95	3920.25386
474.16	3558.5748
474.37	3966.47308
474.58	3874.02489
474.79	4033.68344
474.999	3840.39774
475.209	3857.21195
475.419	4096.67399
475.628	4457.45211
475.838	4044.18316
476.048	4272.94715
476.258	4348.44675
476.467	4599.90788
476.677	4869.87018
476.886	4731.79693
477.096	4846.86486
477.306	4957.68321
477.515	4903.32753
477.725	5066.34785
477.935	4857.32217
478.144	5139.45228
478.354	5095.59303
478.563	5427.41423
478.773	5348.16484
478.982	5414.90342
479.192	5648.29879
479.401	5635.80296
479.611	5631.63749
479.82	5704.51951
480.03	5706.60143
480.239	6130.81955
480.449	5835.63429
480.658	6130.81955
480.868	6263.70574
481.077	6647.2924
481.287	6377.82819
481.496	6527.11829
481.705	6522.97297
481.915	6605.86183
482.124	6444.19422
482.333	6593.43086
482.543	6754.96885
482.752	6945.32205
482.961	7052.82825
483.171	7149.94515
483.38	6883.27149
483.589	7257.3364
483.799	7168.53638
484.008	7418.31172
484.217	7469.87832
484.426	7498.74971
484.636	7443.06538
484.845	7585.33859
485.054	7523.49325
485.263	7943.66654
485.472	7842.82204
485.682	7978.64187
485.891	8235.63385
486.1	8095.86917
486.309	8060.91353
486.518	8167.81839
486.727	8118.48443
486.936	8494.36952
487.146	8338.34364
487.355	8730.25307
487.564	8486.16039
487.773	8898.29951
487.982	8590.80402
488.191	8939.2681
488.4	8976.13377
488.609	9101.02517
488.818	9076.46148
489.027	9211.53119
489.236	9174.70138
489.445	9438.52884
489.654	9348.57214
489.863	9659.19995
490.072	9469.18871
490.281	9540.71436
490.49	9695.96069
490.698	9702.087
490.907	9893.97553
491.116	10032.70711
491.325	9796.00649
491.534	9912.34092
491.743	9910.30038
491.952	10102.04803
492.16	10193.79785
492.369	10095.93037
492.578	10450.55125
492.787	10491.28658
492.996	10521.83472
493.204	10643.999
493.413	10839.37059
493.622	10937.01582
493.831	10707.09982
494.039	10660.2842
494.248	10674.53311
494.457	11187.11451
494.665	11028.53454
494.874	11187.11451
495.083	11321.24752
495.291	11213.5382
495.5	11309.05545
495.709	11211.50567
495.917	11241.99252
496.126	11432.99144
496.335	11562.9838
496.543	11739.63139
496.752	11489.86789
496.96	11806.61811
497.169	11629.99612
497.377	11824.88558
497.586	11812.70734
497.794	12080.56023
498.003	12033.89895
498.211	12374.6385
498.42	12202.26635
498.628	12173.87067
498.837	12303.66791
499.045	12254.9974
499.254	12218.49181
499.462	12407.0794
499.671	12453.71019
499.879	12506.41907
500.087	12508.44624
500.296	12705.05278
500.504	12575.33952
500.713	12666.54673
500.921	12986.69317
501.129	12553.04252
501.338	12674.65344
501.546	13245.95852
501.754	12623.9849
501.962	13033.28569
502.171	13059.61944
502.379	13168.9971
502.587	12931.99418
502.795	13039.36279
503.004	13004.92534
503.212	13499.07823
503.42	13369.48881
503.628	13553.74414
503.837	13460.60801
504.045	13199.37738
504.253	13215.57978
504.461	13523.37451
504.669	13598.28481
504.877	13762.26148
505.085	13731.89701
505.294	13924.19416
505.502	13604.3584
505.71	13855.37498
505.918	13855.37498
506.126	14280.38986
506.334	13873.59213
506.542	14243.96376
506.75	13816.91581
506.958	14353.2403
507.166	14241.94007
507.374	14211.5845
507.582	14351.21671
507.79	14108.37212
507.998	14061.82351
508.206	14322.88622
508.414	14160.99087
508.622	14434.18274
508.83	14452.39445
509.037	14824.70171
509.245	14337.05151
509.453	14739.72142
509.661	14505.00541
509.869	14968.35636
510.077	14638.55249
510.285	14844.93492
510.492	15107.96259
510.7	15205.07959
510.908	14966.33307
511.116	15144.38147
511.324	14931.93711
511.531	15085.70659
511.739	15199.00978
511.947	15103.91604
512.155	15029.05486
512.362	15136.28839
512.57	15178.77707
512.778	15103.91604
512.985	14942.05358
513.193	15267.80105
513.401	15316.35973
513.608	15368.96514
513.816	15366.94185
514.024	15571.29655
514.231	15518.68983
514.439	15923.37236
514.646	15731.1433
514.854	15589.50668
515.061	15316.35973
515.269	15769.58831
515.477	15706.86242
515.684	15969.91368
515.892	15834.33867
516.099	16103.47114
516.307	16073.11661
516.514	16083.23475
516.722	16109.54209
516.929	16154.06281
517.136	16322.03473
517.344	16188.46573
517.551	16295.72506
517.759	16301.7965
517.966	16473.82757
518.173	16512.28356
518.381	16247.15419
518.588	16613.48723
518.796	16552.76437
519.003	16745.06041
519.21	16815.91167
519.418	16554.78844
519.625	16761.25472
519.832	16738.98759
520.039	17014.31168
520.247	17026.45945
520.454	16828.0579
520.661	17328.16134
520.868	17265.38585
521.076	17401.06555
521.283	16987.99187
521.49	17109.47179
521.697	17366.63807
521.904	17528.65758
522.112	17445.62009
522.319	17710.954
522.526	17324.11122
522.733	17749.44222
522.94	17303.86081
523.147	17652.21114
523.354	17538.78447
523.561	17769.69967
523.768	17692.72316
523.975	17960.13643
524.183	17830.47405
524.39	17998.63272
524.597	17852.75876
524.804	17913.53737
525.011	17794.00905
525.218	17676.51819
525.425	18225.58454
525.632	17939.87574
525.838	18349.21161
526.045	18172.89523
526.252	18041.18274
526.459	18172.89523
526.666	18081.70803
526.873	18428.25919
527.08	18326.91717
527.287	18440.42086
527.494	18371.50649
527.701	18663.40951
527.907	18353.26519
528.114	18639.08119
528.321	18728.28778
528.528	18997.98164
528.735	19115.61479
528.941	18872.25089
529.148	18736.39784
529.355	18880.36209
529.562	18653.27264
529.768	19008.12189
529.975	18906.72391
530.182	19121.69963
530.388	19253.54699
530.595	19170.37972
530.802	19160.23784
531.008	19653.25249
531.215	19458.45201
531.422	19259.63267
531.628	19359.03737
531.835	19549.75995
532.042	19434.10465
532.248	19726.31259
532.455	19620.78307
532.661	19890.7177
532.868	19614.69517
533.074	19821.70479
533.281	19842.0022
533.487	19831.85344
533.694	20065.30144
533.9	20217.5801
534.107	19947.5555
534.313	20266.31427
534.52	20103.87646
534.726	20331.29692
534.933	20138.39224
535.139	20134.3315
535.345	20241.94688
535.552	20264.28363
535.758	20564.86378
535.965	20532.36421
536.171	20505.95909
536.377	20922.4294
536.584	20388.16027
536.79	20572.98884
536.996	20865.53538
537.203	20696.90428
537.409	20501.89683
537.615	20672.52625
537.821	20715.1882
538.028	21300.44977
538.234	21121.58385
538.44	20997.61574
538.646	20741.5989
538.853	20979.32665
539.059	21113.45433
539.265	21129.71344
539.471	21099.22782
539.677	21393.9603
539.883	20912.26952
540.09	21385.82861
540.296	21434.61969
540.502	21749.78373
540.708	21408.1909
540.914	21772.15379
541.12	21770.12013
541.326	21993.84594
541.532	21869.77407
541.738	21757.91824
541.944	21654.20788
542.15	22205.41078
542.356	22341.72867
542.562	22272.55036
542.768	22067.07532
542.974	22166.75649
543.18	21949.09707
543.386	22093.52047
543.592	22250.17005
543.798	22492.30777
544.004	22543.18355
544.21	22553.35897
544.415	22447.53894
544.621	22946.19714
544.827	22679.54156
545.033	22960.44756
545.239	22767.06321
545.445	23031.70213
545.651	22708.03628
545.856	23072.42085
546.062	22807.77314
546.268	23019.48677
546.474	22608.30779
546.679	22258.30829
546.885	22677.50625
547.091	22726.35467
547.297	22581.85063
547.502	22958.41178
547.708	22801.66657
547.914	22903.44688
548.119	23082.60074
548.325	23023.55854
548.531	22732.46086
548.736	23019.48677
548.942	22933.98263
549.147	22838.30649
549.353	23475.60636
549.559	23296.3973
549.764	23039.84577
549.97	23054.09726
550.175	23459.31362
550.381	23693.54057
550.586	23192.54878
550.792	23618.17621
550.997	23648.72883
551.203	23669.09763
551.408	24160.07373
551.614	23760.76089
551.819	23728.16882
552.025	24141.73557
552.23	24363.84578
552.435	24335.31609
552.641	24367.9215
552.846	24475.93168
553.052	24166.1865
553.257	24198.78835
553.462	24475.93168
553.668	24170.26169
553.873	24276.22052
554.078	24294.56028
554.283	24437.21021
554.489	24490.19771
554.694	24520.76822
554.899	24469.8177
555.105	24755.16079
555.31	24712.35623
555.515	24585.98719
555.72	24620.63582
555.925	24427.0205
556.131	24875.42687
556.336	25258.70116
556.541	25366.76594
556.746	25046.66724
556.951	25191.41859
557.156	24853.00376
557.361	25332.103
557.567	25230.15675
557.772	24789.81288
557.977	24742.93081
558.182	25120.06089
558.387	25032.39659
558.592	25289.28492
558.797	25187.34093
559.002	25026.28063
559.207	25240.35113
559.412	25476.87573
559.617	25079.28628
559.822	25264.81787
560.027	25556.40319
560.232	25580.87379
560.437	25258.70116
560.642	25815.39802
560.847	25837.83209
561.051	25792.96417
561.256	25786.84588
561.461	26094.82007
561.666	25642.05154
561.871	25890.85899
562.076	25438.13271
562.281	25489.11052
562.485	25560.4816
562.69	25376.96103
562.895	25491.14966
563.1	25554.36398
563.305	25497.26709
563.509	25688.95569
563.714	25693.03436
563.919	25858.22691
564.123	26121.33632
564.328	25933.68932
564.533	26051.98676
564.737	25854.14793
564.942	26013.23349
565.147	26653.76056
565.351	26425.2738
565.556	26266.16095
565.761	26111.13773
565.965	26347.75603
566.17	26043.82812
566.374	26241.68294
566.579	26039.74882
566.784	26359.99552
566.988	26408.95407
567.193	26300.83853
567.397	26333.4767
567.602	26712.92546
567.806	26239.64312
568.011	26625.19865
568.215	26670.08178
568.42	26364.07537
568.624	26698.64416
568.828	26192.72767
569.033	26488.51369
569.237	26959.79929
569.442	26839.42014
569.646	26541.55479
569.85	26933.27464
570.055	27180.16694
570.259	26668.04162
570.463	26800.65504
570.668	26731.28724
570.872	26800.65504
571.076	26912.87123
571.281	26586.43653
571.485	27261.78858
571.689	27682.17247
571.893	27216.89642
572.098	27345.45295
572.302	27169.96438
572.506	27139.35691
572.71	27151.59986
572.914	27547.48062
573.119	27333.20925
573.323	27214.85588
573.527	27527.07323
573.731	27690.33579
573.935	27520.95104
574.139	27457.68902
574.343	27061.81936
574.547	27345.45295
574.751	27433.20083
574.955	27394.42822
575.159	27420.9568
575.364	27780.13347
575.568	27927.08003
575.772	28029.12976
575.976	27812.78774
576.18	27592.37732
576.383	27865.85157
576.587	28039.33488
576.791	27808.70594
576.995	27906.67043
577.199	27490.34024
577.403	27741.35692
577.607	28145.46987
577.811	28133.22337
578.015	27743.39778
578.219	27996.47353
578.422	28157.71641
578.626	28351.62519
578.83	28294.47211
579.034	28404.69667
579.238	28388.36691
579.442	28806.83845
579.645	28084.23778
579.849	28506.75923
580.053	28590.45251
580.257	28543.5024
580.46	28561.87412
580.664	28886.4551
580.868	28655.77533
581.071	28876.24775
581.275	28957.90728
581.479	28825.21138
581.682	28723.14061
581.886	28723.14061
582.09	28708.85091
582.293	29294.7704
582.497	28749.67876
582.7	29098.77387
582.904	29194.7293
583.107	29374.39673
583.311	28804.79702
583.515	28919.11879
583.718	28694.56126
583.922	29302.93713
584.125	28829.29427
584.329	29217.18729
584.532	29127.3561
584.735	29204.93746
584.939	29223.31222
585.142	29539.77963
585.346	29225.35386
585.549	29353.97957
585.753	29433.6071
585.956	29141.64729
586.159	29329.47912
586.363	29839.9369
586.566	29874.65049
586.769	29445.85763
586.973	29262.10364
587.176	29356.02128
587.379	29425.4401
587.582	29098.77387
587.786	29421.3566
587.989	29786.84615
588.192	29539.77963
588.395	29903.23839
588.599	29795.01391
588.802	30219.76219
589.005	29909.3644
589.208	30205.46696
589.411	30056.39162
589.615	30168.70808
589.818	30278.98587
590.021	30444.40914
590.224	30238.14184
590.427	30405.60543
590.63	30389.26716
590.833	30609.84058
591.036	30223.84655
591.239	30487.29798
591.442	30538.35684
591.645	30701.75058
591.848	30910.08997
592.051	30344.33732
592.254	30411.73231
592.457	30744.64283
592.66	30560.82299
592.863	30748.72784
593.066	30291.23918
593.269	30922.34568
593.472	30748.72784
593.675	31555.63031
593.878	31461.64946
594.081	30824.30145
594.284	30597.58611
594.486	31036.73472
594.689	31267.56951
594.892	30711.96297
595.095	30989.75296
595.298	30979.53964
595.5	31004.05168
595.703	31455.5204
595.906	31020.39315
596.109	31255.31231
596.311	31424.8753
596.514	31361.54326
596.717	31226.71239
596.92	32135.94361
597.122	31294.12697
597.325	31461.64946
597.528	31680.26265
597.73	32093.02785
597.933	31443.26232
598.136	31786.51178
598.338	31420.78932
598.541	31862.11511
598.743	32031.72116
598.946	31324.77053
599.148	31600.57894
599.351	31837.59483
599.554	32254.47753
599.756	32084.85352
599.959	32007.19898
600.161	31557.67341
600.363	32066.4614
600.566	31905.02624
600.768	31896.85263
600.971	32005.15548
601.173	31962.24238
601.376	31949.98166
601.578	31992.89451
601.78	32072.59209
601.983	31911.15647
602.185	32283.09022
602.388	31784.46848
602.59	31735.42986
602.792	32113.46381
602.995	31925.46041
603.197	31849.85494
603.399	32240.17134
603.601	31966.32931
603.804	31706.82448
604.006	31921.37356
604.208	32107.333
604.41	31608.75151
604.613	31794.68499
604.815	32197.25339
605.017	32442.51154
605.219	32115.50742
605.421	31512.72557
605.623	31896.85263
605.826	32579.46121
606.028	32162.51095
606.23	32393.45741
606.432	32344.40455
606.634	32853.39247
606.836	31800.81492
607.038	32495.65497
607.24	32585.59353
607.442	32399.5891
607.644	32281.04645
607.846	32575.37301
608.048	33018.99968
608.25	32409.80864
608.452	32393.45741
608.654	32162.51095
608.856	32043.98236
609.058	32113.46381
609.26	32603.9906
609.462	32467.03909
609.664	32603.9906
609.866	32587.63764
610.067	32452.73131
610.269	32283.09022
610.471	32090.98427
610.673	32321.9224
610.875	32332.14153
611.077	32595.8141
611.278	32340.31686
611.48	32395.5013
611.682	32575.37301
611.884	32792.06074
612.085	32393.45741
612.287	32859.52576
612.489	32924.94904
612.69	32945.39436
612.892	32843.17036
613.094	32951.528
613.295	32452.73131
613.497	32704.15584
613.699	32534.49152
613.9	32250.39004
614.102	32718.46563
614.304	32485.43496
614.505	32528.35938
614.707	32618.29957
614.908	31960.19892
615.11	32442.51154
615.311	32440.46759
615.513	32291.26536
615.714	32775.706
615.916	32800.23817
616.117	32291.26536
616.319	32982.19659
616.52	32904.50398
616.722	33094.6532
616.923	33100.78743
617.124	32959.70624
617.326	32554.93215
617.527	32914.72648
617.729	32665.31558
617.93	32559.0203
618.131	32569.24073
618.333	32528.35938
618.534	32687.80194
618.735	32765.48436
618.937	32718.46563
619.138	32718.46563
619.339	33000.59802
619.54	32742.99698
619.742	32307.61572
619.943	32638.74116
620.144	32563.10847
620.345	32765.48436
620.546	32802.28254
620.748	32879.97026
620.949	32211.55927
621.15	33016.95504
621.351	32937.2162
621.552	33072.16122
621.753	33100.78743
621.954	33282.78106
622.155	32640.78533
622.356	33119.19027
622.558	33454.57132
622.759	33276.64608
622.96	32622.38787
623.161	32931.08261
623.362	32834.99271
623.563	32953.57256
623.764	32389.36962
623.965	32495.65497
624.166	32689.84617
624.366	32595.8141
624.567	32867.70353
624.768	33053.75894
624.969	32221.77782
625.17	32477.25899
625.371	32612.16714
625.572	32949.48345
625.773	32849.30361
625.973	33002.64264
626.174	33143.72775
626.375	33213.25277
626.576	33125.3246
626.777	33687.74978
626.977	33227.56714
627.178	33479.11452
627.379	33211.20787
627.58	32710.28859
627.78	32740.95269
627.981	32732.77554
628.182	33049.66958
628.382	33665.24831
628.583	33358.448
628.784	33102.83218
628.984	32830.9039
629.185	33466.84287
629.386	32963.79537
629.586	33366.62846
629.787	32542.66775
629.987	32957.66167
630.188	32722.55416
630.388	33440.25466
630.589	32800.23817
630.79	33501.61283
630.99	33671.38503
631.191	33622.29203
631.391	33691.841
631.591	33630.47407
631.792	33198.93852
631.992	33655.02049
632.193	33667.29388
632.393	33286.87106
632.594	33033.31222
632.794	33728.66256
632.994	33393.21525
633.195	33205.07318
633.395	33430.02857
633.595	32976.06282
633.796	33084.42953
633.996	33517.97548
634.196	33947.56866
634.397	34320.00687
634.597	33571.15544
634.797	33587.51894
634.997	32996.5088
635.198	33313.45637
635.398	33151.90699
635.598	33767.53092
635.798	33657.06605
635.998	33736.84527
636.199	33667.29388
636.399	33612.06456
636.599	33587.51894
636.799	33677.52179
636.999	33123.27982
637.199	33256.19632
637.399	33172.3553
637.599	33344.13233
637.799	33440.25466
637.999	34279.07356
638.199	33824.8128
638.399	33636.61063
638.599	33585.47349
638.799	34201.30446
638.999	33974.1674
639.199	34195.16503
639.399	33822.76697
639.599	34197.2115
639.799	33456.61657
639.999	33712.29729
640.199	33927.10848
640.399	33697.97785
640.599	32924.94904
640.799	34385.50339
640.998	33947.56866
641.198	33472.97868
641.398	34047.82859
641.598	34232.00214
641.798	33925.06249
641.997	33824.8128
642.197	33806.40048
642.397	34526.74406
642.597	33994.62838
642.796	34101.03123
642.996	33804.35468
643.196	34004.859
643.395	33765.48519
643.595	33734.79959
643.795	34164.46836
643.994	34221.76948
644.194	33479.11452
644.394	33745.02804
644.593	34082.61465
644.793	34393.69074
644.992	33798.21731
645.192	33923.01649
645.392	33618.20103
645.591	34217.67645
645.791	34184.93271
645.99	33908.69463
646.19	33820.72115
646.389	34096.93863
646.589	33810.49208
646.788	34489.89683
646.987	33624.33754
647.187	34158.32913
647.386	34053.96723
647.586	34436.67535
647.785	34256.56089
647.984	34336.38063
648.184	34150.14354
648.383	34049.8748
648.582	33851.40885
648.782	34387.55022
648.981	34356.84817
649.18	34135.8189
649.38	34811.33206
649.579	34753.99836
649.778	34596.34801
649.977	35020.21993
650.177	34465.33273
650.376	34852.2868
650.575	34371.17569
650.774	34864.57356
650.973	34520.60277
651.173	34266.79386
651.372	34481.70873
651.571	34500.13204
651.77	34414.15938
651.969	34899.38694
652.168	34616.82067
652.367	34436.67535
652.566	34463.28575
652.765	34606.58429
652.964	34283.16682
653.163	34702.81042
653.362	34717.14277
653.561	34842.04795
653.76	34962.87349
653.959	34418.25316
654.158	35089.85977
654.357	34105.12384
654.556	33628.42856
654.755	34090.79976
654.954	34191.07209
655.153	34238.14177
655.352	34614.77339
655.551	34889.14758
655.749	34960.82547
655.948	34520.60277
656.147	34532.8854
656.346	34403.92501
656.545	34008.95128
656.743	34299.54002
656.942	34942.39348
657.141	34956.72944
657.34	34680.28858
657.538	34801.09365
657.737	34702.81042
657.936	34706.90536
658.135	34244.28144
658.333	34453.0509
658.532	34651.62515
658.731	34921.91393
658.929	34313.86677
659.128	34649.57779
659.326	34647.53044
659.525	34844.09571
659.724	34930.10569
659.922	34579.97018
660.121	34375.2693
660.319	34600.44251
660.518	34946.48945
660.716	34917.81807
660.915	34279.07356
661.113	34672.09894
661.312	34510.36735
661.51	34524.69696
661.709	34704.85789
661.907	34444.86309
662.105	34412.1125
662.304	34412.1125
662.502	34633.1991
662.701	35069.37691
662.899	34889.14758
663.097	35116.48819
663.296	34461.23877
663.494	34997.69054
663.692	34946.48945
663.891	35173.84443
664.089	34522.64986
664.287	34887.09972
664.485	34801.09365
664.684	34948.53744
664.882	34283.16682
665.08	34213.58343
665.278	33998.72062
665.476	34184.93271
665.675	34037.59759
665.873	34408.01875
666.071	34121.49443
666.269	34612.72611
666.467	34983.35395
666.665	34897.33906
666.863	34461.23877
667.061	34903.48271
667.259	35311.10503
667.457	35081.66657
667.655	34768.33146
667.853	34297.49336
668.051	34330.24044
668.249	34252.46772
668.447	34150.14354
668.645	34459.1918
668.843	34680.28858
669.041	34782.66478
669.239	34248.37458
669.437	34072.38335
669.635	34358.89495
669.833	34670.05154
670.031	34493.9909
670.229	34352.75463
670.426	34753.99836
670.624	34807.23668
670.822	34541.0739
671.02	34240.18833
671.218	34274.98031
671.415	34315.91347
671.613	33841.17953
671.811	33824.8128
672.009	33266.42116
672.206	33968.02918
672.404	33775.71388
672.602	33884.14325
672.799	34299.54002
672.997	34387.55022
673.195	34137.86526
673.392	34471.4737
673.59	34391.6439
673.788	33867.77594
673.985	33925.06249
674.183	33732.75391
674.38	33757.30229
674.578	34232.00214
674.775	33812.53789
674.973	34448.95699
675.17	34023.27435
675.368	34168.5612
675.565	33988.49005
675.763	33965.98311
675.96	33591.60984
676.158	33738.89096
676.355	33554.79215
676.553	33691.841
676.75	32965.83994
676.947	33168.26562
677.145	32781.83901
677.342	33710.25165
677.539	33650.92939
677.737	34326.147
677.934	33959.84493
678.131	33959.84493
678.329	33732.75391
678.526	33466.84287
678.723	33505.70347
678.92	33697.97785
679.118	33108.96644
679.315	33168.26562
679.512	33184.62442
679.709	33892.32699
679.906	33293.00609
680.104	33405.48625
680.301	33720.4799
680.498	33168.26562
680.695	33286.87106
680.892	33382.9895
681.089	33057.84832
681.286	33117.1455
681.483	32926.99356
681.68	33376.85409
681.877	33076.25065
682.075	33192.80389
682.272	33293.00609
682.469	33763.43946
682.665	32849.30361
682.862	33329.8168
683.059	33190.75902
683.256	33659.11161
683.453	33333.90693
683.65	32920.86001
683.847	32967.88451
684.044	32702.11159
684.241	32706.20009
684.438	33254.15136
684.635	33172.3553
684.831	33558.88296
685.028	33198.93852
685.225	33335.95201
685.422	33049.66958
685.619	33125.3246
685.815	32900.415
686.012	32683.71349
686.209	32246.30255
686.405	32955.61711
686.602	32886.10365
686.799	32902.45949
686.996	33066.0271
687.192	32332.14153
687.389	32595.8141
687.586	32926.99356
687.782	32710.28859
687.979	32779.79467
688.175	32446.59944
688.372	32734.81982
688.568	32873.83688
688.765	32632.60866
688.962	33076.25065
689.158	32673.4924
689.355	32542.66775
689.551	32618.29957
689.748	32137.98724
689.944	32330.0977
690.14	32009.24249
690.337	32238.12761
690.533	32368.93082
690.73	31962.24238
690.926	32742.99698
691.123	32422.07216
691.319	32432.29182
691.515	32258.56504
691.712	31600.57894
691.908	31682.30585
692.104	31788.55508
692.301	31788.55508
692.497	32033.76469
692.693	31749.73268
692.889	31764.03559
693.086	32074.63566
693.282	32056.24362
693.478	31954.06856
693.674	31725.21361
693.87	31862.11511
694.067	32068.50496
694.263	31831.4648
694.459	31694.56513
694.655	32381.19407
694.851	31710.91094
695.047	31796.7283
695.243	31674.13304
695.439	31588.32014
695.635	31506.59638
695.831	31678.21944
696.027	31845.76823
696.224	31860.07174
696.42	31747.68942
696.615	31837.59483
696.811	31516.81171
697.007	31022.43584
697.203	30720.13291
697.399	31073.50359
697.595	30965.24104
697.791	30901.91953
697.987	31018.35046
698.183	31524.98399
698.379	30971.36901
698.575	31347.24269
698.77	31238.96946
698.966	31449.39135
699.162	31359.50032
699.358	31739.51637
699.554	31022.43584
699.749	30879.45093
699.945	30605.75575
700.141	30740.55783
700.337	31032.64932
700.532	31175.64185
700.728	30995.88098
700.924	30981.5823
701.119	31022.43584
701.315	30579.2045
701.511	30372.92897
701.706	31241.01231
701.902	30946.85724
702.097	31147.04276
702.293	30640.47695
702.489	30276.94366
702.684	30411.73231
702.88	30530.18737
703.075	30293.2814
703.271	30671.11362
703.466	30844.72706
703.662	30981.5823
703.857	30640.47695
704.053	30695.62317
704.248	30440.32452
704.443	30303.49252
704.639	30595.54371
704.834	30413.7746
705.03	30346.37957
705.225	30579.2045
705.42	30074.77044
705.616	30001.25573
705.811	29778.6784
706.006	30046.18121
706.202	30115.61259
706.397	30121.73895
706.592	30601.67093
706.787	30197.29829
706.983	30125.8232
707.178	30246.31061
707.373	30274.90145
707.568	30628.22237
707.763	30513.84849
707.959	30908.04736
708.154	30470.95931
708.349	30240.18403
708.544	30244.26842
708.739	29937.95257
708.934	29727.63041
709.129	29915.49042
709.324	29807.26558
709.519	29801.13974
709.714	29458.1082
709.909	29494.86013
710.104	29507.11085
710.299	29364.18814
710.494	29772.55261
710.689	29864.44058
710.884	30033.92875
711.079	30438.28221
711.274	29750.09144
711.469	30187.08748
711.664	30172.79238
711.859	30499.55203
712.054	30364.7599
712.249	30334.12608
712.443	29817.47534
712.638	29911.4064
712.833	29547.94686
713.028	30256.5216
713.223	29419.31486
713.417	29304.97881
713.612	29505.06906
713.807	29282.52033
714.002	29313.14556
714.196	29821.55925
714.391	29925.70047
714.586	30095.19146
714.78	29688.83439
714.975	29929.7845
715.17	29539.77963
715.364	29654.1225
715.559	29574.4905
715.754	29182.47955
715.948	28925.24327
716.143	29272.31197
716.337	28725.182
716.532	29090.60755
716.726	29015.06994
716.921	29149.81371
717.115	29415.23137
717.31	29496.90191
717.504	29351.93786
717.699	29545.90505
717.893	28945.65824
718.088	29160.02175
718.282	29196.77093
718.476	28780.29992
718.671	28596.57648
718.865	28859.91604
719.059	28572.08067
719.254	28533.29593
719.448	28392.44934
719.642	28274.0605
719.837	28086.27883
720.031	28418.98527
720.225	28094.44306
720.419	28663.94076
720.614	28549.6263
720.808	28549.6263
721.002	28755.80298
721.196	28849.70876
721.39	28435.31516
721.585	28465.93389
721.779	28269.97819
721.973	28076.07358
722.167	28459.81012
722.361	28561.87412
722.555	28537.37852
722.749	28306.71913
722.943	28176.08629
723.137	28241.40215
723.331	28039.33488
723.525	27792.37879
723.719	27986.26853
723.913	28018.92466
724.107	27747.4795
724.301	27735.23434
724.495	27506.66596
724.689	27388.30627
724.883	27178.12642
725.077	27461.77041
725.271	27447.48559
725.465	27402.59083
725.659	27790.3379
725.853	28129.14122
726.046	27729.11178
726.24	27849.52415
726.434	27574.01041
726.628	27735.23434
726.822	27163.84286
727.015	27704.62163
727.209	27333.20925
727.403	27210.77481
727.596	27202.61268
727.79	27502.58452
727.984	27782.17435
728.177	27653.60103
728.371	27606.66275
728.565	27551.56211
728.758	27586.25501
728.952	27527.07323
729.146	27378.10305
729.339	27420.9568
729.533	27059.77892
729.726	27208.73427
729.92	27133.23546
730.113	27608.70353
730.307	27737.2752
730.5	27686.25413
730.694	27882.17906
730.887	27402.59083
731.081	28049.54004
731.274	27612.7851
731.468	27349.53419
731.661	27527.07323
731.854	27157.72136
732.048	27227.09913
732.241	27471.97389
732.435	27637.2746
732.628	27592.37732
732.821	27488.29952
733.014	27482.1774
733.208	27653.60103
733.401	27420.9568
733.594	27367.89986
733.788	27496.46237
733.981	27657.68265
734.174	28067.90939
734.367	27765.84732
734.56	27533.19543
734.754	26965.92039
734.947	27082.22379
735.14	26908.79056
735.333	26921.03258
735.526	27021.01091
735.719	26867.98423
735.912	26902.66958
736.105	26655.8007
736.298	26974.08189
736.491	27172.00489
736.684	27076.10244
736.877	26861.86333
737.07	26843.5007
737.263	26674.1621
737.456	27039.37464
737.649	27390.34692
737.842	27676.05
738.035	27629.11142
738.228	27035.2938
738.421	27453.60764
738.614	27549.52137
738.807	27402.59083
739	27043.45549
739.192	26896.5486
739.385	26886.34701
739.578	26676.20227
739.771	26543.59485
739.964	26282.47975
740.156	26912.87123
740.349	26268.20079
740.542	26698.64416
740.735	26745.5687
740.927	26904.7099
741.12	26282.47975
741.313	25905.13568
741.505	26003.03536
741.698	26343.67622
741.891	26192.72767
742.083	25909.21475
742.276	25894.93804
742.468	25939.80801
742.661	25527.85451
742.854	26164.17087
743.046	26249.84225
743.239	26164.17087
743.431	26629.2789
743.624	25980.59965
743.816	25741.979
744.009	26156.01185
744.201	25656.32661
744.393	26190.68788
744.586	25741.979
744.778	25548.24638
744.971	26115.21716
745.163	26121.33632
745.355	25860.2664
745.548	25984.67886
745.74	25780.72762
745.932	25556.40319
746.125	25489.11052
746.317	25482.99312
746.509	25489.11052
746.702	25737.90023
746.894	25809.27967
747.086	25662.44452
747.278	25635.93369
747.471	25336.18096
747.663	25236.27337
747.855	25358.6099
748.047	25156.75879
748.239	25574.75611
748.431	25458.52368
748.623	25764.41232
748.815	25845.99
749.008	25811.31912
749.2	25656.32661
749.392	25872.50339
749.584	25387.15618
749.776	25998.95613
749.968	25466.68013
750.16	25531.93287
750.352	24997.73976
750.544	25328.02505
750.736	25340.25893
750.928	25998.95613
751.12	25258.70116
751.311	25621.65876
751.503	25487.07139
751.695	24956.96787
751.887	25195.49625
752.079	25258.70116
752.271	25207.72929
752.463	25648.16942
752.654	24956.96787
752.846	25315.79124
753.038	25138.40975
753.23	25352.49289
753.421	25020.16469
753.613	25085.40241
753.805	25472.79748
753.997	24967.16076
754.188	25213.84585
754.38	25668.56245
754.572	25456.48457
754.763	25670.60177
754.955	25315.79124
755.146	25617.58023
755.338	24761.27581
755.53	25026.28063
755.721	25118.02213
755.913	24906.00431
756.104	24239.54164
756.296	24573.75844
756.487	24828.5425
756.679	24848.92686
756.87	24492.23573
757.062	24412.75503
757.253	24278.25826
757.445	24249.73013
757.636	24577.83468
757.827	24427.0205
758.019	24469.8177
758.21	24033.74873
758.401	24137.66046
758.593	23946.14254
758.784	24270.10731
758.975	24092.8349
759.167	23882.98786
759.358	24139.69801
759.549	23827.98442
759.74	23848.35582
759.932	23628.36034
760.123	23646.69197
760.314	23642.61826
760.505	23251.59887
760.696	23113.14091
760.888	23337.12448
761.079	23424.69222
761.27	23940.03068
761.461	23614.10258
761.652	23540.77928
761.843	23367.67071
762.034	23593.7346
762.225	23076.4928
762.416	23194.58495
762.607	23333.05171
762.798	22993.02057
762.989	23438.94798
763.18	23834.09581
763.371	23542.81599
763.562	23365.63427
763.753	23273.99789
763.944	23296.3973
764.135	22545.21862
764.326	23255.67139
764.517	23092.78072
764.708	23082.60074
764.899	22874.94753
765.089	22834.23533
765.28	22846.44885
765.471	22748.7442
765.662	22286.79261
765.853	22732.46086
766.043	22697.85952
766.234	22990.98473
766.425	22244.06641
766.615	22349.86757
766.806	23060.2051
766.997	22695.82417
767.187	22581.85063
767.378	22555.39406
767.569	22351.90231
767.759	22655.11807
767.95	22514.69284
768.141	22756.88595
768.331	22649.01227
768.522	22301.03503
768.712	22288.82723
768.903	22032.49417
769.093	21782.32215
769.284	22004.0164
769.474	21731.48131
769.665	22126.06921
769.855	21985.70965
770.046	22109.79472
770.236	22288.82723
770.426	22085.38343
770.617	21757.91824
770.807	21731.48131
770.998	21703.01149
771.188	21755.88461
771.378	21398.02616
771.569	21576.94012
771.759	21566.77373
771.949	21926.72333
772.139	22185.06625
772.33	21491.54553
772.52	21782.32215
772.71	21629.80692
772.9	21477.31378
773.09	21601.33985
773.281	21087.03383
773.471	20991.51934
773.661	21141.90794
773.851	21276.05711
774.041	21087.03383
774.231	20950.87762
774.421	20406.43847
774.611	20337.38927
774.802	20491.74125
774.992	20932.58939
775.182	20818.80342
775.372	20705.03043
775.562	20790.35895
775.752	20615.64651
775.942	20361.75902
776.131	20644.08597
776.321	20568.9263
776.511	20759.88364
776.701	20566.89504
776.891	20763.94696
777.081	20282.55953
777.271	20280.52886
777.461	20735.50406
777.651	20585.17656
777.84	20674.55773
778.03	20566.89504
778.22	20518.14598
778.41	20453.15098
778.599	20101.84616
778.789	20327.23538
778.979	20126.21007
779.169	19809.52655
779.358	20061.241
779.548	20447.05792
779.738	20223.67174
779.927	20321.1431
780.117	20333.3277
780.307	19990.18602
780.496	20053.12017
780.686	20034.84855
780.875	20020.63752
781.065	19902.89695
781.254	19872.4491
781.444	19959.73546
781.633	19373.23885
781.823	19470.62591
782.012	19630.92965
782.202	19825.76424
782.391	19683.69354
782.581	19432.07573
782.77	19308.31945
782.96	19298.17617
783.149	19156.18112
783.338	19314.40546
783.528	19208.91979
783.717	18856.02869
783.906	18742.48043
784.096	18965.53351
784.285	19243.40427
784.474	19261.66124
784.663	19202.83442
784.853	19257.6041
785.042	19127.78452
785.231	19539.6142
785.42	18924.97481
785.61	18736.39784
785.799	19032.45891
785.988	19036.51513
786.177	18511.36673
786.366	18845.88995
786.555	18900.64036
786.744	19026.3746
786.933	18620.83533
787.122	18543.80069
787.312	18525.55647
787.501	18760.72842
787.69	18452.58268
787.879	18839.80675
788.068	18602.58977
788.257	18424.20532
788.445	18442.44782
788.634	18596.50799
788.823	18517.44802
789.012	18454.60966
789.201	18134.39307
789.39	18183.02759
789.579	18132.36667
789.768	18178.97464
789.957	18391.77497
790.145	18341.10449
790.334	18049.28768
790.523	17976.34524
790.712	18045.2352
790.9	18067.52401
791.089	17887.19959
791.278	18312.73004
791.467	18004.7112
791.655	18055.36642
791.844	18061.4452
792.033	17903.40739
792.221	17571.19105
792.41	17834.52578
792.599	17540.80986
792.787	17775.77697
792.976	17990.52813
793.164	17735.26221
793.353	17741.33934
793.541	17976.34524
793.73	18110.07659
793.918	17729.18511
794.107	17421.31743
794.295	17453.72107
794.484	17631.95563
794.672	17629.9301
794.861	17484.10022
795.049	17836.55165
795.238	17439.54438
795.426	17557.01307
795.614	17291.71071
795.803	16890.81488
795.991	17303.86081
796.179	17277.53572
796.368	16878.66818
796.556	16996.09022
796.744	16900.9372
796.932	17550.93684
797.121	16983.9427
797.309	17125.66986
797.497	17044.68127
797.685	17257.28599
797.874	17028.48408
798.062	17609.67495
798.25	17091.24917
798.438	17214.76252
798.626	16700.52685
798.814	16787.57081
799.002	16886.76597
799.19	16599.31838
799.378	16844.25302
799.566	16696.4784
799.755	16518.35563
799.943	16852.35064
800.131	16581.10146
800.318	17101.37282
800.506	16878.66818
800.694	16949.52525
800.882	16680.28469
801.07	16722.79349
801.258	16732.91478
801.446	16941.42714
801.634	16779.47351
801.822	16809.83859
802.01	16676.23629
802.197	16552.76437
802.385	16423.22872
802.573	16617.53549
802.761	16570.98102
802.949	16579.07737
803.136	16593.24605
803.324	16354.41628
803.512	15969.91368
803.699	16050.85683
803.887	15996.21996
804.075	16344.29699
804.262	16117.63671
804.45	16566.93286
804.638	16593.24605
804.825	16951.54979
805.013	16700.52685
805.201	16759.23043
805.388	16431.32445
805.576	16593.24605
805.763	16595.27016
805.951	16779.47351
806.138	16512.28356
806.326	16619.55962
806.513	16716.72074
806.701	16577.05328
806.888	15951.70178
807.075	16544.66814
807.263	16356.44014
807.45	16423.22872
807.638	16437.39627
807.825	16471.80359
808.012	16595.27016
808.2	16639.80108
808.387	16734.93905
808.574	16832.10667
808.761	16765.30332
808.949	16570.98102
809.136	16621.58376
809.323	16651.94607
809.51	16629.68032
809.698	16429.30052
809.885	16441.44416
810.072	16263.34437
810.259	16394.89391
810.446	16641.82524
810.633	16591.22195
810.82	16700.52685
811.008	16577.05328
811.195	16346.32085
811.382	16162.15757
811.569	16485.97149
811.756	16050.85683
811.943	16344.29699
812.13	16311.91559
812.317	16674.21209
812.504	16884.74152
812.691	16913.08408
812.878	16751.13326
813.064	16884.74152
813.251	16421.20479
813.438	16603.36661
813.625	16024.55006
813.812	16032.64442
813.999	16676.23629
814.186	16734.93905
814.372	16538.59599
814.559	16915.10856
814.746	16623.6079
814.933	16463.7077
815.12	16400.96562
815.306	16188.46573
815.493	15893.0197
815.68	16364.53562
815.866	16162.15757
816.053	16589.19785
816.24	16386.79832
816.426	16573.00511
816.613	16320.01089
816.799	16451.56392
816.986	16048.83322
817.173	16269.41571
817.359	16002.29067
817.546	16093.35292
817.732	16259.29681
817.919	16417.15694
818.105	16297.74887
818.292	16469.77962
818.478	16354.41628
818.665	16340.24929
818.851	16542.64409
819.037	16279.53466
819.224	16065.02212
819.41	16548.71625
819.597	16277.51086
819.783	16245.13042
819.969	16273.46328
820.156	15799.9399
820.342	16008.36139
820.528	16052.88044
820.714	15524.75981
820.901	16079.18749
821.087	16016.45571
821.273	15866.71429
821.459	15777.68204
821.646	16202.63178
821.832	15638.06733
822.018	15854.5734
822.204	15409.43101
822.39	15793.86956
822.576	15575.34324
822.762	16000.2671
822.948	15605.69351
823.134	16150.01544
823.32	15846.47949
823.507	15842.43255
823.693	15680.5583
823.879	15676.51152
824.065	15460.0136
824.25	15765.54145
824.436	15522.73648
824.622	15549.0398
824.808	15595.57674
824.994	15500.47991
825.18	15512.61985
825.366	15818.15097
825.552	15417.5242
825.738	15364.91856
825.923	15091.77641
826.109	15146.40474
826.295	15245.54504
826.481	15419.5475
826.667	15298.15021
826.852	15251.61486
827.038	15101.89277
827.224	15207.10286
827.409	14996.68236
827.595	15136.28839
827.781	14895.51771
827.966	14944.07687
828.152	15150.45128
828.338	15020.96175
828.523	14500.95845
828.709	14478.70005
828.894	14444.30037
829.08	14737.69807
829.266	14725.55791
829.451	15012.86862
829.637	14634.50568
829.822	14940.03028
830.008	14743.76814
830.193	15057.38075
830.378	14757.9316
830.564	14794.35175
830.749	14460.4885
830.935	14361.33466
831.12	13857.39912
831.305	14114.44359
831.491	14021.34547
831.676	14112.41977
831.861	14278.3662
832.047	14304.67359
832.232	14019.32154
832.417	13956.57858
832.602	14138.72927
832.788	13932.29032
832.973	13885.73677
833.158	13671.16596
833.343	13855.37498
833.528	13833.10927
833.714	13750.11577
833.899	14001.10609
834.084	13990.98631
834.269	14541.42786
834.454	14001.10609
834.639	14071.94288
834.824	14302.64996
835.009	14248.01114
835.194	14292.53176
835.379	14229.79789
835.564	14160.99087
835.749	14391.68827
835.934	14391.68827
836.119	14003.13004
836.304	13788.5768
836.489	13776.43133
836.674	13569.94094
836.859	13768.33429
837.044	13825.01256
837.228	13944.4345
837.413	13588.16207
837.598	13669.14154
837.783	13306.71308
837.968	13721.77537
838.152	13462.6328
838.337	13543.62102
838.522	13284.43685
838.707	13620.55451
838.891	13104.18237
839.076	13474.78141
839.261	13256.08455
839.445	13495.0288
839.63	13399.86276
839.815	13527.42384
839.999	13098.10574
840.184	13124.43749
840.368	13085.95236
840.553	13207.47862
840.737	13179.12397
840.922	13296.58758
841.106	13282.41172
841.291	12775.97948
841.475	12780.03222
841.66	13239.88285
841.844	12938.07203
842.029	13256.08455
842.213	13096.08019
842.397	13333.03887
842.582	12867.1608
842.766	13033.28569
842.951	12753.68899
843.135	12786.11129
843.319	12682.76006
843.504	12919.83833
843.688	12771.92671
843.872	12571.28557
844.056	12623.9849
844.241	12871.21305
844.425	12628.03852
844.609	12593.58195
844.793	12688.83996
844.977	12516.55489
845.161	12204.29456
845.346	12303.66791
845.53	12368.55563
845.714	12461.81953
845.898	12082.58889
846.082	12374.6385
846.266	12471.95607
846.45	12684.7867
846.634	12348.27898
846.818	12569.25859
847.002	12246.88525
847.186	12007.52335
847.37	11719.33052
847.554	11853.3003
847.738	11552.82954
847.922	11845.18198
848.106	11938.53464
848.29	11954.76812
848.473	11786.32009
848.657	11763.99129
848.841	11804.58834
849.025	11916.21277
849.209	11536.58224
849.392	11820.8262
849.576	12039.98544
849.76	11804.58834
849.944	11916.21277
850.127	11999.40751
850.311	11717.30038
850.495	12165.75735
850.678	11753.84148
850.862	11837.06352
851.046	11441.11711
851.229	11652.33135
851.413	11424.86561
851.596	11560.95297
851.78	11441.11711
851.964	11891.8605
852.147	11304.99135
852.331	11384.23413
852.514	11520.33434
852.698	11426.89708
852.881	11095.63406
853.065	11398.4556
853.248	11353.75793
853.431	11028.53454
853.615	10993.96346
853.798	11335.47114
853.982	11105.79963
854.165	11284.67022
854.348	11081.40182
854.532	11077.33537
854.715	10670.46206
854.898	11097.6672
855.081	11000.06447
855.265	11046.83559
855.448	10853.61217
855.631	10743.73367
855.814	10786.46828
855.997	10643.999
856.181	10328.31409
856.364	10536.08954
856.547	10544.23487
856.73	10513.68883
856.913	10171.37271
857.096	10450.55125
857.279	10193.79785
857.462	10344.61512
857.645	10322.20099
857.828	10171.37271
858.011	10114.28297
858.194	10646.03469
858.377	10059.22175
858.56	10898.36774
858.743	10466.846
858.926	10332.38943
859.109	10187.68207
859.292	10360.91529
859.475	10483.13992
859.658	10511.65232
859.841	10065.34017
860.023	10057.18224
860.206	10267.17765
860.389	10523.87116
860.572	10014.34941
860.755	10157.10129
860.937	10140.79027
861.12	9851.11829
861.303	9806.2132
861.486	9849.07731
861.668	9751.09248
861.851	9955.1889
862.034	9565.23296
862.216	9808.2545
862.399	9450.79323
862.581	9614.26334
862.764	9311.76251
862.947	9577.4914
863.129	9428.30808
863.312	9510.06291
863.494	9630.6048
863.677	9436.48472
863.859	9236.08136
864.042	9685.74988
864.224	9599.96375
864.406	9581.57742
864.589	9098.97829
864.771	9411.95401
864.954	9103.07203
865.136	9178.79385
865.318	9231.98984
865.501	9217.66896
865.683	8922.88152
865.865	9166.51623
866.048	8926.97827
866.23	8974.08582
866.412	8742.5533
866.594	8992.51667
866.777	8623.62329
866.959	8713.85174
867.141	8713.85174
867.323	9012.99372
867.505	8900.34811
867.687	9137.86605
867.869	9082.60264
868.052	9152.19155
868.234	8842.98057
868.416	9129.67967
868.598	9094.88448
868.78	9049.84801
868.962	9033.46902
869.144	8910.59083
869.326	8752.80298
869.508	8742.5533
869.69	8467.68875
869.872	8553.87658
870.054	8428.68796
870.236	8871.6661
870.417	8742.5533
870.599	8769.20152
870.781	8664.64067
870.963	8637.98022
871.145	8508.73475
871.327	8574.39258
871.508	8184.26049
871.69	8484.10806
871.872	8420.47638
872.054	8631.82737
872.235	8229.4697
872.417	8576.44407
872.599	8584.64987
872.78	8683.09607
872.962	8611.31663
873.144	8658.48854
873.325	8284.94067
873.507	8726.15285
873.689	8432.79363
873.87	8791.74762
874.052	8414.3175
874.233	8654.38703
874.415	8202.75633
874.596	8365.04018
874.778	8303.42781
874.959	8354.77267
875.141	8217.14087
875.322	8204.81132
875.503	8056.80072
875.685	8280.8322
875.866	7918.9745
876.048	8264.39754
876.229	8161.65227
876.41	8367.09363
876.592	8073.25148
876.773	8097.9252
876.954	8215.08599
877.136	8391.73345
877.317	8420.47638
877.498	8783.54929
877.679	8516.94304
877.86	8360.93323
878.042	8426.63509
878.223	8613.36778
878.404	8533.35871
878.585	8504.63049
878.766	8023.8953
878.947	8525.15102
879.128	8278.77794
879.309	8525.15102
879.49	8346.55831
879.672	8516.94304
879.853	8134.93036
880.034	8358.87973
880.215	8418.42344
880.396	8461.53119
880.576	8408.15844
880.757	8471.79369
880.938	8286.99488
881.119	8566.18641
881.3	8377.36056
881.481	8434.84644
881.662	8254.12524
881.843	8399.9461
882.023	8196.59122
882.204	8235.63385
882.385	7770.75978
882.566	8108.20507
882.747	7923.09005
882.927	8260.28868
883.108	8188.37081
883.289	8362.98672
883.469	8410.21148
883.65	8570.28953
883.831	8438.952
884.011	8703.60031
884.192	8291.10323
884.373	8412.2645
884.553	8371.20046
884.734	8334.23619
884.914	8196.59122
885.095	8494.36952
885.275	8344.50467
885.456	8305.48184
885.636	8219.19572
885.817	8619.52115
885.997	8578.49555
886.178	8527.20297
886.358	8282.88645
886.538	8477.95096
886.719	8389.68023
886.899	8484.10806
887.08	8623.62329
887.26	8582.59845
887.44	8332.18243
887.621	8988.42105
887.801	8387.627
887.981	8592.85536
888.161	8492.31726
888.342	8615.41892
888.522	8436.89923
888.702	8635.92929
888.882	8447.16288
889.062	8496.42175
889.242	8459.47863
889.423	8360.93323
889.603	8284.94067
889.783	8512.83893
889.963	8377.36056
890.143	8231.52444
890.323	8147.26397
890.503	8315.75169
890.683	7976.58466
890.863	8291.10323
891.043	8319.85949
891.223	8506.68263
891.403	8340.39734
891.583	8773.30098
891.763	8223.30537
891.943	8260.28868
892.122	8122.59603
892.302	8385.57375
892.482	8065.02626
892.662	8336.28992
892.842	8284.94067
893.022	8319.85949
893.201	8114.37274
893.381	8245.90704
893.561	8233.57916
893.741	8338.34364
893.92	7830.47033
894.1	8204.81132
894.28	8021.83854
894.459	8192.48106
894.639	7875.75631
894.819	8233.57916
894.998	7886.04718
895.178	8270.56069
895.357	7797.52875
895.537	8336.28992
895.716	8034.1788
895.896	8241.79783
896.075	8247.96162
896.255	7814.0002
896.434	7570.90974
896.614	7859.28984
896.793	7556.47983
896.973	7750.16586
897.152	7350.22302
897.331	7719.27105
897.511	7605.94943
897.69	7608.01039
897.87	7589.46093
898.049	7529.67866
898.228	7329.58539
898.407	7486.37677
898.587	7001.15017
898.766	7372.92189
898.945	7077.62874
899.124	7135.48405
899.304	7226.36429
899.483	7182.99499
899.662	6955.66183
899.841	7160.27383
900.02	7251.14238
900.199	7238.75373
900.378	7110.69106
900.557	7092.09421
900.737	7238.75373
900.916	7178.86407
901.095	7034.22575
901.274	7170.60196
901.453	6968.06883
901.632	7182.99499
901.811	7071.42892
901.989	7081.76184
902.168	6736.33698
902.347	6947.39005
902.526	6446.26778
902.705	6738.40728
902.884	6446.26778
903.063	6953.59392
903.242	6535.40866
903.42	6862.58343
903.599	6336.33729
903.778	6352.93477
903.957	6377.82819
904.135	6504.31787
904.314	6396.49604
904.493	6783.94807
904.672	6344.63622
904.85	6249.17599
905.029	6070.57383
905.207	6037.32634
905.386	5827.31233
905.565	5927.15096
905.743	5592.06087
905.922	5708.68332
906.1	5500.37707
906.279	5608.72575
906.457	5250.09903
906.636	5999.91571
906.814	5839.79513
906.993	5841.87551
907.171	5567.06072
907.35	5464.94157
907.528	5348.16484
907.707	5519.13428
907.885	5235.48906
908.063	5256.36009
908.242	5149.89345
908.42	5296.00861
908.598	5089.32659
908.777	5366.93749
908.955	4761.09346
909.133	5080.97101
909.311	4696.21661
909.49	5106.03664
909.668	5101.85926
909.846	5460.77225
910.024	5091.41543
910.202	5354.4226
910.38	5106.03664
910.559	5302.26813
910.737	5093.50424
910.915	5316.87286
911.093	5285.57561
911.271	5243.83775
911.449	5039.18754
911.627	5448.26369
911.805	5001.57452
911.983	5270.96842
912.161	4708.77511
912.339	5078.88205
912.517	4909.60013
912.695	5356.50847
912.872	5231.31457
913.05	5381.53713
913.228	5185.38906
913.406	5298.09514
913.584	5009.93361
913.762	5396.13562
913.939	5241.75062
914.117	5389.87927
914.295	5047.54498
914.473	5099.77054
914.65	5206.2657
914.828	5304.35459
915.006	5076.79308
915.184	5222.96532
915.361	4955.59289
915.539	4970.22462
915.716	4792.47767
915.894	4963.95402
916.072	4880.32623
916.249	4800.84593
916.427	4855.23075
916.604	5214.6157
916.782	4951.41219
916.959	5206.2657
917.137	4748.53835
917.314	5172.86197
917.492	4830.13198
917.669	5030.82974
917.847	4717.147
918.024	4846.86486
918.201	4706.68209
918.379	4844.77333
918.556	4679.47068
918.733	5035.00869
918.911	4629.22425
919.088	4715.05406
919.265	4413.43782
919.442	4486.7896
919.62	4432.30227
919.797	4708.77511
919.974	4293.92206
920.151	4541.26203
920.328	4218.40238
920.506	4472.12139
920.683	4564.30355
920.86	4784.10905
921.037	4564.30355
921.214	4842.68178
921.391	4367.31728
921.568	4612.47258
921.745	4356.83387
921.922	4327.47744
922.099	4327.47744
922.276	4463.73908
922.453	4210.00959
922.63	4340.05929
922.807	3899.2419
922.984	4098.77335
923.161	3844.60141
923.338	4075.67921
923.514	3865.61858
923.691	3897.14059
923.868	3882.43088
924.045	3827.78624
924.222	3720.56002
924.399	3831.99015
924.575	3644.84063
924.752	3972.77494
924.929	3825.68426
925.105	3867.72018
925.282	3743.69153
925.459	3981.17714
925.635	3766.8207
925.812	3463.857
925.989	3356.46614
926.165	3487.01365
926.342	3257.45795
926.518	3621.69923
926.695	3480.69842
926.871	3470.17267
927.048	3282.74022
927.224	3588.03496
927.401	3472.27785
927.577	3649.04791
927.754	3388.05646
927.93	3529.11101
928.107	3314.33962
928.283	3377.52679
928.459	3002.39675
928.636	3362.78452
928.812	3074.09038
928.988	3263.77874
929.165	3133.1186
929.341	3133.1186
929.517	3027.70242
929.693	3457.54117
929.87	2966.54332
930.046	3128.90272
930.222	2915.91938
930.398	3044.57163
930.574	2715.45262
930.751	3057.2229
930.927	2825.1973
931.103	2863.17719
931.279	2732.33877
931.455	2846.2978
931.631	2702.78745
931.807	2797.76456
931.983	2624.67541
932.159	2662.67803
932.335	2519.09193
932.511	2618.34125
932.687	2457.84025
932.863	2662.67803
933.039	2424.04226
933.215	2578.22235
933.391	2626.78678
933.566	2605.6726
933.742	2381.79095
933.918	2500.0838
934.094	2244.44674
934.27	2362.77652
934.445	2066.90062
934.621	2238.10682
934.797	1940.05026
934.973	1959.07927
935.148	1844.89847
935.324	1882.96046
935.5	1781.45845
935.675	1849.12766
935.851	1730.70378
936.027	1815.29362
936.202	1580.54425
936.378	1823.75224
936.553	1538.24391
936.729	1542.47397
936.904	1333.08496
937.08	1400.76588
937.255	1223.10737
937.431	1316.16495
937.606	927.06773
937.782	1195.61413
937.957	973.58077
938.133	1140.62947
938.308	762.18949
938.483	1007.41052
938.659	783.32462
938.834	732.602
939.009	698.79028
939.185	783.32462
939.36	603.71062
939.535	705.12977
939.71	639.62674
939.886	715.6958
940.061	531.88963
940.236	698.79028
940.411	525.55324
940.586	572.02299
940.761	538.22615
940.937	466.41988
941.112	476.97856
941.287	455.86158
941.462	436.85761
941.637	441.0806
941.812	379.85345
941.987	462.19651
942.162	422.07762
942.337	403.07593
942.512	430.52323
942.687	432.63468
942.862	354.52214
943.037	337.63597
943.212	284.87402
943.386	329.19331
943.561	291.20486
943.736	320.75093
943.911	369.29844
944.086	348.18969
944.26	403.07593
944.435	375.63139
944.61	367.18749
944.785	318.64038
944.959	282.76378
945.134	354.52214
945.309	365.07655
945.483	318.64038
945.658	348.18969
945.833	267.99262
946.007	335.52528
946.182	310.19835
946.357	293.31517
946.531	331.30395
946.706	337.63597
946.88	403.07593
947.055	318.64038
947.229	270.10273
947.404	362.96564
947.578	348.18969
947.752	356.63299
947.927	297.53586
948.101	335.52528
948.276	415.74358
948.45	371.40941
948.624	445.30366
948.799	407.29842
948.973	356.63299
949.147	386.18665
949.321	286.98428
949.496	386.18665
949.67	438.9691
949.844	350.30049
950.018	371.40941
950.193	322.8615
950.367	405.18717
950.541	301.75662
950.715	407.29842
950.889	274.323
951.063	335.52528
951.237	386.18665
951.411	373.52039
951.585	356.63299
951.759	365.07655
951.933	331.30395
952.107	411.52097
952.281	407.29842
952.455	394.63116
952.629	453.74996
952.803	314.41933
952.977	312.30883
953.151	394.63116
953.325	419.96626
953.499	324.97208
953.672	419.96626
953.846	441.0806
954.02	308.08789
954.194	398.85351
954.368	293.31517
954.541	394.63116
954.715	348.18969
954.889	369.29844
955.062	362.96564
955.236	367.18749
955.41	301.75662
955.583	388.29776
955.757	295.42551
955.93	438.9691
956.104	373.52039
956.278	445.30366
956.451	432.63468
956.625	407.29842
956.798	320.75093
956.972	398.85351
957.145	341.85741
957.319	557.23644
957.492	360.85473
957.665	390.40887
957.839	331.30395
958.012	445.30366
958.185	417.85491
958.359	491.76134
958.532	453.74996
958.705	491.76134
958.879	352.41131
959.052	438.9691
959.225	386.18665
959.398	614.27381
959.572	407.29842
959.745	576.24783
959.918	282.76378
960.091	481.20214
960.264	403.07593
960.438	449.52678
960.611	373.52039
960.784	447.41521
960.957	413.63227
961.13	428.41181
961.303	365.07655
961.476	436.85761
961.649	360.85473
961.822	434.74613
961.995	455.86158
962.168	517.10492
962.341	352.41131
962.514	428.41181
962.686	335.52528
962.859	445.30366
963.032	415.74358
963.205	417.85491
963.378	398.85351
963.551	369.29844
963.723	331.30395
963.896	468.53159
964.069	280.65356
964.242	392.52001
964.414	253.22237
964.587	388.29776
964.76	362.96564
964.932	335.52528
965.105	320.75093
965.278	350.30049
965.45	286.98428
965.623	403.07593
965.795	299.64623
965.968	369.29844
966.14	360.85473
966.313	339.74668
966.485	371.40941
966.658	365.07655
966.83	360.85473
967.003	377.74241
967.175	259.55236
967.348	234.23344
967.52	270.10273
967.692	322.8615
967.865	204.69824
968.037	291.20486
968.209	265.88252
968.382	369.29844
968.554	289.09456
968.726	310.19835
968.898	267.99262
969.071	253.22237
969.243	280.65356
969.415	293.31517
969.587	225.79441
969.759	318.64038
969.932	192.04149
970.104	259.55236
970.276	202.58873
970.448	329.19331
970.62	225.79441
970.792	289.09456
970.964	168.83937
971.136	282.76378
971.308	208.91732
971.48	278.54336
971.652	234.23344
971.824	270.10273
971.996	227.90414
972.168	200.47924
972.339	187.82274
972.511	215.24608
972.683	217.35571
972.855	208.91732
973.027	194.1509
973.199	242.67277
973.37	259.55236
973.542	145.63975
973.714	116.11668
973.886	141.42191
974.057	189.93211
974.229	158.29377
974.401	200.47924
974.572	196.26033
974.744	185.7134
974.915	232.12365
975.087	230.01389
975.259	276.43317
975.43	200.47924
975.602	242.67277
975.773	126.66015
975.945	166.73021
976.116	175.16697
976.288	170.94855
976.459	208.91732
976.63	291.20486
976.802	192.04149
976.973	139.31302
977.145	267.99262
977.316	318.64038
977.487	92.92297
977.659	213.13647
977.83	158.29377
978.001	124.55141
978.172	162.51195
978.344	162.51195
978.515	194.1509
978.686	128.76891
978.857	109.79086
979.028	200.47924
979.2	101.35674
979.371	156.18471
979.542	135.09531
979.713	145.63975
979.884	173.05775
980.055	141.42191
980.226	187.82274
980.397	158.29377
980.568	132.98649
980.739	124.55141
980.91	101.35674
981.081	107.68229
981.252	215.24608
981.423	221.57502
981.594	50.75953
981.765	48.65159
981.936	213.13647
982.106	116.11668
982.277	86.59788
982.448	107.68229
982.619	162.51195
982.79	122.44269
982.96	-20.89695
983.131	-18.7898
983.302	99.24826
983.472	225.79441
983.643	107.68229
983.814	40.22009
983.984	120.334
984.155	116.11668
984.326	99.24826
984.496	42.32793
984.667	40.22009
984.837	145.63975
985.008	109.79086
985.178	141.42191
985.349	86.59788
985.519	151.96666
985.69	111.89944
985.86	59.19149
986.031	78.16474
986.201	160.40285
986.371	6.49786
986.542	135.09531
986.712	90.81458
986.882	4.39042
987.053	48.65159
987.223	31.78897
987.393	36.00449
987.563	76.05651
987.734	116.11668
987.904	52.86748
988.074	17.0354
988.244	137.20416
988.414	95.03138
988.585	52.86748
988.755	156.18471
988.925	31.78897
989.095	44.4358
989.265	137.20416
989.435	44.4358
989.605	107.68229
989.775	103.46523
989.945	90.81458
990.115	143.53082
990.285	36.00449
990.455	78.16474
990.625	-4.03909
990.795	88.70622
990.965	40.22009
991.134	27.57355
991.304	29.68125
991.474	38.11228
991.644	65.5157
991.814	33.89672
991.984	40.22009
992.153	137.20416
992.323	31.78897
992.493	0.17561
992.662	48.65159
992.832	139.31302
993.002	33.89672
993.171	42.32793
993.341	126.66015
993.511	8.60532
993.68	23.35822
993.85	52.86748
994.019	65.5157
994.189	103.46523
994.358	78.16474
994.528	48.65159
994.697	71.84011
994.867	84.48956
995.036	46.54368
995.206	128.76891
995.375	-16.68263
995.544	0.17561
995.714	0.17561
995.883	52.86748
996.052	14.92785
996.222	84.48956
996.391	111.89944
996.56	25.46587
996.73	84.48956
996.899	84.48956
997.068	57.08346
997.237	29.68125
997.406	31.78897
997.576	103.46523
997.745	-6.14641
997.914	10.7128
998.083	109.79086
998.252	-14.57544
998.421	78.16474
998.59	12.82031
998.759	67.62381
998.928	54.97546
999.097	120.334
999.266	69.73195
999.435	6.49786
999.604	19.14299
999.773	50.75953
999.942	65.5157
1000.111	105.57375
1000.28	27.57355
1000.448	57.08346
1000.617	-1.93175
1000.786	54.97546
1000.955	8.60532
1001.124	-1.93175
1001.292	-14.57544
1001.461	44.4358
1001.63	-10.36097
1001.798	23.35822
1001.967	61.29953
1002.136	-35.64629
1002.304	50.75953
1002.473	57.08346
1002.642	67.62381
1002.81	33.89672
1002.979	-10.36097
1003.147	-16.68263
1003.316	124.55141
1003.484	67.62381
1003.653	116.11668
1003.821	59.19149
1003.99	52.86748
1004.158	2.283
1004.327	48.65159
1004.495	-25.11117
1004.663	67.62381
1004.832	-1.93175
1005	14.92785
1005.168	82.38126
1005.337	-90.41875
1005.505	124.55141
1005.673	31.78897
1005.842	38.11228
1006.01	17.0354
1006.178	-6.14641
1006.346	82.38126
1006.514	67.62381
1006.683	14.92785
1006.851	52.86748
1007.019	57.08346
1007.187	-31.43231
1007.355	-8.2537
1007.523	44.4358
1007.691	23.35822
1007.859	-1.93175
1008.027	82.38126
1008.195	48.65159
1008.363	6.49786
1008.531	-12.46822
1008.699	48.65159
1008.867	0.17561
1009.035	4.39042
1009.203	59.19149
1009.37	48.65159
1009.538	69.73195
1009.706	84.48956
1009.874	78.16474
1010.042	50.75953
1010.209	8.60532
1010.377	116.11668
1010.545	6.49786
1010.713	73.9483
1010.88	-16.68263
1011.048	65.5157
1011.216	-18.7898
1011.383	71.84011
1011.551	31.78897
1011.718	90.81458
1011.886	-35.64629
1012.054	2.283
1012.221	-33.53931
1012.389	23.35822
1012.556	0.17561
1012.724	27.57355
1012.891	-23.00407
1013.058	8.60532
1013.226	73.9483
1013.393	-6.14641
1013.561	-18.7898
1013.728	76.05651
1013.895	-8.2537
1014.063	2.283
1014.23	-31.43231
1014.397	63.4076
1014.565	8.60532
1014.732	6.49786
1014.899	73.9483
1015.066	82.38126
1015.233	27.57355
1015.401	31.78897
1015.568	2.283
1015.735	-25.11117
1015.902	-41.96706
1016.069	-8.2537
1016.236	61.29953
1016.403	29.68125
1016.57	-18.7898
1016.737	84.48956
1016.904	52.86748
1017.071	31.78897
1017.238	-86.2061
1017.405	-6.14641
1017.572	50.75953
1017.739	40.22009
1017.906	-6.14641
1018.073	17.0354
1018.24	65.5157
1018.407	-84.09974
1018.573	52.86748
1018.74	67.62381
1018.907	-12.46822
1019.074	21.25059
1019.241	-1.93175
1019.407	63.4076
1019.574	4.39042
1019.741	-25.11117
1019.907	27.57355
1020.074	-60.92802
1020.241	-4.03909
1020.407	59.19149
1020.574	-44.07393
1020.74	-27.21824
1020.907	0.17561
1021.073	10.7128
1021.24	23.35822
1021.406	57.08346
1021.573	6.49786
1021.739	44.4358
1021.906	-39.86016
1022.072	33.89672
1022.239	23.35822
1022.405	48.65159
1022.571	-25.11117
1022.738	78.16474
1022.904	10.7128
1023.07	-1.93175
1023.237	52.86748
1023.403	48.65159
1023.569	57.08346
1023.735	31.78897
1023.902	23.35822
1024.068	50.75953
1024.234	-10.36097
1024.4	48.65159
1024.566	-14.57544
1024.732	48.65159
1024.898	57.08346
1025.065	-77.78048
1025.231	31.78897
1025.397	40.22009
1025.563	-35.64629
1025.729	86.59788
1025.895	-33.53931
1026.061	-6.14641
1026.227	25.46587
1026.392	33.89672
1026.558	-16.68263
1026.724	19.14299
1026.89	-44.07393
1027.056	25.46587
1027.222	-12.46822
1027.388	99.24826
1027.553	-39.86016
1027.719	-41.96706
1027.885	-10.36097
1028.051	42.32793
1028.216	42.32793
1028.382	29.68125
1028.548	6.49786
1028.713	8.60532
1028.879	42.32793
1029.045	27.57355
1029.21	-25.11117
1029.376	-77.78048
1029.541	42.32793
1029.707	33.89672
1029.873	73.9483
1030.038	-23.00407
1030.204	4.39042
1030.369	-6.14641
1030.534	-46.18078
1030.7	8.60532
1030.865	-44.07393
1031.031	10.7128
1031.196	48.65159
1031.361	12.82031
1031.527	-52.50118
1031.692	27.57355
1031.857	6.49786
1032.023	59.19149
1032.188	-1.93175
1032.353	31.78897
1032.518	-48.28761
1032.684	14.92785
1032.849	103.46523
1033.014	17.0354
1033.179	38.11228
1033.344	-10.36097
1033.509	6.49786
1033.674	69.73195
1033.839	14.92785
1034.004	-35.64629
1034.17	-10.36097
1034.335	40.22009
1034.5	-20.89695
1034.664	42.32793
1034.829	-75.67402
1034.994	-39.86016
1035.159	10.7128
1035.324	21.25059
1035.489	23.35822
1035.654	-1.93175
1035.819	14.92785
1035.984	19.14299
1036.148	10.7128
1036.313	67.62381
1036.478	14.92785
1036.643	57.08346
1036.807	6.49786
1036.972	-75.67402
1037.137	-14.57544
1037.301	-14.57544
1037.466	8.60532
1037.631	23.35822
1037.795	-46.18078
1037.96	50.75953
1038.124	50.75953
1038.289	6.49786
1038.454	-50.3944
1038.618	10.7128
1038.783	12.82031
1038.947	-23.00407
1039.111	6.49786
1039.276	-69.35446
1039.44	-1.93175
1039.605	69.73195
1039.769	-77.78048
1039.933	6.49786
1040.098	0.17561
1040.262	2.283
1040.426	-35.64629
1040.591	25.46587
1040.755	-10.36097
1040.919	-4.03909
1041.083	42.32793
1041.248	48.65159
1041.412	-31.43231
1041.576	31.78897
1041.74	-35.64629
1041.904	14.92785
1042.068	2.283
1042.232	-69.35446
1042.397	-10.36097
1042.561	-4.03909
1042.725	-14.57544
1042.889	8.60532
1043.053	-27.21824
1043.217	12.82031
1043.381	50.75953
1043.544	6.49786
1043.708	44.4358
1043.872	-16.68263
1044.036	-56.71465
1044.2	-6.14641
1044.364	25.46587
1044.528	-52.50118
1044.691	-52.50118
1044.855	23.35822
1045.019	0.17561
1045.183	-1.93175
1045.346	-50.3944
1045.51	-1.93175
1045.674	36.00449
1045.837	10.7128
1046.001	-31.43231
1046.165	-60.92802
1046.328	0.17561
1046.492	23.35822
1046.655	8.60532
1046.819	-50.3944
1046.983	52.86748
1047.146	6.49786
1047.31	-10.36097
1047.473	27.57355
1047.636	-27.21824
1047.8	-41.96706
1047.963	-6.14641
1048.127	21.25059
1048.29	-44.07393
