Data from absorb_only_2.23.25_USB4F045381__34__0139.txt Node

Date: Sun Feb 23 19:18:03 EST 2025
User: ssocol
Spectrometer: USB4F04538
Trigger mode: 4
Integration Time (sec): 2.600000E-3
Scans to average: 1
Electric dark correction enabled: true
Nonlinearity correction enabled: true
Boxcar width: 0
XAxis mode: Wavelengths
Number of Pixels in Spectrum: 3648
>>>>>Begin Spectral Data<<<<<
345.52	-8.78052
345.736	-8.78052
345.952	-8.78052
346.168	5.97099
346.384	-29.85205
346.6	18.61609
346.816	-0.35123
347.032	-61.45468
347.248	27.04663
347.464	12.29343
347.68	-48.81431
347.896	-10.88778
348.112	14.40096
348.328	12.29343
348.544	5.97099
348.76	-6.67324
348.975	37.58533
349.191	12.29343
349.407	-6.67324
349.623	18.61609
349.839	18.61609
350.055	-48.81431
350.27	58.66448
350.486	41.80097
350.702	-19.31659
350.918	20.72369
351.133	12.29343
351.349	14.40096
351.565	10.18593
351.781	43.90883
351.996	86.0708
352.212	18.61609
352.428	-36.17303
352.644	-4.56592
352.859	-4.56592
353.075	-4.56592
353.291	-53.02787
353.506	18.61609
353.722	-50.9211
353.938	24.93896
354.153	-46.70749
354.369	16.50851
354.584	35.47754
354.8	-40.38689
355.016	27.04663
355.231	-46.70749
355.447	-21.42373
355.662	14.40096
355.878	10.18593
356.093	-38.27997
356.309	-15.10224
356.524	-0.35123
356.74	3.86356
356.955	29.15432
357.171	5.97099
357.386	-23.53085
357.602	62.88058
357.817	-88.83902
358.033	-23.53085
358.248	-23.53085
358.464	-12.99502
358.679	-2.45859
358.895	-12.99502
359.11	14.40096
359.325	-42.49378
359.541	-44.60065
359.756	-31.95906
359.972	14.40096
360.187	35.47754
360.402	-17.20943
360.618	16.50851
360.833	60.77252
361.048	-61.45468
361.264	-15.10224
361.479	14.40096
361.694	37.58533
361.909	-69.8811
362.125	-80.41353
362.34	-15.10224
362.555	10.18593
362.77	-4.56592
362.986	-44.60065
363.201	10.18593
363.416	22.83131
363.631	37.58533
363.847	48.12461
364.062	-8.78052
364.277	-88.83902
364.492	69.20492
364.707	-40.38689
364.922	-31.95906
365.138	3.86356
365.353	60.77252
365.568	31.26204
365.783	37.58533
365.998	-42.49378
366.213	39.69314
366.428	60.77252
366.643	3.86356
366.858	3.86356
367.073	60.77252
367.288	-15.10224
367.503	75.52945
367.718	16.50851
367.933	52.34049
368.148	-74.09415
368.363	-2.45859
368.578	1.75615
368.793	64.98867
369.008	-36.17303
369.223	-21.42373
369.438	43.90883
369.653	14.40096
369.868	10.18593
370.083	27.04663
370.298	-10.88778
370.513	-31.95906
370.728	-6.67324
370.943	22.83131
371.157	-48.81431
371.372	73.42125
371.587	43.90883
371.802	5.97099
372.017	92.39587
372.232	10.18593
372.446	62.88058
372.661	29.15432
372.876	14.40096
373.091	12.29343
373.306	48.12461
373.52	10.18593
373.735	29.15432
373.95	1.75615
374.165	-36.17303
374.379	-2.45859
374.594	18.61609
374.809	-55.13461
375.023	1.75615
375.238	-31.95906
375.453	37.58533
375.667	18.61609
375.882	3.86356
376.097	10.18593
376.311	10.18593
376.526	-40.38689
376.741	-59.34802
376.955	48.12461
377.17	18.61609
377.384	18.61609
377.599	79.74592
377.813	18.61609
378.028	-57.24133
378.242	39.69314
378.457	43.90883
378.672	43.90883
378.886	-50.9211
379.101	69.20492
379.315	79.74592
379.53	-38.27997
379.744	24.93896
379.958	46.01671
380.173	14.40096
380.387	35.47754
380.602	-10.88778
380.816	-36.17303
381.031	-36.17303
381.245	14.40096
381.459	33.36978
381.674	-82.51994
381.888	39.69314
382.103	-74.09415
382.317	-82.51994
382.531	-15.10224
382.746	27.04663
382.96	-46.70749
383.174	-31.95906
383.388	-31.95906
383.603	37.58533
383.817	-48.81431
384.031	18.61609
384.246	1.75615
384.46	10.18593
384.674	-57.24133
384.888	-15.10224
385.103	-31.95906
385.317	-31.95906
385.531	-40.38689
385.745	48.12461
385.959	-12.99502
386.174	-29.85205
386.388	77.63768
386.602	-19.31659
386.816	-6.67324
387.03	-57.24133
387.244	43.90883
387.458	10.18593
387.672	-44.60065
387.887	-8.78052
388.101	-48.81431
388.315	-21.42373
388.529	35.47754
388.743	-19.31659
388.957	-44.60065
389.171	20.72369
389.385	-46.70749
389.599	-4.56592
389.813	12.29343
390.027	16.50851
390.241	54.44846
390.455	27.04663
390.669	-0.35123
390.883	-6.67324
391.097	-17.20943
391.311	-19.31659
391.525	-97.26409
391.738	27.04663
391.952	-4.56592
392.166	-36.17303
392.38	12.29343
392.594	1.75615
392.808	29.15432
393.022	-4.56592
393.236	-12.99502
393.449	31.26204
393.663	-6.67324
393.877	24.93896
394.091	-27.74501
394.305	29.15432
394.518	-12.99502
394.732	8.07845
394.946	-4.56592
395.16	-6.67324
395.373	31.26204
395.587	3.86356
395.801	81.85419
396.015	60.77252
396.228	14.40096
396.442	10.18593
396.656	-21.42373
396.869	-48.81431
397.083	35.47754
397.297	-2.45859
397.51	46.01671
397.724	71.31307
397.938	-23.53085
398.151	-25.63794
398.365	-31.95906
398.578	35.47754
398.792	-6.67324
399.005	-23.53085
399.219	-27.74501
399.433	18.61609
399.646	-17.20943
399.86	46.01671
400.073	-10.88778
400.287	43.90883
400.5	22.83131
400.714	-31.95906
400.927	35.47754
401.141	18.61609
401.354	43.90883
401.567	48.12461
401.781	-2.45859
401.994	27.04663
402.208	-86.73269
402.421	10.18593
402.635	5.97099
402.848	-2.45859
403.061	3.86356
403.275	-40.38689
403.488	-2.45859
403.701	54.44846
403.915	-23.53085
404.128	8.07845
404.341	56.55646
404.555	1.75615
404.768	10.18593
404.981	-31.95906
405.195	-10.88778
405.408	-15.10224
405.621	-4.56592
405.834	-21.42373
406.048	69.20492
406.261	69.20492
406.474	46.01671
406.687	18.61609
406.9	29.15432
407.114	27.04663
407.327	3.86356
407.54	22.83131
407.753	-63.56133
407.966	54.44846
408.179	-38.27997
408.392	39.69314
408.605	-29.85205
408.819	20.72369
409.032	3.86356
409.245	33.36978
409.458	-10.88778
409.671	-0.35123
409.884	27.04663
410.097	5.97099
410.31	33.36978
410.523	33.36978
410.736	-12.99502
410.949	18.61609
411.162	18.61609
411.375	-6.67324
411.588	20.72369
411.801	-31.95906
412.014	56.55646
412.227	79.74592
412.44	18.61609
412.653	-29.85205
412.865	46.01671
413.078	31.26204
413.291	69.20492
413.504	-6.67324
413.717	8.07845
413.93	35.47754
414.143	-31.95906
414.356	1.75615
414.568	-4.56592
414.781	10.18593
414.994	37.58533
415.207	18.61609
415.42	-12.99502
415.632	37.58533
415.845	14.40096
416.058	16.50851
416.271	52.34049
416.483	39.69314
416.696	20.72369
416.909	41.80097
417.121	3.86356
417.334	3.86356
417.547	31.26204
417.759	12.29343
417.972	-10.88778
418.185	16.50851
418.397	-31.95906
418.61	-19.31659
418.823	90.28749
419.035	-34.06606
419.248	52.34049
419.46	56.55646
419.673	56.55646
419.885	-19.31659
420.098	20.72369
420.311	-46.70749
420.523	86.0708
420.736	35.47754
420.948	67.09678
421.161	54.44846
421.373	43.90883
421.586	10.18593
421.798	-6.67324
422.01	-4.56592
422.223	43.90883
422.435	-23.53085
422.648	50.23254
422.86	-44.60065
423.073	69.20492
423.285	35.47754
423.497	-4.56592
423.71	1.75615
423.922	24.93896
424.134	-23.53085
424.347	14.40096
424.559	56.55646
424.771	5.97099
424.984	-4.56592
425.196	43.90883
425.408	27.04663
425.621	-46.70749
425.833	147.22146
426.045	48.12461
426.257	69.20492
426.47	39.69314
426.682	-38.27997
426.894	-48.81431
427.106	-2.45859
427.318	62.88058
427.531	29.15432
427.743	73.42125
427.955	3.86356
428.167	22.83131
428.379	10.18593
428.591	-12.99502
428.804	35.47754
429.016	54.44846
429.228	56.55646
429.44	56.55646
429.652	14.40096
429.864	20.72369
430.076	77.63768
430.288	79.74592
430.5	-40.38689
430.712	22.83131
430.924	71.31307
431.136	83.96248
431.348	54.44846
431.56	79.74592
431.772	-15.10224
431.984	20.72369
432.196	39.69314
432.408	43.90883
432.62	-6.67324
432.832	-4.56592
433.044	-40.38689
433.256	12.29343
433.468	41.80097
433.679	86.0708
433.891	77.63768
434.103	43.90883
434.315	56.55646
434.527	48.12461
434.739	54.44846
434.95	81.85419
435.162	64.98867
435.374	56.55646
435.586	48.12461
435.798	31.26204
436.009	20.72369
436.221	-57.24133
436.433	73.42125
436.645	64.98867
436.856	5.97099
437.068	60.77252
437.28	64.98867
437.491	12.29343
437.703	-21.42373
437.915	-6.67324
438.126	121.91552
438.338	79.74592
438.55	35.47754
438.761	69.20492
438.973	54.44846
439.184	69.20492
439.396	60.77252
439.608	79.74592
439.819	77.63768
440.031	12.29343
440.242	79.74592
440.454	140.89469
440.665	109.26371
440.877	64.98867
441.088	71.31307
441.3	69.20492
441.511	24.93896
441.723	113.4809
441.934	22.83131
442.146	62.88058
442.357	69.20492
442.569	56.55646
442.78	56.55646
442.991	60.77252
443.203	86.0708
443.414	107.15516
443.626	48.12461
443.837	35.47754
444.048	126.13296
444.26	39.69314
444.471	67.09678
444.682	113.4809
444.894	88.17913
445.105	86.0708
445.316	77.63768
445.528	20.72369
445.739	102.93811
445.95	58.66448
446.161	126.13296
446.373	94.50427
446.584	31.26204
446.795	43.90883
447.006	77.63768
447.217	71.31307
447.429	111.37229
447.64	128.24171
447.851	107.15516
448.062	111.37229
448.273	35.47754
448.484	88.17913
448.695	43.90883
448.907	111.37229
449.118	102.93811
449.329	64.98867
449.54	86.0708
449.751	88.17913
449.962	73.42125
450.173	69.20492
450.384	94.50427
450.595	161.98467
450.806	145.11251
451.017	105.04662
451.228	115.58952
451.439	60.77252
451.65	132.45929
451.861	132.45929
452.072	121.91552
452.283	147.22146
452.494	117.69816
452.705	88.17913
452.915	90.28749
453.126	166.20292
453.337	77.63768
453.548	128.24171
453.759	86.0708
453.97	31.26204
454.181	138.7858
454.391	157.7665
454.602	147.22146
454.813	216.8283
455.024	105.04662
455.235	69.20492
455.445	105.04662
455.656	147.22146
455.867	161.98467
456.078	134.5681
456.288	128.24171
456.499	111.37229
456.71	178.85816
456.921	206.28038
457.131	155.65745
457.342	109.26371
457.553	107.15516
457.763	92.39587
457.974	259.02486
458.184	202.06136
458.395	172.53045
458.606	195.73297
458.816	206.28038
459.027	174.63967
459.237	271.68532
459.448	189.40476
459.659	153.54842
459.869	246.36508
460.08	231.59621
460.29	271.68532
460.501	284.34646
460.711	231.59621
460.922	214.71868
461.132	237.92561
461.343	206.28038
461.553	221.0476
461.764	280.12601
461.974	330.77629
462.184	305.44984
462.395	254.80485
462.605	334.99761
462.816	237.92561
463.026	204.17086
463.236	307.56028
463.447	351.8836
463.657	307.56028
463.867	368.7707
464.078	259.02486
464.288	337.1083
464.498	417.32708
464.709	316.00221
464.919	284.34646
465.129	330.77629
465.339	334.99761
465.55	448.99889
465.76	366.65975
465.97	387.76998
466.18	429.99538
466.391	484.89782
466.601	324.44443
466.811	499.68099
467.021	436.32974
467.231	529.24946
467.441	476.45062
467.651	495.45715
467.862	533.47375
468.072	630.64738
468.282	615.85832
468.492	558.82068
468.702	639.09854
468.912	634.87293
469.122	634.87293
469.332	662.34023
469.542	628.53462
469.752	694.03574
469.962	691.92262
470.172	615.85832
470.382	691.92262
470.592	918.08266
470.802	753.20736
471.012	829.29687
471.222	846.2073
471.432	856.7766
471.642	858.89049
471.852	907.51217
472.062	930.7675
472.272	1034.36975
472.482	1019.56848
472.691	1163.36319
472.901	1091.46294
473.111	1260.64707
473.321	1254.30227
473.531	1209.8894
473.741	1192.97058
473.95	1406.58225
474.16	1091.46294
474.37	1444.65315
474.58	1349.47632
474.79	1459.45851
474.999	1415.04244
475.209	1552.52034
475.419	1459.45851
475.628	1609.62537
475.838	1522.90992
476.048	1764.01177
476.258	1791.50337
476.467	1802.07688
476.677	1755.55269
476.886	1852.82818
477.096	1928.94978
477.306	2060.03017
477.515	1952.20774
477.725	1880.31732
477.935	1933.17855
478.144	2114.99156
478.354	1988.15042
478.563	2328.44285
478.773	2368.58657
478.982	2408.72664
479.192	2448.86293
479.401	2336.89446
479.611	2345.34591
479.82	2461.53674
480.03	2655.81674
480.239	2577.69444
480.449	2600.92174
480.658	2807.78833
480.868	2761.35987
481.077	2820.44949
481.287	2693.81601
481.496	3050.3702
481.705	2980.77976
481.915	3212.68132
482.124	2970.23432
482.333	3330.66447
482.543	3111.5115
482.752	3286.42702
482.961	3136.80745
483.171	3579.09208
483.38	3292.74711
483.589	3381.21222
483.799	3473.85673
484.008	3680.07426
484.217	3591.71722
484.426	3787.31958
484.636	3669.55732
484.845	4003.75642
485.054	3755.78207
485.263	3986.95346
485.472	3818.85267
485.682	4052.05761
485.891	3923.93075
486.1	3974.35038
486.309	4215.77967
486.518	4264.03216
486.727	4129.73653
486.936	4303.88439
487.146	4259.83674
487.355	4314.37053
487.564	4213.68148
487.773	4584.72447
487.982	4465.31079
488.191	4423.39428
488.4	4666.38692
488.609	4549.11739
488.818	4718.71669
489.027	4806.5989
489.236	4867.25608
489.445	5078.35981
489.654	4927.89404
489.863	5034.48632
490.072	4796.13883
490.281	4980.15265
490.49	5151.45957
490.698	5376.84452
490.907	5201.56866
491.116	5364.33029
491.325	5205.74381
491.534	5272.53353
491.743	5335.12715
491.952	5443.57277
492.16	5260.01228
492.369	5418.55249
492.578	5585.29033
492.787	5737.30699
492.996	5693.58905
493.204	5966.13567
493.413	5826.79219
493.622	5868.39835
493.831	5618.61981
494.039	5968.21462
494.248	5760.20271
494.457	6030.57221
494.665	6040.96308
494.874	6109.52807
495.083	6163.53093
495.291	6084.59831
495.5	6028.49396
495.709	6277.71549
495.917	5918.31328
496.126	6400.12569
496.335	6617.77406
496.543	6613.63076
496.752	6238.27793
496.96	6555.61487
497.169	6283.9417
497.377	6684.05432
497.586	6640.56056
497.794	6659.20199
498.003	6646.77458
498.211	6717.18562
498.42	6700.62071
498.628	6698.54999
498.837	6963.4163
499.045	6979.9581
499.254	6640.56056
499.462	6884.823
499.671	7056.44518
499.879	6907.57705
500.087	6901.37168
500.296	7087.44471
500.504	6998.5659
500.713	7112.24072
500.921	7079.17867
501.129	7075.04551
501.338	7089.51117
501.546	7421.92182
501.754	7203.13195
501.962	7399.22864
502.171	7374.46944
502.379	7543.5951
502.587	7225.84805
502.795	7568.33305
503.004	7378.59619
503.212	7652.83115
503.42	7450.80025
503.628	7978.12757
503.837	7665.19372
504.045	7879.35817
504.253	7675.49529
504.461	7656.95209
504.669	7871.12525
504.877	7992.52749
505.085	7854.65841
505.294	7982.24194
505.502	7920.51784
505.71	8325.50759
505.918	7920.51784
506.126	8241.28417
506.334	7988.41333
506.542	8124.13786
506.75	8091.24302
506.958	8366.58027
507.166	8224.84647
507.374	8446.64971
507.582	8417.9102
507.79	8399.43282
507.998	8257.7206
508.206	8372.7405
508.414	8292.64384
508.622	8424.06899
508.83	8454.8603
509.037	8594.39386
509.245	8226.90125
509.453	8635.41655
509.661	8569.77664
509.869	8518.48206
510.077	8565.67351
510.285	8795.33429
510.492	8811.72981
510.7	8879.34912
510.908	8854.76255
511.116	8897.78735
511.324	8744.09078
511.531	8987.90909
511.739	8975.62178
511.947	8842.46829
512.155	8946.94892
512.362	8989.95692
512.57	8731.79064
512.778	9251.93539
512.985	8850.66454
513.193	9137.35441
513.401	9028.86223
513.608	9284.66311
513.816	8916.22414
514.024	8946.94892
514.231	8959.23771
514.439	9354.19536
514.646	9096.41967
514.854	9358.2849
515.061	9061.61971
515.269	9421.66436
515.477	9176.23606
515.684	9411.44293
515.892	9440.06192
516.099	9521.81306
516.307	9613.75265
516.514	9711.7867
516.722	9478.89691
516.929	9824.07405
517.136	9666.85885
517.344	9734.24784
517.551	9576.98064
517.759	9815.90923
517.966	9689.3237
518.173	9848.56706
518.381	9903.66852
518.588	9899.5873
518.796	9770.99846
519.003	9854.68998
519.21	9785.28904
519.418	10032.19719
519.625	9936.31618
519.832	10201.44241
520.039	9864.89454
520.247	9915.91183
520.454	10075.02741
520.661	10356.33095
520.868	10091.34204
521.076	10128.04667
521.283	10036.27653
521.49	10480.59405
521.697	10280.9344
521.904	10346.14329
522.112	10297.23791
522.319	10311.50277
522.526	10101.53823
522.733	10818.51582
522.94	10621.09661
523.147	10466.3368
523.354	10507.07014
523.561	10669.95317
523.768	10388.92925
523.975	10753.40029
524.183	10507.07014
524.39	10950.74508
524.597	10572.23293
524.804	10812.41175
525.011	10787.99442
525.218	10861.24135
525.425	10651.63279
525.632	10686.23713
525.838	10971.08377
526.045	11030.05967
526.252	11056.49412
526.459	11127.65468
526.666	11231.32239
526.873	11025.99266
527.08	11103.25826
527.287	11284.16218
527.494	10824.61978
527.701	11284.16218
527.907	11086.99312
528.114	11280.09782
528.321	11304.48333
528.528	11552.32182
528.735	11574.66091
528.941	11560.44526
529.148	11416.23175
529.355	11450.76614
529.562	11395.91608
529.768	11534.04355
529.975	11245.54917
530.182	11666.03652
530.388	11318.70753
530.595	11802.05113
530.802	11440.60926
531.008	11720.85312
531.215	11816.25936
531.422	11919.76404
531.628	11410.13715
531.835	12078.0244
532.042	11712.73255
532.248	12146.99484
532.455	12161.19355
532.661	12331.55022
532.868	12185.53336
533.074	12215.95662
533.281	12051.65101
533.487	12124.68183
533.694	12323.43914
533.9	12436.98433
534.107	12069.90965
534.313	12335.60572
534.52	12345.74435
534.726	12520.10239
534.933	12443.06651
535.139	12122.65333
535.345	12286.93788
535.552	12635.639
535.758	12507.93945
535.965	12436.98433
536.171	12716.70551
536.377	12785.6047
536.584	12684.28004
536.79	12672.1201
536.996	12623.47819
537.203	12556.58982
537.409	12520.10239
537.615	12548.48168
537.821	12781.55199
538.028	13069.24118
538.234	12720.75859
538.44	12830.18306
538.646	12799.78902
538.853	12982.13506
539.059	12895.01956
539.265	12919.33183
539.471	13152.28751
539.677	13109.75258
539.883	12724.81164
540.09	12961.8765
540.296	12903.12374
540.502	13498.57205
540.708	13247.47743
540.914	13336.58267
541.12	13298.10641
541.326	13585.63138
541.532	13518.819
541.738	13583.60682
541.944	13324.43244
542.15	13567.4102
542.356	13611.95036
542.562	13433.77929
542.768	13287.98083
542.974	13518.819
543.18	13458.07703
543.386	13761.75541
543.592	13786.0465
543.798	14130.12813
544.004	13970.24056
544.21	13966.19258
544.415	13850.82066
544.621	14111.91381
544.827	14000.6001
545.033	14209.05484
545.239	13970.24056
545.445	14536.87508
545.651	13891.30303
545.856	13972.26455
546.062	13966.19258
546.268	13919.64004
546.474	13925.71219
546.679	13609.92584
546.885	13830.57905
547.091	14004.648
547.297	13996.5522
547.502	13917.61599
547.708	14079.53236
547.914	14231.31567
548.119	14296.07313
548.325	14415.46502
548.531	13771.87675
548.736	14441.77096
548.942	14190.84126
549.147	14322.38032
549.353	14372.97025
549.559	14504.49954
549.764	14421.53564
549.97	14664.35079
550.175	14328.45117
550.381	14771.58918
550.586	14660.30401
550.792	15028.54904
550.997	14795.86926
551.203	14553.06273
551.408	14502.47606
551.614	14712.91188
551.819	14753.37906
552.025	15022.47921
552.23	14953.68751
552.435	14953.68751
552.641	15255.15559
552.846	14769.56584
553.052	15093.29386
553.257	14727.07543
553.462	14975.94369
553.668	14929.40799
553.873	15212.66686
554.078	15186.36433
554.283	15060.92148
554.489	15283.48144
554.694	14903.10509
554.899	15077.10768
555.105	15463.55439
555.31	15303.71423
555.515	15362.38945
555.72	15133.7593
555.925	15489.85748
556.131	15538.41729
556.336	15338.11002
556.541	15756.94188
556.746	15465.57771
556.951	15700.28638
557.156	15400.832
557.361	15457.48446
557.567	15688.14601
557.772	15706.35657
557.977	15760.98874
558.182	15536.39396
558.387	15641.60823
558.592	15435.22809
558.797	15625.42128
559.002	15799.43404
559.207	15578.8841
559.412	15554.60398
559.617	15760.98874
559.822	16050.35093
560.027	15629.46802
560.232	15935.00763
560.437	15809.55129
560.642	15825.73895
560.847	15961.3136
561.051	15951.19589
561.256	15754.91846
561.461	16206.1733
561.666	16072.6107
561.871	16024.04416
562.076	16088.79974
562.281	16125.22544
562.485	15852.04405
562.69	16028.09134
562.895	16070.58708
563.1	16060.46898
563.305	15979.52556
563.509	16135.34378
563.714	15945.12528
563.919	16167.72274
564.123	15908.70187
564.328	15973.45489
564.533	16224.38694
564.737	15916.79593
564.942	16121.17811
565.147	16499.63348
565.351	16214.26824
565.556	16319.50494
565.761	16117.13079
565.965	16052.37454
566.17	16149.50952
566.374	16331.64795
566.579	16477.36954
566.784	16422.72274
566.988	16809.3325
567.193	16718.23892
567.397	16619.05359
567.602	16847.79572
567.806	16442.96212
568.011	16762.77295
568.215	16780.99175
568.42	16823.50306
568.624	16898.40662
568.828	17185.90804
569.033	16679.77864
569.237	16710.14195
569.442	16776.94311
569.646	16631.19843
569.85	16920.67592
570.055	16805.28379
570.259	16661.56091
570.463	16902.45556
570.668	16523.92171
570.872	16629.17429
571.076	16801.23509
571.281	16874.11319
571.485	17032.0272
571.689	17064.42183
571.893	16985.46114
572.098	17414.73553
572.302	16859.94219
572.506	16785.0404
572.71	17046.19977
572.914	16951.04365
573.119	17060.37246
573.323	16973.3137
573.527	17084.66883
573.731	17104.91611
573.935	17230.45556
574.139	17275.00449
574.343	16926.74942
574.547	17319.55485
574.751	17080.61941
574.955	17242.60513
575.159	17258.80471
575.364	17380.3077
575.568	17242.60513
575.772	17406.63479
575.976	17218.3061
576.18	17501.82171
576.383	17420.81113
576.587	17439.03807
576.791	17262.85464
576.995	17550.43049
577.199	17187.9329
577.403	17544.35429
577.607	17285.12944
577.811	17870.48553
578.015	17489.6698
578.219	17509.92305
578.422	17210.20651
578.626	17497.77106
578.83	17580.81192
579.034	17665.8838
579.238	17779.32207
579.442	17902.90089
579.645	17742.85862
579.849	18036.62373
580.053	17917.08289
580.257	17846.1746
580.46	17637.52586
580.664	18233.18416
580.868	18123.75454
581.071	17765.14171
581.275	17840.09694
581.479	17902.90089
581.682	18016.3617
581.886	17694.24239
582.09	17937.34318
582.293	18287.90301
582.497	18194.67993
582.7	18344.65134
582.904	18427.75245
583.107	18255.4767
583.311	18241.29049
583.515	18269.66309
583.718	18314.25008
583.922	18529.10393
584.125	18251.42348
584.329	18247.37027
584.532	18306.14322
584.735	18608.16477
584.939	18162.25634
585.142	18539.23961
585.346	18225.0779
585.549	18587.8922
585.753	18397.34887
585.956	18571.67442
586.159	18571.67442
586.363	18853.494
586.566	18928.52363
586.769	18721.69839
586.973	18612.21933
587.176	18695.34128
587.379	18494.64335
587.582	18703.45109
587.786	18644.65638
587.989	19044.1206
588.192	19082.65585
588.395	19431.5685
588.599	19066.4303
588.802	19234.78304
589.005	18713.58844
589.208	19090.76872
589.411	18746.02863
589.615	18932.57944
589.818	18989.36251
590.021	19068.45848
590.224	19003.55877
590.427	18997.47463
590.63	18881.88294
590.833	19459.97374
591.036	19348.38639
591.239	19395.04867
591.442	19277.38278
591.645	19395.04867
591.848	19390.99099
592.051	19123.22085
592.254	19078.59944
592.457	19449.82891
592.66	19338.24271
592.863	19587.80741
593.066	19535.04865
593.269	19423.45286
593.472	19326.07043
593.675	19494.46691
593.878	19650.71577
594.081	19563.45687
594.284	19802.93006
594.486	20005.91918
594.689	20093.21742
594.892	19437.65526
595.095	19904.41937
595.298	20012.0095
595.5	19823.22708
595.703	20221.13355
595.906	19851.64362
596.109	19947.04801
596.311	19778.57419
596.514	19882.09082
596.717	19979.52821
596.92	19819.16765
597.122	20099.30829
597.325	19677.0979
597.528	20239.40865
597.73	20347.03555
597.933	19975.46813
598.136	19955.16796
598.338	19886.15052
598.541	20176.46253
598.743	20115.55078
598.946	20170.37119
599.148	20143.97579
599.351	20032.31085
599.554	20054.64282
599.756	20176.46253
599.959	20507.48244
600.161	20170.37119
600.363	20231.28634
600.566	20186.61486
600.768	20391.71434
600.971	20379.52901
601.173	19924.71849
601.376	20123.67213
601.578	19977.49817
601.78	20383.59077
601.983	20259.71471
602.185	20474.98476
602.388	20143.97579
602.59	20196.76729
602.792	20479.04691
602.995	20269.8679
603.197	20334.85078
603.399	20604.98192
603.601	20196.76729
603.804	20024.19026
604.006	20231.28634
604.208	20353.128
604.41	20462.79841
604.613	20223.1641
604.815	20194.73679
605.017	20479.04691
605.219	20231.28634
605.421	20312.51243
605.623	20280.02119
605.826	20397.80706
606.028	20911.76152
606.23	20757.34407
606.432	20594.82527
606.634	21169.85423
606.836	20741.091
607.038	20970.69025
607.24	20544.04362
607.442	20676.08134
607.644	20988.97918
607.846	21182.04921
608.048	20814.23193
608.25	21051.97693
608.452	20775.6291
608.654	21177.9842
608.856	20395.77615
609.058	20633.42108
609.26	20783.75589
609.462	20694.36488
609.664	20712.64875
609.866	20298.29738
610.067	20458.73632
610.269	20416.08544
610.471	20225.19465
610.673	20617.17003
610.875	20529.82522
611.077	20802.0414
611.278	20645.60954
611.48	20582.63744
611.682	20570.44975
611.884	21123.10814
612.085	20728.90136
612.287	21299.94158
612.489	20531.85641
612.69	20862.99554
612.892	21119.04337
613.094	20934.11339
613.295	20513.57588
613.497	20891.44207
613.699	20781.72419
613.9	20539.9812
614.102	20513.57588
614.304	20503.42018
614.505	20621.23277
614.707	21106.84914
614.908	20328.75846
615.11	20783.75589
615.311	21240.9937
615.513	20958.49782
615.714	21031.65465
615.916	20678.11283
616.117	20759.37573
616.319	20552.16851
616.52	20667.95544
616.722	21310.10535
616.923	20779.69249
617.124	21062.13823
617.326	20442.48815
617.527	21263.35284
617.729	20974.75443
617.93	20930.04938
618.131	20962.56195
618.333	21243.02632
618.534	20509.51359
618.735	21068.23505
618.937	20659.8296
619.138	20816.2637
619.339	20862.99554
619.54	21045.8802
619.742	21094.65506
619.943	21054.00918
620.144	21135.30256
620.345	21049.94468
620.546	20846.74074
620.748	20974.75443
620.949	20986.94706
621.15	20960.52988
621.351	20840.64526
621.552	20966.62609
621.753	21051.97693
621.954	21462.57395
622.155	20915.82546
622.356	20795.94619
622.558	21051.97693
622.759	21238.96107
622.96	20938.17742
623.161	21243.02632
623.362	20958.49782
623.563	21027.59024
623.764	20822.35904
623.965	20828.45441
624.166	21017.42929
624.366	21131.23774
624.567	21011.33277
624.768	20700.45946
624.969	20844.70891
625.17	21078.39651
625.371	20893.474
625.572	21029.62244
625.773	20773.59742
625.973	21082.46112
626.174	20812.20017
626.375	21188.14676
626.576	21100.75208
626.777	21387.3533
626.977	20978.81863
627.178	21279.61434
627.379	20921.9214
627.58	21047.91244
627.78	21090.5904
627.981	21190.17928
628.182	21062.13823
628.382	21175.9517
628.583	20909.72956
628.784	20986.94706
628.984	20899.5698
629.185	21462.57395
629.386	20824.39082
629.586	21391.41914
629.787	20966.62609
629.987	21054.00918
630.188	20974.75443
630.388	20826.42261
630.589	20944.2735
630.79	21143.43226
630.99	21208.47218
631.191	21425.97944
631.391	21356.85999
631.591	21234.89583
631.792	21094.65506
631.992	21442.24351
632.193	21554.06588
632.393	21381.25456
632.594	21045.8802
632.794	21293.84337
632.994	21301.97433
633.195	21552.03264
633.395	21015.39711
633.595	21354.82714
633.796	21379.22166
633.996	21330.4332
634.196	21096.68739
634.397	21328.40039
634.597	20919.88942
634.797	21387.3533
634.997	21253.18953
635.198	21428.01243
635.398	21466.64009
635.598	21842.82592
635.798	21745.2081
635.998	21507.30234
636.199	21513.40181
636.399	21720.80504
636.599	21210.50474
636.799	21287.74519
636.999	21157.65939
637.199	21299.94158
637.399	21346.69576
637.599	21208.47218
637.799	21141.39983
637.999	21653.69952
638.199	21659.79985
638.399	21726.90575
638.599	21808.25192
638.799	21665.90021
638.999	21456.47478
639.199	21639.46557
639.399	21686.235
639.599	21936.38466
639.799	21112.94623
639.999	21537.80006
640.199	21375.15587
640.399	21828.58943
640.599	21218.63504
640.799	22095.04617
640.998	22143.86971
641.198	21773.67904
641.398	21804.18446
641.598	21608.96488
641.798	21434.11144
641.997	21779.78005
642.197	21794.01589
642.397	21824.5219
642.597	21755.3762
642.796	21863.16408
642.996	21757.40984
643.196	21869.26561
643.395	22074.70366
643.595	21755.3762
643.795	21570.33195
643.994	21777.74638
644.194	21844.85972
644.394	21889.60427
644.593	21722.8386
644.793	21808.25192
644.992	21263.35284
645.192	22095.04617
645.392	21757.40984
645.591	21946.55458
645.791	21714.70436
645.99	21916.04511
646.19	21873.33331
646.389	22137.76665
646.589	21692.33551
646.788	21800.11702
646.987	22121.49199
647.187	21787.9148
647.386	21582.53167
647.586	22029.95148
647.785	21749.27533
647.984	22184.55764
648.184	22487.72906
648.383	22841.86877
648.582	22054.36154
648.782	22310.69964
648.981	22310.69964
649.18	21999.43968
649.38	22257.79965
649.579	22113.35474
649.778	21944.52059
649.977	22373.77594
650.177	22416.50703
650.376	22634.25673
650.575	22178.45435
650.774	22241.52323
650.973	22302.56102
651.173	22145.90407
651.372	21948.58857
651.571	22485.69409
651.77	22040.12227
651.969	22141.83535
652.168	22249.66141
652.367	22461.27465
652.566	22044.19061
652.765	22103.18328
652.964	22190.66095
653.163	22284.24933
653.362	22483.65911
653.561	22255.76509
653.76	22404.29798
653.959	22211.00559
654.158	22508.07902
654.357	22174.38552
654.556	22129.62929
654.755	22593.55276
654.954	21836.72454
655.153	22093.0119
655.352	22072.66944
655.551	22097.08044
655.749	22310.69964
655.948	21846.89352
656.147	21836.72454
656.346	22280.18011
656.545	21946.55458
656.743	21916.04511
656.942	22149.9728
657.141	22326.97706
657.34	22361.56735
657.538	21989.26927
657.737	22190.66095
657.936	22408.36765
658.135	22369.70639
658.333	22361.56735
658.532	22074.70366
658.731	22194.72985
658.929	21836.72454
659.128	22274.07631
659.326	22139.801
659.525	22383.94986
659.724	22005.54197
659.922	22426.68133
660.121	21911.97725
660.319	22001.47377
660.518	21977.0649
660.716	22310.69964
660.915	22650.53872
661.113	22544.70985
661.312	22575.23643
661.51	22485.69409
661.709	22394.12388
661.907	22381.91507
662.105	22282.21472
662.304	22493.83401
662.502	22495.869
662.701	22776.7317
662.899	22609.83418
663.097	22540.6397
663.296	22300.52637
663.494	22215.07456
663.692	22204.90216
663.891	21891.63816
664.089	22483.65911
664.287	22243.55777
664.485	21934.35069
664.684	22208.97111
664.882	22048.25897
665.08	22231.35059
665.278	22524.35925
665.476	22567.09593
665.675	22050.29316
665.873	22184.55764
666.071	22048.25897
666.269	21834.69076
666.467	21938.41864
666.665	22304.59567
666.863	22040.12227
667.061	22447.03022
667.259	22520.28917
667.457	22532.49945
667.655	22493.83401
667.853	22473.4843
668.051	22215.07456
668.249	21889.60427
668.447	22190.66095
668.645	22127.59496
668.843	22471.44935
669.041	22644.43295
669.239	22170.31669
669.437	22383.94986
669.635	22471.44935
669.833	22418.54188
670.031	22284.24933
670.229	22088.94338
670.426	21972.99681
670.624	22034.01979
670.822	22062.49834
671.02	21918.07905
671.218	21926.21484
671.415	22152.00718
671.613	22117.42336
671.811	21730.97291
672.009	22284.24933
672.206	22567.09593
672.404	22202.86769
672.602	22290.3532
672.799	22147.93843
672.997	22072.66944
673.195	21779.78005
673.392	22123.52631
673.59	21314.17089
673.788	21730.97291
673.985	21779.78005
674.183	21791.98219
674.38	22040.12227
674.578	21970.96277
674.775	22036.05394
674.973	21824.5219
675.17	21977.0649
675.368	21993.33742
675.565	21462.57395
675.763	21804.18446
675.96	21676.06755
676.158	21641.49898
676.355	20905.66565
676.553	21747.24171
676.75	21271.48356
676.947	21861.13025
677.145	21511.36865
677.342	21814.35313
677.539	21511.36865
677.737	21932.31672
677.934	21759.44347
678.131	21995.3715
678.329	22198.79876
678.526	21716.73792
678.723	21682.16801
678.92	21944.52059
679.118	21391.41914
679.315	21747.24171
679.512	21822.48814
679.709	21724.87218
679.906	21566.26541
680.104	21680.13452
680.301	21283.67976
680.498	21123.10814
680.695	21454.44173
680.892	21789.94849
681.089	21005.23629
681.286	21602.86485
681.483	20954.43371
681.68	21153.59447
681.877	20991.01131
682.075	20893.474
682.272	20842.67708
682.469	21102.78443
682.665	21098.71973
682.862	20826.42261
683.059	21163.75679
683.256	21228.79801
683.453	21054.00918
683.65	20999.13984
683.847	21143.43226
684.044	20946.30553
684.241	21072.29962
684.438	21279.61434
684.635	20761.40738
684.831	21554.06588
685.028	20907.6976
685.225	20834.54981
685.422	20499.35792
685.619	20737.02777
685.815	20893.474
686.012	20982.88284
686.209	21009.30061
686.405	21224.73281
686.602	20917.85744
686.799	21033.68686
686.996	20905.66565
687.192	20828.45441
687.389	21182.04921
687.586	21098.71973
687.782	21023.52585
687.979	21177.9842
688.175	20446.55017
688.372	20893.474
688.568	20651.70382
688.765	21011.33277
688.962	20791.88274
689.158	20988.97918
689.355	21139.36741
689.551	21007.26845
689.748	21023.52585
689.944	20850.80441
690.14	20814.23193
690.337	20812.20017
690.533	20672.01838
690.73	20487.17127
690.926	20602.95058
691.123	20596.85659
691.319	20308.45097
691.515	21037.75129
691.712	20535.9188
691.908	20513.57588
692.104	20531.85641
692.301	20611.07595
692.497	20479.04691
692.693	20580.60615
692.889	20592.79396
693.086	20485.14017
693.282	20724.83818
693.478	20535.9188
693.674	20426.24024
693.87	20519.66935
694.067	20389.68344
694.263	20338.91236
694.459	20477.01583
694.655	20361.25131
694.851	20422.17831
695.047	20458.73632
695.243	20696.3964
695.439	20643.57812
695.635	20284.08253
695.831	20678.11283
696.027	20267.83725
696.224	20194.73679
696.42	20383.59077
696.615	20643.57812
696.811	20235.34749
697.007	20355.15882
697.203	20052.61262
697.399	19813.07852
697.595	19833.37575
697.791	19744.07108
697.987	20172.40163
698.183	20342.97395
698.379	19654.77452
698.575	20349.06636
698.77	20018.09986
698.966	19673.03906
699.162	19644.62769
699.358	19376.78926
699.554	19457.94476
699.749	19571.57365
699.945	19796.84104
700.141	19740.01197
700.337	19725.80521
700.532	19711.59866
700.728	20277.99052
700.924	20509.51359
701.119	20422.17831
701.315	20105.39919
701.511	19871.94165
701.706	19999.82889
701.902	19660.86266
702.097	19979.52821
702.293	19863.82238
702.489	20070.88457
702.684	19792.78171
702.88	19947.04801
703.075	19646.65705
703.271	19403.16407
703.466	19626.36367
703.662	19492.43787
703.857	20050.58242
704.053	19516.78666
704.248	19447.79996
704.443	19403.16407
704.639	19259.12553
704.834	19583.74895
705.03	19273.32558
705.225	19583.74895
705.42	19484.32173
705.616	19283.46861
705.811	19273.32558
706.006	19447.79996
706.202	19322.01303
706.397	19764.36688
706.592	19500.55407
706.787	19399.10636
706.983	19271.29699
707.178	19516.78666
707.373	19364.6165
707.568	19595.92439
707.763	19332.15655
707.959	19204.35576
708.154	19214.49808
708.349	19141.47563
708.544	19575.63206
708.739	19526.93217
708.934	18855.52175
709.129	19202.3273
709.324	19048.17687
709.519	19425.48176
709.714	19214.49808
709.909	19301.72631
710.104	18681.14926
710.299	19269.2684
710.494	18701.42363
710.689	18971.11046
710.884	19117.136
711.079	18739.94602
711.274	19145.5323
711.469	19236.81155
711.664	18938.66319
711.859	19242.89713
712.054	19007.61488
712.249	19123.22085
712.443	19082.65585
712.638	19269.2684
712.833	18786.58029
713.028	18969.08248
713.223	18389.24139
713.417	18812.93972
713.612	18624.38311
713.807	18713.58844
714.002	18452.07593
714.196	18857.54951
714.391	18904.18909
714.586	18898.10555
714.78	18889.99421
714.975	18926.49573
715.17	18727.7809
715.364	18944.74698
715.559	18557.48407
715.754	18924.46783
715.948	18377.08029
716.143	18719.6709
716.337	18606.1375
716.532	18859.57728
716.726	18338.57102
716.921	18543.2939
717.115	18612.21933
717.31	18664.93005
717.504	18468.29189
717.699	19019.78331
717.893	18644.65638
718.088	18910.27267
718.282	18417.61783
718.476	18831.18895
718.671	18320.33027
718.865	18263.58319
719.059	18269.66309
719.254	18454.10292
719.448	18146.0449
719.642	18044.72864
719.837	17892.77099
720.031	18257.50331
720.225	17915.05688
720.419	18245.34367
720.614	17979.89095
720.808	18000.15234
721.002	17927.21299
721.196	18010.28316
721.39	18075.12257
721.585	17947.47346
721.779	18198.73294
721.973	18285.87633
722.167	17850.22638
722.361	18004.20466
722.555	18020.41408
722.749	18034.59751
722.943	18180.49449
723.137	17829.96758
723.331	17550.43049
723.525	17633.47478
723.719	17720.57594
723.913	17913.03087
724.107	18016.3617
724.301	18227.10446
724.495	17829.96758
724.689	18472.34592
724.883	17655.75589
725.077	18026.49267
725.271	17979.89095
725.465	17489.6698
725.659	17888.71906
725.853	18004.20466
726.046	18018.38789
726.24	18010.28316
726.434	17752.98725
726.628	17834.01931
726.822	17518.02443
727.015	17868.4596
727.209	17445.11378
727.403	17657.78147
727.596	17465.36633
727.79	17430.93718
727.984	17582.83737
728.177	17975.83871
728.371	17730.70438
728.565	17676.01179
728.758	17722.60162
728.952	17441.0633
729.146	17582.83737
729.339	18044.72864
729.533	17831.99345
729.726	17933.2911
729.92	18000.15234
730.113	17979.89095
730.307	17795.5284
730.5	17904.92688
730.694	17734.75578
730.887	17775.27053
731.081	17927.21299
731.274	18154.15059
731.468	17744.88434
731.661	18004.20466
731.854	17763.11596
732.048	17684.11424
732.241	17277.02947
732.435	17594.99016
732.628	17708.42192
732.821	17497.77106
733.014	17327.65508
733.208	17323.60496
733.401	17204.13186
733.594	17307.40461
733.788	17291.20445
733.981	17422.83633
734.174	17556.50672
734.367	17603.09209
734.56	17807.6833
734.754	17481.56859
734.947	17380.3077
735.14	17609.16857
735.333	17528.15124
735.526	17202.10698
735.719	17019.8794
735.912	17234.5054
736.105	17449.16426
736.298	17424.86154
736.491	17125.16367
736.684	17092.76771
736.877	17005.70708
737.07	17406.63479
737.263	17424.86154
737.456	17113.0151
737.649	17339.8055
737.842	17625.37266
738.035	17291.20445
738.228	17418.78593
738.421	17384.35799
738.614	17546.37969
738.807	17515.99908
739	16918.65142
739.192	16708.11771
739.385	16811.35686
739.578	17060.37246
739.771	17098.8419
739.964	16831.60057
740.156	16963.19091
740.349	16756.70006
740.542	16963.19091
740.735	16944.97006
740.927	16965.21547
741.12	16912.57795
741.313	16570.475
741.505	16521.89768
741.698	16653.4642
741.891	16600.83647
742.083	16637.27089
742.276	16327.60027
742.468	16461.17774
742.661	16491.53747
742.854	16615.00532
743.046	16457.12981
743.239	16746.57862
743.431	16479.39352
743.624	16538.08998
743.816	16558.33055
744.009	16491.53747
744.201	16376.17291
744.393	16353.91031
744.586	16408.55529
744.778	16487.48948
744.971	16440.93818
745.163	16392.36404
745.355	16695.97234
745.548	16750.62719
745.74	16716.21468
745.932	16756.70006
746.125	16447.01002
746.317	16412.60312
746.509	16088.79974
746.702	16258.79087
746.894	16297.24292
747.086	16194.03095
747.278	16370.10127
747.471	16386.29235
747.663	16444.98607
747.855	16311.40963
748.047	16534.04189
748.239	16946.99459
748.431	16594.76413
748.623	16936.87197
748.815	16143.43848
749.008	16258.79087
749.2	16491.53747
749.392	16615.00532
749.584	16374.14903
749.776	16376.17291
749.968	16311.40963
750.16	16390.34014
750.352	16238.5532
750.544	16631.19843
750.736	16578.57134
750.928	16631.19843
751.12	16321.52877
751.311	16274.98113
751.503	16256.76709
751.695	16343.79103
751.887	16187.9598
752.079	16420.69881
752.271	15961.3136
752.463	16153.55689
752.654	16064.51622
752.846	15926.91353
753.038	15665.88875
753.23	15918.81945
753.421	16084.75247
753.613	16313.43346
753.805	16341.76718
753.997	16135.34378
754.188	16179.86496
754.38	15900.60784
754.572	15951.19589
754.763	16390.34014
754.955	16090.82338
755.146	16173.79384
755.338	16173.79384
755.53	15698.26298
755.721	15922.86648
755.913	15777.17619
756.104	15870.25539
756.296	15892.51383
756.487	15850.02057
756.679	15793.3637
756.87	15617.32783
757.062	15382.62235
757.253	15593.04755
757.445	15461.53108
757.636	15388.69223
757.827	15283.48144
758.019	15368.45932
758.21	15512.11402
758.401	15374.52919
758.593	15623.39792
758.784	15564.72068
758.975	15497.95076
759.167	15473.67096
759.358	15457.48446
759.549	15558.65066
759.74	15273.36506
759.932	15323.94703
760.123	15263.24868
760.314	15463.55439
760.505	15202.5505
760.696	14880.84873
760.888	15111.50331
761.079	14955.7108
761.27	14915.2449
761.461	14791.82258
761.652	15038.66544
761.843	14631.97642
762.034	14959.75738
762.225	14854.54568
762.416	15077.10768
762.607	14753.37906
762.798	14943.57105
762.989	14708.86514
763.18	14899.05849
763.371	14781.70589
763.562	14818.1259
763.753	14638.04664
763.944	14455.9356
764.135	14462.00614
764.326	14464.02965
764.517	14522.71082
764.708	14540.922
764.899	14445.81801
765.089	14304.16768
765.28	14498.42909
765.471	14662.3274
765.662	14563.17996
765.853	14824.19587
766.043	14330.47478
766.234	14773.61253
766.425	14401.30017
766.615	14385.11169
766.806	14205.0074
766.997	14122.0329
767.187	13897.37529
767.378	14324.40394
767.569	14403.32373
767.759	14275.83663
767.95	14455.9356
768.141	14215.126
768.331	14259.64729
768.522	14217.14972
768.712	14138.22332
768.903	14077.5085
769.093	13611.95036
769.284	13915.59193
769.474	13931.78431
769.665	13954.04857
769.855	13927.73623
770.046	14243.45784
770.236	13725.31795
770.426	14192.865
770.617	13713.17191
770.807	14225.24456
770.998	13952.02456
771.188	13725.31795
771.378	13423.65507
771.569	13737.46388
771.759	13514.76964
771.949	13559.31181
772.139	13701.02575
772.33	13105.70152
772.52	13399.35654
772.71	13743.53681
772.9	13761.75541
773.09	13490.47317
773.281	13786.0465
773.471	13502.62147
773.661	13563.36102
773.851	13535.0163
774.041	13427.70477
774.231	13769.85249
774.421	13435.80412
774.611	13002.39312
774.802	13030.75356
774.992	13530.967
775.182	13271.77968
775.372	13103.67599
775.562	13044.93341
775.752	13362.90767
775.942	13130.00756
776.131	13148.23665
776.321	12775.47288
776.511	12915.27984
776.701	12732.91768
776.891	12978.08339
777.081	12765.34092
777.271	12850.44506
777.461	12838.28792
777.651	12880.83705
777.84	12957.82472
778.03	12811.94678
778.22	12807.89422
778.41	13202.92168
778.599	12769.39372
778.789	12777.49926
778.979	12576.85974
779.169	12643.74608
779.358	12511.99379
779.548	12864.62814
779.738	12676.17344
779.927	12923.38381
780.117	12595.10213
780.307	12578.8867
780.496	12651.85306
780.686	12607.26345
780.875	12505.91227
781.065	12501.85789
781.254	12288.96579
781.444	12635.639
781.633	12315.32794
781.823	12475.50382
782.012	12128.73881
782.202	12134.82422
782.391	12015.13183
782.581	12157.13682
782.77	11907.58814
782.96	12061.79478
783.149	12061.79478
783.338	12224.06921
783.528	12343.71664
783.717	12781.55199
783.906	12396.43492
784.096	12445.09389
784.285	12215.95662
784.474	12086.13903
784.663	11984.69723
784.853	11838.58574
785.042	12002.9582
785.231	12108.45362
785.42	11883.23545
785.61	11925.85188
785.799	11737.09383
785.988	12100.33933
786.177	11956.28998
786.366	11950.2025
786.555	11893.38255
786.744	12140.90957
786.933	11540.13639
787.122	11858.88157
787.312	11749.274
787.501	11948.17333
787.69	11826.40784
787.879	11767.54367
788.068	12029.33403
788.257	12035.42058
788.445	11881.20601
788.634	12013.10291
788.823	11751.304
789.012	11795.96176
789.201	11544.19824
789.39	11507.64025
789.579	11645.73242
789.768	11672.12757
789.957	11412.16869
790.145	11527.95062
790.334	11621.36631
790.523	11692.4305
790.712	11647.76287
790.9	11645.73242
791.089	11412.16869
791.278	11078.8603
791.467	11208.965
791.655	11280.09782
791.844	11093.09263
792.033	11158.14803
792.221	11367.4725
792.41	11206.93244
792.599	11145.95097
792.787	11271.969
792.976	11225.22505
793.164	11113.42362
793.353	10804.27283
793.541	10960.91456
793.73	10769.68031
793.918	11117.48969
794.107	10779.85493
794.295	10863.27578
794.484	11150.0167
794.672	11064.62743
794.861	10840.8965
795.049	11192.70428
795.238	10930.40526
795.426	11048.36064
795.614	10999.55606
795.803	11056.49412
795.991	10912.09845
796.179	10840.8965
796.368	10728.97884
796.556	10645.52577
796.744	10555.94344
796.932	10824.61978
797.121	10543.7258
797.309	10604.80951
797.497	10739.15465
797.685	10930.40526
797.874	10606.84544
798.062	10572.23293
798.25	10472.44713
798.438	10560.01589
798.626	10515.2162
798.814	10551.87094
799.002	10360.40592
799.19	10560.01589
799.378	10445.9682
799.566	10307.42716
799.755	9897.54667
799.943	10287.04831
800.131	10596.66566
800.318	10716.76746
800.506	10382.81732
800.694	10181.0565
800.882	10026.07807
801.07	10370.59312
801.258	10362.44339
801.446	10580.37737
801.634	10126.00764
801.822	10490.77742
802.01	10321.69156
802.197	10498.92388
802.385	10337.99293
802.573	10164.74678
802.761	10146.39729
802.949	10478.55734
803.136	10229.98037
803.324	10254.43936
803.512	10205.51942
803.699	10160.66921
803.887	10327.80467
804.075	10368.55571
804.262	10246.28658
804.45	10431.70942
804.638	10397.07829
804.825	10478.55734
805.013	10262.59192
805.201	10395.04105
805.388	10058.71187
805.576	10484.66744
805.763	10458.18952
805.951	10397.07829
806.138	10028.11779
806.326	10307.42716
806.513	10050.55376
806.701	9993.44062
806.888	10046.47462
807.075	10562.05209
807.263	10183.09515
807.45	10470.41036
807.638	10038.31618
807.825	10205.51942
808.012	10138.2416
808.2	10352.25593
808.387	10295.20001
808.574	10346.14329
808.761	10372.63052
808.949	10482.63075
809.136	10132.12468
809.323	10454.1158
809.51	10276.85839
809.698	10319.65383
809.885	10311.50277
810.072	10331.88001
810.259	10236.0953
810.446	10191.24962
810.633	10115.8123
810.82	10291.12419
811.008	10358.36844
811.195	10545.7621
811.382	10195.32678
811.569	10362.44339
811.756	10050.55376
811.943	10590.55765
812.13	10280.9344
812.317	10197.36533
812.504	10203.48092
812.691	10303.3515
812.878	10103.57742
813.064	10305.38934
813.251	9830.1975
813.438	9985.28068
813.625	9795.49615
813.812	10342.06814
813.999	9997.5205
814.186	10197.36533
814.372	10185.13379
814.559	10541.68948
814.746	10441.89433
814.933	10352.25593
815.12	10386.89195
815.306	10716.76746
815.493	10474.48388
815.68	10364.48084
815.866	10270.74427
816.053	10543.7258
816.24	10164.74678
816.426	10289.08626
816.613	10234.05701
816.799	10246.28658
816.986	10303.3515
817.173	10309.46497
817.359	10232.0187
817.546	10413.37576
817.732	10066.86975
817.919	10079.10615
818.105	9813.86799
818.292	10201.44241
818.478	9999.56042
818.665	10217.75014
818.851	10130.08568
819.037	10013.83946
819.224	10146.39729
819.41	9883.26183
819.597	9685.23932
819.783	9824.07405
819.969	9666.85885
820.156	9952.63861
820.342	9946.51781
820.528	9950.59836
820.714	9724.03846
820.901	10005.68009
821.087	9958.75928
821.273	10176.97915
821.459	9891.42468
821.646	9819.99167
821.832	9813.86799
822.018	9950.59836
822.204	9924.07375
822.39	10095.42056
822.576	9942.4372
822.762	10052.59331
822.948	9899.5873
823.134	9964.87982
823.32	9429.84122
823.507	9864.89454
823.693	9376.68701
823.879	9711.7867
824.065	9485.02822
824.25	9507.50846
824.436	9208.97375
824.622	9223.29512
824.808	9258.07216
824.994	9196.69762
825.18	9433.92955
825.366	9454.37023
825.552	9442.10601
825.738	9813.86799
825.923	9303.07057
826.109	9607.62434
826.295	9323.52173
826.481	9384.8653
826.667	9307.16093
826.852	9258.07216
827.038	9114.84115
827.224	9446.19415
827.409	9417.57584
827.595	9621.92352
827.781	9143.49403
827.966	9517.72611
828.152	9327.61176
828.338	9515.68261
828.523	9022.71971
828.709	8969.47789
828.894	8885.49536
829.08	9294.88964
829.266	9256.02659
829.451	9405.30988
829.637	9075.94971
829.822	9415.53155
830.008	8946.94892
830.193	9045.24153
830.378	9002.24349
830.564	9307.16093
830.749	9276.48158
830.935	9184.42089
831.12	8877.30034
831.305	9120.98134
831.491	8668.22934
831.676	8973.57383
831.861	8674.38121
832.047	8807.63104
832.232	8594.39386
832.417	8577.98268
832.602	8694.88624
832.788	8780.98726
832.973	8727.69044
833.158	8842.46829
833.343	8526.68999
833.528	8828.12418
833.714	8399.43282
833.899	8561.5703
834.084	8385.06044
834.269	8483.59498
834.454	8563.62192
834.639	8557.46702
834.824	8405.59212
835.009	8655.9251
835.194	8592.34253
835.379	8713.33918
835.564	8364.52682
835.749	8809.68044
835.934	8413.80425
836.119	8329.61521
836.304	8356.31283
836.489	8233.06548
836.674	8035.72128
836.859	8243.33879
837.044	8130.30507
837.228	8280.31864
837.413	8120.02629
837.598	8292.64384
837.783	7945.20969
837.968	8181.69149
838.152	8006.92642
838.337	8177.58104
838.522	8060.39943
838.707	8144.69453
838.891	8267.99273
839.076	8432.28043
839.261	8376.84722
839.445	8325.50759
839.63	8413.80425
839.815	8307.02235
839.999	7877.29997
840.184	7766.12633
840.368	7988.41333
840.553	7797.01399
840.737	7951.38219
840.922	8091.24302
841.106	7646.64957
841.291	8064.51217
841.475	7912.28657
841.66	8222.79167
841.844	8265.93834
842.029	7873.18351
842.213	7862.89199
842.397	7755.8294
842.582	7595.129
842.766	7696.09684
842.951	7741.41281
843.135	7790.83684
843.319	7512.66833
843.504	7586.88448
843.688	7419.85892
843.872	7764.06699
844.056	7516.79218
844.241	7694.03678
844.425	7456.98794
844.609	7502.35834
844.793	7481.73672
844.977	7533.28672
845.161	7215.52288
845.346	7446.67502
845.53	7277.46561
845.714	7380.65954
845.898	7097.77677
846.082	7260.94949
846.266	7215.52288
846.45	7428.11042
846.634	7056.44518
846.818	7137.03351
847.002	7165.95437
847.186	7335.26095
847.37	7087.44471
847.554	7314.62173
847.738	7002.70072
847.922	6988.22846
848.106	7054.37837
848.29	7062.64549
848.473	7194.87089
848.657	7263.01408
848.841	7320.81373
849.025	7304.3013
849.209	6982.02572
849.392	6876.54812
849.576	6706.83272
849.76	7091.5776
849.944	6864.13512
850.127	7025.44061
850.311	6756.52142
850.495	6859.99727
850.678	6615.70242
850.862	7172.15114
851.046	6603.27211
851.229	6797.9186
851.413	6698.54999
851.596	6723.39709
851.78	6350.34151
851.964	6808.26647
852.147	6615.70242
852.331	6893.09752
852.514	6748.24089
852.698	6665.41538
852.881	6594.98477
853.065	6880.68561
853.248	6383.53245
853.431	6462.33704
853.615	6267.338
853.798	6342.04284
853.982	6269.41354
854.165	6677.84155
854.348	6489.28879
854.532	6526.60013
854.715	6402.19974
854.898	6288.09239
855.081	6205.06079
855.265	6433.30768
855.448	6051.35336
855.631	6225.82221
855.814	6151.07014
855.997	6246.58127
856.181	6111.60539
856.364	6105.37334
856.547	6001.47464
856.73	6080.44302
856.913	5795.58138
857.096	5903.75616
857.279	5801.82397
857.462	6169.76101
857.645	5708.16285
857.828	5922.47224
858.011	5918.31328
858.194	6167.68434
858.377	5993.1602
858.56	6346.19222
858.743	6009.7887
858.926	6221.67011
859.109	5980.68784
859.292	6130.30028
859.475	6005.63172
859.658	6072.13216
859.841	5968.21462
860.023	6186.37352
860.206	6016.024
860.389	5893.35751
860.572	5697.75311
860.755	5889.19789
860.937	5841.35542
861.12	5851.75702
861.303	5551.95482
861.486	5610.288
861.668	5718.572
861.851	5697.75311
862.034	5541.53623
862.216	5647.77815
862.399	5395.61427
862.581	5495.68747
862.764	5324.69635
862.947	5489.43448
863.129	5389.3579
863.312	5512.36107
863.494	5214.09383
863.677	5522.7813
863.859	5483.18128
864.042	5401.87043
864.224	5163.9881
864.406	5355.98701
864.589	4996.87236
864.771	5328.86874
864.954	5107.60313
865.136	5439.40296
865.318	5113.86896
865.501	5182.77932
865.683	5105.51447
865.865	5230.79276
866.048	4955.07031
866.23	5118.04607
866.412	4950.8896
866.594	4944.61836
866.777	4858.89071
866.959	5295.48697
867.141	4944.61836
867.323	5378.93014
867.505	4802.41494
867.687	5088.80438
867.869	4934.16583
868.052	5120.13459
868.234	4817.0584
868.416	5120.13459
868.598	5088.80438
868.78	4881.89459
868.962	4913.25905
869.144	4865.16477
869.326	5067.91467
869.508	5003.14187
869.69	4852.61645
869.872	5126.4
870.054	4756.38539
870.236	5080.44877
870.417	4869.34737
870.599	4929.98466
870.781	4804.50693
870.963	4902.80481
871.145	4762.66279
871.327	4852.61645
871.508	4701.97269
871.69	4860.98209
871.872	4643.35737
872.054	5005.23167
872.235	4622.41906
872.417	4739.64465
872.599	4632.88849
872.78	4681.04067
872.962	4735.45924
873.144	4756.38539
873.325	4651.73206
873.507	4783.586
873.689	4440.16193
873.87	4927.89404
874.052	4768.93999
874.233	4802.41494
874.415	4634.98231
874.596	4950.8896
874.778	4400.33646
874.959	4787.77037
875.141	4607.76091
875.322	4722.90246
875.503	4674.76063
875.685	4779.40154
875.866	4515.59899
876.048	4697.78647
876.229	4542.83313
876.41	4860.98209
876.592	4576.34691
876.773	4796.13883
876.954	4435.97015
877.136	4699.87959
877.317	4410.81761
877.498	4523.97912
877.679	4576.34691
877.86	4689.41375
878.042	4591.0074
878.223	4829.60906
878.404	4542.83313
878.585	4570.06351
878.766	4609.855
878.947	5047.02265
879.128	4775.21699
879.309	5019.85956
879.49	4827.51734
879.672	4883.98572
879.853	4658.01285
880.034	5036.57577
880.215	4400.33646
880.396	4727.08814
880.576	4739.64465
880.757	4817.0584
880.938	4308.07891
881.119	4697.78647
881.3	4278.71546
881.481	4724.99531
881.662	4440.16193
881.843	4335.34118
882.023	4364.69647
882.204	4507.21851
882.385	4446.44944
882.566	4729.18095
882.747	4402.43274
882.927	4547.02266
883.108	4544.9279
883.289	4741.73732
883.469	4582.63011
883.65	4670.57382
883.831	4695.69332
884.011	4748.0152
884.192	4599.38433
884.373	4821.24205
884.553	4771.03235
884.734	4643.35737
884.914	4555.40146
885.095	4616.13713
885.275	4683.13397
885.456	4662.19993
885.636	4628.70078
885.817	4996.87236
885.997	4842.15889
886.178	5036.57577
886.358	4515.59899
886.538	4992.69257
886.719	4777.30927
886.899	4877.71228
887.08	4867.25608
887.26	4846.34198
887.44	4637.07611
887.621	5028.21785
887.801	4599.38433
887.981	5021.94917
888.161	4513.50391
888.342	4915.34984
888.522	4716.62377
888.702	5007.32143
888.882	4835.88407
889.062	4938.34691
889.242	4787.77037
889.423	4714.53082
889.603	4708.25186
889.783	4814.96655
889.963	4511.4088
890.143	5034.48632
890.323	4630.79465
890.503	4674.76063
890.683	4616.13713
890.863	4563.77991
891.043	4402.43274
891.223	4875.62108
891.403	4691.50696
891.583	4936.25638
891.763	4674.76063
891.943	4819.15024
892.122	4542.83313
892.302	4649.63842
892.482	4599.38433
892.662	4591.0074
892.842	4354.21293
893.022	4819.15024
893.201	4559.59073
893.381	4854.70789
893.561	4622.41906
893.741	4691.50696
893.92	4456.92819
894.1	4781.49378
894.28	4718.71669
894.459	4810.78277
894.639	4433.87423
894.819	4643.35737
894.998	4318.56483
895.178	4521.88413
895.357	4398.24017
895.537	4431.77828
895.716	4261.93446
895.896	4519.7891
896.075	4243.0542
896.255	4259.83674
896.434	3957.54514
896.614	4389.85477
896.793	4077.25389
896.973	4259.83674
897.152	4131.83557
897.331	4240.95629
897.511	4062.55642
897.69	3995.3551
897.87	3936.53675
898.049	4062.55642
898.228	3852.48308
898.407	3936.53675
898.587	3799.93335
898.766	4062.55642
898.945	3877.70255
899.124	3970.14919
899.304	3980.65201
899.483	4033.15844
899.662	3774.7051
899.841	4045.75807
900.02	3720.03428
900.199	3919.72859
900.378	3871.39795
900.557	3926.0318
900.737	3749.47404
900.916	3867.19478
901.095	3667.45387
901.274	3856.68652
901.453	3566.46627
901.632	3574.88355
901.811	3532.79418
901.989	3583.30053
902.168	3309.59996
902.347	3680.07426
902.526	3318.02597
902.705	3549.63081
902.884	3345.4086
903.063	3562.25752
903.242	3421.22203
903.42	3431.74987
903.599	3296.96043
903.778	3273.78636
903.957	3358.04575
904.135	3431.74987
904.314	3341.19608
904.493	3423.32764
904.672	3145.23892
904.85	3231.64646
905.029	3240.07498
905.207	3273.78636
905.386	3001.86953
905.565	3174.74703
905.743	2984.99784
905.922	2959.6885
906.1	2651.59435
906.279	2803.56784
906.457	2664.26138
906.636	2984.99784
906.814	2651.59435
906.993	2919.611
907.171	2362.24833
907.35	2750.80704
907.528	2486.88317
907.707	2613.59056
907.885	2448.86293
908.063	2503.7799
908.242	2482.65887
908.42	2550.24214
908.598	2552.35392
908.777	2746.58581
908.955	2450.97525
909.133	2503.7799
909.311	2355.90999
909.49	2617.8134
909.668	2467.87349
909.846	2417.1767
910.024	2368.58657
910.202	2516.45197
910.38	2508.00397
910.559	2605.14473
910.737	2336.89446
910.915	2478.43453
911.093	2309.42617
911.271	2453.08757
911.449	2412.95169
911.627	2493.21952
911.805	2345.34591
911.983	2436.18873
912.161	2415.0642
912.339	2541.79487
912.517	2233.35183
912.695	2400.27641
912.872	2398.16383
913.05	2550.24214
913.228	2368.58657
913.406	2508.00397
913.584	2368.58657
913.762	2714.92491
913.939	2284.06939
914.117	2486.88317
914.295	2393.93863
914.473	2668.48362
914.65	2554.4657
914.828	2681.15005
915.006	2391.82601
915.184	2387.60075
915.361	2034.66174
915.539	2482.65887
915.716	2100.19475
915.894	2480.54671
916.072	2279.84312
916.249	2368.58657
916.427	2372.81202
916.604	2533.34742
916.782	2212.21799
916.959	2317.87812
917.137	2243.91842
917.314	2560.80095
917.492	2121.33293
917.669	2241.80512
917.847	2227.01177
918.024	2421.40167
918.201	2188.96978
918.379	2284.06939
918.556	2076.9419
918.733	2377.03742
918.911	1956.43638
919.088	2260.82449
919.265	1979.69348
919.442	2372.81202
919.62	1831.68213
919.797	2292.5218
919.974	2005.06399
920.151	2157.26603
920.328	1903.57668
920.506	2123.4467
920.683	2066.37212
920.86	1931.06417
921.037	1747.09354
921.214	1882.43183
921.391	1649.80956
921.568	1865.51558
921.745	1776.70029
921.922	1768.24129
922.099	1692.10773
922.276	1869.74468
922.453	1586.3605
922.63	1918.37775
922.807	1685.76308
922.984	1799.96219
923.161	1715.37123
923.338	1867.63013
923.514	1717.48608
923.691	1755.55269
923.868	1706.91182
924.045	1833.79675
924.222	1605.39541
924.399	1717.48608
924.575	1656.15435
924.752	1730.17507
924.929	1694.22261
925.105	1795.73279
925.282	1510.21968
925.459	1582.1305
925.635	1497.52941
925.812	1531.37006
925.989	1349.47632
926.165	1455.22841
926.342	1429.84778
926.518	1448.88325
926.695	1370.62658
926.871	1482.72408
927.048	1436.19294
927.224	1599.05046
927.401	1302.94628
927.577	1472.14882
927.754	1121.0683
927.93	1252.18734
928.107	1150.67455
928.283	1309.29123
928.459	1220.46377
928.636	1279.6816
928.812	1218.34889
928.988	1379.08671
929.165	1159.13363
929.341	1212.00427
929.517	1125.29771
929.693	1262.762
929.87	981.50947
930.046	1195.08542
930.222	1032.25526
930.398	1072.43144
930.574	939.22421
930.751	1095.69222
930.927	915.96855
931.103	1108.38017
931.279	1032.25526
931.455	1233.15312
931.631	1051.28583
931.807	970.93789
931.983	892.71381
932.159	934.99584
932.335	1049.1713
932.511	1074.54603
932.687	704.60147
932.863	934.99584
933.039	763.77459
933.215	884.25779
933.391	880.02982
933.566	846.2073
933.742	778.56913
933.918	812.38703
934.094	681.35723
934.27	803.93232
934.445	617.971
934.621	820.84188
934.797	558.82068
934.973	611.63298
935.148	584.16957
935.324	603.18247
935.5	611.63298
935.675	624.30913
935.851	518.68897
936.027	512.35284
936.202	444.77578
936.378	550.37148
936.553	468.00366
936.729	406.7706
936.904	368.7707
937.08	415.21575
937.255	322.33385
937.431	358.21613
937.606	360.32701
937.782	341.32972
937.957	240.03545
938.133	250.58493
938.308	178.85816
938.483	299.11864
938.659	294.89792
938.834	246.36508
939.009	225.26699
939.185	221.0476
939.36	233.70599
939.535	191.51415
939.71	208.38993
939.886	132.45929
940.061	143.00359
940.236	212.60907
940.411	199.95188
940.586	178.85816
940.761	140.89469
940.937	174.63967
941.112	124.02423
941.287	157.7665
941.462	172.53045
941.637	75.52945
941.812	113.4809
941.987	178.85816
942.162	204.17086
942.337	121.91552
942.512	206.28038
942.687	172.53045
942.862	134.5681
943.037	159.87558
943.212	136.67694
943.386	161.98467
943.561	96.6127
943.736	27.04663
943.911	60.77252
944.086	145.11251
944.26	92.39587
944.435	54.44846
944.61	180.96744
944.785	111.37229
944.959	117.69816
945.134	111.37229
945.309	111.37229
945.483	149.33043
945.658	113.4809
945.833	130.35049
946.007	98.72115
946.182	153.54842
946.357	161.98467
946.531	170.42125
946.706	136.67694
946.88	69.20492
947.055	185.18606
947.229	94.50427
947.404	67.09678
947.578	130.35049
947.752	18.61609
947.927	43.90883
948.101	81.85419
948.276	159.87558
948.45	128.24171
948.624	88.17913
948.799	159.87558
948.973	157.7665
949.147	115.58952
949.321	138.7858
949.496	111.37229
949.67	54.44846
949.844	119.80683
950.018	96.6127
950.193	102.93811
950.367	88.17913
950.541	86.0708
950.715	168.31207
950.889	212.60907
951.063	147.22146
951.237	102.93811
951.411	178.85816
951.585	81.85419
951.759	149.33043
951.933	102.93811
952.107	98.72115
952.281	180.96744
952.455	174.63967
952.629	132.45929
952.803	111.37229
952.977	119.80683
953.151	145.11251
953.325	153.54842
953.499	124.02423
953.672	136.67694
953.846	-8.78052
954.02	145.11251
954.194	145.11251
954.368	140.89469
954.541	136.67694
954.715	164.09378
954.889	86.0708
955.062	178.85816
955.236	115.58952
955.41	113.4809
955.583	240.03545
955.757	86.0708
955.93	79.74592
956.104	88.17913
956.278	187.2954
956.451	119.80683
956.625	111.37229
956.798	35.47754
956.972	124.02423
957.145	115.58952
957.319	126.13296
957.492	172.53045
957.665	174.63967
957.839	178.85816
958.012	94.50427
958.185	128.24171
958.359	157.7665
958.532	187.2954
958.705	79.74592
958.879	37.58533
959.052	174.63967
959.225	79.74592
959.398	161.98467
959.572	138.7858
959.745	111.37229
959.918	136.67694
960.091	77.63768
960.264	147.22146
960.438	130.35049
960.611	90.28749
960.784	155.65745
960.957	161.98467
961.13	119.80683
961.303	199.95188
961.476	136.67694
961.649	81.85419
961.822	121.91552
961.995	134.5681
962.168	94.50427
962.341	109.26371
962.514	128.24171
962.686	164.09378
962.859	119.80683
963.032	124.02423
963.205	88.17913
963.378	96.6127
963.551	132.45929
963.723	100.82962
963.896	121.91552
964.069	166.20292
964.242	153.54842
964.414	64.98867
964.587	98.72115
964.76	145.11251
964.932	117.69816
965.105	98.72115
965.278	172.53045
965.45	109.26371
965.623	111.37229
965.795	121.91552
965.968	96.6127
966.14	161.98467
966.313	81.85419
966.485	183.07674
966.658	119.80683
966.83	96.6127
967.003	86.0708
967.175	166.20292
967.348	54.44846
967.52	153.54842
967.692	52.34049
967.865	33.36978
968.037	212.60907
968.209	98.72115
968.382	166.20292
968.554	113.4809
968.726	64.98867
968.898	92.39587
969.071	136.67694
969.243	62.88058
969.415	105.04662
969.587	18.61609
969.759	134.5681
969.932	90.28749
970.104	105.04662
970.276	37.58533
970.448	79.74592
970.62	58.66448
970.792	90.28749
970.964	124.02423
971.136	145.11251
971.308	29.15432
971.48	130.35049
971.652	52.34049
971.824	62.88058
971.996	48.12461
972.168	134.5681
972.339	105.04662
972.511	102.93811
972.683	48.12461
972.855	20.72369
973.027	119.80683
973.199	50.23254
973.37	111.37229
973.542	113.4809
973.714	79.74592
973.886	100.82962
974.057	153.54842
974.229	14.40096
974.401	88.17913
974.572	94.50427
974.744	12.29343
974.915	119.80683
975.087	54.44846
975.259	69.20492
975.43	86.0708
975.602	73.42125
975.773	46.01671
975.945	29.15432
976.116	86.0708
976.288	77.63768
976.459	43.90883
976.63	113.4809
976.802	54.44846
976.973	69.20492
977.145	56.55646
977.316	43.90883
977.487	62.88058
977.659	54.44846
977.83	27.04663
978.001	54.44846
978.172	121.91552
978.344	31.26204
978.515	39.69314
978.686	37.58533
978.857	124.02423
979.028	111.37229
979.2	43.90883
979.371	22.83131
979.542	29.15432
979.713	31.26204
979.884	31.26204
980.055	43.90883
980.226	56.55646
980.397	119.80683
980.568	73.42125
980.739	33.36978
980.91	20.72369
981.081	90.28749
981.252	117.69816
981.423	-12.99502
981.594	60.77252
981.765	77.63768
981.936	12.29343
982.106	113.4809
982.277	-4.56592
982.448	-23.53085
982.619	-15.10224
982.79	1.75615
982.96	41.80097
983.131	75.52945
983.302	77.63768
983.472	46.01671
983.643	27.04663
983.814	-8.78052
983.984	58.66448
984.155	-4.56592
984.326	20.72369
984.496	33.36978
984.667	73.42125
984.837	1.75615
985.008	12.29343
985.178	3.86356
985.349	39.69314
985.519	94.50427
985.69	43.90883
985.86	24.93896
986.031	73.42125
986.201	64.98867
986.371	100.82962
986.542	90.28749
986.712	5.97099
986.882	-50.9211
987.053	1.75615
987.223	-6.67324
987.393	113.4809
987.563	62.88058
987.734	24.93896
987.904	18.61609
988.074	81.85419
988.244	86.0708
988.414	73.42125
988.585	64.98867
988.755	52.34049
988.925	-6.67324
989.095	166.20292
989.265	41.80097
989.435	48.12461
989.605	39.69314
989.775	-27.74501
989.945	-15.10224
990.115	10.18593
990.285	14.40096
990.455	35.47754
990.625	22.83131
990.795	60.77252
990.965	3.86356
991.134	-27.74501
991.304	-10.88778
991.474	56.55646
991.644	81.85419
991.814	29.15432
991.984	-4.56592
992.153	71.31307
992.323	14.40096
992.493	79.74592
992.662	35.47754
992.832	46.01671
993.002	-19.31659
993.171	-12.99502
993.341	73.42125
993.511	29.15432
993.68	52.34049
993.85	52.34049
994.019	-31.95906
994.189	62.88058
994.358	111.37229
994.528	10.18593
994.697	96.6127
994.867	-4.56592
995.036	69.20492
995.206	79.74592
995.375	81.85419
995.544	37.58533
995.714	52.34049
995.883	77.63768
996.052	18.61609
996.222	31.26204
996.391	52.34049
996.56	77.63768
996.73	27.04663
996.899	3.86356
997.068	48.12461
997.237	16.50851
997.406	14.40096
997.576	1.75615
997.745	77.63768
997.914	31.26204
998.083	54.44846
998.252	39.69314
998.421	-10.88778
998.59	73.42125
998.759	-15.10224
998.928	18.61609
999.097	48.12461
999.266	20.72369
999.435	-10.88778
999.604	-23.53085
999.773	-21.42373
999.942	88.17913
1000.111	46.01671
1000.28	-69.8811
1000.448	54.44846
1000.617	52.34049
1000.786	105.04662
1000.955	24.93896
1001.124	-31.95906
1001.292	60.77252
1001.461	-21.42373
1001.63	39.69314
1001.798	35.47754
1001.967	86.0708
1002.136	18.61609
1002.304	43.90883
1002.473	-21.42373
1002.642	-2.45859
1002.81	10.18593
1002.979	-0.35123
1003.147	10.18593
1003.316	5.97099
1003.484	-40.38689
1003.653	14.40096
1003.821	8.07845
1003.99	-27.74501
1004.158	29.15432
1004.327	-15.10224
1004.495	-2.45859
1004.663	-25.63794
1004.832	-42.49378
1005	29.15432
1005.168	18.61609
1005.337	-84.62633
1005.505	3.86356
1005.673	22.83131
1005.842	119.80683
1006.01	-4.56592
1006.178	20.72369
1006.346	102.93811
1006.514	31.26204
1006.683	-23.53085
1006.851	35.47754
1007.019	43.90883
1007.187	64.98867
1007.355	43.90883
1007.523	37.58533
1007.691	46.01671
1007.859	-29.85205
1008.027	94.50427
1008.195	56.55646
1008.363	-15.10224
1008.531	54.44846
1008.699	56.55646
1008.867	1.75615
1009.035	27.04663
1009.203	-25.63794
1009.37	-29.85205
1009.538	-10.88778
1009.706	29.15432
1009.874	20.72369
1010.042	-21.42373
1010.209	39.69314
1010.377	-21.42373
1010.545	-65.66794
1010.713	81.85419
1010.88	22.83131
1011.048	29.15432
1011.216	54.44846
1011.383	39.69314
1011.551	3.86356
1011.718	81.85419
1011.886	48.12461
1012.054	-36.17303
1012.221	24.93896
1012.389	20.72369
1012.556	56.55646
1012.724	39.69314
1012.891	41.80097
1013.058	43.90883
1013.226	-12.99502
1013.393	22.83131
1013.561	-80.41353
1013.728	20.72369
1013.895	-48.81431
1014.063	-12.99502
1014.23	18.61609
1014.397	10.18593
1014.565	41.80097
1014.732	29.15432
1014.899	-36.17303
1015.066	-116.21897
1015.233	-40.38689
1015.401	24.93896
1015.568	67.09678
1015.735	43.90883
1015.902	12.29343
1016.069	52.34049
1016.236	-12.99502
1016.403	62.88058
1016.57	43.90883
1016.737	1.75615
1016.904	67.09678
1017.071	-38.27997
1017.238	35.47754
1017.405	52.34049
1017.572	43.90883
1017.739	18.61609
1017.906	46.01671
1018.073	96.6127
1018.24	48.12461
1018.407	-23.53085
1018.573	39.69314
1018.74	35.47754
1018.907	-82.51994
1019.074	48.12461
1019.241	14.40096
1019.407	50.23254
1019.574	-93.05161
1019.741	-15.10224
1019.907	43.90883
1020.074	5.97099
1020.241	-48.81431
1020.407	37.58533
1020.574	35.47754
1020.74	43.90883
1020.907	35.47754
1021.073	-17.20943
1021.24	-57.24133
1021.406	52.34049
1021.573	-29.85205
1021.739	22.83131
1021.906	94.50427
1022.072	37.58533
1022.239	1.75615
1022.405	-10.88778
1022.571	10.18593
1022.738	22.83131
1022.904	-38.27997
1023.07	10.18593
1023.237	52.34049
1023.403	-12.99502
1023.569	-2.45859
1023.735	-27.74501
1023.902	22.83131
1024.068	-6.67324
1024.234	27.04663
1024.4	73.42125
1024.566	-15.10224
1024.732	-34.06606
1024.898	-57.24133
1025.065	71.31307
1025.231	-2.45859
1025.397	-0.35123
1025.563	46.01671
1025.729	41.80097
1025.895	52.34049
1026.061	-57.24133
1026.227	24.93896
1026.392	-6.67324
1026.558	43.90883
1026.724	27.04663
1026.89	-12.99502
1027.056	-17.20943
1027.222	62.88058
1027.388	-69.8811
1027.553	18.61609
1027.719	41.80097
1027.885	14.40096
1028.051	35.47754
1028.216	-23.53085
1028.382	29.15432
1028.548	52.34049
1028.713	-6.67324
1028.879	56.55646
1029.045	-6.67324
1029.21	-12.99502
1029.376	-19.31659
1029.541	46.01671
1029.707	35.47754
1029.873	94.50427
1030.038	33.36978
1030.204	69.20492
1030.369	-4.56592
1030.534	3.86356
1030.7	-48.81431
1030.865	35.47754
1031.031	-25.63794
1031.196	52.34049
1031.361	-19.31659
1031.527	48.12461
1031.692	79.74592
1031.857	-67.77453
1032.023	-23.53085
1032.188	18.61609
1032.353	3.86356
1032.518	18.61609
1032.684	48.12461
1032.849	5.97099
1033.014	18.61609
1033.179	27.04663
1033.344	71.31307
1033.509	18.61609
1033.674	39.69314
1033.839	22.83131
1034.004	22.83131
1034.17	14.40096
1034.335	77.63768
1034.5	35.47754
1034.664	37.58533
1034.829	-40.38689
1034.994	-10.88778
1035.159	-12.99502
1035.324	27.04663
1035.489	77.63768
1035.654	-27.74501
1035.819	-40.38689
1035.984	-2.45859
1036.148	-27.74501
1036.313	-36.17303
1036.478	-12.99502
1036.643	-12.99502
1036.807	33.36978
1036.972	35.47754
1037.137	-6.67324
1037.301	1.75615
1037.466	37.58533
1037.631	56.55646
1037.795	-15.10224
1037.96	-31.95906
1038.124	-48.81431
1038.289	67.09678
1038.454	12.29343
1038.618	46.01671
1038.783	92.39587
1038.947	1.75615
1039.111	-36.17303
1039.276	81.85419
1039.44	29.15432
1039.605	-12.99502
1039.769	-6.67324
1039.933	27.04663
1040.098	1.75615
1040.262	-27.74501
1040.426	14.40096
1040.591	-4.56592
1040.755	-19.31659
1040.919	-19.31659
1041.083	-46.70749
1041.248	-23.53085
1041.412	14.40096
1041.576	5.97099
1041.74	8.07845
1041.904	56.55646
1042.068	14.40096
1042.232	-103.58262
1042.397	16.50851
1042.561	39.69314
1042.725	1.75615
1042.889	-12.99502
1043.053	-36.17303
1043.217	-6.67324
1043.381	12.29343
1043.544	31.26204
1043.708	60.77252
1043.872	16.50851
1044.036	37.58533
1044.2	18.61609
1044.364	-12.99502
1044.528	-29.85205
1044.691	3.86356
1044.855	16.50851
1045.019	27.04663
1045.183	5.97099
1045.346	-4.56592
1045.51	-21.42373
1045.674	10.18593
1045.837	39.69314
1046.001	18.61609
1046.165	1.75615
1046.328	-15.10224
1046.492	46.01671
1046.655	-4.56592
1046.819	-0.35123
1046.983	-10.88778
1047.146	-27.74501
1047.31	-55.13461
1047.473	-6.67324
1047.636	126.13296
1047.8	-69.8811
1047.963	10.18593
1048.127	37.58533
1048.29	3.86356
