Data from absorb_only_2.23.25_USB4F045381__71__0176.txt Node

Date: Sun Feb 23 19:26:26 EST 2025
User: ssocol
Spectrometer: USB4F04538
Trigger mode: 4
Integration Time (sec): 2.600000E-3
Scans to average: 1
Electric dark correction enabled: true
Nonlinearity correction enabled: true
Boxcar width: 0
XAxis mode: Wavelengths
Number of Pixels in Spectrum: 3648
>>>>>Begin Spectral Data<<<<<
345.52	36.53143
345.736	36.53143
345.952	36.53143
346.168	-5.61958
346.384	-5.61958
346.6	32.3159
346.816	-35.11954
347.032	-39.33343
347.248	-24.5844
347.464	34.42366
347.68	-56.18797
347.896	78.6918
348.112	-33.01256
348.328	30.20817
348.544	21.7775
348.76	-18.26301
348.975	9.13219
349.191	-9.83416
349.407	9.13219
349.623	13.34719
349.839	-33.01256
350.055	-26.69148
350.27	19.66988
350.486	15.45473
350.702	19.66988
350.918	-30.90556
351.133	0.70246
351.349	-75.1474
351.565	0.70246
351.781	53.39447
351.996	13.34719
352.212	-47.7609
352.428	7.02472
352.644	4.91728
352.859	2.80986
353.075	30.20817
353.291	85.01664
353.506	7.02472
353.722	9.13219
353.938	9.13219
354.153	7.02472
354.369	-3.51226
354.584	-100.42339
354.8	-22.47729
355.016	0.70246
355.231	-9.83416
355.447	23.88513
355.662	49.17857
355.878	55.50246
356.093	32.3159
356.309	47.07066
356.524	76.58356
356.74	17.5623
356.955	-43.54722
357.171	-7.72688
357.386	49.17857
357.602	2.80986
357.817	-26.69148
358.033	-1.40491
358.248	-3.51226
358.464	42.8549
358.679	23.88513
358.895	4.91728
359.11	-1.40491
359.325	-7.72688
359.541	-18.26301
359.756	0.70246
359.972	-5.61958
360.187	17.5623
360.402	23.88513
360.618	17.5623
360.833	-33.01256
361.048	-7.72688
361.264	-1.40491
361.479	-30.90556
361.694	32.3159
361.909	32.3159
362.125	19.66988
362.34	9.13219
362.555	7.02472
362.77	9.13219
362.986	-18.26301
363.201	74.47535
363.416	-37.2265
363.631	32.3159
363.847	-16.15583
364.062	11.23968
364.277	-18.26301
364.492	-41.44034
364.707	-7.72688
364.922	-37.2265
365.138	-68.82782
365.353	-28.79853
365.568	2.80986
365.783	25.99279
365.998	-22.47729
366.213	-49.86771
366.428	19.66988
366.643	11.23968
366.858	38.63923
367.073	-16.15583
367.288	2.80986
367.503	32.3159
367.718	-77.25387
367.933	-1.40491
368.148	-56.18797
368.363	42.8549
368.578	-47.7609
368.793	11.23968
369.008	-70.93437
369.223	-1.40491
369.438	23.88513
369.653	4.91728
369.868	-49.86771
370.083	19.66988
370.298	59.7185
370.513	-1.40491
370.728	-26.69148
370.943	44.96277
371.157	-14.04863
371.372	7.02472
371.587	-85.67951
371.802	68.15085
372.017	15.45473
372.232	7.02472
372.446	-39.33343
372.661	-9.83416
372.876	44.96277
373.091	-18.26301
373.306	40.74705
373.52	57.61047
373.735	40.74705
373.95	21.7775
374.165	-7.72688
374.379	32.3159
374.594	9.13219
374.809	-33.01256
375.023	49.17857
375.238	11.23968
375.453	-18.26301
375.667	0.70246
375.882	7.02472
376.097	-20.37016
376.311	40.74705
376.526	99.77538
376.741	-35.11954
376.955	-9.83416
377.17	23.88513
377.384	28.10047
377.599	-18.26301
377.813	74.47535
378.028	-5.61958
378.242	68.15085
378.457	15.45473
378.672	36.53143
378.886	28.10047
379.101	9.13219
379.315	42.8549
379.53	15.45473
379.744	-22.47729
379.958	25.99279
380.173	70.25899
380.387	-7.72688
380.602	-22.47729
380.816	-14.04863
381.031	-9.83416
381.245	-41.44034
381.459	28.10047
381.674	-7.72688
381.888	-9.83416
382.103	118.75249
382.317	17.5623
382.531	-22.47729
382.746	118.75249
382.96	17.5623
383.174	-51.97449
383.388	-1.40491
383.603	17.5623
383.817	-16.15583
384.031	-16.15583
384.246	7.02472
384.46	-11.94141
384.674	93.45007
384.888	-83.57314
385.103	-3.51226
385.317	15.45473
385.531	-18.26301
385.745	-54.08124
385.959	40.74705
386.174	-51.97449
386.388	-56.18797
386.602	32.3159
386.816	25.99279
387.03	49.17857
387.244	15.45473
387.458	-47.7609
387.672	34.42366
387.887	-28.79853
388.101	19.66988
388.315	-16.15583
388.529	-56.18797
388.743	17.5623
388.957	-33.01256
389.171	15.45473
389.385	57.61047
389.599	-60.40135
389.813	-1.40491
390.027	30.20817
390.241	49.17857
390.455	49.17857
390.669	34.42366
390.883	2.80986
391.097	32.3159
391.311	9.13219
391.525	55.50246
391.738	-51.97449
391.952	-16.15583
392.166	-60.40135
392.38	74.47535
392.594	-18.26301
392.808	49.17857
393.022	0.70246
393.236	17.5623
393.449	36.53143
393.663	-1.40491
393.877	61.82655
394.091	-11.94141
394.305	36.53143
394.518	9.13219
394.732	36.53143
394.946	11.23968
395.16	89.23331
395.373	-7.72688
395.587	95.55848
395.801	-68.82782
396.015	4.91728
396.228	32.3159
396.442	-56.18797
396.656	76.58356
396.869	2.80986
397.083	-60.40135
397.297	15.45473
397.51	118.75249
397.724	7.02472
397.938	-9.83416
398.151	82.90833
398.365	57.61047
398.578	7.02472
398.792	0.70246
399.005	2.80986
399.219	99.77538
399.433	-28.79853
399.646	-3.51226
399.86	85.01664
400.073	44.96277
400.287	61.82655
400.5	49.17857
400.714	23.88513
400.927	-9.83416
401.141	7.02472
401.354	49.17857
401.567	-26.69148
401.781	9.13219
401.994	7.02472
402.208	-20.37016
402.421	32.3159
402.635	0.70246
402.848	-33.01256
403.061	32.3159
403.275	7.02472
403.488	-41.44034
403.701	-22.47729
403.915	40.74705
404.128	-18.26301
404.341	40.74705
404.555	15.45473
404.768	0.70246
404.981	-3.51226
405.195	38.63923
405.408	63.93463
405.621	-47.7609
405.834	57.61047
406.048	9.13219
406.261	34.42366
406.474	66.04272
406.687	19.66988
406.9	-26.69148
407.114	23.88513
407.327	-35.11954
407.54	15.45473
407.753	23.88513
407.966	-1.40491
408.179	40.74705
408.392	-16.15583
408.605	38.63923
408.819	9.13219
409.032	57.61047
409.245	15.45473
409.458	40.74705
409.671	15.45473
409.884	23.88513
410.097	-1.40491
410.31	-58.29468
410.523	42.8549
410.736	2.80986
410.949	25.99279
411.162	-58.29468
411.375	28.10047
411.588	44.96277
411.801	53.39447
412.014	9.13219
412.227	125.07859
412.44	28.10047
412.653	-3.51226
412.865	15.45473
413.078	23.88513
413.291	17.5623
413.504	-18.26301
413.717	47.07066
413.93	7.02472
414.143	49.17857
414.356	-68.82782
414.568	-24.5844
414.781	17.5623
414.994	59.7185
415.207	17.5623
415.42	-24.5844
415.632	11.23968
415.845	32.3159
416.058	11.23968
416.271	-18.26301
416.483	34.42366
416.696	40.74705
416.909	103.99236
417.121	-26.69148
417.334	28.10047
417.547	70.25899
417.759	53.39447
417.972	32.3159
418.185	-60.40135
418.397	-26.69148
418.61	-26.69148
418.823	-18.26301
419.035	-3.51226
419.248	13.34719
419.46	-5.61958
419.673	11.23968
419.885	42.8549
420.098	-11.94141
420.311	30.20817
420.523	11.23968
420.736	-20.37016
420.948	-16.15583
421.161	-51.97449
421.373	0.70246
421.586	28.10047
421.798	-3.51226
422.01	9.13219
422.223	36.53143
422.435	2.80986
422.648	19.66988
422.86	25.99279
423.073	19.66988
423.285	2.80986
423.497	23.88513
423.71	2.80986
423.922	-1.40491
424.134	-68.82782
424.347	7.02472
424.559	-35.11954
424.771	19.66988
424.984	38.63923
425.196	57.61047
425.408	7.02472
425.621	61.82655
425.833	7.02472
426.045	-20.37016
426.257	30.20817
426.47	17.5623
426.682	55.50246
426.894	19.66988
427.106	-18.26301
427.318	-20.37016
427.531	103.99236
427.743	-26.69148
427.955	51.28651
428.167	2.80986
428.379	63.93463
428.591	28.10047
428.804	32.3159
429.016	44.96277
429.228	15.45473
429.44	63.93463
429.652	36.53143
429.864	23.88513
430.076	66.04272
430.288	-3.51226
430.5	38.63923
430.712	32.3159
430.924	34.42366
431.136	87.12496
431.348	85.01664
431.56	30.20817
431.772	-58.29468
431.984	42.8549
432.196	11.23968
432.408	36.53143
432.62	40.74705
432.832	4.91728
433.044	32.3159
433.256	103.99236
433.468	61.82655
433.679	144.05805
433.891	40.74705
434.103	7.02472
434.315	85.01664
434.527	21.7775
434.739	78.6918
434.95	66.04272
435.162	49.17857
435.374	87.12496
435.586	34.42366
435.798	36.53143
436.009	57.61047
436.221	-56.18797
436.433	89.23331
436.645	70.25899
436.856	42.8549
437.068	7.02472
437.28	70.25899
437.491	-47.7609
437.703	57.61047
437.915	21.7775
438.126	13.34719
438.338	34.42366
438.55	66.04272
438.761	15.45473
438.973	53.39447
439.184	78.6918
439.396	49.17857
439.608	70.25899
439.819	49.17857
440.031	49.17857
440.242	11.23968
440.454	91.34168
440.665	99.77538
440.877	2.80986
441.088	51.28651
441.3	-9.83416
441.511	11.23968
441.723	116.64384
441.934	61.82655
442.146	87.12496
442.357	36.53143
442.569	25.99279
442.78	57.61047
442.991	19.66988
443.203	19.66988
443.414	49.17857
443.626	97.66692
443.837	-5.61958
444.048	13.34719
444.26	23.88513
444.471	-7.72688
444.682	57.61047
444.894	68.15085
445.105	70.25899
445.316	70.25899
445.528	66.04272
445.739	-5.61958
445.95	40.74705
446.161	118.75249
446.373	51.28651
446.584	2.80986
446.795	78.6918
447.006	-9.83416
447.217	85.01664
447.429	82.90833
447.64	44.96277
447.851	66.04272
448.062	34.42366
448.273	68.15085
448.484	61.82655
448.695	-43.54722
448.907	-1.40491
449.118	40.74705
449.329	-9.83416
449.54	97.66692
449.751	70.25899
449.962	42.8549
450.173	118.75249
450.384	38.63923
450.595	131.40488
450.806	68.15085
451.017	66.04272
451.228	25.99279
451.439	118.75249
451.65	36.53143
451.861	61.82655
452.072	-9.83416
452.283	66.04272
452.494	66.04272
452.705	141.94913
452.915	7.02472
453.126	19.66988
453.337	9.13219
453.548	110.318
453.759	167.25749
453.97	61.82655
454.181	177.80353
454.391	127.18734
454.602	32.3159
454.813	9.13219
455.024	49.17857
455.235	139.84024
455.445	32.3159
455.656	76.58356
455.867	32.3159
456.078	116.64384
456.288	25.99279
456.499	23.88513
456.71	55.50246
456.921	201.00661
457.131	133.51369
457.342	93.45007
457.553	87.12496
457.763	158.82104
457.974	122.96987
458.184	25.99279
458.395	61.82655
458.606	82.90833
458.816	110.318
459.027	139.84024
459.237	55.50246
459.448	68.15085
459.659	82.90833
459.869	53.39447
460.08	85.01664
460.29	95.55848
460.501	110.318
460.711	108.20943
460.922	144.05805
461.132	99.77538
461.343	85.01664
461.553	154.60294
461.764	99.77538
461.974	144.05805
462.184	141.94913
462.395	175.69428
462.605	133.51369
462.816	82.90833
463.026	177.80353
463.236	122.96987
463.447	150.38492
463.657	192.56884
463.867	190.45945
464.078	169.36666
464.288	160.93012
464.498	160.93012
464.709	219.99277
464.919	137.73137
465.129	120.86117
465.339	217.88312
465.55	201.00661
465.76	116.64384
465.97	148.27594
466.18	160.93012
466.391	257.96985
466.601	262.18991
466.811	192.56884
467.021	141.94913
467.231	274.85054
467.441	255.85985
467.651	274.85054
467.862	270.63026
468.072	285.40159
468.282	291.73244
468.492	213.66387
468.702	298.06345
468.912	336.05295
469.122	251.6399
469.332	304.39463
469.542	268.52014
469.752	306.50506
469.962	397.27012
470.172	412.04879
470.382	378.27017
470.592	355.04985
470.802	380.38121
471.012	428.93966
471.222	403.60374
471.432	395.15895
471.642	492.28931
471.852	405.71498
472.062	507.07284
472.272	488.06558
472.482	496.5131
472.691	576.77594
472.901	517.63294
473.111	652.83209
473.321	612.68931
473.531	627.47824
473.741	701.43172
473.95	745.81045
474.16	523.96917
474.37	659.17083
474.58	716.2241
474.79	794.42096
474.999	769.0583
475.209	737.357
475.419	756.3775
475.628	741.5837
475.838	737.357
476.048	917.0256
476.258	843.03655
476.467	978.33798
476.677	821.89874
476.886	1045.99952
477.096	923.36798
477.306	936.05293
477.515	969.88074
477.725	1113.66687
477.935	988.90967
478.144	1316.6937
478.354	1227.86588
478.563	1253.2448
478.773	1139.04342
478.982	1236.32547
479.192	1215.17657
479.401	1308.23374
479.611	1327.2687
479.82	1278.62412
480.03	1403.40968
480.239	1498.58693
480.449	1443.59562
480.658	1488.0117
480.868	1494.35684
481.077	1788.3313
481.287	1426.67521
481.496	1693.16517
481.705	1790.44602
481.915	1841.19791
482.124	1629.71757
482.333	1900.40499
482.543	1807.3636
482.752	1885.6036
482.961	1989.20753
483.171	2001.89273
483.38	1976.5221
483.589	2204.82095
483.799	2018.80597
484.008	2304.14362
484.217	2257.65464
484.426	2331.61222
484.636	2249.20163
484.845	2367.5302
485.054	2310.48267
485.263	2549.18624
485.472	2382.31912
485.682	2576.63862
485.891	2399.22012
486.1	2566.08025
486.309	2447.80676
486.518	2555.52158
486.727	2618.8691
486.936	2762.41514
487.146	2732.86645
487.355	2813.06388
487.564	2756.0835
487.773	3053.533
487.982	2753.97292
488.191	2918.55626
488.4	2916.44676
488.609	3028.2296
488.818	3017.68586
489.027	3133.64559
489.236	3169.47796
489.445	3291.69377
489.654	3013.46825
489.863	3342.24921
490.072	3142.07715
490.281	3354.88652
490.49	3279.05338
490.698	3394.90051
490.907	3321.18565
491.116	3474.90931
491.325	3378.05328
491.534	3708.46762
491.743	3470.69897
491.952	3735.80605
492.16	3491.74996
492.369	3666.40214
492.578	3706.36452
492.787	3874.55027
492.996	3735.80605
493.204	4051.0077
493.413	3889.26051
493.622	3994.30491
493.831	3809.39321
494.039	4101.39753
494.248	4076.20411
494.457	4061.50656
494.665	4036.30842
494.874	4166.4666
495.083	4027.90837
495.291	4466.35859
495.5	4221.02505
495.709	4248.29889
495.917	4210.53415
496.126	4340.58351
496.335	4300.73844
496.543	4715.5773
496.752	4478.93176
496.96	4460.0717
497.169	4380.42077
497.377	4489.4088
497.586	4426.53832
497.794	4663.24668
498.003	4564.82719
498.211	4617.18413
498.42	4832.74659
498.628	4864.11911
498.837	4799.27691
499.045	4732.32012
499.254	4671.62053
499.462	5054.33512
499.671	4853.66218
499.879	4901.75935
500.087	4870.393
500.296	4987.4677
500.504	4991.64761
500.713	5148.32731
500.921	5139.97435
501.129	5073.13731
501.338	5048.0673
501.546	5319.48072
501.754	4991.64761
501.962	5177.55973
502.171	5342.42837
502.379	5323.65323
502.587	5119.09033
502.795	5373.71604
503.004	5129.53263
503.212	5607.16348
503.42	5263.14267
503.628	5390.40064
503.837	5296.53024
504.045	5471.71653
504.253	5538.41054
504.461	5473.80109
504.669	5509.23488
504.877	5767.48711
505.085	5557.16389
505.294	5854.87738
505.502	5540.49434
505.71	5931.82957
505.918	5661.31437
506.126	5807.02596
506.334	5636.32363
506.542	6017.0632
506.75	5802.86438
506.958	6002.51392
507.166	5990.04219
507.374	5723.77636
507.582	5659.23194
507.79	6042.00213
507.998	5865.27821
508.206	6091.86984
508.414	5973.4119
508.622	6156.26224
508.83	5856.9576
509.037	6276.67776
509.245	5761.24335
509.453	6463.37372
509.661	6069.01549
509.869	6367.97494
510.077	6150.0317
510.285	6446.78616
510.492	6316.1071
510.7	5996.27816
510.908	6222.70814
511.116	6233.08815
511.324	6448.85969
511.531	6237.23998
511.739	6399.08865
511.947	6502.7632
512.155	6347.22956
512.362	6527.63645
512.57	6573.22875
512.778	6409.45872
512.985	6488.25226
513.193	6380.42106
513.401	6355.52799
513.608	6589.805
513.816	6500.69028
514.024	6467.52037
514.231	6649.88151
514.439	6616.73824
514.646	6761.69657
514.854	6848.61771
515.061	6556.65103
515.269	6774.11634
515.477	6600.1644
515.684	7032.67547
515.892	6734.78424
516.099	6912.74805
516.307	7026.47418
516.514	7144.26413
516.722	6873.44495
516.929	6931.36245
517.136	7175.24944
517.344	7071.94558
517.551	7191.7729
517.759	7020.27269
517.966	6976.85662
518.173	7218.62049
518.381	7043.01049
518.588	7348.67527
518.796	7261.98179
519.003	7284.69097
519.21	7253.72324
519.418	7261.98179
519.625	7059.54536
519.832	7350.73893
520.039	7381.6912
520.247	7532.25585
520.454	7455.95667
520.661	7888.61982
520.868	7404.38641
521.076	7431.20464
521.283	7398.19707
521.49	7464.20665
521.697	7707.42679
521.904	7585.85389
522.112	7486.89233
522.319	7680.64587
522.526	7637.37685
522.733	8028.52294
522.94	7662.10315
523.147	7719.786
523.354	7651.8009
523.561	7915.37334
523.768	7668.28425
523.975	8098.43921
524.183	7707.42679
524.39	8042.91938
524.597	7863.92117
524.804	8032.63631
525.011	7872.15438
525.218	8104.60717
525.425	7898.91005
525.632	8028.52294
525.838	7966.81264
526.045	8209.43498
526.252	8036.7496
526.459	8010.01177
526.666	8192.99483
526.873	8269.01992
527.08	7981.21335
527.287	8199.16004
527.494	8110.77495
527.701	8381.98052
527.907	8234.09283
528.114	8615.93171
528.321	8332.69587
528.528	8546.1826
528.735	8308.04935
528.941	8546.1826
529.148	8361.44661
529.355	8505.14353
529.562	8542.07904
529.768	8585.16272
529.975	8289.5626
530.182	8759.46503
530.388	8656.95048
530.595	8484.62115
530.802	8583.1113
531.008	8665.15335
531.215	8792.26
531.422	8947.97301
531.628	8964.35786
531.835	8790.21045
532.042	8661.05195
532.248	9201.81275
532.455	8702.06256
532.661	9079.02031
532.868	8857.83601
533.074	9150.65672
533.281	9058.54889
533.487	9218.18044
533.694	8747.16571
533.9	9304.09317
534.107	8890.6171
534.313	9146.56378
534.52	9083.11439
534.726	9232.50128
534.933	9042.1705
535.139	9242.72995
535.345	9420.64224
535.552	9502.39948
535.758	9400.19888
535.965	9614.77403
536.171	9244.77563
536.377	9635.20065
536.584	9295.91227
536.79	9447.21617
536.996	9443.12805
537.203	9496.26858
537.409	9428.81913
537.615	9639.28579
537.821	9351.12817
538.028	9986.30068
538.234	9661.75294
538.44	9633.15806
538.646	9492.18123
538.853	9671.96466
539.059	9565.74374
539.265	9812.84737
539.471	9835.30028
539.677	9684.21822
539.883	9796.51684
540.09	9867.95584
540.296	9790.39264
540.502	10251.38209
540.708	10133.14418
540.914	10204.50017
541.12	10167.80492
541.326	10124.98812
541.532	10116.83185
541.738	10251.38209
541.944	10039.33599
542.15	10253.42028
542.356	9929.17483
542.562	9941.41704
542.768	9696.47122
542.974	10283.99137
543.18	10300.29472
543.386	10689.29029
543.592	10349.19963
543.798	10449.02358
544.004	10347.16207
544.21	10556.96156
544.415	10455.13423
544.621	10695.39652
544.827	10400.13413
545.033	10695.39652
545.239	10412.3572
545.445	10544.74395
545.651	10475.50225
545.856	10904.97889
546.062	10923.28605
546.268	10689.29029
546.474	10542.70764
546.679	10689.29029
546.885	10471.42875
547.091	10750.3477
547.297	10603.79154
547.502	10717.78509
547.708	10789.01184
547.914	10880.5679
548.119	10907.01306
548.325	11000.57288
548.531	10516.23444
548.736	10921.25197
548.942	10585.46755
549.147	10821.56781
549.353	10904.97889
549.559	10862.25857
549.764	10742.20734
549.97	10599.71963
550.175	10803.25545
550.381	11228.27373
550.586	10876.49924
550.792	11403.02668
550.997	11151.03313
551.203	11342.0748
551.408	11175.42654
551.614	11506.6247
551.819	11159.16443
552.025	10902.9447
552.23	11114.44014
552.435	11244.53299
552.641	11482.25095
552.846	11297.37104
553.052	11130.70412
553.257	11350.20223
553.462	11463.96973
553.668	11305.49936
553.873	11683.2943
554.078	11447.7191
554.283	11541.15186
554.489	11778.70812
554.694	11715.77778
554.899	11699.53632
555.105	11715.77778
555.31	11683.2943
555.515	11695.47587
555.72	11809.1553
555.925	11630.50375
556.131	11813.21477
556.336	11835.5413
556.541	11646.74765
556.746	11788.85739
556.951	11912.66147
557.156	11622.38159
557.361	11981.65367
557.567	11851.77813
557.772	12058.75167
557.977	11985.71174
558.182	11833.51166
558.387	11736.0788
558.592	11853.80769
558.797	11833.51166
559.002	12024.26186
559.207	11981.65367
559.412	11963.39194
559.617	11955.2754
559.822	12091.21061
560.027	11863.95539
560.232	12070.924
560.437	12072.9527
560.642	12125.69608
560.847	12405.55877
561.051	12279.84015
561.256	12085.12471
561.461	12326.48081
561.666	12261.58844
561.871	12466.38099
562.076	12308.23056
562.281	12454.21703
562.485	12038.46382
562.69	12042.52145
562.895	12168.29277
563.1	12316.34185
563.305	12109.4679
563.509	12259.56043
563.714	12373.11779
563.919	12387.31093
564.123	12336.61959
564.328	12519.08882
564.533	12348.78591
564.737	12446.10758
564.942	12409.61377
565.147	12549.4952
565.351	12054.69416
565.556	12212.91436
565.761	12504.89868
565.965	12551.52225
566.17	12494.76267
566.374	12624.4916
566.579	12287.95184
566.784	12523.14308
566.988	12608.27688
567.193	12774.45969
567.397	12729.87793
567.602	12644.75946
567.806	12227.1114
568.011	12861.58893
568.215	13003.40601
568.42	12855.51048
568.624	12654.89316
568.828	12498.81709
569.033	12808.90736
569.237	12800.80217
569.442	12618.41113
569.646	12648.81295
569.85	12973.01877
570.055	12829.16994
570.259	12788.64422
570.463	12991.25125
570.668	13041.8949
570.872	13163.42727
571.076	13033.79212
571.281	13031.76642
571.485	12831.19617
571.689	13246.46483
571.893	13313.29459
572.098	13005.43179
572.302	12839.30103
572.506	13171.52883
572.71	12894.00653
572.914	13226.21245
573.119	13072.2796
573.323	13228.23771
573.527	13139.12215
573.731	13212.03553
573.935	13224.18719
574.139	13426.69235
574.343	13191.7824
574.547	13442.89101
574.751	13444.91582
574.955	13418.59292
575.159	13345.69525
575.364	13361.89518
575.568	13023.66354
575.772	13295.06875
575.976	13343.67024
576.18	13054.04891
576.383	13163.42727
576.587	13197.85839
576.791	13544.12718
576.995	13463.13899
577.199	13453.01505
577.403	13542.10254
577.607	13432.76687
577.811	13378.09485
578.015	13252.54045
578.219	13513.7573
578.422	13536.02862
578.626	13706.08667
578.83	13714.18408
579.034	13756.69471
579.238	13742.52465
579.442	13560.32412
579.645	13556.2749
579.849	13687.86729
580.053	13501.60912
580.257	13839.68781
580.46	13783.01014
580.664	14050.18617
580.868	13629.1586
581.071	13928.74826
581.275	13855.88102
581.479	14003.63603
581.682	13791.10709
581.886	13807.30085
582.09	14068.40111
582.293	14108.87807
582.497	14076.49657
582.7	14189.82939
582.904	13918.62802
583.107	14064.35336
583.311	13872.07404
583.515	13872.07404
583.718	13904.45957
583.922	14112.92572
584.125	14021.85145
584.329	14220.18529
584.532	13896.36325
584.735	14118.99718
584.939	13906.48364
585.142	14011.7318
585.346	14284.94308
585.549	14442.78273
585.753	14378.02919
585.956	14230.30382
586.159	14335.5338
586.363	14376.00562
586.566	14460.99438
586.769	14268.75381
586.973	14349.69901
587.176	14329.46297
587.379	14155.4255
587.582	14418.50033
587.786	14406.35906
587.989	14566.21513
588.192	14106.85425
588.395	14744.27397
588.599	14687.61971
588.802	14548.00409
589.005	14147.33037
589.208	14730.11047
589.411	14596.56664
589.615	14442.78273
589.818	14548.00409
590.021	14442.78273
590.224	14641.08174
590.427	14643.10514
590.63	14643.10514
590.833	14641.08174
591.036	14815.0909
591.239	15199.51559
591.442	14699.75997
591.645	14956.72245
591.848	14772.60086
592.051	14991.11833
592.254	14772.60086
592.457	15001.23475
592.66	15051.81674
592.863	14920.30315
593.066	14891.97692
593.269	14944.5827
593.472	14764.50748
593.675	15335.07509
593.878	15074.07276
594.081	15031.58396
594.284	15070.02622
594.486	15266.2836
594.689	15207.60868
594.892	15090.25895
595.095	15387.68058
595.298	15381.61071
595.5	15231.88794
595.703	15571.80239
595.906	15114.53822
596.109	15122.63131
596.311	15074.07276
596.514	15369.47096
596.717	15015.39772
596.92	15413.98343
597.122	15535.3823
597.325	15411.96013
597.528	15553.59231
597.73	15266.2836
597.933	15367.44767
598.136	15387.68058
598.338	15316.86555
598.541	15547.5223
598.743	15411.96013
598.946	15098.35204
599.148	15159.05018
599.351	15517.17233
599.554	15310.79571
599.756	15302.70259
599.959	15670.94721
600.161	15806.51611
600.363	15555.61565
600.566	15448.37958
600.768	15446.35627
600.971	15689.1577
601.173	15320.91211
601.376	15411.96013
601.578	15525.26564
601.78	15701.29807
601.983	15545.49896
602.185	16002.79656
602.388	16097.90612
602.59	15911.73714
602.792	16101.95341
602.995	16077.66976
603.197	15972.44312
603.399	15962.32537
603.601	15709.39167
603.804	15745.81306
604.006	15666.90044
604.208	15622.38624
604.41	15563.70901
604.613	15579.89577
604.815	15830.79761
605.017	15982.5609
605.219	15713.43848
605.421	15587.98917
605.623	15800.44576
605.826	16365.04158
606.028	15800.44576
606.23	15998.74942
606.432	15881.38459
606.634	16229.44631
606.836	15806.51611
607.038	16148.49768
607.24	16134.33194
607.442	16375.16097
607.644	15998.74942
607.846	16253.73143
608.048	16012.91445
608.25	16223.37507
608.452	16140.40296
608.654	15917.80769
608.856	15699.27468
609.058	16154.56874
609.26	15853.05579
609.462	16320.51685
609.664	15863.17319
609.866	15824.72722
610.067	15933.99586
610.269	16093.85883
610.471	15579.89577
610.673	15747.83648
610.875	15719.50869
611.077	16134.33194
611.278	15674.99398
611.48	15759.97702
611.682	15946.13705
611.884	16215.28011
612.085	15664.87706
612.287	16176.8294
612.489	15834.84454
612.69	16142.42664
612.892	15925.90176
613.094	16182.90052
613.295	16286.112
613.497	15998.74942
613.699	16148.49768
613.9	16049.33913
614.102	15960.30183
614.304	15863.17319
614.505	15820.6803
614.707	16166.71089
614.908	15865.19667
615.11	15919.8312
615.311	16089.81156
615.513	16008.86729
615.714	16035.17392
615.916	16134.33194
616.117	16164.68719
616.319	16120.16628
616.52	15885.43158
616.722	16182.90052
616.923	16081.71702
617.124	16227.42256
617.326	15960.30183
617.527	16245.63636
617.729	15972.44312
617.93	16180.87681
618.131	16237.54132
618.333	15802.46921
618.534	16039.22111
618.735	16067.55165
618.937	16031.12673
619.138	16071.59889
619.339	16134.33194
619.54	16498.62148
619.742	16271.94544
619.943	16263.85031
620.144	15933.99586
620.345	16190.99538
620.546	15885.43158
620.748	16273.96923
620.949	16081.71702
621.15	16338.7314
621.351	16172.78199
621.552	16227.42256
621.753	16450.04595
621.954	16490.52548
622.155	16000.77299
622.356	16271.94544
622.558	16310.39772
622.759	16294.20721
622.96	16025.05595
623.161	16290.1596
623.362	15812.58647
623.563	16211.23263
623.764	16227.42256
623.965	16249.6839
624.166	16065.52803
624.366	16108.02435
624.567	15648.69004
624.768	16146.474
624.969	15925.90176
625.17	15911.73714
625.371	16207.18517
625.572	16575.53521
625.773	16213.25637
625.973	16227.42256
626.174	16075.64614
626.375	16112.07165
626.576	16522.90969
626.777	16506.71752
626.977	16316.46919
627.178	16448.022
627.379	16162.6635
627.58	16231.47006
627.78	16049.33913
627.981	15907.69012
628.182	16480.40552
628.382	16464.21369
628.583	16476.35755
628.784	16245.63636
628.984	16146.474
629.185	16539.102
629.386	16595.77619
629.586	16696.98445
629.787	16565.41481
629.987	16526.95776
630.188	16458.14179
630.388	16460.16576
630.589	16429.8065
630.79	16510.76555
630.99	16640.30712
631.191	16551.24633
631.391	16320.51685
631.591	16460.16576
631.792	16231.47006
631.992	16613.99326
632.193	16415.639
632.393	16413.61508
632.594	16409.56725
632.794	16518.86164
632.994	16490.52548
633.195	16636.25881
633.395	16535.05391
633.595	16533.02987
633.796	16555.29445
633.996	16747.59076
634.196	16480.40552
634.397	16956.105
634.597	16725.3238
634.797	16674.71814
634.997	16490.52548
635.198	16573.51113
635.398	16630.18636
635.598	16769.85801
635.798	16201.11398
635.998	16379.20874
636.199	16551.24633
636.399	16794.14989
636.599	16403.49551
636.799	16294.20721
636.999	16409.56725
637.199	16561.36666
637.399	16587.67977
637.599	16794.14989
637.799	16318.49302
637.999	16549.22227
638.199	16480.40552
638.399	16958.12954
638.599	16332.65987
638.799	16782.00391
638.999	16644.35544
639.199	16879.17429
639.399	16721.2753
639.599	16964.20319
639.799	16537.07796
639.999	16522.90969
640.199	16492.54947
640.399	16869.05211
640.599	16302.30245
640.799	17081.63176
640.998	16745.56648
641.198	16893.34546
641.398	16745.56648
641.598	16836.66154
641.798	16741.51793
641.997	16840.71032
642.197	16753.66362
642.397	16919.66367
642.597	16802.24727
642.796	16836.66154
642.996	16927.76167
643.196	17158.57276
643.395	16510.76555
643.595	16557.31852
643.795	16956.105
643.994	16954.08046
644.194	16656.50046
644.394	16948.00685
644.593	16723.29955
644.793	16915.61469
644.992	16769.85801
645.192	16871.07654
645.392	16749.61505
645.591	17089.73063
645.791	17047.2121
645.99	17174.77138
646.19	17219.31855
646.389	16958.12954
646.589	16784.02823
646.788	16688.88758
646.987	16733.42085
647.187	16808.32032
647.386	16901.44332
647.586	16962.17864
647.785	16826.53962
647.984	17136.29995
648.184	16786.05256
648.383	17195.01992
648.582	16792.12556
648.782	16996.59637
648.981	17170.72171
649.18	17000.64557
649.38	17444.10116
649.579	17638.53864
649.778	17018.86708
649.977	17442.07592
650.177	17247.66748
650.376	17267.91706
650.575	17089.73063
650.774	16998.62097
650.973	17000.64557
651.173	17209.19407
651.372	16992.54719
651.571	17201.09454
651.77	16879.17429
651.969	17306.3921
652.168	16818.44213
652.367	17105.92848
652.566	16960.15409
652.765	17107.95323
652.964	16889.29654
653.163	17383.34541
653.362	17259.81719
653.561	17211.21896
653.76	17103.90374
653.959	16964.20319
654.158	17186.92047
654.357	16844.75912
654.556	16948.00685
654.755	17010.7686
654.954	16842.73472
655.153	17122.12652
655.352	17166.67205
655.551	17114.02748
655.749	17292.21696
655.948	17276.01698
656.147	17350.94348
656.346	17237.54279
656.545	16838.68593
656.743	17312.4672
656.942	17302.34204
657.141	17598.02838
657.34	17506.88504
657.538	17743.87148
657.737	17448.15164
657.936	17537.26543
658.135	17211.21896
658.333	17292.21696
658.532	17300.31702
658.731	17164.64722
658.929	17371.1946
659.128	17253.74232
659.326	17195.01992
659.525	17294.24197
659.724	17150.47351
659.922	17334.74281
660.121	17322.59243
660.319	17514.98641
660.518	16988.49801
660.716	17373.21973
660.915	17316.51728
661.113	17616.25783
661.312	17545.36699
661.51	17614.23233
661.709	17656.76868
661.907	17314.49224
662.105	17320.56738
662.304	17502.83438
662.502	17369.16947
662.701	17237.54279
662.899	17280.06696
663.097	17557.51943
663.296	17583.8501
663.494	17391.44602
663.692	16879.17429
663.891	17387.39571
664.089	17020.89171
664.287	17326.64255
664.485	17033.03952
664.684	17725.64015
664.882	17223.36836
665.08	17265.89209
665.278	17367.14435
665.476	17318.54233
665.675	17150.47351
665.873	17118.07699
666.071	17462.32842
666.269	17379.29513
666.467	17065.43417
666.665	17496.7584
666.863	16939.90875
667.061	17288.16695
667.259	17328.66761
667.457	17359.04389
667.655	17152.49832
667.853	17199.06966
668.051	16846.78352
668.249	17192.99505
668.447	17294.24197
668.645	17239.56772
668.843	17502.83438
669.041	17500.80905
669.239	17037.08882
669.437	17375.24486
669.635	17186.92047
669.833	17122.12652
670.031	16941.93327
670.229	16935.85971
670.426	16978.37512
670.624	17415.74813
670.822	17037.08882
671.02	17035.06417
671.218	17192.99505
671.415	16790.10122
671.613	16958.12954
671.811	16571.48704
672.009	16786.05256
672.206	17223.36836
672.404	17197.04479
672.602	17195.01992
672.799	17047.2121
672.997	17401.57185
673.195	16978.37512
673.392	17330.69267
673.59	16958.12954
673.788	16960.15409
673.985	16905.49227
674.183	16941.93327
674.38	16998.62097
674.578	17324.61749
674.775	16761.7608
674.973	17249.69242
675.17	16729.37232
675.368	17199.06966
675.565	16757.7122
675.763	16901.44332
675.96	16948.00685
676.158	17205.1443
676.355	16563.39073
676.553	17069.48356
676.75	16506.71752
676.947	16676.74234
677.145	16668.64556
677.342	16862.97882
677.539	16616.01739
677.737	17233.49294
677.934	16980.3997
678.131	16911.56571
678.329	16986.47343
678.526	17126.17605
678.723	17041.13812
678.92	17363.09412
679.118	16753.66362
679.315	16796.17423
679.512	16917.63918
679.709	16875.12541
679.906	16452.06991
680.104	16701.0329
680.301	16502.66949
680.498	16646.37961
680.695	16739.49365
680.892	16354.92225
681.089	16593.75208
681.286	16755.68791
681.483	16484.45349
681.68	16998.62097
681.877	16138.37929
682.075	16583.63158
682.272	16118.14262
682.469	16937.88423
682.665	16565.41481
682.862	16231.47006
683.059	16344.80296
683.256	16213.25637
683.453	16116.11897
683.65	16310.39772
683.847	16391.35209
684.044	16284.0882
684.241	16294.20721
684.438	16531.00583
684.635	16130.2846
684.831	16106.0007
685.028	16176.8294
685.225	16280.04061
685.422	16334.68371
685.619	16622.08979
685.815	16391.35209
686.012	16516.83761
686.209	16300.27864
686.405	16326.58835
686.602	16166.71089
686.799	15986.60802
686.996	16195.04281
687.192	16599.82441
687.389	16379.20874
687.586	16286.112
687.782	16186.94794
687.979	16672.69395
688.175	16411.59116
688.372	16686.86337
688.568	16458.14179
688.765	16227.42256
688.962	16099.92976
689.158	16083.74065
689.355	16004.82014
689.551	16148.49768
689.748	15956.25474
689.944	16091.83519
690.14	16122.18994
690.337	16213.25637
690.533	15885.43158
690.73	15863.17319
690.926	15998.74942
691.123	15897.57258
691.319	15747.83648
691.515	16138.37929
691.712	15596.08257
691.908	15800.44576
692.104	15630.4797
692.301	15658.80692
692.497	15434.21644
692.693	15885.43158
692.889	15725.57892
693.086	15982.5609
693.282	16124.21361
693.478	16320.51685
693.674	15834.84454
693.87	15956.25474
694.067	15905.66661
694.263	16023.03237
694.459	15755.93017
694.655	15836.86801
694.851	15907.69012
695.047	15794.37542
695.243	15889.47858
695.439	15875.31411
695.635	15707.36827
695.831	15693.20449
696.027	15770.09417
696.224	15859.12622
696.42	15822.70376
696.615	15873.29062
696.811	15535.3823
697.007	15413.98343
697.203	15318.88883
697.399	15618.33951
697.595	15357.33123
697.791	15717.48529
697.987	15571.80239
698.183	15741.76623
698.379	15515.14901
698.575	15490.86914
698.77	15341.14494
698.966	15140.84075
699.162	15102.39859
699.358	15215.70176
699.554	15059.90984
699.749	15061.93312
699.945	15355.30794
700.141	15191.42251
700.337	14968.86218
700.532	15464.56605
700.728	15531.33563
700.924	15666.90044
701.119	15525.26564
701.315	15527.28897
701.511	15254.14395
701.706	15549.54564
701.902	15304.72587
702.097	15399.82035
702.293	15252.12067
702.489	15310.79571
702.684	15072.04949
702.88	15157.02691
703.075	15055.86329
703.271	15063.95639
703.466	15059.90984
703.662	15292.58619
703.857	15237.95776
704.053	15248.07413
704.248	15239.98103
704.443	15316.86555
704.639	15043.72363
704.834	15169.16653
705.03	15013.37444
705.225	15211.65522
705.42	15237.95776
705.616	15294.60947
705.811	14936.48952
706.006	15399.82035
706.202	15053.84001
706.397	15250.0974
706.592	14987.07176
706.787	15120.60804
706.983	15187.37597
707.178	15187.37597
707.373	14991.11833
707.568	15430.16984
707.763	15059.90984
707.959	15199.51559
708.154	14922.32645
708.349	14693.68985
708.544	14770.57751
708.739	14515.62867
708.934	14556.0979
709.129	14758.43743
709.324	14855.55734
709.519	14859.60397
709.714	14859.60397
709.909	14788.78758
710.104	14592.51979
710.299	14564.19169
710.494	14574.30889
710.689	14624.89449
710.884	14416.47679
711.079	14637.03493
711.274	14556.0979
711.469	14841.39411
711.664	14657.26892
711.859	14885.907
712.054	14406.35906
712.249	14669.40926
712.443	14493.37038
712.638	14792.83425
712.833	14098.75892
713.028	14535.86335
713.223	14220.18529
713.417	14610.73059
713.612	14307.20313
713.807	14598.59007
714.002	14560.1448
714.196	14910.18665
714.391	14647.15194
714.586	14667.38588
714.78	14545.98064
714.975	14584.42607
715.17	14307.20313
715.364	14434.68862
715.559	14195.90061
715.754	14440.7592
715.948	14258.63546
716.143	14163.52058
716.337	14351.72261
716.532	14523.72256
716.726	14481.22942
716.921	14471.11192
717.115	14197.92434
717.31	14499.44084
717.504	14523.72256
717.699	14618.82426
717.893	14270.77747
718.088	14545.98064
718.282	14313.27402
718.476	14556.0979
718.671	14153.40172
718.865	14244.46968
719.059	14276.84846
719.254	14193.87687
719.448	14090.66355
719.642	14125.06861
719.837	13695.96482
720.031	14029.94714
720.225	13669.64765
720.419	13847.78444
720.614	13857.90516
720.808	14074.47271
721.002	13940.89246
721.196	14179.71066
721.39	13825.51861
721.585	13825.51861
721.779	14042.09059
721.973	14224.23271
722.167	14021.85145
722.361	13714.18408
722.555	13345.69525
722.749	13487.43607
722.943	13639.28099
723.137	13797.17977
723.331	13617.01163
723.525	13738.47604
723.719	13477.31235
723.913	13742.52465
724.107	13683.8185
724.301	13908.50771
724.495	13625.10963
724.689	13827.54279
724.883	13612.96261
725.077	13477.31235
725.271	13444.91582
725.465	13426.69235
725.659	13570.44709
725.853	13918.62802
726.046	13868.0258
726.24	13815.39766
726.434	13430.74203
726.628	13596.7664
726.822	13327.47001
727.015	13750.62185
727.209	13499.58441
727.403	13667.62323
727.596	13513.7573
727.79	13185.70638
727.984	13274.81742
728.177	13426.69235
728.371	13623.08513
728.565	13376.06991
728.758	13576.52083
728.952	13483.38659
729.146	13523.88068
729.339	13944.9405
729.533	13693.94044
729.726	13483.38659
729.92	13851.83273
730.113	14040.06668
730.307	13876.12227
730.5	13730.37877
730.694	13299.11897
730.887	13774.91314
731.081	13339.6202
731.274	13631.18309
731.468	13438.84137
731.661	13700.01357
731.854	13829.56696
732.048	13922.67612
732.241	13442.89101
732.435	13564.37331
732.628	13768.84036
732.821	13742.52465
733.014	13649.40329
733.208	13592.71731
733.401	13795.15555
733.594	13582.59454
733.788	13663.57437
733.981	13594.74186
734.174	13347.72025
734.367	13280.89286
734.56	13436.81654
734.754	13293.04364
734.947	13108.73981
735.14	13197.85839
735.333	13303.16917
735.526	13210.01024
735.719	13264.69159
735.912	13161.40187
736.105	13135.07123
736.298	12817.01246
736.491	13147.22393
736.684	13426.69235
736.877	13519.83134
737.07	13195.83307
737.263	13309.24443
737.456	13386.1946
737.649	13270.7671
737.842	13372.02001
738.035	13246.46483
738.228	13086.45876
738.421	13459.08942
738.614	13450.99025
738.807	13384.16967
739	13218.11138
739.192	12952.75998
739.385	13056.07456
739.578	13205.95964
739.771	13242.41439
739.964	13023.66354
740.156	13262.66641
740.349	12956.81178
740.542	13369.99505
740.735	13137.0967
740.927	13228.23771
741.12	13094.56103
741.313	12827.14371
741.505	12985.17381
741.698	13187.73172
741.891	12612.3306
742.083	12786.61788
742.276	12737.98391
742.468	12780.53881
742.661	12642.7327
742.854	12650.83969
743.046	12559.63035
743.239	12831.19617
743.431	12630.57202
743.624	12596.11558
743.816	12723.79838
744.009	12764.32772
744.201	12636.65239
744.393	12715.69224
744.586	12454.21703
744.778	12594.08868
744.971	12626.51841
745.163	12648.81295
745.355	12681.24008
745.548	12606.25001
745.74	12563.68436
745.932	12729.87793
746.125	12977.07047
746.317	12563.68436
746.509	12701.50626
746.702	12806.88107
746.894	12283.89601
747.086	12547.46816
747.278	12638.67916
747.471	12328.50858
747.663	12156.12263
747.855	12425.83351
748.047	12563.68436
748.239	12999.35445
748.431	12665.02671
748.623	12561.65736
748.815	12320.39745
749.008	12788.64422
749.2	12697.45307
749.392	12515.03452
749.584	12610.30374
749.776	12889.95441
749.968	12640.70593
750.16	12733.93093
750.352	12190.60401
750.544	12567.73835
750.736	12521.11595
750.928	12419.75116
751.12	12089.18198
751.311	12279.84015
751.503	12352.84129
751.695	12504.89868
751.887	12446.10758
752.079	12399.47622
752.271	12162.20773
752.463	12510.9802
752.654	12581.92712
752.846	12474.49018
753.038	12421.77862
753.23	12253.47638
753.421	12431.9158
753.613	12454.21703
753.805	12344.7305
753.997	12174.37775
754.188	12259.56043
754.38	12247.39226
754.572	12184.51922
754.763	12287.95184
754.955	12060.78041
755.146	11914.69079
755.338	12042.52145
755.53	12186.54749
755.721	12174.37775
755.913	12358.92431
756.104	11959.33369
756.296	12074.98138
756.487	11831.48201
756.679	11752.319
756.87	11654.86938
757.062	11614.25928
757.253	11725.9284
757.445	11780.73799
757.636	11602.07554
757.827	11648.77809
758.019	11717.80792
758.21	11829.45235
758.401	11667.0517
758.593	11671.1124
758.784	11585.83004
758.975	11762.46883
759.167	12186.54749
759.358	11776.67824
759.549	11405.05825
759.74	11350.20223
759.932	11549.2755
760.123	11569.58395
760.314	11585.83004
760.505	11535.05903
760.696	11122.57222
760.888	11516.78003
761.079	11199.81843
761.27	11466.00101
761.461	11545.2137
761.652	11711.71747
761.843	11510.68686
762.034	11803.06602
762.225	11350.20223
762.416	11321.75551
762.607	11092.07605
762.798	11524.90412
762.989	11362.39308
763.18	11439.59356
763.371	11321.75551
763.562	11372.55185
763.753	11407.08982
763.944	11449.75046
764.135	11313.62752
764.326	11514.74898
764.517	11155.0988
764.708	11277.04953
764.899	10937.52432
765.089	11175.42654
765.28	10880.5679
765.471	10915.14965
765.662	10750.3477
765.853	10988.37078
766.043	10797.15111
766.234	10904.97889
766.425	10978.20205
766.615	11073.77719
766.806	11081.91013
766.997	11041.2437
767.187	10837.84467
767.378	11146.96741
767.569	10902.9447
767.759	11207.94872
767.95	10994.47188
768.141	10845.98282
768.331	10935.49032
768.522	10772.73273
768.712	10677.0775
768.903	10848.01733
769.093	10530.4895
769.284	10630.25775
769.474	10664.86428
769.665	10524.38027
769.855	10259.53474
770.046	10455.13423
770.236	10341.04934
770.426	10387.9106
770.617	10369.57441
770.807	10469.39198
770.998	10171.88239
771.188	10161.68861
771.378	10243.22923
771.569	10481.6124
771.759	10414.39433
771.949	10245.26747
772.139	10644.50793
772.33	10116.83185
772.52	10122.94908
772.71	10131.10519
772.9	10300.29472
773.09	10512.16145
773.281	10345.12451
773.471	10626.18616
773.661	10324.74813
773.851	10198.38461
774.041	10188.19172
774.231	9980.1806
774.421	9982.22064
774.611	10110.71449
774.802	10094.40093
774.992	9904.68882
775.182	10147.41673
775.372	10133.14418
775.562	9892.44502
775.752	9933.25562
775.942	10002.62027
776.131	10000.58037
776.321	9847.54656
776.511	10057.69212
776.701	9745.47772
776.891	10041.37562
777.081	9645.41338
777.271	9765.8945
777.461	9643.37087
777.651	9884.2822
777.84	9688.30262
778.03	9584.13116
778.22	9412.46509
778.41	9473.78738
778.599	9563.70061
778.789	9778.14384
778.979	10055.65261
779.169	9655.62572
779.358	9896.52635
779.548	10031.17735
779.738	9633.15806
779.927	9890.40434
780.117	9916.93209
780.307	9937.33636
780.496	9635.20065
780.686	9772.01924
780.875	9500.35587
781.065	9547.35504
781.254	9692.38695
781.444	9649.49836
781.633	9510.57379
781.823	9504.44308
782.012	9396.11002
782.202	9680.13376
782.391	9508.53024
782.581	9618.85948
782.77	9373.62008
782.96	9371.57545
783.149	9187.49013
783.338	9209.99673
783.528	9107.67741
783.717	9449.26021
783.906	9038.07572
784.096	9277.50428
784.285	9040.12312
784.474	9074.92617
784.663	9050.35983
784.853	9134.28454
785.042	8964.35786
785.231	9302.04797
785.42	9138.37769
785.61	9271.36799
785.799	9038.07572
785.988	9156.796
786.177	8818.90249
786.366	8986.88517
786.555	8941.8284
786.744	9083.11439
786.933	8935.68363
787.122	8911.10296
787.312	8868.0806
787.501	8706.16321
787.69	8704.1129
787.879	8818.90249
788.068	8640.54387
788.257	8818.90249
788.445	8771.76369
788.634	8976.64575
788.823	8685.6592
789.012	8870.12946
789.201	8853.73805
789.39	8907.00593
789.579	8550.28609
789.768	8695.91144
789.957	8681.55818
790.145	8675.40651
790.334	8566.6993
790.523	8505.14353
790.712	8449.72872
790.9	8570.80241
791.089	8299.83321
791.278	8453.834
791.467	8205.32507
791.655	8525.66401
791.844	8310.10333
792.033	8451.78137
792.221	8386.08707
792.41	8505.14353
792.599	8273.12861
792.787	8320.37296
792.976	8106.66312
793.164	7975.04174
793.353	8071.70927
793.541	8377.87389
793.73	8049.08897
793.918	8266.96554
794.107	7975.04174
794.295	8121.05419
794.484	8114.88671
794.672	8014.12551
794.861	8026.46623
795.049	8223.81907
795.238	8110.77495
795.426	8158.05529
795.614	8225.87387
795.803	8147.77785
795.991	7781.57075
796.179	8160.11071
796.368	7876.27087
796.556	7876.27087
796.744	7999.72708
796.932	8178.60866
797.121	7826.8676
797.309	7997.67008
797.497	7769.21531
797.685	7962.69797
797.874	7703.30688
798.062	7622.95176
798.25	7470.39392
798.438	7575.5477
798.626	7738.32341
798.814	7620.89095
799.002	7835.10231
799.19	7736.26378
799.378	7585.85389
799.566	7779.51156
799.755	7594.09846
799.943	8020.29596
800.131	8100.49522
800.318	8180.66389
800.506	7678.58566
800.694	7491.01671
800.882	7447.70634
801.07	7851.57073
801.258	7734.20413
801.446	7878.32908
801.634	7793.92544
801.822	7478.64329
802.01	7600.28166
802.197	7629.13407
802.385	7647.67985
802.573	7592.03735
802.761	7678.58566
802.949	7657.98231
803.136	7554.93371
803.324	7670.34457
803.512	7612.64749
803.699	7861.86281
803.887	7711.54661
804.075	7583.79269
804.262	7608.52563
804.45	8028.52294
804.638	7682.70607
804.825	7839.21954
805.013	7420.89037
805.201	7581.73148
805.388	7458.0192
805.576	7627.07332
805.763	7425.01614
805.951	7802.16148
806.138	7812.45606
806.326	8012.06865
806.513	7453.89412
806.701	7573.48639
806.888	7476.58098
807.075	7653.86139
807.263	7695.06681
807.45	7779.51156
807.638	7488.95453
807.825	7828.92631
808.012	7474.51865
808.2	7779.51156
808.387	7620.89095
808.574	7509.57539
808.761	7425.01614
808.949	7524.00871
809.136	7398.19707
809.323	7763.03731
809.51	7513.6993
809.698	7548.7491
809.885	7513.6993
810.072	7559.05668
810.259	7546.68752
810.446	7616.76926
810.633	7571.42507
810.82	7612.64749
811.008	7900.96803
811.195	7993.55602
811.382	7693.00674
811.569	7810.39719
811.756	7554.93371
811.943	7748.62124
812.13	7414.70155
812.317	7548.7491
812.504	7416.76451
812.691	7660.04274
812.878	7548.7491
813.064	7633.2555
813.251	7307.39749
813.438	7664.16354
813.625	7542.56429
813.812	7503.38936
813.999	7559.05668
814.186	7748.62124
814.372	7286.75531
814.559	7526.07053
814.746	7420.89037
814.933	7509.57539
815.12	7383.75451
815.306	7365.18393
815.493	7336.29286
815.68	7338.35665
815.866	7375.50114
816.053	7742.4426
816.24	7410.57556
816.426	7779.51156
816.613	7655.92186
816.799	7587.91506
816.986	7730.08477
817.173	7833.04366
817.359	7414.70155
817.546	7515.76123
817.732	7464.20665
817.919	7472.45629
818.105	7377.56451
818.292	7431.20464
818.478	7455.95667
818.665	7699.18688
818.851	7290.88392
819.037	7524.00871
819.224	7257.85256
819.41	7422.95327
819.597	7092.61081
819.783	7342.48416
819.969	7231.01043
820.156	7501.32731
820.342	7297.07667
820.528	7398.19707
820.714	7427.079
820.901	7674.46516
821.087	7334.22904
821.273	7758.91854
821.459	7214.49034
821.646	7521.94687
821.832	7216.55542
822.018	7466.2691
822.204	7193.83823
822.39	7404.38641
822.576	7125.67054
822.762	7455.95667
822.948	7367.24742
823.134	7499.26523
823.32	7245.46435
823.507	7765.09666
823.693	7307.39749
823.879	7284.69097
824.065	7084.34499
824.25	7278.49782
824.436	7164.92156
824.622	7239.26994
824.808	6952.04297
824.994	7090.54439
825.18	6709.93865
825.366	6846.54863
825.552	6848.61771
825.738	6939.63493
825.923	6869.3073
826.109	6865.16956
826.295	6900.33743
826.481	6910.67967
826.667	7034.74252
826.852	6838.27207
827.038	6504.8361
827.224	6976.85662
827.409	6722.36186
827.595	6929.29427
827.781	6772.04643
827.966	6892.06322
828.152	6747.20579
828.338	7057.47858
828.523	6709.93865
828.709	6823.7872
828.894	6753.41626
829.08	6765.83658
829.266	6548.36161
829.451	6844.47952
829.637	6579.44502
829.822	7226.88054
830.008	6794.81413
830.193	6827.92585
830.378	6571.15662
830.564	6730.64354
830.749	6513.12746
830.935	6567.01228
831.12	6239.31587
831.305	6280.82862
831.491	6423.97585
831.676	6506.90897
831.861	6388.718
832.047	6643.66759
832.232	6399.08865
832.417	6500.69028
832.602	6160.41581
832.788	6513.12746
832.973	6214.40372
833.158	6448.85969
833.343	6249.69493
833.528	6571.15662
833.714	6260.07341
833.899	6523.49114
834.084	6112.64405
834.269	6432.27083
834.454	6183.25879
834.639	6463.37372
834.824	6463.37372
835.009	6455.08012
835.194	6264.22464
835.379	6521.41845
835.564	6044.08023
835.749	6492.39836
835.934	6326.48183
836.119	6177.02917
836.304	5985.88476
836.489	6108.48939
836.674	5725.85806
836.859	5873.59845
837.044	5754.99938
837.228	6008.74947
837.413	5673.80847
837.598	5723.77636
837.783	5594.66486
837.968	5825.75192
838.152	5561.33104
838.337	5952.62191
838.522	5840.31523
838.707	6260.07341
838.891	5838.23483
839.076	6106.41203
839.261	5840.31523
839.445	5923.51197
839.63	5902.71632
839.815	5992.12087
839.999	5750.83662
840.184	5952.62191
840.368	5804.94518
840.553	5925.5914
840.737	5690.46594
840.922	5881.91832
841.106	5763.32463
841.291	5752.91801
841.475	5754.99938
841.66	5906.87564
841.844	5682.13739
842.029	5598.83116
842.213	5671.72618
842.397	5754.99938
842.582	5342.42837
842.766	5617.57835
842.951	5359.11578
843.135	5773.73065
843.319	5452.9545
843.504	5740.4293
843.688	5344.51438
843.872	5448.7849
844.056	5334.0841
844.241	5534.24288
844.425	5390.40064
844.609	5611.3295
844.793	5382.05853
844.977	5311.13542
845.161	5240.18525
845.346	5275.66371
845.53	5160.85605
845.714	5236.01087
845.898	5073.13731
846.082	5340.34234
846.266	5133.70939
846.45	5400.82775
846.634	5148.32731
846.818	5179.64758
847.002	4866.21043
847.186	5400.82775
847.37	4855.75361
847.554	5075.22633
847.738	4864.11911
847.922	5321.56699
848.106	5148.32731
848.29	5089.8488
848.473	5077.31532
848.657	4970.74716
848.841	5006.27655
849.025	5233.92364
849.209	4949.8444
849.392	4945.66358
849.576	4684.18062
849.76	4893.39549
849.944	4746.9689
850.127	4981.19767
850.311	4776.26313
850.495	4855.75361
850.678	4462.16735
850.862	5110.73607
851.046	4960.29607
851.229	4908.032
851.413	4592.05454
851.596	4755.33913
851.78	4302.83574
851.964	4719.76314
852.147	4457.97603
852.331	4577.39412
852.514	4522.93163
852.698	4675.80731
852.881	4571.11076
853.065	4690.46036
853.248	4520.83662
853.431	4738.5983
853.615	4315.41911
853.798	4749.06149
853.982	4640.21676
854.165	4654.87248
854.348	4351.06776
854.532	4439.11399
854.715	4363.64814
854.898	4550.16475
855.081	4141.28096
855.265	4495.69476
855.448	4277.66669
855.631	4382.51725
855.814	4242.00525
855.997	4432.82625
856.181	4160.17047
856.364	4176.95972
856.547	4166.4666
856.73	4441.20986
856.913	4160.17047
857.096	4424.44229
857.279	4147.57766
857.462	4258.78787
857.645	4025.80831
857.828	4187.45231
858.011	4000.60596
858.194	4265.08101
858.377	4212.63237
858.56	4386.71015
858.743	4212.63237
858.926	4382.51725
859.109	4122.38975
859.292	4214.73058
859.475	4021.60812
859.658	4069.90528
859.841	3908.17223
860.023	4122.38975
860.206	4000.60596
860.389	4044.70813
860.572	3775.75634
860.755	4059.40683
860.937	3874.55027
861.12	3933.38532
861.303	3782.06363
861.486	3790.47309
861.668	3639.05549
861.851	3969.09888
862.034	3775.75634
862.216	3683.22925
862.399	3647.47019
862.581	3645.36654
862.764	3605.3937
862.947	3737.90887
863.129	3622.2252
863.312	3740.01168
863.494	3481.22469
863.677	3716.87979
863.859	3491.74996
864.042	3651.67742
864.224	3479.11958
864.406	3468.59377
864.589	3415.95795
864.771	3455.96219
864.954	3428.59156
865.136	3538.05575
865.318	3354.88652
865.501	3424.38043
865.683	3380.15925
865.865	3737.90887
866.048	3428.59156
866.23	3561.20532
866.412	3542.26493
866.594	3645.36654
866.777	3403.3237
866.959	3651.67742
867.141	3508.58946
867.323	3380.15925
867.505	3180.016
867.687	3495.95995
867.869	3298.01374
868.052	3660.09166
868.234	3369.62925
868.416	3521.21831
868.598	3266.41236
868.78	3489.64495
868.962	3177.90843
869.144	3441.22454
869.326	3057.75002
869.508	3348.56794
869.69	3144.185
869.872	3392.79467
870.054	3154.72402
870.236	3226.3785
870.417	3110.45745
870.599	3167.3703
870.781	3057.75002
870.963	3403.3237
871.145	3059.85851
871.327	3255.87773
871.508	3055.64152
871.69	3274.83977
871.872	3015.57706
872.054	3158.93951
872.235	3040.88158
872.417	3049.31592
872.599	3108.34935
872.78	3196.87602
872.962	3180.016
873.144	3268.51924
873.325	3083.05082
873.507	3276.94658
873.689	3137.8614
873.87	3418.0636
874.052	3059.85851
874.233	3201.09086
874.415	3120.99775
874.596	3230.59288
874.778	2899.57027
874.959	3293.80045
875.141	3108.34935
875.322	3300.12037
875.503	2964.96145
875.685	3099.91676
875.866	3042.99019
876.048	3241.12852
876.229	2986.05235
876.41	2897.46064
876.592	2867.92435
876.773	3184.2311
876.954	2933.32232
877.136	3171.5856
877.317	2880.5831
877.498	3089.37566
877.679	2981.83429
877.86	3104.13308
878.042	3019.79463
878.223	3255.87773
878.404	2943.86907
878.585	3268.51924
878.766	2964.96145
878.947	3234.80719
879.128	2937.54106
879.309	3192.66111
879.49	2893.24134
879.672	3175.80083
879.853	2998.70616
880.034	3095.70037
880.215	3078.83417
880.396	3093.59215
880.576	2859.4849
880.757	3226.3785
880.938	2960.7431
881.119	3201.09086
881.3	2926.9941
881.481	3167.3703
881.662	2994.48828
881.843	3108.34935
882.023	2829.94503
882.204	3291.69377
882.385	3125.21376
882.566	3087.2674
882.747	2931.21293
882.927	3059.85851
883.108	2905.89906
883.289	3049.31592
883.469	2990.27035
883.65	3120.99775
883.831	2863.70465
884.011	3154.72402
884.192	2992.37932
884.373	3188.44614
884.553	2889.02199
884.734	3099.91676
884.914	3078.83417
885.095	3042.99019
885.275	2880.5831
885.456	3066.18387
885.636	2872.14399
885.817	3251.66375
885.997	2918.55626
886.178	2967.07061
886.358	2878.47335
886.538	3066.18387
886.719	2884.80257
886.899	3298.01374
887.08	3051.42447
887.26	3066.18387
887.44	2840.4953
887.621	3167.3703
887.801	2810.95367
887.981	2962.85228
888.161	2912.22772
888.342	2882.69285
888.522	3007.14173
888.702	3011.35943
888.882	2865.81451
889.062	3163.15494
889.242	2933.32232
889.423	3108.34935
889.603	3114.67362
889.783	3192.66111
889.963	2922.7752
890.143	3007.14173
890.323	2838.38527
890.503	3114.67362
890.683	2857.375
890.863	2994.48828
891.043	2808.84345
891.223	3158.93951
891.403	3135.7535
891.583	3135.7535
891.763	2905.89906
891.943	3142.07715
892.122	2905.89906
892.302	3095.70037
892.482	2859.4849
892.662	2905.89906
892.842	2781.40933
893.022	2950.19694
893.201	2815.17407
893.381	2973.39799
893.561	2745.53049
893.741	3059.85851
893.92	2975.50709
894.1	2964.96145
894.28	2958.63389
894.459	2791.96119
894.639	2948.08766
894.819	2964.96145
894.998	2865.81451
895.178	2863.70465
895.357	2829.94503
895.537	2715.98032
895.716	2787.74049
895.896	2823.6147
896.075	2737.08785
896.255	2747.64112
896.434	2675.87243
896.614	2656.87234
896.793	2601.97749
896.973	2654.76115
897.152	2551.29803
897.331	2614.64627
897.511	2424.57037
897.69	2553.40981
897.87	2397.10753
898.049	2559.74508
898.228	2409.78291
898.407	2555.52158
898.587	2111.82084
898.766	2492.16347
898.945	2253.42815
899.124	2544.96262
899.304	2272.44708
899.483	2466.81737
899.662	2424.57037
899.841	2200.59402
900.02	2209.04784
900.199	2625.20325
900.378	2249.20163
900.557	2709.64781
900.737	2363.30471
900.916	2359.07917
901.095	2283.01282
901.274	2481.60279
901.453	2433.02012
901.632	2433.02012
901.811	2255.5414
901.989	2297.80448
902.168	2130.84485
902.347	2335.83801
902.526	1997.66436
902.705	2171.00455
902.884	1843.31252
903.063	2004.00691
903.242	1849.6563
903.42	2128.73111
903.599	1908.86281
903.778	2111.82084
903.957	2001.89273
904.135	2086.45454
904.314	1982.86484
904.493	2187.91302
904.672	1885.6036
904.85	1936.35012
905.029	1853.88547
905.207	2082.22672
905.386	1809.47828
905.565	1843.31252
905.743	1731.23248
905.922	1784.10186
906.1	1604.33792
906.279	1591.64799
906.457	1610.68286
906.636	1845.42712
906.814	1680.47585
906.993	1600.10795
907.171	1589.533
907.35	1767.18392
907.528	1528.19751
907.707	1707.96925
907.885	1468.97625
908.063	1435.13541
908.242	1242.6702
908.42	1669.90133
908.598	1261.70453
908.777	1528.19751
908.955	1454.17088
909.133	1498.58693
909.311	1433.02036
909.49	1500.70198
909.668	1253.2448
909.846	1481.66655
910.024	1335.72873
910.202	1574.72799
910.38	1346.30379
910.559	1464.74614
910.737	1344.18878
910.915	1488.0117
911.093	1397.06455
911.271	1494.35684
911.449	1371.68409
911.627	1428.79026
911.805	1181.33902
911.983	1375.91416
912.161	1270.16431
912.339	1617.02778
912.517	1407.63977
912.695	1456.28593
912.872	1394.94951
913.05	1515.50728
913.228	1365.339
913.406	1608.56788
913.584	1375.91416
913.762	1559.9229
913.939	1361.10895
914.117	1502.81702
914.295	1380.14423
914.473	1367.45403
914.65	1304.00377
914.828	1494.35684
915.006	1318.8087
915.184	1365.339
915.361	1297.65883
915.539	1257.47466
915.716	1268.04936
915.894	1352.64885
916.072	1257.47466
916.249	1447.82572
916.427	1232.09567
916.604	1562.03792
916.782	1473.20635
916.959	1312.46372
917.137	1189.79832
917.314	1342.07376
917.492	1221.52121
917.669	1435.13541
917.847	1189.79832
918.024	1265.93442
918.201	1143.2729
918.379	1337.84374
918.556	1132.69922
918.733	1257.47466
918.911	1164.42059
919.088	1392.83446
919.265	1198.25768
919.442	1433.02036
919.62	1151.73193
919.797	1352.64885
919.974	955.08085
920.151	1092.52026
920.328	1084.06175
920.506	1280.73908
920.683	1081.94714
920.86	1164.42059
921.037	982.56663
921.214	1185.56866
921.391	1050.22857
921.568	1050.22857
921.745	961.42362
921.922	1113.66687
922.099	1012.16795
922.276	1130.5845
922.453	1077.71793
922.63	1096.74954
922.807	893.77083
922.984	946.62393
923.161	902.227
923.338	1147.50241
923.514	897.9989
923.691	912.79739
923.868	897.9989
924.045	957.1951
924.222	982.56663
924.399	1050.22857
924.575	826.12623
924.752	971.99504
924.929	802.8755
925.105	889.54279
925.282	703.54489
925.459	878.97283
925.635	705.65806
925.812	830.35376
925.989	758.49094
926.165	840.92273
926.342	650.7192
926.518	705.65806
926.695	747.92384
926.871	775.39883
927.048	604.23877
927.224	838.80892
927.401	711.99765
927.577	794.42096
927.754	597.901
927.93	665.50967
928.107	642.26777
928.283	703.54489
928.459	642.26777
928.636	661.28376
928.812	530.30552
928.988	608.46402
929.165	538.7542
929.341	764.83132
929.517	676.07463
929.693	743.69707
929.87	568.32629
930.046	676.07463
930.222	490.17744
930.398	627.47824
930.574	471.17124
930.751	650.7192
930.927	587.33831
931.103	532.41767
931.279	420.4941
931.455	676.07463
931.631	359.27157
931.807	559.87685
931.983	481.73009
932.159	498.62502
932.335	403.60374
932.511	471.17124
932.687	399.38131
932.863	504.96086
933.039	454.27787
933.215	545.09085
933.391	386.71443
933.566	397.27012
933.742	443.72001
933.918	397.27012
934.094	388.82553
934.27	412.04879
934.445	397.27012
934.621	441.60848
934.797	378.27017
934.973	287.51185
935.148	293.84276
935.324	363.49336
935.5	319.16801
935.675	184.1314
935.851	291.73244
936.027	281.18111
936.202	255.85985
936.378	285.40159
936.553	209.44471
936.729	217.88312
936.904	186.24073
937.08	268.52014
937.255	184.1314
937.431	152.49392
937.606	112.42659
937.782	95.55848
937.957	264.29997
938.133	184.1314
938.308	74.47535
938.483	171.47585
938.659	146.16698
938.834	167.25749
939.009	120.86117
939.185	125.07859
939.36	129.2961
939.535	49.17857
939.71	91.34168
939.886	112.42659
940.061	85.01664
940.236	80.80005
940.411	74.47535
940.586	154.60294
940.761	53.39447
940.937	108.20943
941.112	49.17857
941.287	175.69428
941.462	91.34168
941.637	129.2961
941.812	87.12496
941.987	55.50246
942.162	32.3159
942.337	156.71198
942.512	91.34168
942.687	51.28651
942.862	146.16698
943.037	66.04272
943.212	72.36716
943.386	101.88386
943.561	40.74705
943.736	82.90833
943.911	70.25899
944.086	125.07859
944.26	99.77538
944.435	66.04272
944.61	186.24073
944.785	82.90833
944.959	99.77538
945.134	47.07066
945.309	70.25899
945.483	76.58356
945.658	36.53143
945.833	101.88386
946.007	0.70246
946.182	95.55848
946.357	87.12496
946.531	95.55848
946.706	112.42659
946.88	91.34168
947.055	116.64384
947.229	53.39447
947.404	55.50246
947.578	74.47535
947.752	42.8549
947.927	99.77538
948.101	103.99236
948.276	76.58356
948.45	125.07859
948.624	95.55848
948.799	87.12496
948.973	44.96277
949.147	101.88386
949.321	57.61047
949.496	93.45007
949.67	59.7185
949.844	40.74705
950.018	66.04272
950.193	66.04272
950.367	103.99236
950.541	78.6918
950.715	11.23968
950.889	68.15085
951.063	68.15085
951.237	15.45473
951.411	82.90833
951.585	99.77538
951.759	30.20817
951.933	108.20943
952.107	127.18734
952.281	36.53143
952.455	127.18734
952.629	85.01664
952.803	99.77538
952.977	74.47535
953.151	23.88513
953.325	112.42659
953.499	40.74705
953.672	-9.83416
953.846	85.01664
954.02	61.82655
954.194	40.74705
954.368	17.5623
954.541	125.07859
954.715	40.74705
954.889	150.38492
955.062	95.55848
955.236	80.80005
955.41	154.60294
955.583	66.04272
955.757	57.61047
955.93	74.47535
956.104	49.17857
956.278	87.12496
956.451	34.42366
956.625	101.88386
956.798	57.61047
956.972	66.04272
957.145	101.88386
957.319	125.07859
957.492	74.47535
957.665	51.28651
957.839	66.04272
958.012	139.84024
958.185	93.45007
958.359	99.77538
958.532	25.99279
958.705	116.64384
958.879	108.20943
959.052	137.73137
959.225	91.34168
959.398	129.2961
959.572	99.77538
959.745	82.90833
959.918	127.18734
960.091	70.25899
960.264	118.75249
960.438	61.82655
960.611	53.39447
960.784	108.20943
960.957	70.25899
961.13	137.73137
961.303	85.01664
961.476	66.04272
961.649	91.34168
961.822	21.7775
961.995	9.13219
962.168	70.25899
962.341	133.51369
962.514	68.15085
962.686	66.04272
962.859	57.61047
963.032	80.80005
963.205	125.07859
963.378	28.10047
963.551	103.99236
963.723	17.5623
963.896	23.88513
964.069	85.01664
964.242	95.55848
964.414	7.02472
964.587	91.34168
964.76	173.58505
964.932	72.36716
965.105	66.04272
965.278	53.39447
965.45	74.47535
965.623	116.64384
965.795	87.12496
965.968	32.3159
966.14	93.45007
966.313	112.42659
966.485	-14.04863
966.658	87.12496
966.83	44.96277
967.003	74.47535
967.175	80.80005
967.348	28.10047
967.52	49.17857
967.692	103.99236
967.865	57.61047
968.037	66.04272
968.209	122.96987
968.382	-1.40491
968.554	57.61047
968.726	106.10089
968.898	167.25749
969.071	66.04272
969.243	127.18734
969.415	93.45007
969.587	89.23331
969.759	66.04272
969.932	152.49392
970.104	28.10047
970.276	55.50246
970.448	82.90833
970.62	66.04272
970.792	49.17857
970.964	40.74705
971.136	51.28651
971.308	40.74705
971.48	42.8549
971.652	38.63923
971.824	7.02472
971.996	80.80005
972.168	82.90833
972.339	70.25899
972.511	80.80005
972.683	55.50246
972.855	68.15085
973.027	125.07859
973.199	42.8549
973.37	-9.83416
973.542	42.8549
973.714	70.25899
973.886	40.74705
974.057	68.15085
974.229	74.47535
974.401	-1.40491
974.572	57.61047
974.744	7.02472
974.915	57.61047
975.087	63.93463
975.259	42.8549
975.43	82.90833
975.602	-11.94141
975.773	30.20817
975.945	66.04272
976.116	63.93463
976.288	131.40488
976.459	57.61047
976.63	25.99279
976.802	34.42366
976.973	13.34719
977.145	80.80005
977.316	99.77538
977.487	40.74705
977.659	91.34168
977.83	9.13219
978.001	116.64384
978.172	44.96277
978.344	34.42366
978.515	99.77538
978.686	59.7185
978.857	15.45473
979.028	78.6918
979.2	36.53143
979.371	-18.26301
979.542	32.3159
979.713	59.7185
979.884	49.17857
980.055	49.17857
980.226	21.7775
980.397	28.10047
980.568	40.74705
980.739	61.82655
980.91	11.23968
981.081	25.99279
981.252	101.88386
981.423	-70.93437
981.594	32.3159
981.765	91.34168
981.936	74.47535
982.106	127.18734
982.277	85.01664
982.448	9.13219
982.619	97.66692
982.79	-41.44034
982.96	66.04272
983.131	34.42366
983.302	78.6918
983.472	9.13219
983.643	-22.47729
983.814	82.90833
983.984	42.8549
984.155	-9.83416
984.326	42.8549
984.496	40.74705
984.667	57.61047
984.837	59.7185
985.008	47.07066
985.178	-11.94141
985.349	72.36716
985.519	87.12496
985.69	-1.40491
985.86	-5.61958
986.031	85.01664
986.201	68.15085
986.371	103.99236
986.542	49.17857
986.712	108.20943
986.882	21.7775
987.053	-1.40491
987.223	30.20817
987.393	82.90833
987.563	38.63923
987.734	101.88386
987.904	137.73137
988.074	74.47535
988.244	91.34168
988.414	40.74705
988.585	93.45007
988.755	70.25899
988.925	-9.83416
989.095	-20.37016
989.265	-49.86771
989.435	59.7185
989.605	89.23331
989.775	70.25899
989.945	165.14835
990.115	9.13219
990.285	38.63923
990.455	21.7775
990.625	-39.33343
990.795	57.61047
990.965	-16.15583
991.134	28.10047
991.304	7.02472
991.474	28.10047
991.644	36.53143
991.814	44.96277
991.984	68.15085
992.153	38.63923
992.323	49.17857
992.493	70.25899
992.662	57.61047
992.832	66.04272
993.002	-26.69148
993.171	51.28651
993.341	89.23331
993.511	40.74705
993.68	59.7185
993.85	-11.94141
994.019	-35.11954
994.189	23.88513
994.358	51.28651
994.528	34.42366
994.697	61.82655
994.867	78.6918
995.036	82.90833
995.206	2.80986
995.375	-26.69148
995.544	-24.5844
995.714	-1.40491
995.883	2.80986
996.052	17.5623
996.222	34.42366
996.391	85.01664
996.56	-9.83416
996.73	15.45473
996.899	47.07066
997.068	76.58356
997.237	42.8549
997.406	-56.18797
997.576	53.39447
997.745	15.45473
997.914	-35.11954
998.083	23.88513
998.252	95.55848
998.421	-26.69148
998.59	9.13219
998.759	76.58356
998.928	36.53143
999.097	55.50246
999.266	34.42366
999.435	-43.54722
999.604	63.93463
999.773	76.58356
999.942	-7.72688
1000.111	19.66988
1000.28	47.07066
1000.448	15.45473
1000.617	51.28651
1000.786	11.23968
1000.955	28.10047
1001.124	19.66988
1001.292	68.15085
1001.461	32.3159
1001.63	40.74705
1001.798	25.99279
1001.967	70.25899
1002.136	40.74705
1002.304	49.17857
1002.473	-1.40491
1002.642	-51.97449
1002.81	-47.7609
1002.979	-9.83416
1003.147	-18.26301
1003.316	28.10047
1003.484	17.5623
1003.653	51.28651
1003.821	-37.2265
1003.99	36.53143
1004.158	0.70246
1004.327	17.5623
1004.495	44.96277
1004.663	-47.7609
1004.832	70.25899
1005	51.28651
1005.168	21.7775
1005.337	-73.04089
1005.505	4.91728
1005.673	38.63923
1005.842	-33.01256
1006.01	-26.69148
1006.178	30.20817
1006.346	-5.61958
1006.514	-5.61958
1006.683	15.45473
1006.851	-9.83416
1007.019	32.3159
1007.187	15.45473
1007.355	-18.26301
1007.523	-18.26301
1007.691	42.8549
1007.859	13.34719
1008.027	51.28651
1008.195	-3.51226
1008.363	78.6918
1008.531	-30.90556
1008.699	21.7775
1008.867	-9.83416
1009.035	9.13219
1009.203	15.45473
1009.37	59.7185
1009.538	74.47535
1009.706	-39.33343
1009.874	30.20817
1010.042	2.80986
1010.209	25.99279
1010.377	32.3159
1010.545	-28.79853
1010.713	49.17857
1010.88	-9.83416
1011.048	61.82655
1011.216	-7.72688
1011.383	61.82655
1011.551	61.82655
1011.718	7.02472
1011.886	55.50246
1012.054	-1.40491
1012.221	57.61047
1012.389	36.53143
1012.556	53.39447
1012.724	32.3159
1012.891	-35.11954
1013.058	47.07066
1013.226	28.10047
1013.393	49.17857
1013.561	47.07066
1013.728	28.10047
1013.895	2.80986
1014.063	-43.54722
1014.23	2.80986
1014.397	-26.69148
1014.565	36.53143
1014.732	23.88513
1014.899	68.15085
1015.066	15.45473
1015.233	51.28651
1015.401	-56.18797
1015.568	19.66988
1015.735	23.88513
1015.902	11.23968
1016.069	-14.04863
1016.236	2.80986
1016.403	28.10047
1016.57	-60.40135
1016.737	-79.36032
1016.904	-9.83416
1017.071	-22.47729
1017.238	-26.69148
1017.405	112.42659
1017.572	49.17857
1017.739	-26.69148
1017.906	42.8549
1018.073	21.7775
1018.24	-51.97449
1018.407	53.39447
1018.573	9.13219
1018.74	7.02472
1018.907	57.61047
1019.074	-18.26301
1019.241	68.15085
1019.407	-16.15583
1019.574	61.82655
1019.741	-37.2265
1019.907	15.45473
1020.074	49.17857
1020.241	-3.51226
1020.407	25.99279
1020.574	57.61047
1020.74	23.88513
1020.907	-18.26301
1021.073	-9.83416
1021.24	-9.83416
1021.406	-47.7609
1021.573	-5.61958
1021.739	23.88513
1021.906	-37.2265
1022.072	57.61047
1022.239	34.42366
1022.405	19.66988
1022.571	-16.15583
1022.738	0.70246
1022.904	-1.40491
1023.07	42.8549
1023.237	15.45473
1023.403	53.39447
1023.569	21.7775
1023.735	13.34719
1023.902	76.58356
1024.068	23.88513
1024.234	17.5623
1024.4	-70.93437
1024.566	44.96277
1024.732	23.88513
1024.898	-16.15583
1025.065	-49.86771
1025.231	-41.44034
1025.397	7.02472
1025.563	23.88513
1025.729	-24.5844
1025.895	2.80986
1026.061	0.70246
1026.227	2.80986
1026.392	-43.54722
1026.558	74.47535
1026.724	-49.86771
1026.89	32.3159
1027.056	-5.61958
1027.222	63.93463
1027.388	-9.83416
1027.553	44.96277
1027.719	74.47535
1027.885	-35.11954
1028.051	-24.5844
1028.216	51.28651
1028.382	51.28651
1028.548	40.74705
1028.713	49.17857
1028.879	-45.65407
1029.045	4.91728
1029.21	-35.11954
1029.376	-35.11954
1029.541	-60.40135
1029.707	15.45473
1029.873	-3.51226
1030.038	19.66988
1030.204	-56.18797
1030.369	-18.26301
1030.534	30.20817
1030.7	-35.11954
1030.865	38.63923
1031.031	-26.69148
1031.196	7.02472
1031.361	99.77538
1031.527	47.07066
1031.692	-18.26301
1031.857	-1.40491
1032.023	-14.04863
1032.188	-22.47729
1032.353	42.8549
1032.518	44.96277
1032.684	23.88513
1032.849	61.82655
1033.014	9.13219
1033.179	87.12496
1033.344	32.3159
1033.509	13.34719
1033.674	-9.83416
1033.839	32.3159
1034.004	38.63923
1034.17	-1.40491
1034.335	61.82655
1034.5	78.6918
1034.664	-9.83416
1034.829	2.80986
1034.994	-9.83416
1035.159	72.36716
1035.324	9.13219
1035.489	-7.72688
1035.654	0.70246
1035.819	32.3159
1035.984	61.82655
1036.148	36.53143
1036.313	-1.40491
1036.478	-18.26301
1036.643	15.45473
1036.807	-11.94141
1036.972	-1.40491
1037.137	11.23968
1037.301	-9.83416
1037.466	7.02472
1037.631	36.53143
1037.795	44.96277
1037.96	13.34719
1038.124	34.42366
1038.289	-41.44034
1038.454	-22.47729
1038.618	-16.15583
1038.783	-68.82782
1038.947	91.34168
1039.111	76.58356
1039.276	13.34719
1039.44	7.02472
1039.605	-5.61958
1039.769	49.17857
1039.933	7.02472
1040.098	19.66988
1040.262	-7.72688
1040.426	7.02472
1040.591	44.96277
1040.755	-83.57314
1040.919	7.02472
1041.083	-11.94141
1041.248	-9.83416
1041.412	-9.83416
1041.576	0.70246
1041.74	-1.40491
1041.904	4.91728
1042.068	-3.51226
1042.232	-24.5844
1042.397	-18.26301
1042.561	59.7185
1042.725	74.47535
1042.889	15.45473
1043.053	11.23968
1043.217	0.70246
1043.381	-73.04089
1043.544	106.10089
1043.708	49.17857
1043.872	82.90833
1044.036	-14.04863
1044.2	-9.83416
1044.364	-18.26301
1044.528	28.10047
1044.691	42.8549
1044.855	-26.69148
1045.019	66.04272
1045.183	59.7185
1045.346	23.88513
1045.51	53.39447
1045.674	-9.83416
1045.837	-5.61958
1046.001	-35.11954
1046.165	-16.15583
1046.328	-16.15583
1046.492	-18.26301
1046.655	-1.40491
1046.819	-7.72688
1046.983	15.45473
1047.146	17.5623
1047.31	36.53143
1047.473	49.17857
1047.636	74.47535
1047.8	2.80986
1047.963	-35.11954
1048.127	23.88513
1048.29	0.70246
