Data from absorb_only_2.23.25_USB4F045381__38__0143.txt Node

Date: Sun Feb 23 19:18:48 EST 2025
User: ssocol
Spectrometer: USB4F04538
Trigger mode: 4
Integration Time (sec): 2.600000E-3
Scans to average: 1
Electric dark correction enabled: true
Nonlinearity correction enabled: true
Boxcar width: 0
XAxis mode: Wavelengths
Number of Pixels in Spectrum: 3648
>>>>>Begin Spectral Data<<<<<
345.52	53.21881
345.736	53.21881
345.952	53.21881
346.168	23.70949
346.384	25.81715
346.6	-54.2568
346.816	-45.82964
347.032	49.00291
347.248	-20.54576
347.464	-35.29512
347.68	-14.22423
347.896	55.32679
348.112	-5.79519
348.328	-14.22423
348.544	-5.79519
348.76	72.19148
348.975	19.49425
349.191	-26.86706
349.407	21.60186
349.623	61.65088
349.839	99.59967
350.055	-39.50901
350.27	61.65088
350.486	61.65088
350.702	103.81665
350.918	-3.68787
351.133	34.24801
351.349	44.78711
351.565	23.70949
351.781	23.70949
351.996	-18.43861
352.212	-1.58052
352.428	-20.54576
352.644	13.17157
352.859	15.2791
353.075	-37.40208
353.291	6.8491
353.506	19.49425
353.722	70.08331
353.938	2.63424
354.153	97.49122
354.369	32.14026
354.584	53.21881
354.8	59.54283
355.016	-1.58052
355.231	23.70949
355.447	72.19148
355.662	21.60186
355.878	19.49425
356.093	95.38278
356.309	57.4348
356.524	72.19148
356.74	17.38667
356.955	19.49425
357.171	-14.22423
357.386	55.32679
357.602	82.73264
357.817	32.14026
358.033	38.46358
358.248	55.32679
358.464	55.32679
358.679	11.06405
358.895	-3.68787
359.11	-14.22423
359.325	-18.43861
359.541	44.78711
359.756	-31.08114
359.972	55.32679
360.187	78.51611
360.402	49.00291
360.618	91.16598
360.833	65.86705
361.048	-10.00976
361.264	27.92483
361.479	19.49425
361.694	-16.33143
361.909	-14.22423
362.125	72.19148
362.34	49.00291
362.555	-5.79519
362.77	-14.22423
362.986	-35.29512
363.201	38.46358
363.416	-1.58052
363.631	78.51611
363.847	49.00291
364.062	4.74166
364.277	27.92483
364.492	84.84094
364.707	-26.86706
364.922	4.74166
365.138	-18.43861
365.353	82.73264
365.568	89.05761
365.783	0.52684
365.998	15.2791
366.213	-18.43861
366.428	38.46358
366.643	53.21881
366.858	11.06405
367.073	70.08331
367.288	44.78711
367.503	15.2791
367.718	38.46358
367.933	44.78711
368.148	46.895
368.363	30.03253
368.578	67.97517
368.793	23.70949
369.008	36.35578
369.223	-3.68787
369.438	32.14026
369.653	19.49425
369.868	-37.40208
370.083	15.2791
370.298	61.65088
370.513	40.5714
370.728	49.00291
370.943	27.92483
371.157	-12.11701
371.372	59.54283
371.587	11.06405
371.802	84.84094
372.017	36.35578
372.232	-39.50901
372.446	38.46358
372.661	8.95656
372.876	38.46358
373.091	72.19148
373.306	82.73264
373.52	49.00291
373.735	34.24801
373.95	61.65088
374.165	0.52684
374.379	19.49425
374.594	15.2791
374.809	-20.54576
375.023	11.06405
375.238	21.60186
375.453	-24.75999
375.667	72.19148
375.882	36.35578
376.097	53.21881
376.311	-7.90249
376.526	21.60186
376.741	23.70949
376.955	23.70949
377.17	-14.22423
377.384	53.21881
377.599	65.86705
377.813	15.2791
378.028	27.92483
378.242	44.78711
378.457	42.67924
378.672	78.51611
378.886	11.06405
379.101	65.86705
379.315	57.4348
379.53	-3.68787
379.744	61.65088
379.958	38.46358
380.173	6.8491
380.387	74.29967
380.602	44.78711
380.816	36.35578
381.031	72.19148
381.245	91.16598
381.459	4.74166
381.674	120.68545
381.888	25.81715
382.103	46.895
382.317	49.00291
382.531	38.46358
382.746	-22.65289
382.96	80.62436
383.174	51.11085
383.388	27.92483
383.603	44.78711
383.817	61.65088
384.031	25.81715
384.246	19.49425
384.46	-1.58052
384.674	108.03372
384.888	38.46358
385.103	17.38667
385.317	72.19148
385.531	-5.79519
385.745	-5.79519
385.959	44.78711
386.174	17.38667
386.388	-10.00976
386.602	72.19148
386.816	15.2791
387.03	-5.79519
387.244	36.35578
387.458	-24.75999
387.672	95.38278
387.887	30.03253
388.101	-5.79519
388.315	-35.29512
388.529	78.51611
388.743	95.38278
388.957	44.78711
389.171	51.11085
389.385	49.00291
389.599	51.11085
389.813	61.65088
390.027	65.86705
390.241	11.06405
390.455	51.11085
390.669	36.35578
390.883	40.5714
391.097	-28.97412
391.311	51.11085
391.525	70.08331
391.738	15.2791
391.952	63.75895
392.166	67.97517
392.38	63.75895
392.594	36.35578
392.808	86.94927
393.022	6.8491
393.236	-81.64228
393.449	27.92483
393.663	-10.00976
393.877	-10.00976
394.091	38.46358
394.305	-47.93647
394.518	15.2791
394.732	15.2791
394.946	61.65088
395.16	-1.58052
395.373	61.65088
395.587	23.70949
395.801	61.65088
396.015	44.78711
396.228	19.49425
396.442	70.08331
396.656	55.32679
396.869	30.03253
397.083	-20.54576
397.297	32.14026
397.51	36.35578
397.724	57.4348
397.938	36.35578
398.151	55.32679
398.365	30.03253
398.578	95.38278
398.792	65.86705
399.005	27.92483
399.219	46.895
399.433	30.03253
399.646	23.70949
399.86	-39.50901
400.073	-26.86706
400.287	95.38278
400.5	19.49425
400.714	72.19148
400.927	30.03253
401.141	38.46358
401.354	141.77339
401.567	11.06405
401.781	46.895
401.994	-1.58052
402.208	72.19148
402.421	97.49122
402.635	46.895
402.848	-5.79519
403.061	25.81715
403.275	82.73264
403.488	27.92483
403.701	-1.58052
403.915	78.51611
404.128	51.11085
404.341	-5.79519
404.555	101.70815
404.768	53.21881
404.981	19.49425
405.195	-18.43861
405.408	-39.50901
405.621	72.19148
405.834	21.60186
406.048	-47.93647
406.261	65.86705
406.474	-39.50901
406.687	-14.22423
406.9	70.08331
407.114	-1.58052
407.327	51.11085
407.54	61.65088
407.753	13.17157
407.966	23.70949
408.179	51.11085
408.392	63.75895
408.605	95.38278
408.819	78.51611
409.032	44.78711
409.245	89.05761
409.458	120.68545
409.671	-39.50901
409.884	59.54283
410.097	19.49425
410.31	49.00291
410.523	57.4348
410.736	-1.58052
410.949	105.92518
411.162	116.46812
411.375	40.5714
411.588	11.06405
411.801	49.00291
412.014	36.35578
412.227	95.38278
412.44	32.14026
412.653	25.81715
412.865	-22.65289
413.078	76.40788
413.291	32.14026
413.504	30.03253
413.717	8.95656
413.93	46.895
414.143	95.38278
414.356	36.35578
414.568	36.35578
414.781	40.5714
414.994	137.55563
415.207	95.38278
415.42	78.51611
415.632	6.8491
415.845	4.74166
416.058	55.32679
416.271	-3.68787
416.483	49.00291
416.696	44.78711
416.909	40.5714
417.121	74.29967
417.334	23.70949
417.547	51.11085
417.759	108.03372
417.972	34.24801
418.185	46.895
418.397	-14.22423
418.61	-22.65289
418.823	103.81665
419.035	-54.2568
419.248	70.08331
419.46	63.75895
419.673	-1.58052
419.885	95.38278
420.098	44.78711
420.311	23.70949
420.523	76.40788
420.736	59.54283
420.948	95.38278
421.161	44.78711
421.373	27.92483
421.586	70.08331
421.798	86.94927
422.01	-5.79519
422.223	40.5714
422.435	27.92483
422.648	6.8491
422.86	55.32679
423.073	21.60186
423.285	11.06405
423.497	49.00291
423.71	40.5714
423.922	139.6645
424.134	74.29967
424.347	21.60186
424.559	-5.79519
424.771	67.97517
424.984	-16.33143
425.196	55.32679
425.408	61.65088
425.621	78.51611
425.833	36.35578
426.045	55.32679
426.257	70.08331
426.47	78.51611
426.682	-10.00976
426.894	13.17157
427.106	86.94927
427.318	82.73264
427.531	141.77339
427.743	72.19148
427.955	-20.54576
428.167	135.44678
428.379	25.81715
428.591	27.92483
428.804	61.65088
429.016	46.895
429.228	89.05761
429.44	8.95656
429.652	74.29967
429.864	15.2791
430.076	46.895
430.288	46.895
430.5	36.35578
430.712	74.29967
430.924	49.00291
431.136	57.4348
431.348	76.40788
431.56	-14.22423
431.772	8.95656
431.984	49.00291
432.196	2.63424
432.408	84.84094
432.62	137.55563
432.832	61.65088
433.044	78.51611
433.256	55.32679
433.468	32.14026
433.679	15.2791
433.891	97.49122
434.103	53.21881
434.315	15.2791
434.527	86.94927
434.739	49.00291
434.95	53.21881
435.162	78.51611
435.374	129.12037
435.586	46.895
435.798	74.29967
436.009	15.2791
436.221	120.68545
436.433	78.51611
436.645	61.65088
436.856	13.17157
437.068	2.63424
437.28	80.62436
437.491	145.99124
437.703	78.51611
437.915	99.59967
438.126	34.24801
438.338	57.4348
438.55	23.70949
438.761	78.51611
438.973	30.03253
439.184	63.75895
439.396	129.12037
439.608	55.32679
439.819	38.46358
440.031	53.21881
440.242	70.08331
440.454	145.99124
440.665	114.35949
440.877	70.08331
441.088	34.24801
441.3	72.19148
441.511	11.06405
441.723	63.75895
441.934	97.49122
442.146	65.86705
442.357	112.25088
442.569	91.16598
442.78	65.86705
442.991	53.21881
443.203	70.08331
443.414	-10.00976
443.626	82.73264
443.837	59.54283
444.048	-5.79519
444.26	129.12037
444.471	78.51611
444.682	6.8491
444.894	145.99124
445.105	30.03253
445.316	-1.58052
445.528	89.05761
445.739	25.81715
445.95	99.59967
446.161	51.11085
446.373	112.25088
446.584	89.05761
446.795	74.29967
447.006	44.78711
447.217	91.16598
447.429	30.03253
447.64	36.35578
447.851	95.38278
448.062	95.38278
448.273	101.70815
448.484	137.55563
448.695	137.55563
448.907	99.59967
449.118	63.75895
449.329	-5.79519
449.54	99.59967
449.751	99.59967
449.962	67.97517
450.173	72.19148
450.384	127.01161
450.595	40.5714
450.806	148.10019
451.017	-3.68787
451.228	120.68545
451.439	36.35578
451.65	156.53622
451.861	139.6645
452.072	105.92518
452.283	112.25088
452.494	78.51611
452.705	103.81665
452.915	137.55563
453.126	86.94927
453.337	133.33796
453.548	129.12037
453.759	120.68545
453.97	143.8823
454.181	139.6645
454.391	99.59967
454.602	86.94927
454.813	183.95562
455.024	103.81665
455.235	114.35949
455.445	38.46358
455.656	105.92518
455.867	108.03372
456.078	103.81665
456.288	53.21881
456.499	145.99124
456.71	36.35578
456.921	154.42718
457.131	141.77339
457.342	122.79415
457.553	91.16598
457.763	89.05761
457.974	141.77339
458.184	127.01161
458.395	173.40929
458.606	190.28367
458.816	188.1743
459.027	120.68545
459.237	65.86705
459.448	139.6645
459.659	139.6645
459.869	148.10019
460.08	133.33796
460.29	148.10019
460.501	192.39306
460.711	152.31817
460.922	145.99124
461.132	148.10019
461.343	150.20917
461.553	145.99124
461.764	188.1743
461.974	139.6645
462.184	205.04983
462.395	162.86346
462.605	234.58507
462.816	226.14603
463.026	82.73264
463.236	148.10019
463.447	145.99124
463.657	198.72135
463.867	196.6119
464.078	232.47528
464.288	209.26891
464.498	181.84631
464.709	207.15936
464.919	124.90287
465.129	249.35413
465.339	217.70731
465.55	221.92663
465.76	281.00526
465.97	198.72135
466.18	272.56455
466.391	268.3443
466.601	243.02442
466.811	285.22573
467.021	331.65572
467.231	369.65026
467.441	249.35413
467.651	316.8816
467.862	302.10835
468.072	399.20538
468.282	386.5385
468.492	327.43445
468.702	428.76371
468.912	352.76311
469.122	356.9848
469.332	451.9903
469.542	382.31634
469.752	390.76073
469.962	352.76311
470.172	500.56096
470.382	407.65029
470.592	447.76714
470.802	394.98302
471.012	494.22521
471.222	542.8026
471.432	477.33052
471.642	418.2068
471.852	601.95012
472.062	494.22521
472.272	570.26265
472.482	612.51326
472.691	595.61239
472.901	500.56096
473.111	587.16227
473.321	656.88183
473.531	635.75326
473.741	705.48196
473.95	760.42827
474.16	751.97453
474.37	749.86112
474.58	830.17761
474.79	887.25261
474.999	863.99908
475.209	899.93677
475.419	825.95009
475.628	967.59026
475.838	931.6484
476.048	946.44774
476.258	931.6484
476.467	1147.32618
476.677	1047.93783
476.886	1094.45868
477.096	1176.93315
477.306	1236.14923
477.515	1126.17884
477.725	1227.68963
477.935	1204.426
478.144	1295.3676
478.354	1172.70354
478.563	1496.29563
478.773	1390.54317
478.982	1553.40159
479.192	1363.04772
479.401	1481.4903
479.611	1451.87957
479.82	1466.68494
480.03	1629.54132
480.239	1762.77816
480.449	1659.1505
480.658	1815.64606
480.868	1802.958
481.077	1845.2509
481.287	1625.3114
481.496	1999.60236
481.705	1855.82383
481.915	1942.51701
482.124	1794.49921
482.333	1984.80289
482.543	1942.51701
482.752	2217.32542
482.961	2115.87231
483.171	2314.53257
483.38	2035.54261
483.589	2331.43614
483.799	2268.04461
484.008	2500.43581
484.217	2251.13879
484.426	2437.06889
484.636	2344.11341
484.845	2565.90427
485.054	2399.04407
485.263	2631.36135
485.472	2625.02731
485.682	2758.01818
485.891	2711.58275
486.1	2599.69003
486.309	2937.36528
486.518	2909.94239
486.727	3053.35729
486.936	2785.45425
487.146	2909.94239
487.355	2985.8766
487.564	2842.42948
487.773	3171.40997
487.982	2973.22223
488.191	3238.84584
488.4	2998.53042
488.609	3354.711
488.818	3213.55937
489.027	3348.39243
489.236	3413.67681
489.445	3497.8895
489.654	3441.04908
489.863	3592.59394
490.072	3476.83903
490.281	3762.966
490.49	3529.46179
490.698	3659.91637
490.907	3571.55174
491.116	3693.5703
491.325	3741.93923
491.534	3767.17112
491.743	3584.17729
491.952	3870.17203
492.16	3865.96885
492.369	3947.91655
492.578	4080.22826
492.787	4176.78484
492.996	4113.81818
493.204	4382.34255
493.413	4222.94832
493.622	4264.9062
493.831	3954.21894
494.039	4292.17423
494.248	4197.76951
494.457	4373.95649
494.665	4392.82463
494.874	4499.71069
495.083	4451.51424
495.291	4529.04195
495.5	4470.37511
495.709	4585.59711
495.917	4457.80139
496.126	4692.37913
496.335	4541.61116
496.543	4746.79452
496.752	4635.85473
496.96	4843.03037
497.169	4803.28661
497.377	4807.47055
497.586	4813.74629
497.794	4943.39892
498.003	4847.21345
498.211	4981.0235
498.42	5102.20738
498.628	5066.69603
498.837	5010.2819
499.045	5158.59397
499.254	5129.3586
499.462	5079.23021
499.671	4997.74314
499.879	5348.5125
500.087	5079.23021
500.296	5325.5656
500.504	5162.77009
500.713	5394.39777
500.921	5319.30687
501.129	5429.84679
501.338	5252.53391
501.546	5634.06736
501.754	5344.34054
501.962	5559.07385
502.171	5413.16574
502.379	5794.36752
502.587	5556.99026
502.795	5692.37451
503.004	5554.90664
503.212	5688.21033
503.42	5577.82509
503.628	5719.43941
503.837	5727.76626
504.045	5910.86156
504.253	5906.70234
504.461	5838.06146
504.669	5671.55265
504.877	6010.65473
505.085	5829.7396
505.294	6002.34071
505.502	5846.38293
505.71	6230.8392
505.918	5910.86156
506.126	6081.30871
506.334	5802.69098
506.542	6261.97607
506.75	6014.8116
506.958	6095.85174
507.166	6033.51635
507.374	6309.70905
507.582	6251.5977
507.79	6218.38297
507.998	6305.55885
508.206	6322.1591
508.414	6056.37512
508.622	6380.2482
508.83	6353.28053
509.037	6575.12819
509.245	6270.27835
509.453	6459.05418
509.661	6411.35984
509.869	6419.65539
510.077	6388.54515
510.285	6628.99503
510.492	6434.17171
510.7	6481.86017
510.908	6400.98988
511.116	6838.09963
511.324	6270.27835
511.531	6550.2613
511.739	6427.95057
511.947	6573.05608
512.155	6558.55064
512.362	6548.18891
512.57	6753.24375
512.778	6898.09653
512.985	6809.12877
513.193	6980.81961
513.401	6769.80401
513.608	7106.90296
513.816	6869.1349
514.024	6902.23355
514.231	6945.66672
514.439	6956.00648
514.646	6980.81961
514.854	6962.21007
515.061	6931.1901
515.269	6993.22496
515.477	7022.16761
515.684	7020.10043
515.892	7179.20832
516.099	7232.90326
516.307	7092.43861
516.514	7445.47182
516.722	7129.63044
516.929	7377.39257
517.136	7365.01198
517.344	7286.58328
517.551	7104.83669
517.759	7398.02514
517.966	7311.35365
518.173	7288.6476
518.381	7230.83835
518.588	7499.09339
518.796	7241.1627
519.003	7377.39257
519.21	7402.1514
519.418	7542.39249
519.625	7468.15965
519.832	7680.47419
520.039	7612.47575
520.247	7517.65131
520.454	7575.37592
520.661	8063.31263
520.868	7624.84082
521.076	7937.83674
521.283	7736.09215
521.49	7859.6329
521.697	7801.9899
521.904	7989.27046
522.112	7457.84732
522.319	8102.37987
522.526	7814.34334
522.733	8155.82855
522.94	8120.88287
523.147	8129.10591
523.354	7902.8545
523.561	8266.79434
523.768	8053.03057
523.975	8324.30952
524.183	7964.58387
524.39	8118.82706
524.597	8223.64784
524.804	8344.84695
525.011	8250.3586
525.218	8295.55385
525.425	8122.93866
525.632	8468.03083
525.838	8291.44559
526.045	8445.4523
526.252	8422.87146
526.459	8470.08331
526.666	8371.54269
526.873	8453.66294
527.08	8367.43586
527.287	8640.37296
527.494	8375.64943
527.701	8845.37116
527.907	8394.12883
528.114	8779.79163
528.321	8472.13577
528.528	8882.25153
528.735	8609.60731
528.941	8837.17473
529.148	8537.80441
529.355	8841.27299
529.562	8796.18825
529.768	8896.59233
529.975	8640.37296
530.182	8759.29421
530.388	8771.59288
530.595	8853.5673
530.802	8931.41634
531.008	9127.97414
531.215	9166.85728
531.422	9279.37923
531.628	9168.90359
531.835	9199.59621
532.042	8941.65771
532.248	9320.28374
532.455	8972.37919
532.661	9377.53893
532.868	9211.87219
533.074	9594.1756
533.281	9424.56036
533.487	9428.64878
533.694	9222.1017
533.9	9483.83603
534.107	9334.59875
534.313	9598.26136
534.52	9379.58352
534.726	9502.22918
534.933	9361.18162
535.139	9780.01522
535.345	9263.01557
535.552	9581.91792
535.758	9716.7215
535.965	9726.93115
536.171	9436.82541
536.377	9990.21067
536.584	9802.47079
536.79	9743.26581
536.996	9875.94907
537.203	9706.51146
537.409	9622.77464
537.615	9820.84217
537.821	9939.20668
538.028	10298.08702
538.234	10008.56989
538.44	10214.52264
538.646	9900.43756
538.853	10135.01324
539.059	9569.65968
539.265	9929.00479
539.471	10130.93527
539.677	10108.50542
539.883	10067.71952
540.09	10020.80873
540.296	10214.52264
540.502	10414.22457
540.708	10302.16275
540.914	10532.35619
541.12	10249.17405
541.326	10723.72122
541.532	10275.66954
541.738	10324.57832
541.944	10589.36996
542.15	10507.9187
542.356	10597.51399
542.562	10483.47937
542.768	10587.33393
542.974	10656.55225
543.18	10648.40965
543.386	10672.83685
543.592	10540.50162
543.798	10683.01433
544.004	10727.79164
544.21	10953.62646
544.415	10648.40965
544.621	10817.32892
544.827	10947.52468
545.033	11053.27464
545.239	10870.22663
545.445	10947.52468
545.651	10768.49325
545.856	10821.39826
546.062	11000.40341
546.268	11150.86372
546.474	10656.55225
546.679	10670.80131
546.885	10939.38882
547.091	10851.91677
547.297	10658.58786
547.502	10772.56315
547.708	10886.50128
547.914	10965.82971
548.119	11152.89657
548.325	11138.66644
548.531	10784.77256
548.736	11185.42062
548.942	11002.43706
549.147	11032.94043
549.353	11406.92052
549.559	11232.16924
549.764	11236.23408
549.97	11069.54122
550.175	11081.74069
550.381	11165.0934
550.586	11081.74069
550.792	11417.07821
550.997	11158.99503
551.203	11593.78364
551.408	11169.15893
551.614	11441.45567
551.819	11467.86302
552.025	11528.79686
552.23	11622.21238
552.435	11622.21238
552.641	11565.3531
552.846	11705.45775
553.052	11547.07536
553.257	11543.01354
553.462	11573.47629
553.668	11863.78627
553.873	11597.845
554.078	11782.5987
554.283	11912.49236
554.489	12204.6326
554.694	11898.28691
554.899	11884.08105
555.105	11951.04799
555.31	11997.71669
555.515	11884.08105
555.72	11849.57942
555.925	11869.87479
556.131	12105.24173
556.336	11900.31628
556.541	12032.20824
556.746	11946.98964
556.951	11817.10508
557.156	11963.22284
557.361	12293.86654
557.567	12174.20872
557.772	12162.0387
557.977	11882.05161
558.182	12186.37847
558.387	12060.61135
558.592	12054.5251
558.797	12149.86842
559.002	12182.32192
559.207	12289.81075
559.412	12157.98197
559.617	11997.71669
559.822	12312.11723
560.027	12435.80168
560.232	12764.15885
560.437	12149.86842
560.642	12482.43031
560.847	12395.25219
561.051	12567.56944
561.256	12385.11439
561.461	12449.99337
561.666	12220.85799
561.871	12630.40312
562.076	12518.91989
562.281	12662.83112
562.485	12535.13681
562.69	12756.05316
562.895	12348.61693
563.1	12595.94667
563.305	12683.09784
563.509	12681.07119
563.714	12401.33478
563.919	12905.99394
564.123	12492.56652
564.328	12824.94862
564.533	12711.47025
564.737	12482.43031
564.942	12535.13681
565.147	12739.84152
565.351	12798.607
565.556	12814.81734
565.761	12616.21539
565.965	12948.53933
566.17	12429.71943
566.374	12847.23695
566.579	12563.51545
566.784	12768.21166
566.988	13043.75177
567.193	13039.7004
567.397	13169.33466
567.602	13305.0255
567.806	13213.89204
568.011	13365.77638
568.215	13183.51225
568.42	13033.62331
568.624	12873.57685
568.828	13169.33466
569.033	13047.80312
569.237	13193.63896
569.442	13061.98268
569.646	12891.81163
569.85	13092.36667
570.055	12982.97916
570.259	13248.32127
570.463	13274.64865
570.668	13244.27084
570.872	12952.59115
571.076	13219.96788
571.281	13219.96788
571.485	13236.16992
571.689	13543.95846
571.893	13248.32127
572.098	13404.25004
572.302	13258.44727
572.506	13240.22039
572.71	13161.23308
572.914	13529.78595
573.119	13359.70145
573.323	13396.15044
573.527	13264.52282
573.731	13774.74445
573.935	13570.27837
574.139	13479.16837
574.343	13300.97531
574.547	13851.66405
574.751	13434.62297
574.955	13707.94233
575.159	13562.18
575.364	13497.39097
575.568	13303.00041
575.772	13596.59769
575.976	13726.16142
576.18	13924.5315
576.383	13598.62223
576.587	13513.58857
576.791	13665.4301
576.995	13495.36625
577.199	13681.6254
577.403	13616.84292
577.607	13813.20478
577.811	13728.18575
578.015	13973.10787
578.219	14124.89996
578.422	14023.70672
578.626	13997.39551
578.83	13594.57315
579.034	13801.05953
579.238	14068.23245
579.442	14296.91631
579.645	14056.08918
579.849	13851.66405
580.053	14122.87615
580.257	14068.23245
580.46	13841.54329
580.664	13904.29089
580.868	13979.17982
581.071	13989.29967
581.275	14005.49131
581.479	14120.85234
581.682	13882.02592
581.886	14135.01898
582.09	13910.3631
582.293	14416.30816
582.497	14337.38878
582.7	14507.36614
582.904	14345.48319
583.107	14527.60087
583.311	14270.60883
583.515	14462.84927
583.718	14157.28062
583.922	14432.49646
584.125	14321.19987
584.329	14418.3317
584.532	14387.97841
584.735	14499.27221
584.939	14351.55398
585.142	14505.34266
585.346	14394.04909
585.549	14418.3317
585.753	14511.4131
585.956	14515.46005
586.159	14535.69473
586.363	14657.1003
586.566	14315.12901
586.769	15047.60158
586.973	14294.89267
587.176	14570.09339
587.379	14337.38878
587.582	14865.5053
587.786	14814.92229
587.989	14976.78673
588.192	14980.8333
588.395	14760.29217
588.599	14640.91312
588.802	14954.53055
589.005	14596.39802
589.208	14982.85659
589.411	14999.04286
589.615	14653.05351
589.818	14936.32091
590.021	14849.31878
590.224	14792.66564
590.427	15073.90416
590.63	14905.97144
590.833	14948.46067
591.036	15126.50924
591.239	15061.76451
591.442	14721.84841
591.645	15171.0212
591.848	15126.50924
592.051	15264.09172
592.254	15075.92743
592.457	15215.53316
592.66	15096.16017
592.863	15310.6271
593.066	15173.04447
593.269	15201.37026
593.472	15251.95207
593.675	15545.33035
593.878	15383.46539
594.081	15298.48742
594.284	15219.5797
594.486	15397.62845
594.689	15300.5107
594.892	15219.5797
595.095	15357.16262
595.298	15587.82055
595.5	15456.3042
595.703	15693.03587
595.906	15517.00372
596.109	15569.61043
596.311	15375.37223
596.514	15551.40036
596.717	15310.6271
596.92	15733.50395
597.122	15786.11304
597.325	15553.4237
597.528	15328.83663
597.73	16028.9345
597.933	15913.59203
598.136	16235.34892
598.338	15595.91396
598.541	15632.33445
598.743	15668.75521
598.946	15830.62898
599.148	15662.68507
599.351	15909.545
599.554	15960.1332
599.756	16035.00528
599.959	15856.93412
600.161	15695.05927
600.363	15733.50395
600.566	15836.69938
600.768	15680.89553
600.971	15947.99196
601.173	15844.79326
601.376	15733.50395
601.578	15715.29327
601.78	16352.72973
601.983	16008.69866
602.185	16093.6902
602.388	15919.66258
602.59	16105.83206
602.792	16128.0923
602.995	15988.46295
603.197	15907.52149
603.399	16320.3482
603.601	15980.36871
603.804	16081.54839
604.006	16047.14689
604.208	16326.4197
604.41	15970.25094
604.613	16261.65788
604.815	15927.75666
605.017	16055.24132
605.219	15755.76155
605.421	15960.1332
605.623	15913.59203
605.826	16611.80045
606.028	16279.87196
606.23	16379.04008
606.432	16170.58965
606.634	16287.96715
606.836	15935.85076
607.038	16267.72922
607.24	16124.04497
607.442	16111.90302
607.644	16215.11146
607.846	16706.93691
608.048	16437.7336
608.25	16411.4225
608.452	16198.92161
608.654	16462.02106
608.856	16097.73748
609.058	16292.01475
609.26	16182.73188
609.462	16271.77679
609.664	16069.40663
609.866	16045.12328
610.067	16196.89789
610.269	16310.22907
610.471	15978.34515
610.673	16449.87729
610.875	16403.32685
611.077	16364.87293
611.278	16192.85045
611.48	16164.51855
611.682	16089.64292
611.884	16451.90125
612.085	16275.82437
612.287	16383.08786
612.489	16237.37268
612.69	16445.82938
612.892	16498.45281
613.094	16198.92161
613.295	15988.46295
613.497	16166.54225
613.699	16049.17049
613.9	16020.84015
614.102	16162.49486
614.304	16391.18343
614.505	16221.18268
614.707	16409.39859
614.908	16012.74581
615.11	16496.42881
615.311	16318.32437
615.513	16154.40009
615.714	16312.25289
615.916	16391.18343
616.117	16514.64492
616.319	16526.78909
616.52	16634.06598
616.722	16735.27642
616.923	16694.79155
617.124	16719.08236
617.326	16346.65816
617.527	16619.89698
617.729	16547.02954
617.93	16735.27642
618.131	16700.86422
618.333	16462.02106
618.534	16287.96715
618.735	16522.74102
618.937	16283.91955
619.138	16348.68201
619.339	16158.44747
619.54	16634.06598
619.742	16330.46738
619.943	16358.80132
620.144	16128.0923
620.345	16411.4225
620.546	16399.27904
620.748	16615.84871
620.949	16605.72808
621.15	16775.76226
621.351	16162.49486
621.552	16638.11429
621.753	16530.83716
621.954	16567.27021
622.155	16372.96843
622.356	16870.90783
622.558	16522.74102
622.759	16690.74311
622.96	16221.18268
623.161	16332.49122
623.362	16348.68201
623.563	16765.64071
623.764	16518.69297
623.965	16757.54351
624.166	16328.44354
624.366	16547.02954
624.567	16478.21287
624.768	16763.61641
624.969	16478.21287
625.17	16520.71699
625.371	16676.57366
625.572	16536.90929
625.773	16225.23017
625.973	16619.89698
626.174	16593.58341
626.375	16506.54885
626.576	16555.12578
626.777	16646.21093
626.977	16765.64071
627.178	16887.10338
627.379	16834.46845
627.58	16680.62206
627.78	16567.27021
627.981	16536.90929
628.182	16409.39859
628.382	16435.70965
628.583	16561.19799
628.784	16399.27904
628.984	16200.94534
629.185	16538.93333
629.386	16275.82437
629.586	16731.22789
629.787	16530.83716
629.987	16688.7189
630.188	16704.91268
630.388	16688.7189
630.589	16320.3482
630.79	16826.37092
630.99	16573.34245
631.191	16976.18184
631.391	16781.83522
631.591	16753.49493
631.792	16913.42149
631.992	17196.87605
632.193	16787.9082
632.393	16783.85954
632.594	16609.77633
632.794	16905.32356
632.994	16630.01768
633.195	16692.76733
633.395	16735.27642
633.595	16713.00962
633.796	17022.74762
633.996	17403.42825
634.196	16897.22568
634.397	17042.99406
634.597	16510.59688
634.797	16895.20121
634.997	16836.49284
635.198	16925.56846
635.398	16796.00554
635.598	16990.35388
635.798	16583.4629
635.998	16650.25926
636.199	16500.47682
636.399	16779.81089
636.599	16761.59211
636.799	16893.17675
636.999	16561.19799
637.199	16976.18184
637.399	17091.58662
637.599	17178.65233
637.799	16773.73794
637.999	17259.64845
638.199	17209.02533
638.399	17178.65233
638.599	16893.17675
638.799	17221.17471
638.999	17008.57527
639.199	17067.29014
639.399	17047.04338
639.599	16951.88721
639.799	16931.64198
639.999	16957.96083
640.199	16994.40306
640.399	17287.9982
640.599	16209.04026
640.799	16957.96083
640.998	16621.92111
641.198	16964.03448
641.398	16905.32356
641.598	17283.9482
641.798	17130.05687
641.997	17217.1249
642.197	17154.3544
642.397	17215.10001
642.597	17028.82152
642.796	17156.37921
642.996	16812.20034
643.196	17211.05022
643.395	16694.79155
643.595	16976.18184
643.795	16992.37847
643.994	17130.05687
644.194	16984.28013
644.394	17130.05687
644.593	17051.09271
644.793	17389.2521
644.992	17310.27341
645.192	17040.9694
645.392	17369.00071
645.591	17628.24216
645.791	17350.77473
645.99	17219.14981
646.19	16885.07893
646.389	17087.53718
646.589	17154.3544
646.788	17022.74762
646.987	16858.76128
647.187	17522.91905
647.386	17097.6608
647.586	17103.73501
647.785	17443.93239
647.984	17522.91905
648.184	17638.36984
648.383	17445.95763
648.582	17348.74963
648.782	17447.98287
648.981	17152.32959
649.18	17399.37791
649.38	17599.88507
649.579	17425.70537
649.778	17287.9982
649.977	17822.70826
650.177	17346.72454
650.376	17328.49885
650.575	17320.39862
650.774	17494.56431
650.973	17283.9482
651.173	17405.45343
651.372	17302.17329
651.571	17198.90092
651.77	17324.44873
651.969	17520.89369
652.168	17322.42368
652.367	17772.06306
652.566	17281.9232
652.765	17447.98287
652.964	17020.72299
653.163	17128.0321
653.362	17379.12637
653.561	17346.72454
653.76	17441.90715
653.959	17535.07127
654.158	17778.14037
654.357	17407.47861
654.556	17227.24944
654.755	17480.38717
654.954	17223.19962
655.153	17095.63607
655.352	17075.38892
655.551	17304.19831
655.749	17535.07127
655.948	17304.19831
656.147	17223.19962
656.346	17326.47379
656.545	17162.45366
656.743	17358.87513
656.942	17036.9201
657.141	17421.65496
657.34	17340.64928
657.538	17383.17665
657.737	17377.10123
657.936	17761.93427
658.135	17664.70221
658.333	17470.26074
658.532	17306.22334
658.731	17652.54874
658.929	17551.27441
659.128	17204.97556
659.326	17648.49761
659.525	17516.84298
659.724	17555.32523
659.922	17634.31876
660.121	17328.49885
660.319	17342.67437
660.518	17650.52317
660.716	17522.91905
660.915	17182.70202
661.113	17235.34912
661.312	17178.65233
661.51	17518.86833
661.709	17348.74963
661.907	17211.05022
662.105	17271.79827
662.304	17603.93604
662.502	17476.33659
662.701	17581.65586
662.899	17518.86833
663.097	17340.64928
663.296	17377.10123
663.494	17498.61495
663.692	17433.80624
663.891	17636.3443
664.089	17632.29322
664.287	17810.55322
664.485	17747.75412
664.684	17964.5263
664.882	17421.65496
665.08	17520.89369
665.278	16990.35388
665.476	17516.84298
665.675	17119.93302
665.873	17178.65233
666.071	17158.40402
666.269	17375.0761
666.467	17423.68017
666.665	17549.24901
666.863	17445.95763
667.061	17672.80459
667.259	17563.4269
667.457	17607.98703
667.655	17407.47861
667.853	17170.55297
668.051	17188.77659
668.249	17579.6304
668.447	17182.70202
668.645	17290.0232
668.843	17308.24837
669.041	17553.29982
669.239	17379.12637
669.437	17462.15965
669.635	17215.10001
669.833	17618.11455
670.031	17221.17471
670.229	17356.85003
670.426	17194.85118
670.624	17729.52273
670.822	16976.18184
671.02	17287.9982
671.218	17340.64928
671.415	17298.12325
671.613	17016.67374
671.811	16939.74004
672.009	16802.07857
672.206	17030.84616
672.404	16951.88721
672.602	17174.60264
672.799	17397.35274
672.997	17318.37358
673.195	17417.60456
673.392	17478.36188
673.59	17322.42368
673.788	17464.18492
673.985	17271.79827
674.183	17294.07322
674.38	17243.44885
674.578	17715.34295
674.775	17198.90092
674.973	17411.52898
675.17	17492.53899
675.368	17456.08387
675.565	17202.95068
675.763	17468.23546
675.96	17296.09823
676.158	17018.69836
676.355	16844.59042
676.553	17271.79827
676.75	16632.04183
676.947	17047.04338
677.145	16846.61482
677.342	16830.41968
677.539	16927.59296
677.737	17466.21019
677.934	17016.67374
678.131	17215.10001
678.329	17026.79688
678.526	17067.29014
678.723	16773.73794
678.92	16984.28013
679.118	16810.17598
679.315	16852.68804
679.512	16632.04183
679.709	16978.20641
679.906	16688.7189
680.104	16818.27343
680.301	16595.60751
680.498	16619.89698
680.695	16549.0536
680.892	16743.37351
681.089	16565.24613
681.286	16674.54946
681.483	16581.43881
681.68	16421.54211
681.877	16364.87293
682.075	16589.5352
682.272	16267.72922
682.469	16881.03003
682.665	16530.83716
682.862	16494.40481
683.059	16567.27021
683.256	16862.81012
683.453	16593.58341
683.65	16425.58997
683.847	16579.41472
684.044	16690.74311
684.241	16389.15953
684.438	16872.93227
684.635	16735.27642
684.831	16820.2978
685.028	16549.0536
685.225	16318.32437
685.422	16348.68201
685.619	16425.58997
685.815	15960.1332
686.012	16421.54211
686.209	16271.77679
686.405	16609.77633
686.602	16249.51525
686.799	16577.39063
686.996	16856.73687
687.192	16777.78657
687.389	16366.8968
687.586	16283.91955
687.782	16385.11175
687.979	16407.37467
688.175	16079.52476
688.372	16508.57286
688.568	16067.38301
688.765	16209.04026
688.962	16275.82437
689.158	16207.01652
689.355	16413.44642
689.551	16296.06237
689.748	15852.88716
689.944	16142.258
690.14	16304.15761
690.337	16275.82437
690.533	16510.59688
690.73	16051.1941
690.926	16409.39859
691.123	16437.7336
691.319	16306.18143
691.515	16534.88524
691.712	16217.1352
691.908	16012.74581
692.104	15925.73314
692.301	16213.08772
692.497	15802.30059
692.693	16079.52476
692.889	15860.98108
693.086	16227.25392
693.282	16047.14689
693.478	16057.26493
693.674	16281.89575
693.87	16294.03856
694.067	15883.23946
694.263	15905.49798
694.459	16032.98169
694.655	16073.45388
694.851	15887.28645
695.047	15966.20384
695.243	16358.80132
695.439	15915.61554
695.635	15616.14754
695.831	16158.44747
696.027	15996.55722
696.224	16126.06863
696.42	16243.44396
696.615	15972.27449
696.811	15875.14549
697.007	16134.1633
697.203	15577.70381
697.399	15482.60726
697.595	15618.1709
697.791	15332.8832
697.987	15154.83503
698.183	15381.4421
698.379	15644.47467
698.575	15737.55077
698.77	15440.11774
698.966	15749.69128
699.162	15755.76155
699.358	15731.48053
699.554	15272.18482
699.749	15656.61493
699.945	15312.65038
700.141	15334.90648
700.337	15409.76823
700.532	15703.15286
700.728	15419.88472
700.924	15591.86726
701.119	15326.81335
701.315	15300.5107
701.511	15304.55726
701.706	15725.4103
701.902	15375.37223
702.097	15365.25578
702.293	15363.23249
702.489	15444.16436
702.684	15069.85761
702.88	15379.41881
703.075	15349.06948
703.271	15470.46738
703.466	15221.60297
703.662	15482.60726
703.857	15351.09276
704.053	15332.8832
704.248	15405.72163
704.443	15488.67721
704.639	15405.72163
704.834	15314.67366
705.03	15183.16082
705.225	15468.44406
705.42	15122.4627
705.616	15608.0541
705.811	15498.79381
706.006	15610.07746
706.202	15338.95305
706.397	15345.02291
706.592	15245.88225
706.787	15027.3688
706.983	15168.99793
707.178	15345.02291
707.373	14952.50726
707.568	15488.67721
707.763	15290.39431
707.959	15521.05038
708.154	15316.69694
708.349	15359.18591
708.544	15126.50924
708.739	15003.08943
708.934	15239.81243
709.129	15233.74261
709.324	14932.27432
709.519	15662.68507
709.714	15061.76451
709.909	15045.5783
710.104	14948.46067
710.299	14831.1089
710.494	14893.83162
710.689	14794.68898
710.884	14717.80168
711.079	15197.32372
711.274	14936.32091
711.469	15112.34634
711.664	14968.69358
711.859	15055.69468
712.054	14837.17886
712.249	15243.85897
712.443	15041.53175
712.638	14756.24547
712.833	14665.19387
713.028	14835.15554
713.223	14503.31918
713.417	14669.24065
713.612	14547.83547
713.807	14818.96895
714.002	14709.70821
714.196	14881.69178
714.391	14543.78856
714.586	14782.54895
714.78	14717.80168
714.975	14920.13454
715.17	14217.99293
715.364	14624.72587
715.559	14719.82505
715.754	14456.77873
715.948	14394.04909
716.143	14477.0138
716.337	14141.09036
716.532	14766.36221
716.726	14090.4949
716.921	14574.14027
717.115	14353.57757
717.31	14580.21058
717.504	14392.02553
717.699	14689.47448
717.893	14355.60116
718.088	14464.87277
718.282	14559.97618
718.476	14644.95992
718.671	14365.71909
718.865	14568.06995
719.059	14523.55394
719.254	14616.63222
719.448	14466.89628
719.642	14387.97841
719.837	13825.34992
720.031	14329.29434
720.225	13813.20478
720.419	14240.25366
720.614	13934.6517
720.808	14054.0653
721.002	14056.08918
721.196	14234.18258
721.39	14177.51826
721.585	14054.0653
721.779	14033.8263
721.973	13892.1464
722.167	13958.93992
722.361	14031.80239
722.555	13954.89191
722.749	13809.15637
722.943	13562.18
723.137	13910.3631
723.331	13950.84389
723.525	13748.42886
723.719	13756.52602
723.913	13973.10787
724.107	13612.7939
724.301	13997.39551
724.495	13592.5486
724.689	13396.15044
724.883	13709.96668
725.077	13788.91417
725.271	13766.6474
725.465	13513.58857
725.659	13448.79671
725.853	13997.39551
726.046	13697.8205
726.24	13805.10795
726.434	13811.18058
726.628	13928.57959
726.822	13884.05002
727.015	14331.31795
727.209	13819.27736
727.403	13981.20379
727.596	13699.84487
727.79	13691.74736
727.984	13762.59886
728.177	13665.4301
728.371	13379.95105
728.565	13315.15091
728.758	13693.77174
728.952	13521.68729
729.146	13296.9251
729.339	13511.56389
729.533	13499.41568
729.726	13716.03974
729.92	13408.29981
730.113	13827.3741
730.307	13552.05696
730.5	13718.06408
730.694	13716.03974
730.887	13438.67263
731.081	13436.6478
731.274	13716.03974
731.468	13244.27084
731.661	13703.89361
731.854	13379.95105
732.048	13993.3476
732.241	13586.47494
732.435	13815.22898
732.628	13683.6498
732.821	13616.84292
733.014	13232.11944
733.208	13598.62223
733.401	13811.18058
733.594	13817.25317
733.788	13418.42418
733.981	13398.17534
734.174	13406.27493
734.367	13616.84292
734.56	13303.00041
734.754	13388.05078
734.947	12940.43562
735.14	13057.9314
735.333	13424.49876
735.526	13501.44039
735.719	13276.67381
735.912	13499.41568
736.105	13341.47647
736.298	13424.49876
736.491	13296.9251
736.684	13635.06334
736.877	13782.84145
737.07	13503.4651
737.263	13228.06894
737.456	13375.90116
737.649	13313.12583
737.842	13341.47647
738.035	13525.73663
738.228	13309.07568
738.421	13388.05078
738.614	13321.2261
738.807	12952.59115
739	13037.67471
739.192	12964.74649
739.385	13070.08519
739.578	13185.5376
739.771	12914.09801
739.964	13011.34027
740.156	13143.00426
740.349	13171.36004
740.542	13313.12583
740.735	13199.71493
740.927	13011.34027
741.12	13143.00426
741.313	13140.97882
741.505	12987.03081
741.698	13057.9314
741.891	12920.176
742.083	12968.79823
742.276	13128.82603
742.468	13096.41778
742.661	13082.23879
742.854	13469.04458
743.046	13199.71493
743.239	13224.01842
743.431	13070.08519
743.624	13157.18227
743.816	12993.10824
744.009	12798.607
744.201	12871.55074
744.393	13082.23879
744.586	12614.18854
744.778	12841.15838
744.971	12968.79823
745.163	12782.39631
745.355	12660.80441
745.548	12387.14197
745.74	12433.77427
745.932	12569.59642
746.125	12385.11439
746.317	12620.26906
746.509	12352.67231
746.702	12914.09801
746.894	12701.33738
747.086	12972.84995
747.278	12835.07976
747.471	12814.81734
747.663	12539.19098
747.855	12545.27218
748.047	12411.47231
748.239	12516.89274
748.431	12518.91989
748.623	12903.96792
748.815	12488.51205
749.008	12689.17774
749.2	12656.75099
749.392	12612.16169
749.584	12425.66456
749.776	12802.65962
749.968	12719.57644
750.16	12545.27218
750.352	12642.5638
750.544	12930.30588
750.736	12614.18854
750.928	12717.5499
751.12	12233.02673
751.311	12462.15742
751.503	12411.47231
751.695	12222.88613
751.887	12391.19709
752.079	12545.27218
752.271	12379.03164
752.463	12620.26906
752.654	12677.01788
752.846	12411.47231
753.038	12273.58731
753.23	12445.93863
753.421	12103.21315
753.613	12028.15053
753.805	12224.91426
753.997	12078.86968
754.188	12372.94882
754.38	12251.27935
754.572	12044.38119
754.763	12334.42287
754.955	12046.40999
755.146	12222.88613
755.338	12425.66456
755.53	12441.88387
755.721	12334.42287
755.913	12279.67115
756.104	11871.90428
756.296	11957.13545
756.487	11900.31628
756.679	11942.93126
756.87	11922.63886
757.062	11695.30668
757.253	11898.28691
757.445	11813.04563
757.636	11922.63886
757.827	11855.66812
758.019	11995.68771
758.21	12064.66881
758.401	11634.39557
758.593	11944.96046
758.784	11711.54829
758.975	11540.98261
759.167	11278.91238
759.358	11811.01589
759.549	11800.86709
759.74	11859.72721
759.932	11776.50908
760.123	11654.70017
760.314	11914.52168
760.505	11800.86709
760.696	11719.66888
760.888	11739.96973
761.079	11530.82785
761.27	11668.91286
761.461	11737.93969
761.652	11614.09006
761.843	11618.15124
762.034	11624.24293
762.225	11415.0467
762.416	11457.70654
762.607	11441.45567
762.798	11557.22975
762.989	11646.57844
763.18	11565.3531
763.371	11333.77788
763.562	11203.71421
763.753	11049.20789
763.944	11148.83087
764.135	10803.08588
764.326	11642.51752
764.517	11295.16959
764.708	11636.42607
764.899	11518.64182
765.089	11610.02885
765.28	11240.29887
765.471	11433.33001
765.662	11313.45818
765.853	11482.08168
766.043	11311.42616
766.234	11494.26873
766.425	11282.97674
766.615	11185.42062
766.806	11024.80644
766.997	11185.42062
767.187	10847.84779
767.378	11185.42062
767.569	10894.63832
767.759	11138.66644
767.95	11000.40341
768.141	10898.70678
768.331	10939.38882
768.522	10886.50128
768.712	10750.17811
768.903	10801.05112
769.093	10581.22574
769.284	10860.0546
769.474	10752.21318
769.665	10947.52468
769.855	10607.69374
770.046	10615.83732
770.236	10428.48413
770.426	10711.50966
770.617	10410.15029
770.807	10499.77246
770.998	10573.08132
771.188	10481.44268
771.378	10238.98287
771.569	10444.78
771.759	10296.04914
771.949	10346.99228
772.139	10518.10121
772.33	10114.62282
772.52	10336.80431
772.71	10442.74306
772.9	10605.65781
773.09	10230.82968
773.281	10251.21225
773.471	10418.29879
773.661	10153.36343
773.851	10552.71938
774.041	10212.4842
774.231	10373.47943
774.421	10006.53004
774.611	10251.21225
774.802	9767.76596
774.992	10141.1301
775.182	10094.23099
775.372	10279.74557
775.562	10132.97426
775.752	9961.64955
775.942	9782.05671
776.131	9931.0452
776.321	10022.84849
776.511	9929.00479
776.701	9890.23428
776.891	9788.18109
777.081	9880.03063
777.271	9667.70983
777.461	9602.34707
777.651	9873.90827
777.84	9712.63753
778.03	10049.36402
778.22	9873.90827
778.41	9847.37648
778.599	9871.86745
778.789	9442.95771
778.979	9575.78887
779.169	9610.51828
779.358	9751.43277
779.548	10096.27024
779.738	9667.70983
779.927	9884.11214
780.117	9843.29444
780.307	9839.21234
780.496	9516.53407
780.686	9720.80541
780.875	9506.31637
781.065	9408.20606
781.254	9293.69657
781.444	9457.26586
781.633	9479.74849
781.823	9594.1756
782.012	9322.32879
782.202	9694.25892
782.391	9299.83232
782.581	9522.66449
782.77	9160.71825
782.96	9332.55379
783.149	9136.16057
783.338	9275.28842
783.528	9348.91295
783.717	9389.80622
783.906	9273.24298
784.096	9189.36576
784.285	8992.85797
784.474	9091.13176
784.663	9140.25369
784.853	9156.62547
785.042	8980.57091
785.231	9041.99988
785.42	8953.94678
785.61	9009.23973
785.799	8701.8917
785.988	8861.76316
786.177	8564.47675
786.366	8693.69016
786.555	8605.50491
786.744	8787.99009
786.933	8636.27111
787.122	9031.76281
787.312	8882.25153
787.501	8888.39769
787.69	8923.22292
787.879	9046.09459
788.068	8785.9405
788.257	8955.9949
788.445	8617.8119
788.634	8759.29421
788.823	8701.8917
789.012	8917.07766
789.201	8849.46927
789.39	8796.18825
789.579	8728.54465
789.768	8556.27021
789.957	8767.4934
790.145	8736.74494
790.334	8558.32188
790.523	8472.13577
790.712	8710.09294
790.9	8869.95872
791.089	8568.5799
791.278	8582.94035
791.467	8303.77015
791.655	8275.01174
791.844	8235.9763
792.033	8533.70069
792.221	8309.93217
792.41	8669.08378
792.599	8309.93217
792.787	8546.01162
792.976	8367.43586
793.164	8447.50499
793.353	8431.08294
793.541	8626.01618
793.73	8266.79434
793.918	8480.34541
794.107	8180.49262
794.295	8293.49973
794.484	8100.32388
794.672	8381.80941
794.861	8124.99443
795.049	8096.21184
795.238	7960.46915
795.426	7917.25967
795.614	8003.66961
795.803	7921.37525
795.991	7968.6985
796.179	8127.05018
796.368	7925.49075
796.556	7917.25967
796.744	7927.54846
796.932	8003.66961
797.121	8104.43584
797.309	7904.91244
797.497	7970.75579
797.685	7839.04799
797.874	7674.29347
798.062	8168.16094
798.25	7915.20185
798.438	8059.19987
798.626	7867.86629
798.814	7826.69604
799.002	8011.89725
799.19	8186.65819
799.378	7841.10657
799.566	8127.05018
799.755	7874.04111
799.943	7742.27097
800.131	7855.51609
800.318	7830.81344
800.506	7699.01522
800.694	7851.39919
800.882	7595.98779
801.07	7944.00946
801.258	7861.69128
801.446	8003.66961
801.634	7711.37495
801.822	7715.49469
802.01	7748.44961
802.197	8098.26787
802.385	7612.47575
802.573	7917.25967
802.761	7682.53439
802.949	7703.13521
803.136	7484.65825
803.324	7810.22561
803.512	7799.93092
803.699	7731.97282
803.887	7676.35373
804.075	7978.98474
804.262	7674.29347
804.45	7775.22152
804.638	7534.14577
804.825	7886.3902
805.013	7703.13521
805.201	8131.16161
805.388	7797.87192
805.576	7925.49075
805.763	8067.42531
805.951	8009.84037
806.138	7682.53439
806.326	7624.84082
806.513	7464.03478
806.701	7470.22205
806.888	7474.34679
807.075	7711.37495
807.263	7348.5033
807.45	8020.12456
807.638	7740.21139
807.825	7855.51609
808.012	7810.22561
808.2	7799.93092
808.387	7783.45832
808.574	7929.60616
808.761	7727.85342
808.949	7606.29292
809.136	7336.12087
809.323	7666.05221
809.51	7468.15965
809.698	7563.00778
809.885	7323.73766
810.072	7540.33084
810.259	7272.13243
810.446	7527.96051
810.633	7383.58257
810.82	7633.08378
811.008	7748.44961
811.195	7832.87211
811.382	7653.68968
811.569	7505.27956
811.756	7707.25512
811.943	8020.12456
812.13	7816.40218
812.317	7723.73393
812.504	7554.76192
812.691	7604.23194
812.878	7801.9899
813.064	7779.33996
813.251	7843.16514
813.438	7888.44831
813.625	7649.56867
813.812	7725.79368
813.999	7674.29347
814.186	7740.21139
814.372	7431.03274
814.559	7826.69604
814.746	7575.37592
814.933	7649.56867
815.12	7604.23194
815.306	7521.77505
815.493	7666.05221
815.68	7824.63731
815.866	7472.28443
816.053	7906.97036
816.24	7906.97036
816.426	7731.97282
816.613	7734.0325
816.799	7775.22152
816.986	7668.11255
817.173	7690.77497
817.359	7631.02307
817.546	7542.39249
817.732	7492.90703
817.919	7970.75579
818.105	7480.53373
818.292	7972.81306
818.478	7725.79368
818.665	7890.5064
818.851	7783.45832
819.037	7820.51979
819.224	7255.61586
819.41	7371.20237
819.597	7282.45458
819.783	7540.33084
819.969	7428.96993
820.156	7307.22548
820.342	7249.42178
820.528	7497.03129
820.714	7329.92936
820.901	7523.83689
821.087	7360.88494
821.273	7517.65131
821.459	7431.03274
821.646	7499.09339
821.832	7183.33923
822.018	7563.00778
822.204	7038.7043
822.39	7530.02228
822.576	7185.40465
822.762	7484.65825
822.948	7336.12087
823.134	7513.52748
823.32	7381.51926
823.507	7581.55971
823.693	7377.39257
823.879	7129.63044
824.065	7053.17272
824.25	7108.96921
824.436	7129.63044
824.622	7319.60974
824.808	7272.13243
824.994	7272.13243
825.18	6670.42046
825.366	7051.10587
825.552	6833.96121
825.738	7022.16761
825.923	6939.46259
826.109	7020.10043
826.295	6755.31387
826.481	7094.50501
826.667	6960.14223
826.852	6947.73472
827.038	6773.94385
827.224	7036.63729
827.409	6817.40661
827.595	6964.27789
827.781	6718.04834
827.966	6902.23355
828.152	6908.4389
828.338	6864.99716
828.523	6672.49149
828.709	7013.89873
828.894	6825.68409
829.08	7032.50321
829.266	6989.08993
829.451	6980.81961
829.637	6699.41279
829.822	6920.84899
830.008	6749.10346
830.193	6790.50228
830.378	6599.99175
830.564	6753.24375
830.749	6444.53982
830.935	6570.98394
831.12	6498.44458
831.305	6838.09963
831.491	6701.4835
831.676	6593.77617
831.861	6388.54515
832.047	6529.53635
832.232	6371.95088
832.417	6517.10027
832.602	6334.6083
832.788	6568.91178
832.973	6332.53349
833.158	6637.28086
833.343	6421.72922
833.528	6554.40602
833.714	6004.41925
833.899	6442.46624
834.084	6299.33337
834.269	6403.06392
834.454	6268.20281
834.639	6307.63396
834.824	5838.06146
835.009	6384.39672
835.194	6351.20594
835.379	6541.9716
835.564	6052.21919
835.749	6326.30893
835.934	6120.77997
836.119	6286.88178
836.304	6112.47094
836.489	6043.90705
836.674	5877.5851
836.859	5937.89424
837.044	5694.45657
837.228	5873.42512
837.413	5677.79946
837.598	6002.34071
837.783	5783.96266
837.968	6097.92923
838.152	5906.70234
838.337	6181.00923
838.522	6197.62072
838.707	6413.43376
838.891	5998.18355
839.076	6072.99789
839.261	5906.70234
839.445	6025.20336
839.63	5935.81495
839.815	6116.6255
839.999	5946.21119
840.184	5994.02631
840.368	5736.09274
840.553	5885.90478
840.737	5925.41812
840.922	5602.82378
841.106	5696.5386
841.291	5740.25584
841.475	5538.23689
841.66	5975.31753
841.844	5960.76494
842.029	6052.21919
842.213	5796.44842
842.397	5819.33676
842.582	5659.05841
842.766	5694.45657
842.951	5488.2186
843.135	5625.73626
843.319	5369.37085
843.504	5638.23277
843.688	5386.05584
843.872	5617.40478
844.056	5465.28901
844.241	5679.88168
844.425	5252.53391
844.609	5386.05584
844.793	5398.56859
844.977	5367.28512
845.161	5156.50588
845.346	5319.30687
845.53	5436.10179
845.714	5573.65831
845.898	5016.55097
846.082	5421.50645
846.266	5210.78866
846.45	5235.83693
846.634	5106.38475
846.818	5185.73703
847.002	5214.9636
847.186	5479.8809
847.37	4899.49418
847.554	5004.01262
847.738	5031.17799
847.922	5093.85237
848.106	5010.2819
848.29	5077.14124
848.473	4886.9481
848.657	4947.5798
848.841	4876.49242
849.025	4928.76513
849.209	4734.23847
849.392	4949.6702
849.576	4671.44608
849.76	5202.43849
849.944	4872.30998
850.127	4891.13022
850.311	4811.6544
850.495	4993.56337
850.678	4644.22975
850.862	4976.84336
851.046	4673.53948
851.229	4694.47231
851.413	4679.81957
851.596	4824.2054
851.78	4679.81957
851.964	4874.40121
852.147	4753.07223
852.331	4993.56337
852.514	4610.72753
852.698	4813.74629
852.881	4577.21959
853.065	4742.60926
853.248	4617.00963
853.431	4625.38545
853.615	4614.91562
853.798	4817.93
853.982	4549.99019
854.165	4713.30993
854.348	4709.12395
854.532	4549.99019
854.715	4610.72753
854.898	4719.58873
855.081	4302.66097
855.265	4813.74629
855.448	4180.98194
855.631	4436.84344
855.814	4088.62624
855.997	4476.66167
856.181	4225.04642
856.364	4306.85552
856.547	4319.43863
856.73	4281.68696
856.913	4225.04642
857.096	4405.40242
857.279	4304.75825
857.462	4332.02097
857.645	4449.41848
857.828	4384.43901
858.011	4273.29675
858.194	4499.71069
858.377	4336.21492
858.56	4342.50566
858.743	4348.79622
858.926	4489.23419
859.109	4241.83042
859.292	4346.69939
859.475	4277.4919
859.658	4323.63283
859.841	4082.32778
860.023	4052.93253
860.206	3962.62186
860.389	4149.50161
860.572	4004.63154
860.755	4323.63283
860.937	4029.83341
861.12	3952.11816
861.303	3819.72853
861.486	4050.83271
861.668	3624.15373
861.851	3840.74805
862.034	3674.64057
862.216	3861.76558
862.399	3577.8646
862.581	3805.01369
862.764	3607.32237
862.947	3805.01369
863.129	3676.74395
863.312	3701.98302
863.494	3521.04291
863.677	3605.21836
863.859	3422.09937
864.042	3586.28148
864.224	3512.62374
864.406	3552.61218
864.589	3384.19563
864.771	3678.84731
864.954	3422.09937
865.136	3756.65817
865.318	3533.67112
865.501	3582.07308
865.683	3470.52353
865.865	3596.80216
866.048	3361.02943
866.23	3584.17729
866.412	3449.47071
866.594	3579.96885
866.777	3137.68574
866.959	3386.30154
867.141	3350.49864
867.323	3375.7718
867.505	3398.93665
867.687	3481.04927
867.869	3224.09569
868.052	3457.89206
868.234	3550.50769
868.416	3472.62872
868.598	3377.87779
868.78	3329.43575
868.962	3213.55937
869.144	3529.46179
869.326	3272.55738
869.508	3226.2029
869.69	3247.27412
869.872	3350.49864
870.054	3171.40997
870.236	3569.44742
870.417	3285.19809
870.599	3175.6252
870.781	3207.23738
870.963	3426.31054
871.145	3171.40997
871.327	3346.2862
871.508	3179.84037
871.69	3361.02943
871.872	3192.48549
872.054	3285.19809
872.235	2994.31254
872.417	2945.8026
872.599	2918.38047
872.78	3221.98846
872.962	3179.84037
873.144	3369.45375
873.325	3297.83819
873.507	3361.02943
873.689	2928.92773
873.87	3173.51759
874.052	3108.17367
874.233	3264.1299
874.415	3200.91524
874.596	3426.31054
874.778	3226.2029
874.959	3198.80783
875.141	3171.40997
875.322	3314.6907
875.503	3106.06554
875.685	3213.55937
875.866	3032.27126
876.048	3184.05548
876.229	2888.84618
876.41	3135.57784
876.592	3044.92307
876.773	3063.89973
876.954	3057.57431
877.136	3120.82208
877.317	3148.22501
877.498	3266.23679
877.679	2859.30907
877.86	2935.25592
878.042	2667.25214
878.223	2800.22657
878.404	2829.76919
878.585	3000.63933
878.766	2829.76919
878.947	3238.84584
879.128	3009.07485
879.309	3230.41728
879.49	3013.29252
879.672	3390.51332
879.853	2947.91189
880.034	3419.99376
880.215	3095.52468
880.396	3061.79127
880.576	2770.68126
880.757	3000.63933
880.938	2707.36104
881.119	3146.11719
881.3	2715.80442
881.481	3055.46581
881.662	2787.56462
881.843	3093.41646
882.023	2901.50408
882.204	3106.06554
882.385	2838.20944
882.566	2992.20357
882.747	3006.96599
882.927	3232.52444
883.108	2774.90219
883.289	3148.22501
883.469	2787.56462
883.65	3203.02263
883.831	3103.9574
884.011	2969.00399
884.192	3055.46581
884.373	3162.9793
884.553	3072.33339
884.734	3175.6252
884.914	3053.35729
885.095	3217.77395
885.275	2981.65854
885.456	3114.49795
885.636	3047.03165
885.817	3253.59516
885.997	2935.25592
886.178	3238.84584
886.358	3053.35729
886.538	3112.38987
886.719	3028.05387
886.899	3171.40997
887.08	3040.70586
887.26	3156.65613
887.44	2777.01263
887.621	3139.79363
887.801	2920.48995
887.981	3087.09171
888.161	3038.59723
888.342	3196.7004
888.522	2928.92773
888.702	3213.55937
888.882	2960.56733
889.062	3196.7004
889.242	3097.63288
889.423	3449.47071
889.603	3276.77102
889.783	3251.48817
889.963	3063.89973
890.143	3228.3101
890.323	3122.9301
890.503	3011.18369
890.683	2808.6676
890.863	3030.16257
891.043	2861.41896
891.223	3173.51759
891.403	2987.9856
891.583	3205.13001
891.763	2817.1084
891.943	3013.29252
892.122	2863.52883
892.302	3141.9015
892.482	2903.61368
892.662	3023.83642
892.842	2766.46029
893.022	2827.65909
893.201	2749.57585
893.381	3011.18369
893.561	2819.21857
893.741	2888.84618
893.92	2806.55736
894.1	2947.91189
894.28	2565.90427
894.459	2861.41896
894.639	2825.54898
894.819	2920.48995
894.998	2669.36325
895.178	2918.38047
895.357	2741.13331
895.537	2899.39446
895.716	2728.4691
895.896	2920.48995
896.075	2768.57078
896.255	2918.38047
896.434	2568.01597
896.614	2749.57585
896.793	2572.23934
896.973	2671.47435
897.152	2530.00359
897.331	2743.24396
897.511	2711.58275
897.69	2724.24759
897.87	2660.91874
898.049	2800.22657
898.228	2608.13598
898.407	2838.20944
898.587	2303.96753
898.766	2749.57585
898.945	2371.5796
899.124	2422.28187
899.304	2170.82842
899.483	2521.55588
899.662	2284.94985
899.841	2519.44393
900.02	2388.48102
900.199	2549.01026
900.378	2447.63073
900.557	2513.10799
900.737	2251.13879
900.916	2346.22626
901.095	2141.23733
901.274	2371.5796
901.453	2246.91224
901.632	2377.91771
901.811	1989.03134
901.989	2200.41789
902.168	2198.30441
902.347	2210.98516
902.526	2107.41705
902.705	2335.66194
902.884	2084.16447
903.063	2126.4412
903.242	2056.68301
903.42	2168.71482
903.599	1802.958
903.778	2014.40152
903.957	1718.36726
904.135	2018.62979
904.314	1792.3845
904.493	2194.07743
904.672	2005.9449
904.85	2073.59482
905.029	1836.79247
905.207	1961.54596
905.386	1695.10381
905.565	1743.74511
905.743	1616.85154
905.922	1963.66025
906.1	1631.65628
906.279	1676.06981
906.457	1578.78175
906.636	1876.96933
906.814	1540.71144
906.993	1583.01175
907.171	1602.04669
907.35	1621.08147
907.528	1430.72906
907.707	1559.74665
907.885	1468.79999
908.063	1453.99463
908.242	1329.20745
908.42	1441.30431
908.598	1354.58762
908.777	1519.56111
908.955	1363.04772
909.133	1498.41068
909.311	1284.79275
909.49	1430.72906
909.668	1140.98193
909.846	1415.92371
910.024	1257.29842
910.202	1481.4903
910.38	1299.59756
910.559	1525.90622
910.737	1293.25263
910.915	1422.26885
911.093	1388.42813
911.271	1591.47174
911.449	1341.89751
911.627	1487.83544
911.805	1379.96798
911.983	1492.06554
912.161	1259.41335
912.339	1559.74665
912.517	1337.66748
912.695	1458.22473
912.872	1399.00334
913.05	1489.95049
913.228	1303.82752
913.406	1462.45484
913.584	1532.25132
913.762	1513.21599
913.939	1475.14515
914.117	1692.98893
914.295	1327.09245
914.473	1498.41068
914.65	1193.85176
914.828	1242.49396
915.006	1227.68963
915.184	1356.70265
915.361	1210.77059
915.539	1485.72039
915.716	1189.62209
915.894	1371.50784
916.072	1269.98806
916.249	1396.8883
916.427	1312.28747
916.604	1468.79999
916.782	1460.33978
916.959	1434.95916
917.137	1371.50784
917.314	1434.95916
917.492	1073.31252
917.669	1124.06413
917.847	1250.95363
918.024	1212.88546
918.201	1041.59428
918.379	1250.95363
918.556	1202.31115
918.733	1253.06856
918.911	1121.94942
919.088	1246.72379
919.265	1083.88554
919.442	1255.18349
919.62	1052.16689
919.797	1160.01479
919.974	889.36662
920.151	1136.75245
920.328	976.04747
920.506	1064.8542
920.683	1109.26129
920.86	1219.23009
921.037	918.96355
921.214	1130.40827
921.391	1058.51052
921.568	1168.47394
921.745	1024.67841
921.922	1069.08335
922.099	1058.51052
922.276	1126.17884
922.453	973.93315
922.63	1056.39597
922.807	916.84943
922.984	954.90467
923.161	703.36879
923.338	874.56875
923.514	766.76868
923.691	792.13122
923.868	728.7276
924.045	940.10513
924.222	804.81301
924.399	961.24743
924.575	798.47207
924.752	944.33353
924.929	781.56332
925.105	838.63277
925.282	790.01762
925.459	906.27896
925.635	661.10768
925.812	830.17761
925.989	669.55954
926.165	756.20138
926.342	732.95422
926.518	823.83634
926.695	713.93477
926.871	798.47207
927.048	642.09171
927.224	735.06755
927.401	614.62592
927.577	741.40759
927.754	511.12083
927.93	796.35845
928.107	559.70082
928.283	754.08795
928.459	749.86112
928.636	779.44977
928.812	618.85129
928.988	737.18088
929.165	528.01738
929.341	692.80309
929.517	711.82155
929.693	631.5277
929.87	593.49984
930.046	673.78553
930.222	561.81316
930.398	635.75326
930.574	570.26265
930.751	532.24166
930.927	519.56899
931.103	623.07671
931.279	551.2516
931.455	534.35382
931.631	530.12951
931.807	595.61239
931.983	416.09547
932.159	538.57818
932.335	500.56096
932.511	390.76073
932.687	386.5385
932.863	449.87871
933.039	384.42741
933.215	458.32515
933.391	350.65229
933.566	430.87514
933.742	441.43252
933.918	409.76156
934.094	458.32515
934.27	432.98659
934.445	306.32919
934.621	437.20952
934.797	409.76156
934.973	308.43963
935.148	230.36551
935.324	356.9848
935.5	314.77108
935.675	312.66058
935.851	213.48807
936.027	310.5501
936.202	255.68401
936.378	247.24421
936.553	164.97259
936.729	249.35413
936.904	274.6747
937.08	268.3443
937.255	219.81696
937.431	150.20917
937.606	234.58507
937.782	238.8047
937.957	116.46812
938.133	150.20917
938.308	120.68545
938.483	205.04983
938.659	255.68401
938.834	162.86346
939.009	183.95562
939.185	175.51851
939.36	145.99124
939.535	156.53622
939.71	143.8823
939.886	82.73264
940.061	116.46812
940.236	150.20917
940.411	38.46358
940.586	95.38278
940.761	78.51611
940.937	72.19148
941.112	162.86346
941.287	139.6645
941.462	137.55563
941.637	55.32679
941.812	95.38278
941.987	57.4348
942.162	86.94927
942.337	110.14229
942.512	114.35949
942.687	105.92518
942.862	70.08331
943.037	171.30008
943.212	86.94927
943.386	108.03372
943.561	101.70815
943.736	86.94927
943.911	154.42718
944.086	175.51851
944.26	46.895
944.435	86.94927
944.61	97.49122
944.785	-12.11701
944.959	120.68545
945.134	57.4348
945.309	36.35578
945.483	70.08331
945.658	57.4348
945.833	32.14026
946.007	53.21881
946.182	70.08331
946.357	154.42718
946.531	53.21881
946.706	120.68545
946.88	61.65088
947.055	86.94927
947.229	61.65088
947.404	101.70815
947.578	112.25088
947.752	112.25088
947.927	86.94927
948.101	95.38278
948.276	-14.22423
948.45	133.33796
948.624	190.28367
948.799	135.44678
948.973	141.77339
949.147	99.59967
949.321	32.14026
949.496	57.4348
949.67	156.53622
949.844	97.49122
950.018	89.05761
950.193	44.78711
950.367	91.16598
950.541	103.81665
950.715	143.8823
950.889	82.73264
951.063	95.38278
951.237	78.51611
951.411	129.12037
951.585	97.49122
951.759	118.57677
951.933	63.75895
952.107	86.94927
952.281	63.75895
952.455	110.14229
952.629	84.84094
952.803	112.25088
952.977	108.03372
953.151	61.65088
953.325	173.40929
953.499	91.16598
953.672	76.40788
953.846	44.78711
954.02	44.78711
954.194	167.08173
954.368	49.00291
954.541	63.75895
954.715	148.10019
954.889	133.33796
955.062	112.25088
955.236	162.86346
955.41	97.49122
955.583	82.73264
955.757	89.05761
955.93	114.35949
956.104	101.70815
956.278	122.79415
956.451	19.49425
956.625	44.78711
956.798	137.55563
956.972	78.51611
957.145	105.92518
957.319	99.59967
957.492	105.92518
957.665	118.57677
957.839	95.38278
958.012	67.97517
958.185	78.51611
958.359	65.86705
958.532	67.97517
958.705	179.73703
958.879	72.19148
959.052	120.68545
959.225	27.92483
959.398	186.06495
959.572	129.12037
959.745	137.55563
959.918	124.90287
960.091	114.35949
960.264	171.30008
960.438	99.59967
960.611	164.97259
960.784	139.6645
960.957	53.21881
961.13	42.67924
961.303	89.05761
961.476	55.32679
961.649	70.08331
961.822	36.35578
961.995	124.90287
962.168	150.20917
962.341	78.51611
962.514	91.16598
962.686	91.16598
962.859	86.94927
963.032	78.51611
963.205	93.27437
963.378	8.95656
963.551	11.06405
963.723	154.42718
963.896	156.53622
964.069	78.51611
964.242	82.73264
964.414	53.21881
964.587	49.00291
964.76	97.49122
964.932	49.00291
965.105	59.54283
965.278	103.81665
965.45	-3.68787
965.623	135.44678
965.795	25.81715
965.968	-14.22423
966.14	97.49122
966.313	99.59967
966.485	91.16598
966.658	127.01161
966.83	108.03372
967.003	19.49425
967.175	116.46812
967.348	53.21881
967.52	42.67924
967.692	95.38278
967.865	82.73264
968.037	70.08331
968.209	141.77339
968.382	127.01161
968.554	32.14026
968.726	103.81665
968.898	120.68545
969.071	114.35949
969.243	19.49425
969.415	95.38278
969.587	70.08331
969.759	82.73264
969.932	80.62436
970.104	89.05761
970.276	-1.58052
970.448	86.94927
970.62	0.52684
970.792	122.79415
970.964	116.46812
971.136	21.60186
971.308	108.03372
971.48	91.16598
971.652	80.62436
971.824	55.32679
971.996	8.95656
972.168	72.19148
972.339	122.79415
972.511	78.51611
972.683	72.19148
972.855	86.94927
973.027	95.38278
973.199	70.08331
973.37	86.94927
973.542	129.12037
973.714	116.46812
973.886	89.05761
974.057	150.20917
974.229	124.90287
974.401	86.94927
974.572	72.19148
974.744	89.05761
974.915	89.05761
975.087	46.895
975.259	108.03372
975.43	124.90287
975.602	19.49425
975.773	70.08331
975.945	129.12037
976.116	15.2791
976.288	82.73264
976.459	93.27437
976.63	131.22915
976.802	179.73703
976.973	19.49425
977.145	70.08331
977.316	2.63424
977.487	78.51611
977.659	27.92483
977.83	82.73264
978.001	44.78711
978.172	99.59967
978.344	120.68545
978.515	36.35578
978.686	97.49122
978.857	76.40788
979.028	19.49425
979.2	91.16598
979.371	34.24801
979.542	86.94927
979.713	46.895
979.884	101.70815
980.055	116.46812
980.226	116.46812
980.397	152.31817
980.568	17.38667
980.739	103.81665
980.91	36.35578
981.081	61.65088
981.252	89.05761
981.423	44.78711
981.594	27.92483
981.765	131.22915
981.936	78.51611
982.106	44.78711
982.277	61.65088
982.448	76.40788
982.619	76.40788
982.79	80.62436
982.96	17.38667
983.131	112.25088
983.302	97.49122
983.472	21.60186
983.643	112.25088
983.814	103.81665
983.984	95.38278
984.155	70.08331
984.326	-14.22423
984.496	13.17157
984.667	72.19148
984.837	108.03372
985.008	78.51611
985.178	27.92483
985.349	42.67924
985.519	17.38667
985.69	36.35578
985.86	53.21881
986.031	93.27437
986.201	30.03253
986.371	38.46358
986.542	86.94927
986.712	78.51611
986.882	65.86705
987.053	70.08331
987.223	80.62436
987.393	25.81715
987.563	82.73264
987.734	4.74166
987.904	19.49425
988.074	61.65088
988.244	36.35578
988.414	95.38278
988.585	30.03253
988.755	70.08331
988.925	91.16598
989.095	78.51611
989.265	114.35949
989.435	30.03253
989.605	112.25088
989.775	120.68545
989.945	74.29967
990.115	51.11085
990.285	72.19148
990.455	4.74166
990.625	53.21881
990.795	143.8823
990.965	46.895
991.134	19.49425
991.304	36.35578
991.474	40.5714
991.644	74.29967
991.814	55.32679
991.984	17.38667
992.153	95.38278
992.323	65.86705
992.493	97.49122
992.662	32.14026
992.832	84.84094
993.002	80.62436
993.171	34.24801
993.341	46.895
993.511	103.81665
993.68	6.8491
993.85	38.46358
994.019	124.90287
994.189	105.92518
994.358	23.70949
994.528	84.84094
994.697	74.29967
994.867	15.2791
995.036	72.19148
995.206	57.4348
995.375	17.38667
995.544	116.46812
995.714	78.51611
995.883	23.70949
996.052	72.19148
996.222	61.65088
996.391	13.17157
996.56	103.81665
996.73	70.08331
996.899	34.24801
997.068	2.63424
997.237	82.73264
997.406	70.08331
997.576	-3.68787
997.745	2.63424
997.914	-5.79519
998.083	129.12037
998.252	53.21881
998.421	30.03253
998.59	6.8491
998.759	27.92483
998.928	57.4348
999.097	11.06405
999.266	-12.11701
999.435	112.25088
999.604	93.27437
999.773	99.59967
999.942	72.19148
1000.111	53.21881
1000.28	44.78711
1000.448	44.78711
1000.617	70.08331
1000.786	6.8491
1000.955	36.35578
1001.124	44.78711
1001.292	78.51611
1001.461	65.86705
1001.63	23.70949
1001.798	61.65088
1001.967	13.17157
1002.136	32.14026
1002.304	44.78711
1002.473	23.70949
1002.642	4.74166
1002.81	8.95656
1002.979	15.2791
1003.147	4.74166
1003.316	95.38278
1003.484	46.895
1003.653	15.2791
1003.821	86.94927
1003.99	19.49425
1004.158	4.74166
1004.327	-20.54576
1004.495	30.03253
1004.663	-31.08114
1004.832	-35.29512
1005	4.74166
1005.168	61.65088
1005.337	27.92483
1005.505	61.65088
1005.673	91.16598
1005.842	21.60186
1006.01	57.4348
1006.178	25.81715
1006.346	19.49425
1006.514	65.86705
1006.683	-10.00976
1006.851	36.35578
1007.019	23.70949
1007.187	65.86705
1007.355	11.06405
1007.523	61.65088
1007.691	51.11085
1007.859	44.78711
1008.027	19.49425
1008.195	21.60186
1008.363	65.86705
1008.531	76.40788
1008.699	55.32679
1008.867	42.67924
1009.035	-10.00976
1009.203	8.95656
1009.37	65.86705
1009.538	46.895
1009.706	55.32679
1009.874	55.32679
1010.042	55.32679
1010.209	34.24801
1010.377	38.46358
1010.545	40.5714
1010.713	70.08331
1010.88	2.63424
1011.048	99.59967
1011.216	27.92483
1011.383	19.49425
1011.551	34.24801
1011.718	57.4348
1011.886	2.63424
1012.054	36.35578
1012.221	11.06405
1012.389	-5.79519
1012.556	2.63424
1012.724	59.54283
1012.891	8.95656
1013.058	-10.00976
1013.226	36.35578
1013.393	63.75895
1013.561	72.19148
1013.728	11.06405
1013.895	34.24801
1014.063	30.03253
1014.23	27.92483
1014.397	42.67924
1014.565	78.51611
1014.732	6.8491
1014.899	-1.58052
1015.066	57.4348
1015.233	17.38667
1015.401	-1.58052
1015.568	-3.68787
1015.735	21.60186
1015.902	11.06405
1016.069	36.35578
1016.236	70.08331
1016.403	72.19148
1016.57	57.4348
1016.737	2.63424
1016.904	8.95656
1017.071	63.75895
1017.238	44.78711
1017.405	19.49425
1017.572	21.60186
1017.739	15.2791
1017.906	74.29967
1018.073	-35.29512
1018.24	-33.18815
1018.407	-28.97412
1018.573	-20.54576
1018.74	23.70949
1018.907	6.8491
1019.074	46.895
1019.241	-31.08114
1019.407	57.4348
1019.574	-12.11701
1019.741	36.35578
1019.907	-14.22423
1020.074	27.92483
1020.241	23.70949
1020.407	-52.15005
1020.574	2.63424
1020.74	78.51611
1020.907	61.65088
1021.073	34.24801
1021.24	-24.75999
1021.406	32.14026
1021.573	19.49425
1021.739	-10.00976
1021.906	40.5714
1022.072	57.4348
1022.239	137.55563
1022.405	21.60186
1022.571	23.70949
1022.738	21.60186
1022.904	32.14026
1023.07	65.86705
1023.237	40.5714
1023.403	-39.50901
1023.569	11.06405
1023.735	11.06405
1023.902	-7.90249
1024.068	32.14026
1024.234	23.70949
1024.4	-1.58052
1024.566	11.06405
1024.732	49.00291
1024.898	-73.21644
1025.065	44.78711
1025.231	97.49122
1025.397	61.65088
1025.563	-16.33143
1025.729	82.73264
1025.895	23.70949
1026.061	44.78711
1026.227	-10.00976
1026.392	51.11085
1026.558	55.32679
1026.724	27.92483
1026.89	2.63424
1027.056	13.17157
1027.222	-47.93647
1027.388	30.03253
1027.553	61.65088
1027.719	86.94927
1027.885	2.63424
1028.051	55.32679
1028.216	19.49425
1028.382	53.21881
1028.548	78.51611
1028.713	-22.65289
1028.879	89.05761
1029.045	19.49425
1029.21	21.60186
1029.376	-54.2568
1029.541	6.8491
1029.707	11.06405
1029.873	70.08331
1030.038	23.70949
1030.204	6.8491
1030.369	23.70949
1030.534	103.81665
1030.7	74.29967
1030.865	21.60186
1031.031	63.75895
1031.196	32.14026
1031.361	13.17157
1031.527	21.60186
1031.692	38.46358
1031.857	13.17157
1032.023	133.33796
1032.188	21.60186
1032.353	15.2791
1032.518	6.8491
1032.684	-35.29512
1032.849	36.35578
1033.014	4.74166
1033.179	-47.93647
1033.344	32.14026
1033.509	-12.11701
1033.674	78.51611
1033.839	-5.79519
1034.004	30.03253
1034.17	46.895
1034.335	53.21881
1034.5	67.97517
1034.664	-28.97412
1034.829	-58.47023
1034.994	36.35578
1035.159	34.24801
1035.324	-14.22423
1035.489	11.06405
1035.654	70.08331
1035.819	-39.50901
1035.984	72.19148
1036.148	61.65088
1036.313	2.63424
1036.478	-1.58052
1036.643	13.17157
1036.807	-1.58052
1036.972	21.60186
1037.137	65.86705
1037.301	27.92483
1037.466	78.51611
1037.631	32.14026
1037.795	44.78711
1037.96	40.5714
1038.124	-28.97412
1038.289	4.74166
1038.454	-10.00976
1038.618	21.60186
1038.783	-12.11701
1038.947	49.00291
1039.111	34.24801
1039.276	-14.22423
1039.44	27.92483
1039.605	78.51611
1039.769	53.21881
1039.933	55.32679
1040.098	36.35578
1040.262	82.73264
1040.426	4.74166
1040.591	27.92483
1040.755	-18.43861
1040.919	78.51611
1041.083	44.78711
1041.248	6.8491
1041.412	19.49425
1041.576	19.49425
1041.74	-1.58052
1041.904	59.54283
1042.068	91.16598
1042.232	55.32679
1042.397	11.06405
1042.561	105.92518
1042.725	-12.11701
1042.889	67.97517
1043.053	93.27437
1043.217	65.86705
1043.381	-22.65289
1043.544	30.03253
1043.708	-58.47023
1043.872	13.17157
1044.036	34.24801
1044.2	-1.58052
1044.364	36.35578
1044.528	19.49425
1044.691	51.11085
1044.855	86.94927
1045.019	61.65088
1045.183	38.46358
1045.346	49.00291
1045.51	42.67924
1045.674	40.5714
1045.837	38.46358
1046.001	30.03253
1046.165	51.11085
1046.328	-33.18815
1046.492	4.74166
1046.655	13.17157
1046.819	-5.79519
1046.983	99.59967
1047.146	19.49425
1047.31	21.60186
1047.473	53.21881
1047.636	-28.97412
1047.8	91.16598
1047.963	110.14229
1048.127	30.03253
1048.29	15.2791
