Data from absorb_only_2.23.25_USB4F045381__77__0182.txt Node

Date: Sun Feb 23 19:27:53 EST 2025
User: ssocol
Spectrometer: USB4F04538
Trigger mode: 4
Integration Time (sec): 2.600000E-3
Scans to average: 1
Electric dark correction enabled: true
Nonlinearity correction enabled: true
Boxcar width: 0
XAxis mode: Wavelengths
Number of Pixels in Spectrum: 3648
>>>>>Begin Spectral Data<<<<<
345.52	-53.37899
345.736	-53.37899
345.952	-53.37899
346.168	16.15725
346.384	3.51233
346.6	-30.20322
346.816	16.15725
347.032	-11.23899
347.248	28.80304
347.464	73.06989
347.68	28.80304
347.896	-30.20322
348.112	37.23403
348.328	-74.44523
348.544	22.48004
348.76	-0.70246
348.975	-59.69913
349.191	49.88122
349.407	108.91229
349.623	-13.34623
349.839	58.31314
350.055	14.04971
350.27	45.6654
350.486	-0.70246
350.702	37.23403
350.918	-70.23219
351.133	28.80304
351.349	20.37242
351.565	41.44967
351.781	-28.09618
351.996	11.94218
352.212	108.91229
352.428	11.94218
352.644	47.77329
352.859	56.20513
353.075	-2.80981
353.291	-28.09618
353.506	54.09713
353.722	54.09713
353.938	-30.20322
354.153	22.48004
354.369	-2.80981
354.584	-4.91714
354.8	-15.45344
355.016	39.34183
355.231	-13.34623
355.447	5.61975
355.662	5.61975
355.878	-2.80981
356.093	-42.84492
356.309	81.50281
356.524	39.34183
356.74	-15.45344
356.955	-57.59244
357.171	49.88122
357.386	5.61975
357.602	-51.27223
357.817	-4.91714
358.033	-4.91714
358.248	1.40492
358.464	11.94218
358.679	56.20513
358.895	-44.95179
359.11	-42.84492
359.325	37.23403
359.541	60.42118
359.756	11.94218
359.972	-47.05863
360.187	33.01848
360.402	18.26482
360.618	-17.56062
360.833	16.15725
361.048	-9.13173
361.264	16.15725
361.479	7.72721
361.694	-51.27223
361.909	-30.20322
362.125	16.15725
362.34	83.6111
362.555	54.09713
362.77	-9.13173
362.986	43.55752
363.201	24.58768
363.416	39.34183
363.631	-30.20322
363.847	20.37242
364.062	83.6111
364.277	-84.97739
364.492	3.51233
364.707	3.51233
364.922	22.48004
365.138	14.04971
365.353	11.94218
365.568	9.83468
365.783	26.69535
365.998	-2.80981
366.213	-9.13173
366.428	-53.37899
366.643	-53.37899
366.858	66.74543
367.073	39.34183
367.288	20.37242
367.503	-28.09618
367.718	-25.98912
367.933	37.23403
368.148	60.42118
368.363	37.23403
368.578	-36.52418
368.793	-25.98912
369.008	-47.05863
369.223	35.12624
369.438	1.40492
369.653	7.72721
369.868	-7.02445
370.083	-11.23899
370.298	28.80304
370.513	-25.98912
370.728	14.04971
370.943	45.6654
371.157	11.94218
371.372	146.86997
371.587	-7.02445
371.802	-87.08375
372.017	11.94218
372.232	-13.34623
372.446	28.80304
372.661	45.6654
372.876	11.94218
373.091	20.37242
373.306	-32.31023
373.52	-42.84492
373.735	56.20513
373.95	56.20513
374.165	37.23403
374.379	-30.20322
374.594	3.51233
374.809	28.80304
375.023	-61.80579
375.238	60.42118
375.453	-25.98912
375.667	-7.02445
375.882	16.15725
376.097	28.80304
376.311	-2.80981
376.526	5.61975
376.741	56.20513
376.955	-4.91714
377.17	20.37242
377.384	-2.80981
377.599	79.39455
377.813	-4.91714
378.028	-0.70246
378.242	-34.41722
378.457	22.48004
378.672	22.48004
378.886	41.44967
379.101	28.80304
379.315	79.39455
379.53	-21.77492
379.744	39.34183
379.958	16.15725
380.173	-9.13173
380.387	37.23403
380.602	-13.34623
380.816	-17.56062
381.031	54.09713
381.245	-53.37899
381.459	7.72721
381.674	-40.73804
381.888	-47.05863
382.103	-11.23899
382.317	16.15725
382.531	41.44967
382.746	33.01848
382.96	-51.27223
383.174	18.26482
383.388	77.2863
383.603	-13.34623
383.817	-36.52418
384.031	54.09713
384.246	39.34183
384.46	54.09713
384.674	3.51233
384.888	-11.23899
385.103	-28.09618
385.317	-9.13173
385.531	49.88122
385.745	73.06989
385.959	56.20513
386.174	3.51233
386.388	45.6654
386.602	-4.91714
386.816	30.91075
387.03	-23.88203
387.244	26.69535
387.458	18.26482
387.672	37.23403
387.887	-4.91714
388.101	-2.80981
388.315	16.15725
388.529	-9.13173
388.743	-47.05863
388.957	-34.41722
389.171	30.91075
389.385	-11.23899
389.599	22.48004
389.813	45.6654
390.027	22.48004
390.241	-0.70246
390.455	28.80304
390.669	35.12624
390.883	77.2863
391.097	77.2863
391.311	39.34183
391.525	22.48004
391.738	-13.34623
391.952	56.20513
392.166	22.48004
392.38	45.6654
392.594	24.58768
392.808	83.6111
393.022	9.83468
393.236	33.01848
393.449	22.48004
393.663	33.01848
393.877	37.23403
394.091	-63.91243
394.305	20.37242
394.518	-0.70246
394.732	-30.20322
394.946	47.77329
395.16	54.09713
395.373	3.51233
395.587	-44.95179
395.801	37.23403
396.015	70.96171
396.228	18.26482
396.442	66.74543
396.656	-57.59244
396.869	5.61975
397.083	-21.77492
397.297	-19.66778
397.51	7.72721
397.724	66.74543
397.938	37.23403
398.151	24.58768
398.365	-21.77492
398.578	-9.13173
398.792	62.52924
399.005	58.31314
399.219	64.63732
399.433	14.04971
399.646	58.31314
399.86	45.6654
400.073	7.72721
400.287	49.88122
400.5	-47.05863
400.714	-2.80981
400.927	37.23403
401.141	49.88122
401.354	14.04971
401.567	79.39455
401.781	45.6654
401.994	-17.56062
402.208	41.44967
402.421	58.31314
402.635	16.15725
402.848	-38.63112
403.061	24.58768
403.275	54.09713
403.488	73.06989
403.701	-15.45344
403.915	51.98916
404.128	5.61975
404.341	16.15725
404.555	28.80304
404.768	20.37242
404.981	58.31314
405.195	-9.13173
405.408	-0.70246
405.621	3.51233
405.834	58.31314
406.048	-47.05863
406.261	-34.41722
406.474	30.91075
406.687	-15.45344
406.9	1.40492
407.114	-68.12563
407.327	51.98916
407.54	22.48004
407.753	1.40492
407.966	30.91075
408.179	28.80304
408.392	33.01848
408.605	28.80304
408.819	81.50281
409.032	-38.63112
409.245	11.94218
409.458	20.37242
409.671	-30.20322
409.884	-30.20322
410.097	-15.45344
410.31	14.04971
410.523	47.77329
410.736	3.51233
410.949	-0.70246
411.162	-97.61513
411.375	54.09713
411.588	-11.23899
411.801	41.44967
412.014	41.44967
412.227	-36.52418
412.44	24.58768
412.653	-63.91243
412.865	79.39455
413.078	7.72721
413.291	81.50281
413.504	14.04971
413.717	3.51233
413.93	22.48004
414.143	16.15725
414.356	33.01848
414.568	98.36974
414.781	30.91075
414.994	20.37242
415.207	-53.37899
415.42	7.72721
415.632	-47.05863
415.845	28.80304
416.058	30.91075
416.271	5.61975
416.483	33.01848
416.696	113.12946
416.909	54.09713
417.121	98.36974
417.334	-51.27223
417.547	81.50281
417.759	-21.77492
417.972	5.61975
418.185	62.52924
418.397	54.09713
418.61	20.37242
418.823	79.39455
419.035	20.37242
419.248	45.6654
419.46	-34.41722
419.673	11.94218
419.885	49.88122
420.098	51.98916
420.311	-47.05863
420.523	14.04971
420.736	-30.20322
420.948	3.51233
421.161	49.88122
421.373	-21.77492
421.586	96.26129
421.798	45.6654
422.01	30.91075
422.223	83.6111
422.435	37.23403
422.648	-38.63112
422.86	-4.91714
423.073	30.91075
423.285	64.63732
423.497	-9.13173
423.71	11.94218
423.922	47.77329
424.134	-11.23899
424.347	-30.20322
424.559	-0.70246
424.771	-30.20322
424.984	60.42118
425.196	24.58768
425.408	49.88122
425.621	3.51233
425.833	60.42118
426.045	64.63732
426.257	11.94218
426.47	68.85356
426.682	33.01848
426.894	3.51233
427.106	20.37242
427.318	54.09713
427.531	-47.05863
427.743	-4.91714
427.955	30.91075
428.167	54.09713
428.379	-17.56062
428.591	94.15287
428.804	83.6111
429.016	30.91075
429.228	22.48004
429.44	75.17808
429.652	9.83468
429.864	33.01848
430.076	98.36974
430.288	33.01848
430.5	28.80304
430.712	-17.56062
430.924	28.80304
431.136	35.12624
431.348	24.58768
431.56	28.80304
431.772	62.52924
431.984	39.34183
432.196	49.88122
432.408	7.72721
432.62	-17.56062
432.832	123.67278
433.044	75.17808
433.256	89.9361
433.468	87.82774
433.679	54.09713
433.891	-2.80981
434.103	83.6111
434.315	24.58768
434.527	49.88122
434.739	49.88122
434.95	3.51233
435.162	-2.80981
435.374	30.91075
435.586	20.37242
435.798	3.51233
436.009	89.9361
436.221	54.09713
436.433	-13.34623
436.645	-47.05863
436.856	9.83468
437.068	62.52924
437.28	-42.84492
437.491	79.39455
437.703	24.58768
437.915	49.88122
438.126	81.50281
438.338	92.04447
438.55	121.56407
438.761	9.83468
438.973	56.20513
439.184	37.23403
439.396	54.09713
439.608	20.37242
439.819	24.58768
440.031	41.44967
440.242	33.01848
440.454	37.23403
440.665	56.20513
440.877	-7.02445
441.088	54.09713
441.3	-70.23219
441.511	28.80304
441.723	83.6111
441.934	51.98916
442.146	-30.20322
442.357	75.17808
442.569	26.69535
442.78	45.6654
442.991	28.80304
443.203	77.2863
443.414	-0.70246
443.626	-28.09618
443.837	77.2863
444.048	20.37242
444.26	83.6111
444.471	89.9361
444.682	62.52924
444.894	58.31314
445.105	-0.70246
445.316	64.63732
445.528	39.34183
445.739	66.74543
445.95	-19.66778
446.161	87.82774
446.373	-17.56062
446.584	73.06989
446.795	45.6654
447.006	96.26129
447.217	66.74543
447.429	33.01848
447.64	30.91075
447.851	41.44967
448.062	22.48004
448.273	5.61975
448.484	-36.52418
448.695	49.88122
448.907	62.52924
449.118	64.63732
449.329	33.01848
449.54	33.01848
449.751	96.26129
449.962	79.39455
450.173	45.6654
450.384	-21.77492
450.595	81.50281
450.806	155.30595
451.017	70.96171
451.228	3.51233
451.439	26.69535
451.65	56.20513
451.861	92.04447
452.072	39.34183
452.283	45.6654
452.494	28.80304
452.705	70.96171
452.915	33.01848
453.126	28.80304
453.337	26.69535
453.548	54.09713
453.759	75.17808
453.97	163.74226
454.181	60.42118
454.391	39.34183
454.602	33.01848
454.813	58.31314
455.024	64.63732
455.235	64.63732
455.445	-13.34623
455.656	56.20513
455.867	87.82774
456.078	104.6952
456.288	81.50281
456.499	49.88122
456.71	47.77329
456.921	37.23403
457.131	49.88122
457.342	81.50281
457.553	62.52924
457.763	49.88122
457.974	26.69535
458.184	138.43433
458.395	45.6654
458.606	121.56407
458.816	24.58768
459.027	106.80373
459.237	100.4782
459.448	98.36974
459.659	5.61975
459.869	64.63732
460.08	51.98916
460.29	123.67278
460.501	45.6654
460.711	62.52924
460.922	28.80304
461.132	85.71941
461.343	66.74543
461.553	83.6111
461.764	39.34183
461.974	75.17808
462.184	-2.80981
462.395	104.6952
462.605	123.67278
462.816	89.9361
463.026	119.45538
463.236	28.80304
463.447	83.6111
463.657	106.80373
463.867	70.96171
464.078	113.12946
464.288	77.2863
464.498	83.6111
464.709	132.10782
464.919	108.91229
465.129	104.6952
465.339	73.06989
465.55	191.16258
465.76	96.26129
465.97	54.09713
466.18	89.9361
466.391	79.39455
466.601	102.58669
466.811	75.17808
467.021	197.49084
467.231	174.28813
467.441	87.82774
467.651	123.67278
467.862	193.27198
468.072	129.99903
468.282	153.19692
468.492	134.21663
468.702	180.61589
468.912	208.03833
469.122	176.39736
469.332	167.96055
469.542	159.52406
469.752	165.85139
469.962	224.91537
470.172	189.0532
470.382	235.46415
470.592	184.83451
470.802	210.14789
471.012	191.16258
471.222	201.70978
471.432	269.22351
471.642	241.79366
471.852	252.34322
472.062	260.78321
472.272	294.5462
472.482	349.42099
472.691	336.75651
472.901	258.67319
473.111	199.6003
473.321	281.88452
473.531	224.91537
473.741	315.65046
473.95	283.99475
474.16	334.64583
474.37	315.65046
474.58	309.31899
474.79	357.86432
474.999	410.64126
475.209	391.64037
475.419	362.08609
475.628	340.97794
475.838	298.76691
476.048	328.31388
476.258	406.41873
476.467	461.31665
476.677	463.42832
476.886	590.155
477.096	579.59254
477.306	450.75854
477.515	499.329
477.725	518.33696
477.935	478.21043
478.144	535.23389
478.354	522.5611
478.563	604.94298
478.773	560.58096
478.982	621.84429
479.192	716.92852
479.401	615.5062
479.611	647.19775
479.82	763.42234
480.03	754.96854
480.239	801.4664
480.449	716.92852
480.658	828.94458
480.868	807.80738
481.077	812.03474
481.287	847.96884
481.496	883.90545
481.705	1008.64392
481.915	1027.6739
482.124	983.27141
482.333	955.7856
482.543	1063.6207
482.752	1069.96443
482.961	1036.13182
483.171	1169.3551
483.38	1046.70436
483.589	1078.42279
483.799	1097.45443
484.008	1241.26026
484.217	1105.91306
484.426	1279.3291
484.636	1372.38911
484.845	1262.40951
485.054	1184.15878
485.263	1389.3094
485.472	1277.21415
485.682	1304.70876
485.891	1476.02642
486.1	1541.59271
486.309	1397.76956
486.518	1566.97295
486.727	1499.29195
486.936	1662.14664
487.146	1550.05281
487.355	1651.57201
487.564	1499.29195
487.773	1763.65931
487.982	1715.01876
488.191	1731.93742
488.4	1655.80187
488.609	1814.41251
488.818	1778.46257
489.027	1829.21506
489.236	1812.29784
489.445	2097.72859
489.654	1882.07942
489.863	2120.98063
490.072	1814.41251
490.281	2085.04527
490.49	1958.19831
490.698	2038.53754
490.907	1822.87113
491.116	2188.61753
491.325	2114.63926
491.534	2159.0274
491.743	2159.0274
491.952	2224.54617
492.16	2256.24582
492.369	2302.73493
492.578	2435.83666
492.787	2429.49941
492.996	2372.4599
493.204	2501.31583
493.413	2564.67244
493.622	2404.14945
493.831	2402.03689
494.039	2864.40794
494.248	2522.43586
494.457	2600.56982
494.665	2666.02066
494.874	2647.02003
495.083	2653.35369
495.291	2676.57611
495.5	2716.68393
495.709	2809.54686
495.917	2839.08862
496.126	2868.62763
496.335	2761.00812
496.543	2963.55534
496.752	2950.90003
496.96	3083.75358
497.169	2815.87746
497.377	3050.01877
497.586	2891.8349
497.794	3146.99545
498.003	3014.17119
498.211	3229.18809
498.42	2957.22775
498.628	3132.2403
498.837	3159.64209
499.045	3332.41977
499.254	3191.25613
499.462	3401.91985
499.671	3193.3636
499.879	3456.66396
500.087	3199.68592
500.296	3509.29108
500.504	3366.11915
500.713	3416.65983
500.921	3437.71544
501.129	3412.4485
501.338	3298.71595
501.546	3578.74137
501.754	3441.92635
501.962	3648.1714
502.171	3580.84561
502.379	3812.19605
502.587	3412.4485
502.795	3669.20674
503.004	3612.40697
503.212	3713.37475
503.42	3677.62035
503.628	3801.6852
503.837	3803.78741
504.045	3801.6852
504.253	3963.49714
504.461	3948.79189
504.669	3797.48072
504.877	3803.78741
505.085	3887.85958
505.294	4018.10791
505.502	3889.96097
505.71	4244.80245
505.918	3982.40243
506.126	4085.30208
506.334	4024.40826
506.542	4265.78023
506.75	4135.68374
506.958	3934.08564
507.166	3833.21628
507.374	4255.29161
507.582	4016.00775
507.79	4177.65924
507.998	4177.65924
508.206	4301.43755
508.414	4108.39517
508.622	4286.75587
508.83	4131.48573
509.037	4379.02311
509.245	4207.03707
509.453	4334.99169
509.661	4337.08864
509.869	4446.10014
510.077	4295.14553
510.285	4450.29171
510.492	4458.67459
510.7	4404.17961
510.908	4320.31243
511.116	4559.24163
511.324	4125.18855
511.531	4561.33623
511.739	4410.46825
511.947	4473.34378
512.155	4515.24981
512.362	4550.86299
512.57	4601.12948
512.778	4643.00841
512.985	4586.46975
513.193	4783.2373
513.401	4605.31778
513.608	4789.51383
513.816	4517.34488
514.024	4868.99882
514.231	4714.182
514.439	4933.8174
514.646	4718.36787
514.854	4948.45081
515.061	4730.92494
515.269	4881.54607
515.477	4810.43412
515.684	4789.51383
515.892	4703.71693
516.099	4977.71423
516.307	4887.81939
516.514	5019.51129
516.722	4885.7283
516.929	5163.6401
517.136	4785.3295
517.344	5171.992
517.551	4837.6271
517.759	5146.93517
517.966	4929.63622
518.173	5268.01207
518.381	4986.07438
518.588	5345.20971
518.796	5151.11154
519.003	5332.69335
519.21	5190.78242
519.418	5330.60721
519.625	5178.25568
519.832	5512.01371
520.039	5240.88097
520.247	5353.55348
520.454	5361.89687
520.661	5639.10055
520.868	5297.22575
521.076	5699.48811
521.283	5345.20971
521.49	5595.35925
521.697	5489.08709
521.904	5512.01371
522.112	5376.49691
522.319	5703.65204
522.526	5420.29012
522.733	5505.76128
522.94	5595.35925
523.147	5803.55798
523.354	5497.42437
523.561	5853.49056
523.768	5512.01371
523.975	5899.25015
524.183	5549.52387
524.39	5936.68132
524.597	5791.07271
524.804	6069.70809
525.011	5959.55217
525.218	5845.16941
525.425	5886.77139
525.632	5944.99832
525.838	5855.57079
526.045	6123.72267
526.252	5888.85125
526.459	6036.46044
526.666	5755.69317
526.873	6240.00782
527.08	6040.61673
527.287	6304.34835
527.494	6078.01906
527.701	6202.63848
527.907	5963.7102
528.114	6331.32318
528.321	6279.44501
528.528	6333.398
528.735	6314.72375
528.941	6219.24801
529.148	6111.25917
529.355	6325.09857
529.562	6019.83436
529.768	6368.66642
529.975	6281.52042
530.182	6210.94343
530.388	6003.20677
530.595	6410.15004
530.802	6285.67116
531.008	6731.33366
531.215	6412.22398
531.422	6650.57193
531.628	6528.32733
531.835	6449.55086
532.042	6447.47734
532.248	6855.51449
532.455	6410.15004
532.661	6725.12246
532.868	6495.16237
533.074	6727.19288
533.281	6745.82566
533.487	6673.35442
533.694	6917.57418
533.9	6913.4375
534.107	6749.96603
534.313	6915.50585
534.52	6791.36466
534.726	6807.92155
534.933	6944.46038
535.139	6865.85919
535.345	6749.96603
535.552	6948.59638
535.758	7101.56505
535.965	7113.96254
536.171	7076.76767
536.377	7132.55727
536.584	7045.7664
536.79	7122.22709
536.996	7109.83013
537.203	7188.33063
537.409	6884.47822
537.615	7237.89338
537.821	7233.76364
538.028	7365.87176
538.234	7101.56505
538.44	7268.86364
538.646	7163.54447
538.853	7479.33073
539.059	7178.00345
539.265	7188.33063
539.471	7405.07411
539.677	7427.76661
539.883	7411.26323
540.09	7551.49784
540.296	7268.86364
540.502	7553.55937
540.708	7543.2515
540.914	7576.23479
541.12	7454.58164
541.326	7512.32468
541.532	7677.21217
541.738	7741.06955
541.944	7415.38921
542.15	7747.24822
542.356	7642.18498
542.562	7955.15419
542.768	7615.39535
542.974	7749.30774
543.18	7907.82782
543.386	7850.19841
543.592	7827.55384
543.798	8136.12949
544.004	7922.23265
544.21	7858.43218
544.415	7879.01514
544.621	8183.40416
544.827	8058.00029
545.033	8055.94387
545.239	7936.63647
545.445	8316.94981
545.651	7932.5212
545.856	8150.51855
546.062	8263.54153
546.268	8181.34896
546.474	7874.89871
546.679	8127.90673
546.885	7932.5212
547.091	8125.85099
547.297	7809.02459
547.502	7994.2417
547.708	8107.34843
547.914	8148.46303
548.119	8123.79523
548.325	8477.0958
548.531	7788.43456
548.736	8622.76869
548.942	8179.29374
549.147	8203.95507
549.353	8452.46558
549.559	8370.34487
549.764	8212.17489
549.97	8164.90663
550.175	8214.22979
550.381	8477.0958
550.586	8171.07265
550.792	8550.97
550.997	8234.77773
551.203	8655.58331
551.408	8452.46558
551.614	8392.93114
551.819	8782.69528
552.025	8600.20586
552.23	8472.99095
552.435	8833.93024
552.641	8883.10517
552.846	8850.32303
553.052	8667.88757
553.257	8932.2698
553.462	8581.74368
553.668	8879.00766
553.873	8682.24169
554.078	8948.65573
554.283	8563.27998
554.489	8999.85448
554.694	8958.89637
554.899	8899.49453
555.105	8661.73552
555.31	9079.70267
555.515	9038.75819
555.72	9108.35968
555.925	8999.85448
556.131	9032.61592
556.336	8870.81241
556.541	8932.2698
556.746	8948.65573
556.951	9212.72466
557.156	8856.47003
557.361	9231.13743
557.567	9155.43173
557.772	9022.37845
557.977	9003.94991
558.182	9139.05987
558.387	9028.52099
558.592	9182.03368
558.797	9096.07851
559.002	9186.12603
559.207	9376.34624
559.412	9259.7768
559.617	9085.84374
559.822	9390.65809
560.027	9177.94126
560.232	9458.11751
560.437	9169.75621
560.642	9335.4508
560.847	9349.76496
561.051	9229.09163
561.256	9331.3609
561.461	9648.13671
561.666	9157.47814
561.871	9145.19945
562.076	9431.5447
562.281	9468.3371
562.485	9359.98886
562.69	9644.05171
562.895	9286.36756
563.1	9646.09422
563.305	9613.4122
563.509	9750.24177
563.714	9474.46865
563.919	9592.9839
564.123	9488.77506
564.328	9490.81877
564.533	9415.19084
564.737	9476.51248
564.942	9468.3371
565.147	9911.4907
565.351	9823.73385
565.556	9854.34982
565.761	9676.73
565.965	9860.47261
566.17	9382.47999
566.374	9799.23866
566.579	9799.23866
566.784	9866.59527
566.988	9850.26788
567.193	9915.57175
567.397	9674.68772
567.602	9893.12525
567.806	9693.06767
568.011	9911.4907
568.215	9917.61225
568.42	9984.94068
568.624	10117.51155
568.828	10093.04143
569.033	9986.98068
569.237	10001.26034
569.442	9868.63612
569.646	9901.28782
569.85	9737.99118
570.055	10109.35506
570.259	9887.00317
570.463	10003.30024
570.668	10040.01587
570.872	9952.29857
571.076	9803.32134
571.281	10103.23756
571.485	10188.87126
571.689	10370.25355
571.893	10313.20092
572.098	10235.75559
572.302	10040.01587
572.506	10141.97965
572.71	10097.11992
572.914	10166.44575
573.119	10225.56396
573.323	10443.59178
573.527	10211.2951
573.731	10115.47245
573.935	10276.51872
574.139	10500.62103
574.343	10141.97965
574.547	10366.17871
574.751	10376.36572
574.955	10349.87881
575.159	10329.50274
575.364	10590.21831
575.568	10355.99137
575.772	10282.63272
575.976	10484.32799
576.18	10380.44043
576.383	10386.5524
576.587	10427.29586
576.791	10353.95386
576.995	10404.8876
577.199	10537.27741
577.403	10419.14758
577.607	10463.96053
577.811	10569.85743
578.015	10508.76725
578.219	10512.84028
578.422	10561.71273
578.626	10854.79894
578.83	10419.14758
579.034	10557.6403
579.238	10563.74892
579.442	10712.35769
579.645	10671.64945
579.849	10761.20123
580.053	11017.51959
580.257	10708.28709
580.46	10771.3761
580.664	10911.75943
580.868	10956.50782
581.071	10925.99815
581.275	10586.14623
581.479	10706.25177
581.682	10679.79149
581.886	10923.96408
582.09	10850.72999
582.293	10889.38317
582.497	10905.65695
582.7	11070.38841
582.904	11204.56112
583.107	11119.18387
583.311	11005.31804
583.515	10952.44001
583.718	10689.96876
583.922	11393.54586
584.125	11058.18857
584.329	11113.08478
584.532	11060.22191
584.735	11060.22191
584.939	10915.82769
585.142	11135.44765
585.346	10932.10028
585.549	11174.07139
585.753	11062.25523
585.956	11031.75424
586.159	10940.23631
586.363	11419.95618
586.566	11452.45893
586.769	11712.39419
586.973	11243.17808
587.176	11336.65642
587.379	11330.56066
587.582	11088.68744
587.786	11302.11258
587.989	11472.77189
588.192	11415.89316
588.395	11799.68305
588.599	11194.39814
588.802	11594.62976
589.005	11348.84767
589.208	11515.426
589.411	11269.59806
589.615	11261.46902
589.818	11259.43673
590.021	11466.67811
590.224	11424.01916
590.427	11740.81558
590.63	11554.01422
590.833	11625.08899
591.036	11421.98768
591.239	11748.93567
591.442	11535.73601
591.645	11501.20843
591.848	12000.59108
592.051	11852.45465
592.254	11616.96673
592.457	11929.57219
592.66	11698.18284
592.863	11838.24747
593.066	11645.39401
593.269	11769.23527
593.472	11606.8137
593.675	12185.19531
593.878	11807.80213
594.081	11931.60144
594.284	11637.27211
594.486	11998.5621
594.689	11752.99566
594.892	11899.13248
595.095	11968.12652
595.298	11923.4844
595.5	11677.88016
595.703	12006.67795
595.906	12087.82956
596.109	12317.01779
596.311	11927.54293
596.514	12061.45665
596.717	11923.4844
596.92	12284.57198
597.122	12041.16891
597.325	12057.39917
597.528	12124.34375
597.73	12349.4618
597.933	11931.60144
598.136	12390.01435
598.338	12158.82713
598.541	12379.87647
598.743	12323.10118
598.946	12229.81556
599.148	12057.39917
599.351	12231.84367
599.554	12460.97482
599.756	12248.06828
599.959	12284.57198
600.161	12369.73842
600.363	12144.62835
600.566	12268.3484
600.768	12183.16703
600.971	12351.4895
601.173	12306.87867
601.376	12241.9841
601.578	12406.23461
601.78	12582.60277
601.983	12377.84887
602.185	12450.8381
602.388	12497.46562
602.59	12629.22082
602.792	12442.72862
602.995	12596.79122
603.197	12288.6278
603.399	12692.04878
603.601	12363.65551
603.804	12398.12453
604.006	12250.09632
604.208	12598.81811
604.41	12446.78337
604.613	12610.97936
604.815	12317.01779
605.017	12606.92564
605.219	12317.01779
605.421	12426.50932
605.623	12481.24775
605.826	13099.28731
606.028	12752.84464
606.23	12803.50391
606.432	12617.0599
606.634	12819.71414
606.836	12359.6002
607.038	12629.22082
607.24	12637.32798
607.442	12706.23495
607.644	12639.35475
607.846	12775.13515
608.048	12580.57582
608.25	12613.00621
608.452	12475.16594
608.654	12568.41402
608.856	12598.81811
609.058	12629.22082
609.26	12460.97482
609.462	12783.24063
609.664	12681.91563
609.866	12568.41402
610.067	12604.89876
610.269	12570.441
610.471	12272.40434
610.673	12651.51527
610.875	12446.78337
611.077	12720.42083
611.278	12560.30602
611.48	12600.845
611.682	12706.23495
611.884	13113.46602
612.085	12533.95434
612.287	12886.57762
612.489	12608.9525
612.69	13034.46736
612.892	12718.39429
613.094	13103.3384
613.295	12566.38703
613.497	12702.18179
613.699	12842.00263
613.9	12679.88898
614.102	12657.59545
614.304	12694.07539
614.505	12604.89876
614.707	12783.24063
614.908	12608.9525
615.11	12679.88898
615.311	12576.52191
615.513	12623.14039
615.714	12793.37234
615.916	12515.71024
616.117	12483.275
616.319	13014.21009
616.52	12673.809
616.722	12937.22788
616.923	13042.57012
617.124	13168.15319
617.326	12726.50041
617.527	13004.08127
617.729	13072.9548
617.93	12981.79743
618.131	12977.74575
618.333	12868.34271
618.534	12708.26152
618.735	12991.92652
618.937	12916.96817
619.138	12714.3412
619.339	12825.79288
619.54	13034.46736
619.742	12856.18586
619.943	12985.84908
620.144	12809.58279
620.345	12969.64234
620.546	12914.94217
620.748	13034.46736
620.949	12533.95434
621.15	12987.8749
621.351	12773.10877
621.552	13162.077
621.753	12929.12406
621.954	12912.91617
622.155	12712.31465
622.356	13105.36393
622.558	12874.42106
622.759	13168.15319
622.96	12722.44736
623.161	12868.34271
623.362	12785.26698
623.563	13453.68998
623.764	13068.90358
623.965	12998.00392
624.166	12868.34271
624.366	13016.23584
624.567	12900.76003
624.768	13338.27019
624.969	12548.14384
625.17	12918.99417
625.371	12890.62976
625.572	13036.49305
625.773	12912.91617
625.973	13020.28732
626.174	12947.35755
626.375	13042.57012
626.576	13016.23584
626.777	13168.15319
626.977	13070.92919
627.178	13281.56791
627.379	12884.55154
627.58	13241.06424
627.78	13176.2547
627.981	13176.2547
628.182	13166.1278
628.382	13006.10704
628.583	12744.73882
628.784	13077.00601
628.984	12929.12406
629.185	13382.81971
629.386	12896.70794
629.586	13194.48285
629.787	12850.10737
629.987	12706.23495
630.188	12906.83812
630.388	12744.73882
630.589	12856.18586
630.79	13000.02971
630.99	12977.74575
631.191	13253.21552
631.391	12698.1286
631.591	12918.99417
631.792	12874.42106
631.992	13160.0516
632.193	13066.87795
632.393	13123.59353
632.594	13028.39023
632.794	12880.49936
632.994	12799.4513
633.195	12965.59061
633.395	12935.20194
633.595	13178.28007
633.796	13105.36393
633.996	13295.74379
634.196	13222.83702
634.397	13249.16511
634.597	13188.40684
634.797	13449.64038
634.997	13234.98854
635.198	13504.30872
635.398	13200.55881
635.598	13439.51631
635.798	13396.99415
635.998	13072.9548
636.199	13119.54254
636.399	13239.03901
636.599	13212.71063
636.799	13471.913
636.999	13103.3384
637.199	13301.8191
637.399	12979.77159
637.599	13202.58413
637.799	12923.04614
637.999	13336.24516
638.199	13374.71994
638.399	13741.17512
638.599	12979.77159
638.799	13475.96252
638.999	13255.24072
639.199	13239.03901
639.399	13208.66004
639.599	13668.29803
639.799	13113.46602
639.999	13318.01975
640.199	13245.11468
640.399	13475.96252
640.599	12975.71991
640.799	13324.09493
640.998	13151.94994
641.198	13538.72815
641.398	13338.27019
641.598	13542.77742
641.798	13293.71867
641.997	13609.58842
642.197	13305.86929
642.397	13538.72815
642.597	13328.14502
642.796	13512.40751
642.996	13313.96961
643.196	13415.21814
643.395	13172.20395
643.595	13413.19327
643.795	13425.34245
643.994	13575.17111
644.194	13208.66004
644.394	13654.127
644.593	13388.89449
644.793	13360.5452
644.992	13326.11998
645.192	13692.59085
645.392	13637.93134
645.591	13611.61294
645.791	13587.31851
645.99	13635.90687
646.19	13451.66518
646.389	13552.90055
646.589	13441.54113
646.788	13510.38282
646.987	13486.08625
647.187	13619.71097
647.386	13783.68488
647.586	13791.78183
647.785	13633.88239
647.984	13619.71097
648.184	13388.89449
648.383	13706.76145
648.582	13475.96252
648.782	13682.4689
648.981	13635.90687
649.18	13915.25459
649.38	13635.90687
649.579	13716.88321
649.778	13686.51769
649.977	13862.62813
650.177	13714.85887
650.376	13816.07239
650.575	13496.20988
650.774	13830.24169
650.973	13538.72815
651.173	13706.76145
651.372	13484.06151
651.571	13516.45688
651.77	13565.04818
651.969	14089.31432
652.168	13587.31851
652.367	13876.79698
652.566	13609.58842
652.765	13927.39889
652.964	13603.51485
653.163	13856.55573
653.362	13668.29803
653.561	13864.65226
653.76	13573.14653
653.959	13601.49032
654.158	13585.29395
654.357	13682.4689
654.556	13682.4689
654.755	13834.29004
654.954	13611.61294
655.153	13781.66064
655.352	13739.15081
655.551	13951.68722
655.749	13729.02922
655.948	13870.72463
656.147	13925.37485
656.346	14091.33817
656.545	13692.59085
656.743	13528.6049
656.942	13801.90295
657.141	13965.85524
657.34	13953.71123
657.538	14012.40644
657.737	13905.13426
657.936	14303.83041
658.135	13951.68722
658.333	14127.76702
658.532	13692.59085
658.731	13927.39889
658.929	13563.02358
659.128	13741.17512
659.326	13613.63745
659.525	14200.62265
659.724	13826.19333
659.922	14160.14764
660.121	14164.19517
660.319	14010.3825
660.518	14135.86223
660.716	14069.07573
660.915	13949.66321
661.113	14407.03357
661.312	13852.50745
661.51	13700.68836
661.709	13595.41671
661.907	13785.70912
662.105	13731.05354
662.304	13909.1824
662.502	14054.90858
662.701	14014.43038
662.899	13666.27361
663.097	13846.435
663.296	13809.99979
663.494	14099.43353
663.692	13880.84519
663.891	13992.16695
664.089	13560.99898
664.287	13886.9175
664.485	13496.20988
664.684	14115.62415
664.882	13927.39889
665.08	13878.82109
665.278	13781.66064
665.476	13601.49032
665.675	13619.71097
665.873	14060.98023
666.071	13797.85451
666.269	13692.59085
666.467	13577.19569
666.665	13969.90323
666.863	13769.51511
667.061	13834.29004
667.259	14032.64569
667.457	14095.38585
667.655	13828.21751
667.853	14032.64569
668.051	13878.82109
668.249	14150.02875
668.447	13749.27232
668.645	13982.04712
668.843	13982.04712
669.041	14028.59786
669.239	13540.75279
669.437	14022.5261
669.635	14006.33462
669.833	13698.66399
670.031	13668.29803
670.229	13741.17512
670.426	13935.49505
670.624	14135.86223
670.822	13520.50623
671.02	13601.49032
671.218	13447.61557
671.415	13882.8693
671.613	13637.93134
671.811	13682.4689
672.009	13368.64508
672.206	13820.12078
672.404	13569.09736
672.602	13781.66064
672.799	13650.07811
672.997	13860.604
673.195	13591.36762
673.392	13619.71097
673.59	13603.51485
673.788	13710.81017
673.985	13757.36947
674.183	13775.58789
674.38	13629.83343
674.578	13672.34687
674.775	13526.58024
674.973	13384.84464
675.17	13706.76145
675.368	13674.37128
675.565	13459.76435
675.763	13627.80895
675.96	13573.14653
676.158	13330.17006
676.355	13204.60944
676.553	13890.96568
676.75	13313.96961
676.947	13415.21814
677.145	13360.5452
677.342	13805.95138
677.539	13548.85131
677.737	13664.24918
677.934	13563.02358
678.131	13605.53938
678.329	13346.37025
678.526	13504.30872
678.723	13234.98854
678.92	13429.39214
679.118	13174.22933
679.315	13340.29521
679.512	13465.83869
679.709	13348.39525
679.906	13253.21552
680.104	13605.53938
680.301	13548.85131
680.498	13565.04818
680.695	13336.24516
680.892	13704.73709
681.089	13376.74489
681.286	13301.8191
681.483	13295.74379
681.68	13528.6049
681.877	13077.00601
682.075	13107.38946
682.272	13360.5452
682.469	13546.82668
682.665	12993.95233
682.862	13451.66518
683.059	13293.71867
683.256	13243.08946
683.453	13340.29521
683.65	13198.5335
683.847	13000.02971
684.044	13451.66518
684.241	13166.1278
684.438	13492.16044
684.635	12846.05501
684.831	12995.97813
685.028	13052.69847
685.225	13022.31306
685.422	12710.28809
685.619	13074.98041
685.815	12925.07212
686.012	12892.65583
686.209	12726.50041
686.405	13202.58413
686.602	13261.31629
686.799	13178.28007
686.996	13046.62148
687.192	13066.87795
687.389	13220.81175
687.586	13056.74978
687.782	12983.82326
687.979	13156.00078
688.175	12687.99554
688.372	13164.1024
688.568	12734.60643
688.765	12892.65583
688.962	13131.69546
689.158	13147.89908
689.355	12969.64234
689.551	13066.87795
689.748	12738.6594
689.944	12679.88898
690.14	12633.27441
690.337	13160.0516
690.533	12904.8121
690.73	12939.25383
690.926	12953.43528
691.123	12779.1879
691.319	12758.92394
691.515	12916.96817
691.712	12791.34601
691.908	13032.44165
692.104	12675.83566
692.301	12825.79288
692.497	12463.00214
692.693	12702.18179
692.889	12685.96891
693.086	13026.36451
693.282	13123.59353
693.478	12916.96817
693.674	12929.12406
693.87	13000.02971
694.067	12572.46798
694.263	12568.41402
694.459	12369.73842
694.655	12572.46798
694.851	12647.46179
695.047	12519.76453
695.243	12921.02016
695.439	12452.86546
695.635	12460.97482
695.831	12872.39495
696.027	12714.3412
696.224	12503.54722
696.42	12426.50932
696.615	12734.60643
696.811	12481.24775
697.007	12641.38152
697.203	12323.10118
697.399	12487.3295
697.595	12290.65571
697.791	12669.75565
697.987	12300.79511
698.183	12525.84591
698.379	12515.71024
698.575	12586.65664
698.77	12256.18041
698.966	12237.92795
699.162	12302.82297
699.358	12373.79366
699.554	11951.89348
699.749	12416.37205
699.945	11964.06831
700.141	11990.44612
700.337	12215.61859
700.532	12454.89281
700.728	12410.2896
700.924	12574.49495
701.119	12367.71079
701.315	12337.29551
701.511	12223.73119
701.706	12738.6594
701.902	12329.1845
702.097	12333.24002
702.293	12523.81879
702.489	12404.2071
702.684	11984.35906
702.88	12359.6002
703.075	12126.37225
703.271	12122.31525
703.466	11864.6319
703.662	12168.96888
703.857	12079.71496
704.053	12069.57153
704.248	11838.24747
704.443	12523.81879
704.639	12108.11553
704.834	12323.10118
705.03	12116.2297
705.225	12300.79511
705.42	11937.68914
705.616	11866.66141
705.811	11923.4844
706.006	12108.11553
706.202	12114.20117
706.397	12075.65761
706.592	11769.23527
706.787	12154.77037
706.983	11917.39653
707.178	12312.96216
707.373	12168.96888
707.568	12142.59993
707.763	12110.14408
707.959	12071.60023
708.154	11933.63068
708.349	11683.97106
708.544	11886.95608
708.739	11899.13248
708.934	11750.96567
709.129	12116.2297
709.324	11836.21784
709.519	12116.2297
709.714	11769.23527
709.909	12031.02475
710.104	11809.83188
710.299	11801.71283
710.494	11584.47622
710.689	12195.33659
710.884	11817.95079
711.079	12138.54305
711.274	11888.9855
711.469	12225.75932
711.664	11897.1031
711.859	11858.54331
712.054	11787.50417
712.249	11815.92107
712.443	11505.27064
712.638	11947.83513
712.833	11596.66044
713.028	11822.01019
713.223	11850.42508
713.417	11850.42508
713.612	11663.66775
713.807	11919.42583
714.002	11582.44549
714.196	11698.18284
714.391	11570.26088
714.586	11882.89721
714.78	11655.54618
714.975	11836.21784
715.17	11811.86162
715.364	12020.88039
715.559	11852.45465
715.754	11574.32245
715.948	11151.71074
716.143	11738.78554
716.337	11639.3026
716.532	11716.45449
716.726	11513.39495
716.921	11836.21784
717.115	11864.6319
717.31	11708.33385
717.504	11543.85975
717.699	11750.96567
717.893	11405.73544
718.088	11480.89681
718.282	11348.84767
718.476	11716.45449
718.671	11458.55292
718.865	11533.70505
719.059	11454.49027
719.254	11696.15261
719.448	11267.56581
719.642	11509.33281
719.837	11161.87483
720.031	11515.426
720.225	11261.46902
720.419	11578.38399
720.614	11182.20221
720.808	11533.70505
721.002	11328.52872
721.196	11468.70938
721.39	11279.75913
721.585	11210.65878
721.779	11151.71074
721.973	11354.94316
722.167	11062.25523
722.361	11247.2428
722.555	11003.28441
722.749	11157.80923
722.943	11066.32185
723.137	10984.98123
723.331	10773.41104
723.525	10942.27029
723.719	10885.31461
723.913	11076.48819
724.107	10964.6433
724.301	11184.23489
724.495	10982.94749
724.689	11241.1457
724.883	10773.41104
725.077	10883.28031
725.271	10759.16622
725.465	10850.72999
725.659	10826.3153
725.853	10883.28031
726.046	11066.32185
726.24	11007.35166
726.434	10915.82769
726.628	11129.34881
726.822	10771.3761
727.015	10964.6433
727.209	10899.55437
727.403	10987.01496
727.596	10736.78032
727.79	11084.62107
727.984	11023.62022
728.177	10995.14977
728.371	10950.40609
728.565	10799.86416
728.758	10753.06112
728.952	10991.08239
729.146	10808.00319
729.339	10748.99099
729.533	10799.86416
729.726	10852.76447
729.92	10858.86785
730.113	11135.44765
730.307	11056.15523
730.5	11023.62022
730.694	10991.08239
730.887	10824.28067
731.081	10873.10865
731.274	11440.27069
731.468	10848.6955
731.661	10997.18345
731.854	10883.28031
732.048	11131.38177
732.241	10751.02606
732.435	11149.67789
732.628	11013.45245
732.821	10895.48592
733.014	10850.72999
733.208	10696.07498
733.401	10828.34993
733.594	10700.14573
733.788	10549.4953
733.981	10700.14573
734.174	10488.40133
734.367	10486.36466
734.56	10553.56782
734.754	10647.22218
734.947	10571.89357
735.14	10671.64945
735.333	10726.60444
735.526	10712.35769
735.719	10516.91327
735.912	10777.48088
736.105	10761.20123
736.298	10571.89357
736.491	10622.79313
736.684	10842.59195
736.877	10744.92081
737.07	10655.3648
737.263	10689.96876
737.456	10982.94749
737.649	10842.59195
737.842	10899.55437
738.035	10698.11036
738.228	10773.41104
738.421	10724.56922
738.614	10883.28031
738.807	10624.82895
739	10490.43798
739.192	10541.35009
739.385	10679.79149
739.578	10486.36466
739.771	10500.62103
739.964	10337.65332
740.156	10427.29586
740.349	10103.23756
740.542	10463.96053
740.735	10221.48721
740.927	10203.14117
741.12	10276.51872
741.313	10298.93614
741.505	10362.10381
741.698	10268.36652
741.891	10188.87126
742.083	10264.29035
742.276	10378.40308
742.468	10518.94974
742.661	10606.50612
742.854	10390.62698
743.046	10217.41041
743.239	10484.32799
743.431	10276.51872
743.624	10178.67805
743.816	10037.97624
744.009	10303.01186
744.201	10129.74585
744.393	10129.74585
744.586	10025.73812
744.778	10080.80561
744.971	10111.39421
745.163	10119.55063
745.355	9911.4907
745.548	10274.48069
745.74	10078.76626
745.932	10382.47777
746.125	9954.33881
746.317	10113.43333
746.509	10135.86281
746.702	10294.86036
746.894	10201.10265
747.086	10160.32941
747.278	10305.0497
747.471	10070.60871
747.663	10078.76626
747.855	10031.85724
748.047	10099.15915
748.239	10068.56928
748.431	10109.35506
748.623	10258.17598
748.815	10150.13524
749.008	10109.35506
749.2	10007.37998
749.392	10266.32844
749.584	9978.82056
749.776	10186.83264
749.968	10172.56196
750.16	10337.65332
750.352	9825.77502
750.544	10072.64812
750.736	9927.81455
750.928	10003.30024
751.12	9840.06278
751.311	9811.48653
751.503	9827.81617
751.695	9948.21804
751.887	10027.77784
752.079	10046.13469
752.271	9574.5971
752.463	9782.90733
752.654	9699.19404
752.846	9864.5544
753.038	10050.21384
753.23	9793.11452
753.421	9782.90733
753.613	9729.82382
753.805	9760.45017
753.997	9907.40959
754.188	9811.48653
754.38	9668.5608
754.572	9513.29851
754.763	9935.97612
754.955	9984.94068
755.146	9817.61026
755.338	10046.13469
755.53	9809.44525
755.721	9850.26788
755.913	9492.86246
756.104	9386.56907
756.296	9615.45494
756.487	9517.38552
756.679	9735.94936
756.87	9384.52454
757.062	9433.58886
757.253	9224.99999
757.445	9445.85347
757.636	9186.12603
757.827	9456.07354
758.019	9362.03359
758.21	9480.60007
758.401	9308.86523
758.593	9372.25699
758.784	9578.68317
758.975	9384.52454
759.167	9357.94411
759.358	9394.74705
759.549	9120.64022
759.74	9407.01352
759.932	9261.82234
760.123	9108.35968
760.314	9370.21234
760.505	9407.01352
760.696	9096.07851
760.888	9120.64022
761.079	9157.47814
761.27	9317.04571
761.461	9427.45633
761.652	9353.85457
761.843	9091.98466
762.034	9251.59446
762.225	8934.31811
762.416	8975.28046
762.607	8881.05643
762.798	9202.49476
762.989	8971.18454
763.18	9120.64022
763.371	8885.15391
763.562	9167.70991
763.753	8753.99875
763.944	9026.47349
764.135	8530.45185
764.326	8852.37205
764.517	8801.14117
764.708	8790.89364
764.899	8794.99271
765.089	8723.24848
765.28	8858.519
765.471	8657.63407
765.662	8704.79634
765.853	8680.19116
766.043	8678.1406
766.234	8659.6848
766.425	8444.25489
766.615	8776.54633
766.806	8509.93181
766.997	8579.69224
767.187	8438.09668
767.378	8534.55563
767.569	8505.82758
767.759	8542.76297
767.95	8407.30301
768.141	8470.9385
768.331	8421.67393
768.522	8392.93114
768.712	8415.51508
768.903	8559.17673
769.093	8053.88742
769.284	8226.55879
769.474	8382.66495
769.665	8532.50375
769.855	8323.11145
770.046	8411.40908
770.236	8097.06852
770.426	8333.38046
770.617	8462.7285
770.807	8222.4492
770.998	8169.01733
771.188	8080.61963
771.378	8236.83242
771.569	8362.1311
771.759	8325.16529
771.949	8333.38046
772.139	8382.66495
772.33	8047.71797
772.52	8078.56343
772.71	8483.25292
772.9	8158.74043
773.09	8349.80986
773.281	8129.96245
773.471	8366.23803
773.661	8191.62476
773.851	8037.43514
774.041	7792.55273
774.231	7821.37761
774.421	7920.17488
774.611	7981.89907
774.802	7895.48003
774.992	8053.88742
775.182	7864.60728
775.372	7979.8419
775.562	8033.32186
775.752	7899.59604
775.942	7720.47261
776.131	8055.94387
776.321	7819.31883
776.511	7811.08348
776.701	7576.23479
776.891	8029.20851
777.081	7743.12913
777.271	7642.18498
777.461	7559.74383
777.651	7567.98948
777.84	7491.7041
778.03	7755.48616
778.22	7658.66912
778.41	7860.49056
778.599	7782.25714
778.789	7839.90573
778.979	7794.61179
779.169	7763.72376
779.358	8027.1518
779.548	7986.01337
779.738	7862.54893
779.927	7965.44109
780.117	7547.37471
780.307	7477.26842
780.496	7382.37897
780.686	7627.76024
780.875	7456.64418
781.065	7555.62088
781.254	7039.56554
781.444	7551.49784
781.633	7314.27773
781.823	7526.7578
782.012	7398.88479
782.202	7415.38921
782.391	7409.20021
782.581	7345.23579
782.77	7047.83331
782.96	7394.75846
783.149	7064.36777
783.338	7225.50389
783.528	7419.5151
783.717	7254.41147
783.906	7396.82164
784.096	7320.46973
784.285	7093.29962
784.474	7105.69764
784.663	7039.56554
784.853	6992.01892
785.042	7006.49089
785.231	7283.31473
785.42	7049.9002
785.61	7221.37388
785.799	6723.05201
785.988	7056.10072
786.177	6623.64358
786.366	6828.61561
786.555	6838.96179
786.744	6950.66434
786.933	6828.61561
787.122	6934.11998
787.312	6745.82566
787.501	6925.84726
787.69	7122.22709
787.879	6888.61553
788.068	6843.1001
788.257	6898.95842
788.445	6950.66434
788.634	7078.83424
788.823	6985.81631
789.012	6799.64329
789.201	6958.93598
789.39	6905.16388
789.579	6677.49639
789.768	6874.13454
789.957	6828.61561
790.145	6783.08566
790.334	6841.03096
790.523	6596.71133
790.712	6741.68521
790.9	6791.36466
791.089	6650.57193
791.278	6896.88989
791.467	6708.55825
791.655	6843.1001
791.844	6565.63081
792.033	6654.7144
792.221	6536.61764
792.41	6578.06365
792.599	6244.1595
792.787	6314.72375
792.976	6206.791
793.164	6302.2732
793.353	6129.9541
793.541	6532.47253
793.73	6447.47734
793.918	6470.28476
794.107	6142.41632
794.295	6339.62233
794.484	6298.12283
794.672	6181.87444
794.861	6337.54758
795.049	6488.94328
795.238	6356.21951
795.426	6387.3352
795.614	6314.72375
795.803	6807.92155
795.991	6542.83513
796.179	6439.18304
796.368	6171.49155
796.556	6225.4762
796.744	6235.85605
796.932	6314.72375
797.121	6003.20677
797.309	6136.18531
797.497	6146.5702
797.685	6196.40951
797.874	6107.10449
798.062	6150.724
798.25	6269.06762
798.438	6092.56235
798.626	5938.76061
798.814	6009.44229
799.002	5978.26255
799.19	6069.70809
799.378	5859.73118
799.566	6065.55246
799.755	5915.88717
799.943	5872.21177
800.131	5978.26255
800.318	6179.79791
800.506	5716.14325
800.694	5811.88102
800.882	5672.42028
801.07	5828.52597
801.258	5809.8003
801.446	6119.56826
801.634	5705.73397
801.822	6019.83436
802.01	5913.80763
802.197	6021.9127
802.385	5878.45175
802.573	5865.97158
802.761	5626.6041
802.949	6136.18531
803.136	6015.6776
803.324	6132.03119
803.512	6090.48481
803.699	6040.61673
803.887	5967.86813
804.075	6017.75599
804.262	5645.34846
804.45	5936.68132
804.638	5895.09066
804.825	6098.79484
805.013	5903.40955
805.201	5974.10486
805.388	6021.9127
805.576	6032.30406
805.763	6090.48481
805.951	6314.72375
806.138	6204.71475
806.326	5936.68132
806.513	5774.42436
806.701	6208.86723
806.888	5859.73118
807.075	6296.04761
807.263	6048.92902
807.45	5972.02597
807.638	5853.49056
807.825	6362.44307
808.012	5932.52268
808.2	6057.24093
808.387	5759.85582
808.574	5832.68697
808.761	5612.02383
808.949	5788.99175
809.136	5703.65204
809.323	5728.63362
809.51	5487.00271
809.698	5641.18321
809.885	5359.81106
810.072	5699.48811
810.259	5736.96006
810.446	5832.68697
810.633	5838.9283
810.82	6084.25204
811.008	6036.46044
811.195	5969.94706
811.382	5853.49056
811.569	6034.38226
811.756	5959.55217
811.943	6161.10807
812.13	5965.78918
812.317	6219.24801
812.504	5855.57079
812.691	6080.09674
812.878	5695.32409
813.064	6069.70809
813.251	5922.12566
813.438	6192.25675
813.625	5838.9283
813.812	5986.57767
813.999	5795.23456
814.186	5911.72806
814.372	5722.38854
814.559	5967.86813
814.746	5778.58659
814.933	6179.79791
815.12	5922.12566
815.306	6071.78587
815.493	5878.45175
815.68	5870.13173
815.866	5568.27608
816.053	5757.77451
816.24	5824.36487
816.426	5865.97158
816.613	5689.07788
816.799	5859.73118
816.986	5662.00851
817.173	5861.81133
817.359	5672.42028
817.546	5716.14325
817.732	5676.58482
817.919	5741.12314
818.105	5653.67868
818.292	6055.16298
818.478	5678.66706
818.665	5684.91362
818.851	5553.69119
819.037	5695.32409
819.224	5653.67868
819.41	5845.16941
819.597	5512.01371
819.783	5732.79689
819.969	5603.69172
820.156	5651.59616
820.342	5795.23456
820.528	5791.07271
820.714	5580.7765
820.901	5797.31545
821.087	5505.76128
821.273	5582.85982
821.459	5453.64942
821.646	5539.10515
821.832	5461.98831
822.018	5620.35555
822.204	5545.35645
822.39	5670.33797
822.576	5457.81891
822.762	5728.63362
822.948	5820.20368
823.134	5795.23456
823.32	5480.74943
823.507	5888.85125
823.693	5705.73397
823.879	5899.25015
824.065	5426.54545
824.25	5539.10515
824.436	5117.69798
824.622	5464.07297
824.808	5509.92959
824.994	5714.06144
825.18	5374.41126
825.366	5664.09091
825.552	5084.27847
825.738	5299.31227
825.923	5109.34366
826.109	5257.5775
826.295	4879.45492
826.481	5313.91723
826.667	5128.14036
826.852	5263.83831
827.038	5324.34864
827.224	5424.46036
827.409	5128.14036
827.595	5459.90362
827.781	5086.36736
827.966	5259.66446
828.152	5234.61938
828.338	5303.48523
828.523	5161.55206
828.709	5391.0958
828.894	5382.75372
829.08	5069.65557
829.266	5061.29911
829.451	5251.31647
829.637	4927.5456
829.822	5203.30831
830.008	5078.01165
830.193	5165.72811
830.378	4960.99283
830.564	5316.00356
830.749	5011.15262
830.935	5080.10061
831.12	4843.90185
831.305	4917.09214
831.491	4902.45632
831.676	4952.63157
831.861	4737.20317
832.047	4937.99849
832.232	4818.8016
832.417	5027.86959
832.602	4622.07007
832.788	4812.52602
832.973	4762.31405
833.158	4883.6372
833.343	4722.55365
833.528	4605.31778
833.714	4651.38312
833.899	4835.53547
834.084	4586.46975
834.269	4735.11045
834.454	4661.85101
834.639	4958.90255
834.824	4829.26044
835.009	4946.36039
835.194	4785.3295
835.379	5078.01165
835.564	4689.06488
835.749	5073.83365
835.934	4686.97164
836.119	4569.71443
836.304	4456.5789
836.489	4578.09226
836.674	4412.56442
836.859	4559.24163
837.044	4546.67354
837.228	4737.20317
837.413	4416.75669
837.598	4709.99604
837.783	4089.50101
837.968	4632.53952
838.152	4267.87789
838.337	4575.99784
838.522	4379.02311
838.707	4622.07007
838.891	4366.44368
839.076	4502.67893
839.261	4326.60367
839.445	4567.61991
839.63	4301.43755
839.815	4640.91468
839.999	4293.04815
840.184	4504.77413
840.368	4431.42895
840.553	4580.18667
840.737	4343.37936
840.922	4450.29171
841.106	4326.60367
841.291	4437.71674
841.475	4156.67254
841.66	4609.50598
841.844	4366.44368
842.029	4280.46341
842.213	4360.15367
842.397	4408.37206
842.582	4081.10306
842.766	4588.56406
842.951	4307.72937
843.135	4460.77026
843.319	4228.01869
843.504	4150.37612
843.688	4072.70478
843.872	4223.82253
844.056	4194.44708
844.241	4265.78023
844.425	4131.48573
844.609	4165.06748
844.793	3967.69846
844.977	4118.89119
845.161	3946.69106
845.346	4064.30617
845.53	3875.25078
845.714	4202.84049
845.898	3866.84452
846.082	3852.13279
846.266	3837.42009
846.45	3976.10085
846.634	3946.69106
846.818	3898.36635
847.002	3885.75816
847.186	3789.07153
847.37	3778.5596
847.554	3782.76443
847.738	3627.13416
847.922	3812.19605
848.106	3639.75673
848.29	3887.85958
848.473	3683.93035
848.657	3669.20674
848.841	3576.63711
849.025	3717.58079
849.209	3889.96097
849.392	3782.76443
849.576	3627.13416
849.76	3810.09392
849.944	3570.32423
850.127	3620.82262
850.311	3321.8878
850.495	3568.21989
850.678	3353.4824
850.862	3816.40026
851.046	3534.54805
851.229	3721.78675
851.413	3646.06776
851.596	3622.92649
851.78	3416.65983
851.964	3627.13416
852.147	3342.9513
852.331	3502.97642
852.514	3408.23709
852.698	3593.47066
852.881	3054.23584
853.065	3307.14232
853.248	3349.27002
853.431	3475.61103
853.615	3229.18809
853.798	3368.22522
853.982	3227.0809
854.165	3302.92917
854.348	3157.53436
854.532	3606.09503
854.715	3458.76926
854.898	3429.29341
855.081	3174.39576
855.265	3370.33126
855.448	3031.0412
855.631	3286.07589
855.814	3125.91642
855.997	3248.15206
856.181	3052.12732
856.364	3214.43741
856.547	3168.07286
856.73	3286.07589
856.913	3050.01877
857.096	3393.49662
857.279	3252.36609
857.462	3208.11544
857.645	3222.86647
857.828	3265.00777
858.011	3024.71506
858.194	3298.71595
858.377	3020.49756
858.56	3265.00777
858.743	2997.30021
858.926	3159.64209
859.109	3054.23584
859.292	3130.13236
859.475	2953.00928
859.658	3090.07841
859.841	2714.57311
860.023	3009.95354
860.206	2771.56063
860.389	2929.80666
860.572	2813.76727
860.755	2773.67109
860.937	2737.79141
861.12	2822.20794
861.303	2710.35143
861.486	3037.36719
861.668	2872.84726
861.851	2826.4282
862.034	2666.02066
862.216	2915.04042
862.399	2535.10732
862.581	2775.78154
862.764	2592.12369
862.947	2670.24288
863.129	2459.07241
863.312	2647.02003
863.494	2454.84783
863.677	2674.46505
863.859	2598.45831
864.042	2853.85847
864.224	2581.56576
864.406	2613.23865
864.589	2380.91067
864.771	2562.56073
864.954	2361.8962
865.136	2461.18469
865.318	2397.81173
865.501	2583.67737
865.683	2389.36128
865.865	2579.45414
866.048	2294.2827
866.23	2268.92511
866.412	2241.4529
866.594	2414.71212
866.777	2264.69872
866.959	2347.1066
867.141	2133.66317
867.323	2524.5478
867.505	2321.75188
867.687	2456.96013
867.869	2328.0907
868.052	2532.99544
868.234	2399.92431
868.416	2454.84783
868.598	2501.31583
868.78	2541.4429
868.962	2421.04959
869.144	2450.6232
869.326	2163.25466
869.508	2556.2255
869.69	2146.34543
869.872	2554.11374
870.054	2328.0907
870.236	2395.69913
870.417	2364.00896
870.599	2397.81173
870.781	2222.43279
870.963	2264.69872
871.145	2169.59549
871.327	2186.504
871.508	1966.6555
871.69	2252.01931
871.872	2184.39047
872.054	2194.95805
872.235	1998.36909
872.417	2323.86483
872.599	2364.00896
872.78	2226.65954
872.962	1996.25489
873.144	2279.49093
873.325	2129.43569
873.507	2228.77291
873.689	2040.6516
873.87	2220.3194
874.052	2188.61753
874.233	2249.90605
874.415	2165.36828
874.596	2393.58653
874.778	2013.16827
874.959	2175.93624
875.141	2044.8797
875.322	2235.11294
875.503	2165.36828
875.685	2421.04959
875.866	2152.68645
876.048	2389.36128
876.229	2051.2218
876.41	2230.88626
876.592	2082.93136
876.773	2383.02334
876.954	1837.67356
877.136	2220.3194
877.317	2074.47563
877.498	2169.59549
877.679	2106.18398
877.86	2268.92511
878.042	2150.57279
878.223	2247.79278
878.404	2116.75305
878.585	2243.5662
878.766	2101.9563
878.947	2230.88626
879.128	1922.25418
879.309	2061.79183
879.49	2042.76566
879.672	2304.84796
879.853	2025.85303
880.034	2027.96713
880.215	2068.13377
880.396	2309.074
880.576	1998.36909
880.757	2209.75232
880.938	1985.68382
881.119	2237.22627
881.3	2066.0198
881.481	2243.5662
881.662	2123.09441
881.843	2203.41197
882.023	2023.73892
882.204	2066.0198
882.385	1956.08399
882.566	2125.20818
882.747	1981.45535
882.927	2201.29851
883.108	1956.08399
883.289	2099.84245
883.469	2085.04527
883.65	2154.80011
883.831	2032.19531
884.011	2385.136
884.192	2171.70908
884.373	2423.16206
884.553	1992.02648
884.734	2159.0274
884.914	2104.07014
885.095	2235.11294
885.275	2017.39655
885.456	2235.11294
885.636	1922.25418
885.817	2131.54943
885.997	2032.19531
886.178	1892.65191
886.358	1837.67356
886.538	2030.08122
886.719	1850.36117
886.899	2076.58957
887.08	2178.04981
887.26	2205.52543
887.44	2002.59746
887.621	2209.75232
887.801	1972.99833
887.981	2197.07155
888.161	1884.19393
888.342	2104.07014
888.522	2051.2218
888.702	2378.79799
888.882	2156.91376
889.062	2241.4529
889.242	2051.2218
889.423	2298.50883
889.603	2123.09441
889.783	2171.70908
889.963	1932.82616
890.143	2114.63926
890.323	1922.25418
890.503	2055.44984
890.683	2011.05412
890.863	1953.96967
891.043	1905.33873
891.223	1979.3411
891.403	1812.29784
891.583	2175.93624
891.763	1801.72443
891.943	2082.93136
892.122	1939.16927
892.302	2197.07155
892.482	1930.71177
892.662	1989.91227
892.842	1818.64183
893.022	2095.61472
893.201	1829.21506
893.381	1992.02648
893.561	1905.33873
893.741	2040.6516
893.92	1856.70491
894.1	2142.11804
894.28	1939.16927
894.459	2057.56384
894.639	1856.70491
894.819	2017.39655
894.998	1898.99534
895.178	1947.62668
895.357	1723.47812
895.537	1975.11259
895.716	1653.68694
895.896	1970.88406
896.075	1875.73586
896.255	2013.16827
896.434	1803.83912
896.614	1966.6555
896.793	1763.65931
896.973	1926.48299
897.152	1698.09988
897.331	1818.64183
897.511	1679.06591
897.69	1719.24844
897.87	1700.21475
898.049	1753.08544
898.228	1550.05281
898.407	1879.9649
898.587	1668.49139
898.766	1875.73586
898.945	1490.83176
899.124	1814.41251
899.304	1429.49528
899.483	1770.00359
899.662	1588.123
899.841	1918.02535
900.02	1742.51148
900.199	1875.73586
900.378	1547.93778
900.557	1655.80187
900.737	1476.02642
900.916	1662.14664
901.095	1503.52204
901.274	1507.75213
901.453	1522.55741
901.632	1550.05281
901.811	1389.3094
901.989	1545.82276
902.168	1311.05372
902.347	1490.83176
902.526	1340.66375
902.705	1302.59378
902.884	1304.70876
903.063	1376.61917
903.242	1325.8587
903.42	1372.38911
903.599	1036.13182
903.778	1321.6287
903.957	1063.6207
904.135	1296.24884
904.314	1224.34106
904.493	1237.03044
904.672	1201.07748
904.85	1374.50414
905.029	1230.68574
905.207	1372.38911
905.386	1095.33978
905.565	1184.15878
905.743	1112.25708
905.922	1194.73294
906.1	989.61445
906.279	1156.66639
906.457	1004.41511
906.636	1059.39158
906.814	852.19655
906.993	1019.21607
907.171	860.65207
907.35	976.92843
907.528	960.01411
907.707	962.12838
907.885	976.92843
908.063	949.44289
908.242	831.05835
908.42	957.89985
908.598	841.62734
908.777	987.5001
908.955	875.44956
909.133	911.388
909.311	805.69371
909.49	860.65207
909.668	833.17213
909.846	981.15708
910.024	818.37586
910.202	936.75766
910.38	864.87988
910.559	957.89985
910.737	900.81763
910.915	945.21445
911.093	902.93169
911.271	972.69981
911.449	847.96884
911.627	964.24265
911.805	864.87988
911.983	1082.65201
912.161	873.33561
912.339	1017.10163
912.517	805.69371
912.695	900.81763
912.872	964.24265
913.05	1059.39158
913.228	805.69371
913.406	801.4664
913.584	847.96884
913.762	799.35276
913.939	759.19542
914.117	831.05835
914.295	750.74171
914.473	894.4755
914.65	691.57044
914.828	881.79147
915.006	831.05835
915.184	797.23912
915.361	678.89201
915.539	839.51352
915.716	771.8763
915.894	869.10773
916.072	750.74171
916.249	831.05835
916.427	733.83477
916.604	869.10773
916.782	738.06144
916.959	833.17213
917.137	721.15502
917.314	900.81763
917.492	877.56352
917.669	898.70358
917.847	780.33042
918.024	776.10334
918.201	712.70206
918.379	771.8763
918.556	681.00505
918.733	902.93169
918.911	647.19775
919.088	687.34425
919.265	621.84429
919.442	712.70206
919.62	630.29525
919.797	700.02295
919.974	710.58885
920.151	691.57044
920.328	619.73158
920.506	790.89829
920.683	651.4235
920.86	695.79667
921.037	695.79667
921.214	721.15502
921.391	594.38007
921.568	729.60814
921.745	765.53582
921.922	645.0849
922.099	594.38007
922.276	594.38007
922.453	647.19775
922.63	683.11811
922.807	630.29525
922.984	626.06974
923.161	543.68269
923.338	611.28088
923.514	518.33696
923.691	619.73158
923.868	564.80566
924.045	552.13172
924.222	552.13172
924.399	484.54585
924.575	478.21043
924.752	566.91803
924.929	467.65171
925.105	556.35631
925.282	501.44093
925.459	505.66485
925.635	349.42099
925.812	454.98174
925.989	463.42832
926.165	421.19789
926.342	465.54001
926.518	518.33696
926.695	389.52924
926.871	425.42065
927.048	454.98174
927.224	495.10517
927.401	368.41887
927.577	370.52983
927.754	349.42099
927.93	353.64262
928.107	450.75854
928.283	410.64126
928.459	408.52999
928.636	573.25523
928.812	326.20327
928.988	391.64037
929.165	391.64037
929.341	400.08505
929.517	271.33363
929.693	330.42451
929.87	298.76691
930.046	419.08653
930.222	370.52983
930.398	368.41887
930.574	324.09267
930.751	459.205
930.927	334.64583
931.103	343.08867
931.279	305.0981
931.455	290.32557
931.631	214.36707
931.807	374.75181
931.983	345.19943
932.159	300.87729
932.335	218.58633
932.511	258.67319
932.687	302.98769
932.863	216.47669
933.039	246.01343
933.215	218.58633
933.391	273.44377
933.566	286.10501
933.742	271.33363
933.918	296.65654
934.094	157.41499
934.27	248.12334
934.445	159.52406
934.621	191.16258
934.797	214.36707
934.973	214.36707
935.148	214.36707
935.324	172.17891
935.5	142.6521
935.675	218.58633
935.851	159.52406
936.027	117.34672
936.202	229.13482
936.378	199.6003
936.553	79.39455
936.729	235.46415
936.904	121.56407
937.08	115.23808
937.255	104.6952
937.431	102.58669
937.606	123.67278
937.782	70.96171
937.957	161.63315
938.133	148.97893
938.308	108.91229
938.483	56.20513
938.659	138.43433
938.834	102.58669
939.009	49.88122
939.185	104.6952
939.36	125.7815
939.535	121.56407
939.71	-0.70246
939.886	81.50281
940.061	79.39455
940.236	49.88122
940.411	108.91229
940.586	24.58768
940.761	96.26129
940.937	14.04971
941.112	125.7815
941.287	83.6111
941.462	108.91229
941.637	56.20513
941.812	119.45538
941.987	45.6654
942.162	104.6952
942.337	11.94218
942.512	100.4782
942.687	96.26129
942.862	87.82774
943.037	-4.91714
943.212	92.04447
943.386	96.26129
943.561	108.91229
943.736	104.6952
943.911	96.26129
944.086	77.2863
944.26	92.04447
944.435	70.96171
944.61	102.58669
944.785	66.74543
944.959	96.26129
945.134	87.82774
945.309	14.04971
945.483	45.6654
945.658	60.42118
945.833	-7.02445
946.007	70.96171
946.182	111.02086
946.357	-28.09618
946.531	70.96171
946.706	98.36974
946.88	104.6952
947.055	70.96171
947.229	45.6654
947.404	54.09713
947.578	-53.37899
947.752	45.6654
947.927	64.63732
948.101	26.69535
948.276	85.71941
948.45	54.09713
948.624	54.09713
948.799	58.31314
948.973	39.34183
949.147	-9.13173
949.321	94.15287
949.496	45.6654
949.67	33.01848
949.844	41.44967
950.018	79.39455
950.193	89.9361
950.367	49.88122
950.541	-23.88203
950.715	98.36974
950.889	54.09713
951.063	11.94218
951.237	49.88122
951.411	115.23808
951.585	7.72721
951.759	5.61975
951.933	87.82774
952.107	100.4782
952.281	102.58669
952.455	-4.91714
952.629	144.76102
952.803	83.6111
952.977	41.44967
953.151	125.7815
953.325	94.15287
953.499	62.52924
953.672	62.52924
953.846	37.23403
954.02	83.6111
954.194	92.04447
954.368	33.01848
954.541	39.34183
954.715	64.63732
954.889	39.34183
955.062	37.23403
955.236	16.15725
955.41	117.34672
955.583	54.09713
955.757	56.20513
955.93	54.09713
956.104	115.23808
956.278	-2.80981
956.451	28.80304
956.625	58.31314
956.798	81.50281
956.972	75.17808
957.145	54.09713
957.319	3.51233
957.492	54.09713
957.665	83.6111
957.839	129.99903
958.012	129.99903
958.185	14.04971
958.359	83.6111
958.532	87.82774
958.705	140.5432
958.879	39.34183
959.052	70.96171
959.225	96.26129
959.398	54.09713
959.572	121.56407
959.745	123.67278
959.918	51.98916
960.091	45.6654
960.264	129.99903
960.438	106.80373
960.611	37.23403
960.784	28.80304
960.957	28.80304
961.13	22.48004
961.303	-0.70246
961.476	100.4782
961.649	64.63732
961.822	24.58768
961.995	58.31314
962.168	64.63732
962.341	96.26129
962.514	30.91075
962.686	70.96171
962.859	-17.56062
963.032	79.39455
963.205	87.82774
963.378	45.6654
963.551	18.26482
963.723	-21.77492
963.896	117.34672
964.069	81.50281
964.242	56.20513
964.414	20.37242
964.587	1.40492
964.76	68.85356
964.932	77.2863
965.105	47.77329
965.278	45.6654
965.45	5.61975
965.623	73.06989
965.795	92.04447
965.968	56.20513
966.14	54.09713
966.313	14.04971
966.485	49.88122
966.658	102.58669
966.83	98.36974
967.003	28.80304
967.175	73.06989
967.348	106.80373
967.52	66.74543
967.692	16.15725
967.865	7.72721
968.037	68.85356
968.209	62.52924
968.382	73.06989
968.554	66.74543
968.726	49.88122
968.898	43.55752
969.071	28.80304
969.243	75.17808
969.415	54.09713
969.587	45.6654
969.759	87.82774
969.932	41.44967
970.104	-44.95179
970.276	-36.52418
970.448	9.83468
970.62	49.88122
970.792	161.63315
970.964	3.51233
971.136	62.52924
971.308	41.44967
971.48	-4.91714
971.652	49.88122
971.824	24.58768
971.996	117.34672
972.168	5.61975
972.339	75.17808
972.511	28.80304
972.683	106.80373
972.855	30.91075
973.027	89.9361
973.199	89.9361
973.37	62.52924
973.542	64.63732
973.714	28.80304
973.886	22.48004
974.057	3.51233
974.229	49.88122
974.401	79.39455
974.572	54.09713
974.744	64.63732
974.915	45.6654
975.087	35.12624
975.259	16.15725
975.43	20.37242
975.602	54.09713
975.773	64.63732
975.945	62.52924
976.116	24.58768
976.288	5.61975
976.459	14.04971
976.63	54.09713
976.802	22.48004
976.973	75.17808
977.145	70.96171
977.316	54.09713
977.487	66.74543
977.659	70.96171
977.83	49.88122
978.001	-28.09618
978.172	89.9361
978.344	35.12624
978.515	77.2863
978.686	87.82774
978.857	58.31314
979.028	5.61975
979.2	121.56407
979.371	37.23403
979.542	54.09713
979.713	-13.34623
979.884	45.6654
980.055	-13.34623
980.226	70.96171
980.397	83.6111
980.568	-30.20322
980.739	37.23403
980.91	62.52924
981.081	3.51233
981.252	-21.77492
981.423	11.94218
981.594	66.74543
981.765	129.99903
981.936	54.09713
982.106	142.6521
982.277	39.34183
982.448	14.04971
982.619	-2.80981
982.79	37.23403
982.96	33.01848
983.131	45.6654
983.302	45.6654
983.472	5.61975
983.643	16.15725
983.814	96.26129
983.984	5.61975
984.155	49.88122
984.326	20.37242
984.496	-13.34623
984.667	62.52924
984.837	56.20513
985.008	41.44967
985.178	66.74543
985.349	58.31314
985.519	41.44967
985.69	75.17808
985.86	73.06989
986.031	62.52924
986.201	9.83468
986.371	77.2863
986.542	-4.91714
986.712	7.72721
986.882	60.42118
987.053	-47.05863
987.223	-13.34623
987.393	45.6654
987.563	16.15725
987.734	28.80304
987.904	28.80304
988.074	56.20513
988.244	85.71941
988.414	33.01848
988.585	18.26482
988.755	9.83468
988.925	75.17808
989.095	47.77329
989.265	-4.91714
989.435	39.34183
989.605	49.88122
989.775	41.44967
989.945	-34.41722
990.115	-21.77492
990.285	75.17808
990.455	62.52924
990.625	-13.34623
990.795	3.51233
990.965	-51.27223
991.134	-11.23899
991.304	-19.66778
991.474	62.52924
991.644	3.51233
991.814	100.4782
991.984	81.50281
992.153	33.01848
992.323	-55.48573
992.493	81.50281
992.662	28.80304
992.832	43.55752
993.002	62.52924
993.171	-2.80981
993.341	43.55752
993.511	115.23808
993.68	5.61975
993.85	20.37242
994.019	73.06989
994.189	24.58768
994.358	45.6654
994.528	-42.84492
994.697	11.94218
994.867	79.39455
995.036	96.26129
995.206	45.6654
995.375	51.98916
995.544	51.98916
995.714	11.94218
995.883	49.88122
996.052	26.69535
996.222	20.37242
996.391	28.80304
996.56	49.88122
996.73	89.9361
996.899	3.51233
997.068	1.40492
997.237	-17.56062
997.406	54.09713
997.576	-7.02445
997.745	16.15725
997.914	62.52924
998.083	14.04971
998.252	24.58768
998.421	-4.91714
998.59	24.58768
998.759	22.48004
998.928	70.96171
999.097	-30.20322
999.266	-0.70246
999.435	22.48004
999.604	11.94218
999.773	-53.37899
999.942	28.80304
1000.111	56.20513
1000.28	11.94218
1000.448	16.15725
1000.617	-87.08375
1000.786	-0.70246
1000.955	56.20513
1001.124	51.98916
1001.292	-25.98912
1001.461	-21.77492
1001.63	-4.91714
1001.798	45.6654
1001.967	22.48004
1002.136	14.04971
1002.304	68.85356
1002.473	-9.13173
1002.642	11.94218
1002.81	68.85356
1002.979	-4.91714
1003.147	-9.13173
1003.316	54.09713
1003.484	62.52924
1003.653	-53.37899
1003.821	24.58768
1003.99	41.44967
1004.158	1.40492
1004.327	54.09713
1004.495	-30.20322
1004.663	20.37242
1004.832	47.77329
1005	20.37242
1005.168	7.72721
1005.337	56.20513
1005.505	56.20513
1005.673	98.36974
1005.842	47.77329
1006.01	26.69535
1006.178	-44.95179
1006.346	11.94218
1006.514	9.83468
1006.683	37.23403
1006.851	94.15287
1007.019	41.44967
1007.187	-0.70246
1007.355	18.26482
1007.523	22.48004
1007.691	83.6111
1007.859	26.69535
1008.027	11.94218
1008.195	-7.02445
1008.363	-2.80981
1008.531	-11.23899
1008.699	-19.66778
1008.867	16.15725
1009.035	-15.45344
1009.203	60.42118
1009.37	56.20513
1009.538	20.37242
1009.706	-4.91714
1009.874	-0.70246
1010.042	73.06989
1010.209	16.15725
1010.377	14.04971
1010.545	60.42118
1010.713	33.01848
1010.88	37.23403
1011.048	49.88122
1011.216	49.88122
1011.383	-21.77492
1011.551	92.04447
1011.718	-21.77492
1011.886	14.04971
1012.054	-7.02445
1012.221	1.40492
1012.389	64.63732
1012.556	11.94218
1012.724	60.42118
1012.891	66.74543
1013.058	22.48004
1013.226	43.55752
1013.393	113.12946
1013.561	7.72721
1013.728	51.98916
1013.895	39.34183
1014.063	-11.23899
1014.23	28.80304
1014.397	41.44967
1014.565	45.6654
1014.732	-0.70246
1014.899	41.44967
1015.066	11.94218
1015.233	66.74543
1015.401	33.01848
1015.568	39.34183
1015.735	33.01848
1015.902	-53.37899
1016.069	24.58768
1016.236	41.44967
1016.403	28.80304
1016.57	-30.20322
1016.737	-0.70246
1016.904	3.51233
1017.071	28.80304
1017.238	37.23403
1017.405	96.26129
1017.572	75.17808
1017.739	81.50281
1017.906	104.6952
1018.073	16.15725
1018.24	28.80304
1018.407	-36.52418
1018.573	16.15725
1018.74	41.44967
1018.907	49.88122
1019.074	77.2863
1019.241	30.91075
1019.407	7.72721
1019.574	-11.23899
1019.741	-28.09618
1019.907	11.94218
1020.074	18.26482
1020.241	39.34183
1020.407	14.04971
1020.574	3.51233
1020.74	16.15725
1020.907	-25.98912
1021.073	41.44967
1021.24	-0.70246
1021.406	41.44967
1021.573	26.69535
1021.739	33.01848
1021.906	54.09713
1022.072	14.04971
1022.239	24.58768
1022.405	73.06989
1022.571	-21.77492
1022.738	7.72721
1022.904	33.01848
1023.07	-17.56062
1023.237	20.37242
1023.403	33.01848
1023.569	-15.45344
1023.735	3.51233
1023.902	22.48004
1024.068	66.74543
1024.234	-38.63112
1024.4	-2.80981
1024.566	28.80304
1024.732	28.80304
1024.898	22.48004
1025.065	28.80304
1025.231	83.6111
1025.397	83.6111
1025.563	33.01848
1025.729	-19.66778
1025.895	11.94218
1026.061	64.63732
1026.227	22.48004
1026.392	28.80304
1026.558	14.04971
1026.724	58.31314
1026.89	-34.41722
1027.056	-0.70246
1027.222	-7.02445
1027.388	16.15725
1027.553	14.04971
1027.719	79.39455
1027.885	60.42118
1028.051	35.12624
1028.216	1.40492
1028.382	37.23403
1028.548	45.6654
1028.713	14.04971
1028.879	35.12624
1029.045	24.58768
1029.21	30.91075
1029.376	66.74543
1029.541	1.40492
1029.707	56.20513
1029.873	-11.23899
1030.038	83.6111
1030.204	3.51233
1030.369	33.01848
1030.534	5.61975
1030.7	1.40492
1030.865	5.61975
1031.031	-36.52418
1031.196	64.63732
1031.361	-44.95179
1031.527	18.26482
1031.692	28.80304
1031.857	49.88122
1032.023	87.82774
1032.188	-4.91714
1032.353	104.6952
1032.518	-36.52418
1032.684	-17.56062
1032.849	30.91075
1033.014	-13.34623
1033.179	45.6654
1033.344	5.61975
1033.509	16.15725
1033.674	58.31314
1033.839	11.94218
1034.004	22.48004
1034.17	-0.70246
1034.335	-34.41722
1034.5	-2.80981
1034.664	-9.13173
1034.829	7.72721
1034.994	1.40492
1035.159	-21.77492
1035.324	-17.56062
1035.489	-66.01904
1035.654	-34.41722
1035.819	-4.91714
1035.984	45.6654
1036.148	11.94218
1036.313	24.58768
1036.478	22.48004
1036.643	43.55752
1036.807	-34.41722
1036.972	-42.84492
1037.137	-4.91714
1037.301	39.34183
1037.466	58.31314
1037.631	-17.56062
1037.795	-17.56062
1037.96	62.52924
1038.124	30.91075
1038.289	1.40492
1038.454	-25.98912
1038.618	5.61975
1038.783	-72.33872
1038.947	39.34183
1039.111	37.23403
1039.276	33.01848
1039.44	-42.84492
1039.605	16.15725
1039.769	41.44967
1039.933	20.37242
1040.098	-11.23899
1040.262	24.58768
1040.426	-11.23899
1040.591	-57.59244
1040.755	79.39455
1040.919	-30.20322
1041.083	49.88122
1041.248	1.40492
1041.412	16.15725
1041.576	20.37242
1041.74	-0.70246
1041.904	5.61975
1042.068	1.40492
1042.232	45.6654
1042.397	30.91075
1042.561	-30.20322
1042.725	-21.77492
1042.889	58.31314
1043.053	18.26482
1043.217	11.94218
1043.381	89.9361
1043.544	49.88122
1043.708	-78.65817
1043.872	-4.91714
1044.036	64.63732
1044.2	35.12624
1044.364	-4.91714
1044.528	3.51233
1044.691	14.04971
1044.855	28.80304
1045.019	1.40492
1045.183	3.51233
1045.346	-32.31023
1045.51	-17.56062
1045.674	-28.09618
1045.837	-7.02445
1046.001	14.04971
1046.165	28.80304
1046.328	20.37242
1046.492	30.91075
1046.655	117.34672
1046.819	41.44967
1046.983	24.58768
1047.146	148.97893
1047.31	-40.73804
1047.473	-38.63112
1047.636	-57.59244
1047.8	79.39455
1047.963	-11.23899
1048.127	62.52924
1048.29	24.58768
