Data from absorb_only_2.23.25_USB4F045381__40__0145.txt Node

Date: Sun Feb 23 19:19:47 EST 2025
User: ssocol
Spectrometer: USB4F04538
Trigger mode: 4
Integration Time (sec): 2.600000E-3
Scans to average: 1
Electric dark correction enabled: true
Nonlinearity correction enabled: true
Boxcar width: 0
XAxis mode: Wavelengths
Number of Pixels in Spectrum: 3648
>>>>>Begin Spectral Data<<<<<
345.52	26.34407
345.736	26.34407
345.952	26.34407
346.168	1.05369
346.384	-53.73012
346.6	15.80599
346.816	26.34407
347.032	30.55946
347.248	-32.6614
347.464	-17.91182
347.68	-15.80464
347.896	-36.87534
348.112	13.69845
348.328	-41.08919
348.544	-3.16104
348.76	22.12877
348.975	38.99053
349.191	22.12877
349.407	-3.16104
349.623	-7.37567
349.839	-20.01897
350.055	17.91356
350.27	-11.5902
350.486	-1.05368
350.702	-3.16104
350.918	3.16109
351.133	-7.37567
351.349	-45.30293
351.565	-26.3403
351.781	-57.94356
351.996	-79.00925
352.212	-45.30293
352.428	9.48343
352.644	-1.05368
352.859	-83.22208
353.075	9.48343
353.291	5.26851
353.506	11.59093
353.722	-7.37567
353.938	9.48343
354.153	17.91356
354.369	-53.73012
354.584	22.12877
354.8	26.34407
355.016	7.37596
355.231	-20.01897
355.447	-17.91182
355.662	-7.37567
355.878	20.02115
356.093	-24.23321
356.309	-11.5902
356.524	15.80599
356.74	-45.30293
356.955	64.28597
357.171	11.59093
357.386	-36.87534
357.602	1.05369
357.817	-45.30293
358.033	9.48343
358.248	-28.44736
358.464	1.05369
358.679	13.69845
358.895	30.55946
359.11	5.26851
359.325	55.85379
359.541	-60.05024
359.756	60.06984
359.972	17.91356
360.187	-36.87534
360.402	-3.16104
360.618	49.5299
360.833	-20.01897
361.048	5.26851
361.264	-28.44736
361.479	-17.91182
361.694	-7.37567
361.909	55.85379
362.125	36.88273
362.34	-62.1569
362.555	38.99053
362.77	-20.01897
362.986	1.05369
363.201	32.66719
363.416	7.37596
363.631	-15.80464
363.847	-1.05368
364.062	20.02115
364.277	79.04317
364.492	3.16109
364.707	-3.16104
364.922	24.2364
365.138	22.12877
365.353	89.5847
365.568	-17.91182
365.783	-34.76838
365.998	-62.1569
366.213	-45.30293
366.428	7.37596
366.643	-3.16104
366.858	-9.48295
367.073	-20.01897
367.288	9.48343
367.503	17.91356
367.718	-57.94356
367.933	-1.05368
368.148	-72.68981
368.363	74.82672
368.578	-15.80464
368.793	41.09836
369.008	-41.08919
369.223	-57.94356
369.438	47.42198
369.653	28.45175
369.868	43.20621
370.083	17.91356
370.298	55.85379
370.513	-30.55439
370.728	1.05369
370.943	41.09836
371.157	22.12877
371.372	-26.3403
371.587	-57.94356
371.802	-20.01897
372.017	13.69845
372.232	98.01833
372.446	22.12877
372.661	-20.01897
372.876	-24.23321
373.091	28.45175
373.306	-3.16104
373.52	-30.55439
373.735	15.80599
373.95	9.48343
374.165	-24.23321
374.379	-7.37567
374.594	7.37596
374.809	13.69845
375.023	32.66719
375.238	5.26851
375.453	30.55946
375.667	-11.5902
375.882	-28.44736
376.097	28.45175
376.311	72.71852
376.526	-9.48295
376.741	-11.5902
376.955	-34.76838
377.17	34.77495
377.384	-30.55439
377.599	-36.87534
377.813	15.80599
378.028	-41.08919
378.242	-34.76838
378.457	-38.98228
378.672	13.69845
378.886	64.28597
379.101	-79.00925
379.315	32.66719
379.53	9.48343
379.744	-9.48295
379.958	-93.7537
380.173	-1.05368
380.387	-36.87534
380.602	76.93493
380.816	34.77495
381.031	-20.01897
381.245	-7.37567
381.459	-7.37567
381.674	24.2364
381.888	15.80599
382.103	-32.6614
382.317	-32.6614
382.531	5.26851
382.746	38.99053
382.96	-51.62336
383.174	-45.30293
383.388	24.2364
383.603	9.48343
383.817	38.99053
384.031	-79.00925
384.246	-62.1569
384.46	26.34407
384.674	66.39408
384.888	-45.30293
385.103	-83.22208
385.317	57.9618
385.531	17.91356
385.745	-15.80464
385.959	26.34407
386.174	26.34407
386.388	-11.5902
386.602	-20.01897
386.816	74.82672
387.03	32.66719
387.244	-28.44736
387.458	-32.6614
387.672	34.77495
387.887	-3.16104
388.101	55.85379
388.315	24.2364
388.529	-5.26836
388.743	74.82672
388.957	26.34407
389.171	7.37596
389.385	-34.76838
389.599	-15.80464
389.813	32.66719
390.027	-41.08919
390.241	43.20621
390.455	57.9618
390.669	20.02115
390.883	13.69845
391.097	7.37596
391.311	32.66719
391.525	72.71852
391.738	-28.44736
391.952	-28.44736
392.166	38.99053
392.38	60.06984
392.594	-20.01897
392.808	26.34407
393.022	7.37596
393.236	-17.91182
393.449	-62.1569
393.663	1.05369
393.877	-26.3403
394.091	7.37596
394.305	13.69845
394.518	66.39408
394.732	34.77495
394.946	81.15143
395.16	55.85379
395.373	-15.80464
395.587	-1.05368
395.801	64.28597
396.015	-24.23321
396.228	-51.62336
396.442	5.26851
396.656	-28.44736
396.869	15.80599
397.083	32.66719
397.297	-49.51657
397.51	-30.55439
397.724	7.37596
397.938	-22.12611
398.151	-3.16104
398.365	-95.85994
398.578	-7.37567
398.792	30.55946
399.005	70.61035
399.219	-7.37567
399.433	47.42198
399.646	-28.44736
399.86	-15.80464
400.073	22.12877
400.287	-17.91182
400.5	-28.44736
400.714	13.69845
400.927	-36.87534
401.141	55.85379
401.354	30.55946
401.567	57.9618
401.781	-28.44736
401.994	-45.30293
402.208	38.99053
402.421	5.26851
402.635	5.26851
402.848	9.48343
403.061	-36.87534
403.275	26.34407
403.488	98.01833
403.701	-34.76838
403.915	1.05369
404.128	-53.73012
404.341	51.63784
404.555	13.69845
404.768	-20.01897
404.981	-9.48295
405.195	1.05369
405.408	17.91356
405.621	55.85379
405.834	22.12877
406.048	38.99053
406.261	-28.44736
406.474	22.12877
406.687	15.80599
406.9	-9.48295
407.114	49.5299
407.327	-32.6614
407.54	-34.76838
407.753	47.42198
407.966	7.37596
408.179	24.2364
408.392	-34.76838
408.605	-62.1569
408.819	13.69845
409.032	-26.3403
409.245	17.91356
409.458	-11.5902
409.671	30.55946
409.884	13.69845
410.097	51.63784
410.31	83.25972
410.523	-11.5902
410.736	1.05369
410.949	-45.30293
411.162	38.99053
411.375	41.09836
411.588	22.12877
411.801	-13.69743
412.014	60.06984
412.227	38.99053
412.44	-57.94356
412.653	-28.44736
412.865	-26.3403
413.078	60.06984
413.291	-20.01897
413.504	-30.55439
413.717	38.99053
413.93	81.15143
414.143	66.39408
414.356	-11.5902
414.568	3.16109
414.781	13.69845
414.994	13.69845
415.207	57.9618
415.42	66.39408
415.632	7.37596
415.845	26.34407
416.058	79.04317
416.271	-11.5902
416.483	72.71852
416.696	17.91356
416.909	28.45175
417.121	43.20621
417.334	34.77495
417.547	30.55946
417.759	7.37596
417.972	41.09836
418.185	-5.26836
418.397	13.69845
418.61	30.55946
418.823	1.05369
419.035	30.55946
419.248	26.34407
419.46	1.05369
419.673	-3.16104
419.885	-26.3403
420.098	-51.62336
420.311	28.45175
420.523	-5.26836
420.736	43.20621
420.948	24.2364
421.161	-5.26836
421.373	17.91356
421.586	30.55946
421.798	28.45175
422.01	26.34407
422.223	100.12679
422.435	45.31408
422.648	-72.68981
422.86	47.42198
423.073	-3.16104
423.285	66.39408
423.497	11.59093
423.71	68.5022
423.922	45.31408
424.134	47.42198
424.347	13.69845
424.559	-9.48295
424.771	30.55946
424.984	3.16109
425.196	30.55946
425.408	-41.08919
425.621	24.2364
425.833	-49.51657
426.045	-22.12611
426.257	13.69845
426.47	-3.16104
426.682	116.99528
426.894	64.28597
427.106	-1.05368
427.318	55.85379
427.531	13.69845
427.743	-11.5902
427.955	72.71852
428.167	62.17789
428.379	79.04317
428.591	89.5847
428.804	123.32132
429.016	17.91356
429.228	81.15143
429.44	26.34407
429.652	-34.76838
429.864	-34.76838
430.076	60.06984
430.288	30.55946
430.5	-1.05368
430.712	51.63784
430.924	60.06984
431.136	5.26851
431.348	5.26851
431.56	17.91356
431.772	9.48343
431.984	5.26851
432.196	-7.37567
432.408	89.5847
432.62	-9.48295
432.832	104.34378
433.044	104.34378
433.256	-28.44736
433.468	-22.12611
433.679	34.77495
433.891	-15.80464
434.103	83.25972
434.315	9.48343
434.527	64.28597
434.739	22.12877
434.95	-13.69743
435.162	-38.98228
435.374	-1.05368
435.586	112.77803
435.798	47.42198
436.009	57.9618
436.221	70.61035
436.433	-20.01897
436.645	30.55946
436.856	-3.16104
437.068	13.69845
437.28	38.99053
437.491	38.99053
437.703	38.99053
437.915	47.42198
438.126	68.5022
438.338	-49.51657
438.55	43.20621
438.761	55.85379
438.973	3.16109
439.184	57.9618
439.396	34.77495
439.608	121.21262
439.819	32.66719
440.031	85.36802
440.242	66.39408
440.454	7.37596
440.665	-47.40976
440.877	55.85379
441.088	76.93493
441.3	47.42198
441.511	66.39408
441.723	72.71852
441.934	51.63784
442.146	51.63784
442.357	45.31408
442.569	81.15143
442.78	72.71852
442.991	26.34407
443.203	30.55946
443.414	-55.83685
443.626	64.28597
443.837	-9.48295
444.048	45.31408
444.26	38.99053
444.471	9.48343
444.682	5.26851
444.894	95.90989
445.105	9.48343
445.316	9.48343
445.528	68.5022
445.739	-57.94356
445.95	60.06984
446.161	1.05369
446.373	74.82672
446.584	43.20621
446.795	116.99528
447.006	85.36802
447.217	74.82672
447.429	60.06984
447.64	57.9618
447.851	-11.5902
448.062	106.45231
448.273	-11.5902
448.484	49.5299
448.695	106.45231
448.907	-7.37567
449.118	15.80599
449.329	41.09836
449.54	51.63784
449.751	43.20621
449.962	1.05369
450.173	68.5022
450.384	55.85379
450.595	74.82672
450.806	89.5847
451.017	30.55946
451.228	81.15143
451.439	30.55946
451.65	64.28597
451.861	74.82672
452.072	34.77495
452.283	55.85379
452.494	1.05369
452.705	5.26851
452.915	51.63784
453.126	57.9618
453.337	93.80147
453.548	68.5022
453.759	28.45175
453.97	57.9618
454.181	47.42198
454.391	32.66719
454.602	30.55946
454.813	66.39408
455.024	152.84542
455.235	68.5022
455.445	123.32132
455.656	98.01833
455.867	119.10394
456.078	45.31408
456.288	121.21262
456.499	83.25972
456.71	116.99528
456.921	-28.44736
457.131	150.73642
457.342	98.01833
457.553	98.01833
457.763	89.5847
457.974	53.7458
458.184	57.9618
458.395	102.23527
458.606	169.71819
458.816	123.32132
459.027	133.86516
459.237	100.12679
459.448	173.93659
459.659	114.88664
459.869	123.32132
460.08	150.73642
460.29	55.85379
460.501	83.25972
460.711	138.08285
460.922	30.55946
461.132	72.71852
461.343	87.47635
461.553	106.45231
461.764	127.53879
461.974	116.99528
462.184	182.37364
462.395	209.7963
462.605	133.86516
462.816	140.19172
463.026	108.56086
463.236	140.19172
463.447	167.60902
463.657	180.26435
463.867	216.12509
464.078	199.24872
464.288	163.39074
464.498	190.81102
464.709	152.84542
464.919	148.62743
465.129	211.90588
465.339	209.7963
465.55	188.70164
465.76	159.17255
465.97	182.37364
466.18	197.13926
466.391	235.11252
466.601	258.32152
466.811	207.68674
467.021	176.04582
467.231	251.99156
467.441	258.32152
467.651	190.81102
467.862	245.66178
468.072	302.63595
468.282	258.32152
468.492	266.76173
468.702	344.84764
468.912	296.30482
469.122	251.99156
469.332	389.17739
469.542	346.9584
469.752	416.6233
469.962	315.29871
470.172	355.40166
470.382	294.19448
470.592	387.06628
470.802	389.17739
471.012	414.51198
471.222	412.40067
471.432	414.51198
471.642	460.96471
471.852	532.7697
472.062	427.18015
472.272	629.94312
472.482	460.96471
472.691	545.44289
472.901	433.51445
473.111	526.43329
473.321	473.63494
473.531	583.4654
473.741	701.78392
473.95	615.15409
474.16	604.59088
474.37	741.93593
474.58	583.4654
474.79	820.1373
474.999	760.95663
475.209	674.31378
475.419	629.94312
475.628	834.93362
475.838	763.0701
476.048	904.69341
476.258	839.16122
476.467	985.03336
476.677	953.31898
476.886	938.51948
477.096	987.14771
477.306	1181.69149
477.515	989.26206
477.725	1088.64343
477.935	1109.78996
478.144	1092.8727
478.354	1243.02269
478.563	1223.98858
478.773	1300.1263
478.982	1433.37287
479.192	1289.55143
479.401	1367.80654
479.611	1281.09157
479.82	1460.86855
480.03	1367.80654
480.239	1615.26531
480.449	1532.78008
480.658	1583.5405
480.868	1471.44381
481.077	1733.69977
481.287	1666.02399
481.496	1682.94322
481.705	1754.84776
481.915	1721.01081
482.124	1788.68375
482.333	2004.35927
482.543	1945.15995
482.752	2052.98349
482.961	1966.30312
483.171	2304.49579
483.38	1915.55852
483.589	2103.71784
483.799	1959.96023
484.008	2319.28677
484.217	2165.01601
484.426	2300.26971
484.636	2177.69755
484.845	2355.20573
485.054	2203.05973
485.263	2473.50608
485.472	2323.51267
485.682	2503.07588
485.891	2591.77177
486.1	2591.77177
486.309	2473.50608
486.518	2682.5574
486.727	2754.32468
486.936	2864.0563
487.146	2619.221
487.355	2857.72665
487.564	2807.08492
487.773	2815.52577
487.982	2720.55373
488.191	2861.94643
488.4	2931.56449
488.609	3091.83529
488.818	3106.59258
489.027	3254.12191
489.236	3072.86049
489.445	3300.47147
489.654	3351.02519
489.863	3308.89778
490.072	3226.7297
490.281	3437.36453
490.49	3325.74957
490.698	3372.08629
490.907	3283.61803
491.116	3738.25934
491.325	3353.13137
491.534	3637.3024
491.743	3569.9735
491.952	3776.10675
492.16	3489.99578
492.369	3914.82597
492.578	3578.39066
492.787	4049.25784
492.996	3834.96788
493.204	4026.15832
493.413	3855.98596
493.622	3998.85569
493.831	3910.62363
494.039	4137.43289
494.248	4135.33391
494.457	4298.99067
494.665	4095.44935
494.874	4301.08799
495.083	4112.24377
495.291	4514.90063
495.5	4519.09076
495.709	4265.43062
495.917	4322.06002
496.126	4303.18529
496.335	4359.80422
496.543	4458.32531
496.752	4414.31121
496.96	4519.09076
497.169	4598.68627
497.377	4753.59537
497.586	4588.21501
497.794	4778.70412
498.003	4493.94868
498.211	4856.10218
498.42	4678.24956
498.628	4837.27849
498.837	4607.06287
499.045	4761.96531
499.254	4805.90158
499.462	5265.57739
499.671	4770.3349
499.879	4914.65291
500.087	4768.24254
500.296	5000.35545
500.504	4904.19874
500.713	5104.81825
500.921	5340.69001
501.129	5154.9398
501.338	5031.70036
501.546	5263.49049
501.754	5192.52218
501.962	5507.49809
502.171	5159.11599
502.379	5326.08715
502.587	5242.62026
502.795	5430.36805
503.004	5392.83369
503.212	5488.73969
503.42	5411.60182
503.628	5455.38672
503.837	5390.74822
504.045	5545.00916
504.253	5469.97939
504.461	5663.74385
504.669	5605.42761
504.877	5555.42755
505.085	5574.17916
505.294	5776.15864
505.502	5586.67918
505.71	5867.70499
505.918	5609.59367
506.126	5680.40223
506.334	5574.17916
506.542	5965.44268
506.75	5959.20566
506.958	6071.43957
507.166	5923.85854
507.374	5928.01738
507.582	5811.53424
507.79	5948.81016
507.998	5846.90301
508.206	6196.06345
508.414	5921.77909
508.622	6218.902
508.83	6079.75046
509.037	6173.22207
509.245	5936.33477
509.453	6098.44859
509.661	6166.99211
509.869	6378.69248
510.077	6391.13787
510.285	6370.39509
510.492	6162.83869
510.7	6532.1271
510.908	6270.79723
511.116	6544.56217
511.324	6333.0522
511.531	6552.85176
511.739	6586.00641
511.947	6532.1271
512.155	6335.127
512.362	6604.6533
512.57	6436.76379
512.778	6521.7639
512.985	6372.46947
513.193	6652.29797
513.401	6586.00641
513.608	6592.22224
513.816	6594.29414
514.024	6693.71822
514.231	6793.0894
514.439	6774.46132
514.646	6811.71563
514.854	6985.47171
515.061	6571.50198
515.269	6884.13344
515.477	6685.43491
515.684	6995.8093
515.892	6927.57078
516.099	6879.99603
516.307	6819.99336
516.514	7086.75589
516.722	6975.13356
516.929	7061.95658
517.136	6944.11571
517.344	6898.61366
517.551	7030.95291
517.759	7307.74151
517.966	7057.82305
518.173	7417.10834
518.381	7107.41952
518.588	7276.77746
518.796	7216.8996
519.003	7450.11272
519.21	7320.12574
519.418	7645.96272
519.625	7322.1897
519.832	7318.06175
520.039	7148.7401
520.247	7437.73673
520.454	7472.80002
520.661	7788.09137
520.868	7495.4847
521.076	7884.84661
521.283	7705.71017
521.49	7792.20955
521.697	7582.07501
521.904	7713.9498
522.112	7441.86215
522.319	7932.17825
522.526	7491.36041
522.733	8067.93939
522.94	7705.71017
523.147	7790.15047
523.354	7915.71631
523.561	7936.29353
523.768	7818.97569
523.975	7872.49743
524.183	7903.36898
524.39	8139.89815
524.597	7891.02092
524.804	8133.73122
525.011	7995.9559
525.218	8215.94219
525.425	8078.22073
525.632	8067.93939
525.838	7932.17825
526.045	7963.04086
526.252	7932.17825
526.459	8312.49962
526.666	8135.78688
526.873	8220.05191
527.08	8250.87224
527.287	8400.80157
527.494	8135.78688
527.701	8404.90776
527.907	8207.72253
528.114	8458.28129
528.321	8392.58894
528.528	8630.63096
528.735	8505.48555
528.941	8499.32905
529.148	8217.99706
529.355	8823.34261
529.562	8367.94922
529.768	8523.95405
529.975	8437.75455
530.182	8727.00707
530.388	8589.60739
530.595	8747.50737
530.802	8716.75623
531.008	8679.8494
531.215	8929.88009
531.422	8802.84905
531.628	8931.92842
531.835	8933.97672
532.042	8913.49286
532.248	9132.57904
532.455	8970.84321
532.661	9165.32254
532.868	9071.17314
533.074	9228.75066
533.281	9009.75164
533.487	9298.29839
533.694	8884.81245
533.9	9445.5128
534.107	9009.75164
534.313	9224.65902
534.52	9265.57246
534.726	9052.74834
534.933	9062.98451
535.139	9373.96085
535.345	9367.8269
535.552	9406.67279
535.758	9478.21565
535.965	9449.60088
536.171	9382.13923
536.377	9551.78207
536.584	9576.29963
536.79	9515.00144
536.996	9559.95484
537.203	9490.47815
537.409	9425.07142
537.615	9837.68154
537.821	9668.22041
538.028	9923.3936
538.234	9715.19002
538.44	9778.48409
538.646	9629.41327
538.853	9884.62232
539.059	9786.65001
539.265	9778.48409
539.471	9751.94319
539.677	9784.60855
539.883	9602.85777
540.09	9896.86646
540.296	9580.38567
540.502	10139.60089
540.708	9958.07921
540.914	10318.97458
541.12	10070.2688
541.326	10265.98876
541.532	10058.03204
541.738	10518.61033
541.944	9768.27636
542.15	10406.58525
542.356	10159.98961
542.562	10270.06492
542.768	10290.44488
542.974	10235.41587
543.18	10327.12544
543.386	10707.94787
543.592	10371.95139
543.798	10058.03204
544.004	10406.58525
544.21	10803.59457
544.415	10363.80169
544.621	10644.84721
544.827	10510.46435
545.033	10730.33563
545.239	10233.37757
545.445	10671.3102
545.651	10426.95635
545.856	10858.52877
546.062	10593.951
546.268	10781.21153
546.474	10469.73144
546.679	10652.98989
546.885	10414.73385
547.091	10661.13237
547.297	10367.87657
547.502	10589.87897
547.708	10624.48965
547.914	10473.80496
548.119	10840.21832
548.325	10573.59035
548.531	10494.1718
548.736	10642.81151
548.942	10465.65787
549.147	10832.08003
549.353	10968.37201
549.559	11035.48227
549.764	10724.23002
549.97	10738.47627
550.175	10673.34573
550.381	11189.9941
550.586	10954.13494
550.792	11129.00999
550.997	11114.77898
551.203	11250.96876
551.408	11106.64674
551.614	11439.93212
551.819	11157.47042
552.025	11504.93213
552.23	11370.85874
552.435	11255.03341
552.641	11533.36656
552.846	11277.38823
553.052	11340.38156
553.257	11608.50589
553.462	11417.58609
553.668	11454.15172
553.873	11389.14398
554.078	11385.08066
554.283	11413.52305
554.489	11500.86991
554.694	11551.64486
554.899	11835.87957
555.105	11695.81424
555.31	11565.8608
555.515	11604.44463
555.72	11610.5365
555.925	11527.27362
556.131	11671.45079
556.336	11610.5365
556.541	11699.87469
556.746	11965.75924
556.951	11774.98666
557.156	11586.16849
557.361	11904.88235
557.567	11939.38015
557.772	12006.33979
557.977	11787.16586
558.182	11933.29247
558.387	11874.44113
558.592	11770.92686
558.797	11722.20653
559.002	12209.19603
559.207	11886.61784
559.412	11937.35093
559.617	11793.25534
559.822	11973.8756
560.027	12002.28188
560.232	12284.23399
560.437	12152.40392
560.642	12152.40392
560.847	11957.64274
561.051	12142.26186
561.256	11854.14595
561.461	12201.08323
561.666	12257.87043
561.871	12270.03838
562.076	12063.14726
562.281	12231.50565
562.485	12091.54871
562.69	12274.0943
562.895	11919.08761
563.1	12395.75907
563.305	12312.62419
563.509	12318.70762
563.714	12128.06265
563.919	12231.50565
564.123	12178.77241
564.328	12418.06161
564.533	12389.67642
564.737	12564.0222
564.942	12140.23342
565.147	12478.8826
565.351	12290.31772
565.556	12304.51284
565.761	12338.98528
565.965	12351.15155
566.17	12460.63693
566.374	12369.40048
566.579	12586.31882
566.784	12436.30853
566.988	12551.86008
567.193	12559.96818
567.397	12373.45572
567.602	13119.20496
567.806	12734.26868
568.011	12965.25296
568.215	12936.89023
568.42	12961.2012
568.624	12851.79584
568.828	12922.70848
569.033	12817.35017
569.237	12963.22709
569.442	13155.66321
569.646	12499.15496
569.85	12817.35017
570.055	12847.74349
570.259	12904.47442
570.463	12938.91617
570.668	12906.50045
570.872	13244.77715
571.076	12914.60451
571.281	12819.37643
571.485	12981.45979
571.689	13252.87799
571.893	12961.2012
572.098	13250.85278
572.302	12882.18777
572.506	13019.9497
572.71	12957.14943
572.914	13214.39837
573.119	13090.8475
573.323	13234.651
573.527	13192.11996
573.731	13248.82757
573.935	13242.75192
574.139	13420.95526
574.343	13005.76942
574.547	13392.60684
574.751	13319.7073
574.955	13439.17884
575.159	13210.34779
575.364	13489.79826
575.568	13066.54035
575.772	13422.98012
575.976	13329.83256
576.18	13469.55077
576.383	13564.71075
576.587	13392.60684
576.791	13435.12918
576.995	13313.6321
577.199	13489.79826
577.403	13246.80236
577.607	13528.26745
577.811	13619.37355
578.015	13716.54582
578.219	13578.88283
578.422	13568.75993
578.626	13750.95923
578.83	13376.4074
579.034	13912.89318
579.238	13497.89715
579.442	13684.1559
579.645	13481.69931
579.849	13625.44704
580.053	13627.47153
580.257	13663.91178
580.46	13546.48925
580.664	13728.69183
580.868	13526.24279
581.071	13815.73502
581.275	13663.91178
581.479	13838.00101
581.682	13655.81404
581.886	13615.32454
582.09	13876.45962
582.293	13945.27784
582.497	14196.2379
582.7	14139.57252
582.904	13684.1559
583.107	14258.97274
583.311	14236.7122
583.515	14250.87802
583.718	14123.3821
583.922	14194.21416
584.125	13947.30186
584.329	14026.23662
584.532	14204.33282
584.735	14218.49886
584.939	14153.73902
585.142	14252.9017
585.346	13941.22979
585.549	14285.28035
585.753	14196.2379
585.956	14250.87802
586.159	14204.33282
586.363	14422.88467
586.566	14169.92917
586.769	14465.37865
586.973	14228.6174
587.176	14453.23758
587.379	14232.6648
587.582	14615.11466
587.786	14358.13065
587.989	14596.90388
588.192	14178.0242
588.395	14287.304
588.599	14356.10706
588.802	14568.57581
589.005	14309.56403
589.208	14681.8868
589.411	14692.0037
589.615	14560.48204
589.818	14390.50786
590.021	14558.45859
590.224	14311.58766
590.427	14793.17147
590.63	14692.0037
590.833	14750.68126
591.036	14633.32536
591.239	14912.54717
591.442	14400.62566
591.645	14857.91787
591.848	14902.43066
592.051	14841.73133
592.254	14455.26109
592.457	15019.7815
592.66	14817.45145
592.863	14855.89456
593.066	14694.02708
593.269	15084.52635
593.472	14823.52143
593.675	15086.54962
593.878	14576.66957
594.081	15191.75972
594.284	15100.71253
594.486	14965.15282
594.689	15181.64337
594.892	15114.87543
595.095	15076.43325
595.298	15151.29431
595.5	15056.2005
595.703	15173.55029
595.906	15211.99243
596.109	14922.66366
596.311	14859.94119
596.514	15135.10814
596.717	14999.54868
596.92	15371.83147
597.122	15242.34152
597.325	15477.04315
597.528	15280.78374
597.73	15497.27632
597.933	15254.48116
598.136	15922.19198
598.338	15234.24843
598.541	15681.40137
598.743	15436.57696
598.946	15341.48216
599.148	15311.13292
599.351	15624.74683
599.554	15557.97621
599.756	15357.66845
599.959	15385.99451
600.161	15270.66736
600.363	15537.74285
600.566	15673.30783
600.768	15440.62357
600.971	15717.82252
601.173	15843.27566
601.376	15659.14415
601.578	15319.22604
601.78	15859.46347
601.983	15557.97621
602.185	15922.19198
602.388	15766.38454
602.59	16136.69289
602.792	15946.4743
602.995	15786.6189
603.197	15889.81583
603.399	15823.041
603.601	15456.81003
603.804	15499.29964
604.006	15414.32065
604.208	15622.72346
604.41	15598.44315
604.613	15628.79356
604.815	15750.19714
605.017	15683.42476
605.219	15578.20965
605.421	15481.08978
605.623	15618.67674
605.826	15903.98035
606.028	15521.55621
606.23	15883.74533
606.432	15873.62787
606.634	16080.03066
606.836	15723.89274
607.038	16124.55088
607.24	16185.26152
607.442	16130.62188
607.644	16051.7
607.846	15980.8746
608.048	15873.62787
608.25	15990.99241
608.452	15950.52138
608.654	16179.19039
608.856	15519.53288
609.058	16031.46399
609.26	15600.46651
609.462	16007.18097
609.664	15851.36956
609.866	16073.95978
610.067	15928.26254
610.269	15881.72184
610.471	15982.89816
610.673	16199.42755
610.875	16037.53478
611.077	16314.78267
611.278	15901.95684
611.48	16389.66551
611.682	16290.4969
611.884	16365.3789
612.085	15877.67485
612.287	16144.7876
612.489	16015.27529
612.69	16041.58198
612.892	16100.26703
613.094	15990.99241
613.295	15922.19198
613.497	16088.12519
613.699	15993.01597
613.9	16505.03084
614.102	15764.36112
614.304	16294.54451
614.505	15984.92172
614.707	16055.74722
614.908	16167.04817
615.11	16189.30895
615.311	16100.26703
615.513	15808.87681
615.714	15999.08668
615.916	16059.79445
616.117	16160.97709
616.319	16217.64113
616.52	15879.69834
616.722	16128.59821
616.923	15895.88633
617.124	16041.58198
617.326	16104.31433
617.527	16326.92566
617.729	16154.90602
617.93	15903.98035
618.131	15990.99241
618.333	16037.53478
618.534	15950.52138
618.735	16078.00704
618.937	15877.67485
619.138	16310.73502
619.339	16017.29887
619.54	16302.63975
619.742	16270.25895
619.943	16466.57499
620.144	15808.87681
620.345	16187.28523
620.546	15952.54492
620.748	16480.74285
620.949	16290.4969
621.15	16167.04817
621.351	15841.25219
621.552	16266.21139
621.753	16306.68738
621.954	16490.86281
622.155	16015.27529
622.356	16403.83283
622.558	16071.93616
622.759	16160.97709
622.96	16112.40893
623.161	15938.38017
623.362	15871.60438
623.563	16181.2141
623.764	16031.46399
623.965	16134.66922
624.166	15845.29913
624.366	15952.54492
624.567	16013.25171
624.768	16049.67639
624.969	16118.4799
625.17	16138.71657
625.371	16324.90182
625.572	16235.85486
625.773	16322.87799
625.973	16243.9499
626.174	16084.07793
626.375	16112.40893
626.576	16148.83496
626.777	16353.23569
626.977	16197.40382
627.178	16468.59897
627.379	16359.30729
627.58	16011.22813
627.78	16187.28523
627.981	16296.56832
628.182	16158.9534
628.382	16426.09596
628.583	16075.98341
628.784	16430.14382
628.984	16080.03066
629.185	16549.55961
629.386	16075.98341
629.586	16640.64448
629.787	16270.25895
629.987	16650.7653
630.188	16701.37028
630.388	16349.18798
630.589	16359.30729
630.79	16476.69488
630.99	16525.27106
631.191	16782.3413
631.391	16790.43861
631.591	16494.91081
631.792	16486.81482
631.992	17122.46398
632.193	16602.18588
632.393	16527.2951
632.594	16434.1917
632.794	16324.90182
632.994	16418.00025
633.195	16525.27106
633.395	16223.71236
633.595	16660.88618
633.796	16446.33537
633.996	16476.69488
634.196	16391.68941
634.397	16713.51569
634.597	16527.2951
634.797	16782.3413
634.997	16571.82439
635.198	16561.704
635.398	16298.59213
635.598	16652.78948
635.798	16341.09256
635.998	16456.45516
636.199	16415.97632
636.399	16766.14678
636.599	16583.96893
636.799	16855.21856
636.999	16434.1917
637.199	16517.17495
637.399	16588.01712
637.599	16521.223
637.799	16262.16383
637.999	16826.87702
638.199	16496.93481
638.399	16855.21856
638.599	16758.04959
638.799	16743.87958
638.999	16660.88618
639.199	16834.97455
639.399	16330.97334
639.599	16978.71255
639.799	16474.6709
639.999	16774.24402
640.199	16664.93455
640.399	16711.49144
640.599	16468.59897
640.799	16960.49152
640.998	16622.42715
641.198	16488.83881
641.398	16656.83782
641.598	16930.1236
641.798	16988.83544
641.997	16885.58504
642.197	16800.56031
642.397	17100.19172
642.597	16492.88681
642.796	16982.7617
642.996	16883.56059
643.196	16739.83103
643.395	16632.54787
643.595	16713.51569
643.795	16549.55961
643.994	16924.05008
644.194	16717.56417
644.394	17090.06808
644.593	16505.03084
644.793	16915.9521
644.992	16163.00078
645.192	16689.22495
645.392	16719.58842
645.591	16907.85416
645.791	16926.07458
645.99	17112.34018
646.19	17092.0928
646.389	16986.81086
646.589	16841.04772
646.788	16849.14533
646.987	16760.07388
647.187	17245.98002
647.386	17029.32768
647.586	17195.3574
647.785	17088.04336
647.984	17112.34018
648.184	16982.7617
648.383	17037.42626
648.582	16832.95016
648.782	17215.60623
648.981	17009.08143
649.18	17059.69757
649.38	17098.16699
649.579	17288.50445
649.778	16849.14533
649.977	17399.8842
650.177	16818.77952
650.376	16946.31975
650.575	16788.41428
650.774	17189.2828
650.973	17047.54954
651.173	17023.25378
651.372	16668.98293
651.571	16958.46697
651.77	16701.37028
651.969	17146.76138
652.168	16806.63336
652.367	16899.75626
652.566	17193.33253
652.765	17083.99393
652.964	16899.75626
653.163	17304.70457
653.362	17191.30767
653.561	16895.70733
653.76	16863.31623
653.959	16891.65841
654.158	17197.38227
654.357	17063.74694
654.556	16986.81086
654.755	17363.43164
654.954	16990.86003
655.153	17150.81098
655.352	16915.9521
655.551	16982.7617
655.749	17195.3574
655.948	16915.9521
656.147	16930.1236
656.346	17513.29862
656.545	16877.48725
656.743	17108.29068
656.942	17039.45091
657.141	16946.31975
657.34	17128.53829
657.538	16938.22165
657.737	17025.27841
657.936	17432.28732
658.135	16899.75626
658.333	16834.97455
658.532	17120.43921
658.731	17096.14226
658.929	16727.68544
659.128	16561.704
659.326	16810.68207
659.525	16998.9584
659.724	17000.983
659.922	17138.6622
660.121	17098.16699
660.319	17395.83387
660.518	16666.95874
660.716	16903.80521
660.915	17128.53829
661.113	17158.91023
661.312	16952.39335
661.51	17136.63741
661.709	17083.99393
661.907	16826.87702
662.105	17158.91023
662.304	17278.37947
662.502	17539.62838
662.701	17067.79631
662.899	17256.10477
663.097	17179.15854
663.296	17173.08402
663.494	17177.1337
663.692	16662.91037
663.891	16932.14811
664.089	16745.90386
664.287	17110.31543
664.485	17081.96922
664.684	17442.41346
664.882	17156.88541
665.08	17675.33659
665.278	17472.79234
665.476	17243.95508
665.675	17302.67955
665.873	17092.0928
666.071	16794.48728
666.269	16857.24297
666.467	16988.83544
666.665	16913.92761
666.863	16622.42715
667.061	17017.1799
667.259	17083.99393
667.457	17383.68294
667.655	17308.75463
667.853	17156.88541
668.051	17193.33253
668.249	17243.95508
668.447	17179.15854
668.645	17221.68094
668.843	17197.38227
669.041	16958.46697
669.239	17025.27841
669.437	17051.59887
669.635	16944.29522
669.833	16867.36508
670.031	16721.61267
670.229	17221.68094
670.426	16915.9521
670.624	16806.63336
670.822	16839.02333
671.02	17114.36494
671.218	16776.26834
671.415	16899.75626
671.613	16861.29181
671.811	17013.13066
672.009	16944.29522
672.206	17005.03221
672.404	16715.53993
672.602	17063.74694
672.799	16758.04959
672.997	17189.2828
673.195	16691.24916
673.392	17077.9198
673.59	16660.88618
673.788	16715.53993
673.985	16656.83782
674.183	17142.71178
674.38	17120.43921
674.578	17418.11086
674.775	17248.00497
674.973	16699.34605
675.17	17033.37696
675.368	16879.5117
675.565	16620.40301
675.763	16826.87702
675.96	16679.10391
676.158	16932.14811
676.355	16381.56994
676.553	16832.95016
676.75	16620.40301
676.947	16828.9014
677.145	16476.69488
677.342	16549.55961
677.539	16784.36562
677.737	16826.87702
677.934	16658.862
678.131	16792.46295
678.329	16909.87864
678.526	16871.41394
678.723	17007.05682
678.92	16828.9014
679.118	16563.72808
679.315	16652.78948
679.512	16531.34317
679.709	16650.7653
679.906	15952.54492
680.104	16537.4153
680.301	16581.94483
680.498	16260.14005
680.695	16328.9495
680.892	16634.57202
681.089	16235.85486
681.286	16687.20074
681.483	16383.59383
681.68	16776.26834
681.877	16110.38528
682.075	16430.14382
682.272	16739.83103
682.469	16836.99894
682.665	16343.11641
682.862	16673.03131
683.059	16272.28274
683.256	16505.03084
683.453	16438.23958
683.65	16460.50309
683.847	16472.64692
684.044	16577.89665
684.241	16316.8065
684.438	16531.34317
684.635	16138.71657
684.831	16401.80892
685.028	16096.21975
685.225	16308.7112
685.422	15766.38454
685.619	16385.61772
685.815	16403.83283
686.012	16590.04122
686.209	16152.88233
686.405	16387.64161
686.602	16187.28523
686.799	15940.40371
686.996	16146.81128
687.192	16134.66922
687.389	15952.54492
687.586	16096.21975
687.782	15774.47827
687.979	16130.62188
688.175	15958.61554
688.372	16503.00683
688.568	16223.71236
688.765	16237.87862
688.962	15946.4743
689.158	16209.54619
689.355	15770.43141
689.551	15958.61554
689.748	15734.0098
689.944	16215.61739
690.14	15661.16753
690.337	15897.90983
690.533	16114.43259
690.73	15899.93334
690.926	15602.48986
691.123	16104.31433
691.319	15602.48986
691.515	15705.68211
691.712	15673.30783
691.908	15713.77571
692.104	15853.39303
692.301	15814.94717
692.497	15640.93377
692.693	15651.05064
692.889	15762.33769
693.086	16035.51118
693.282	15881.72184
693.478	15829.11139
693.674	15719.84593
693.87	15869.58089
694.067	15806.85335
694.263	16051.7
694.459	15944.45077
694.655	15986.94528
694.851	15736.03321
695.047	15604.51322
695.243	15671.28444
695.439	15562.02289
695.635	15394.08768
695.831	15744.12688
696.027	15901.95684
696.224	16027.41681
696.42	16163.00078
696.615	15944.45077
696.811	15823.041
697.007	15564.04624
697.203	15375.87805
697.399	15590.34974
697.595	15715.79912
697.791	15861.48695
697.987	15400.15757
698.183	15833.15832
698.379	15454.78672
698.575	15499.29964
698.77	15594.39645
698.966	15790.66578
699.162	15489.18304
699.358	15655.09739
699.554	15262.57426
699.749	15230.20188
699.945	14890.29083
700.141	14859.94119
700.337	14675.81665
700.532	14967.17611
700.728	15001.57197
700.924	15234.24843
701.119	15319.22604
701.315	15288.87685
701.511	14963.12953
701.706	15201.87608
701.902	15040.01429
702.097	15226.15534
702.293	15404.20416
702.489	15339.45887
702.684	15284.8303
702.88	15296.96996
703.075	15060.24705
703.271	15163.43393
703.466	14582.73987
703.662	14874.10437
703.857	14872.08106
704.053	15305.06308
704.248	15155.34085
704.443	15177.59683
704.639	15076.43325
704.834	14868.03444
705.03	14922.66366
705.225	14863.98781
705.42	14732.47106
705.616	14910.52387
705.811	14817.45145
706.006	14920.64036
706.202	14689.98032
706.397	14831.61473
706.592	14916.59377
706.787	14938.85003
706.983	15076.43325
707.178	15288.87685
707.373	14770.91474
707.568	15193.78299
707.763	14878.15099
707.959	15151.29431
708.154	15046.08412
708.349	14942.89662
708.544	15145.2245
708.739	14811.38147
708.934	14764.8447
709.129	14967.17611
709.324	14687.95694
709.519	14811.38147
709.714	14422.88467
709.909	14740.56449
710.104	14667.72311
710.299	14843.75465
710.494	14742.58784
710.689	14845.77797
710.884	14726.40098
711.079	15375.87805
711.274	14957.05966
711.469	14902.43066
711.664	14607.02099
711.859	14526.08327
712.054	14704.14394
712.249	14665.69972
712.443	14366.22499
712.638	14524.0598
712.833	14210.40399
713.028	14868.03444
713.223	14730.4477
713.417	14993.47883
713.612	14651.53597
713.807	14752.70461
714.002	14562.50548
714.196	14890.29083
714.391	14596.90388
714.586	14981.33912
714.78	14781.03145
714.975	14819.47478
715.17	14461.33163
715.364	14827.56808
715.559	14663.67633
715.754	14428.95528
715.948	14210.40399
716.143	14196.2379
716.337	14202.30909
716.532	14350.03628
716.726	14402.64921
716.921	14206.35655
717.115	14173.97669
717.31	14277.18573
717.504	14503.82505
717.699	14598.92731
717.893	14230.6411
718.088	14404.67276
718.282	14299.44586
718.476	14309.56403
718.671	14161.83411
718.865	14291.3513
719.059	14184.09545
719.254	14127.42972
719.448	13900.74876
719.642	14068.73842
719.837	13763.10493
720.031	14289.32765
720.225	13696.30222
720.419	13933.13367
720.614	13900.74876
720.808	14157.78657
721.002	14012.06912
721.196	13918.96536
721.39	13726.66751
721.585	13935.15771
721.779	13811.68663
721.973	13925.03751
722.167	13963.49392
722.361	13878.48373
722.555	13777.27477
722.749	13732.74048
722.943	13878.48373
723.137	13678.0827
723.331	13394.63176
723.525	13564.71075
723.719	13214.39837
723.913	13641.64287
724.107	13801.56558
724.301	13981.70979
724.495	13765.1292
724.689	13856.21837
724.883	13522.19346
725.077	13748.93494
725.271	13457.4021
725.465	13390.58193
725.659	13352.10775
725.853	13601.1529
726.046	13443.22848
726.24	13615.32454
726.434	13416.90553
726.628	13979.68581
726.822	13455.37731
727.015	13589.00564
727.209	13376.4074
727.403	13453.35251
727.596	13212.37308
727.79	13400.70647
727.984	13254.90319
728.177	13501.94657
728.371	13337.93269
728.565	13603.17743
728.758	13674.03388
728.952	13319.7073
729.146	13512.07006
729.339	13599.12836
729.533	13400.70647
729.726	13467.526
729.92	13678.0827
730.113	13216.42365
730.307	13258.95357
730.5	13759.05637
730.694	13374.38245
730.887	13297.43138
731.081	13481.69931
731.274	13526.24279
731.468	13477.64981
731.661	13864.31491
731.854	13499.92186
732.048	13813.71083
732.241	13433.10435
732.435	13479.67456
732.628	13451.32771
732.821	13617.34905
733.014	13485.74879
733.208	13813.71083
733.401	13481.69931
733.594	13404.75626
733.788	13374.38245
733.981	13149.58694
734.174	13558.63695
734.367	13271.10462
734.56	13344.00774
734.754	13028.05261
734.947	13269.07946
735.14	13518.14411
735.333	13376.4074
735.526	13384.50715
735.719	12971.33056
735.912	13082.74519
736.105	13224.52474
736.298	13311.60703
736.491	13400.70647
736.684	13327.80752
736.877	13530.29211
737.07	13611.27552
737.263	13508.02067
737.456	13465.50123
737.649	13186.04394
737.842	13439.17884
738.035	13297.43138
738.228	13167.81562
738.421	13161.73943
738.614	13445.25329
738.807	13617.34905
739	13293.38116
739.192	13265.02912
739.385	13161.73943
739.578	13145.53607
739.771	13508.02067
739.964	13171.86639
740.156	13019.9497
740.349	12857.87433
740.542	12981.45979
740.735	12872.05726
740.927	12922.70848
741.12	12768.71826
741.313	12894.34421
741.505	13003.74364
741.698	12865.97889
741.891	12811.27136
742.083	13013.87246
742.276	12906.50045
742.468	13283.25552
742.661	12592.39959
742.854	13086.79635
743.046	12736.29517
743.239	12934.86428
743.431	12766.69186
743.624	12874.08338
743.816	12711.97689
744.009	12963.22709
744.201	12722.10961
744.393	12703.87061
744.586	12632.93661
744.778	12470.77348
744.971	12361.28991
745.163	12328.84654
745.355	12432.2537
745.548	12464.69157
745.74	12752.5069
745.932	12892.31815
746.125	12659.28438
746.317	12707.92376
746.509	12470.77348
746.702	12612.66841
746.894	12383.59371
747.086	12454.55492
747.278	12614.69525
747.471	12436.30853
747.663	12691.71101
747.855	12738.32166
748.047	12523.48094
748.239	12663.33779
748.431	12414.00666
748.623	12588.34575
748.815	12318.70762
749.008	12598.4803
749.2	12411.97918
749.392	12411.97918
749.584	12462.66425
749.776	12703.87061
749.968	12543.75188
750.16	12610.64155
750.352	12734.26868
750.544	12586.31882
750.736	12942.96804
750.928	12393.73153
751.12	12450.50021
751.311	12235.56185
751.503	12446.44548
751.695	12201.08323
751.887	12381.56613
752.079	12454.55492
752.271	12420.08907
752.463	12391.70398
752.654	12347.09615
752.846	12351.15155
753.038	12093.57733
753.23	11917.05831
753.421	12095.60594
753.613	12144.29028
753.805	12241.64609
753.997	12296.40139
754.188	12194.99855
754.38	11923.14618
754.572	12067.20471
754.763	12105.74887
754.955	12075.3195
755.146	12245.70222
755.338	12014.45552
755.53	12128.06265
755.721	12221.36502
755.913	12109.80599
756.104	11821.67191
756.296	11795.28515
756.487	11965.75924
756.679	11910.97037
756.87	11559.76831
757.062	11716.11613
757.253	11833.84993
757.445	11681.60238
757.636	12006.33979
757.827	11941.40936
758.019	12107.77743
758.21	11967.78834
758.401	11657.23819
758.593	11610.5365
758.784	11346.47718
758.975	11511.02537
759.167	11372.89047
759.358	11870.38216
759.549	11234.70977
759.74	11752.65733
759.932	11437.90071
760.123	11545.55218
760.314	11657.23819
760.505	11643.02514
760.696	11531.33559
760.888	11248.93643
761.079	11250.96876
761.27	11661.29898
761.461	11181.86343
761.652	11502.90102
761.843	11202.18978
762.034	11519.14957
762.225	11194.05937
762.416	11059.88302
762.607	10988.70973
762.798	10998.87817
762.989	11057.84968
763.18	11340.38156
763.371	11161.53603
763.562	10962.27047
763.753	10862.59764
763.944	11021.24777
764.135	10893.11264
764.326	11063.94966
764.517	10813.76822
764.708	11092.41491
764.899	11153.40478
765.089	11307.87009
765.28	11129.00999
765.471	11104.61366
765.662	10978.54101
765.853	11165.6016
766.043	10913.45454
766.234	11283.48479
766.425	11078.18255
766.615	11293.64551
766.806	11033.4488
766.997	11104.61366
767.187	10779.17663
767.378	11118.84504
767.569	10960.23661
767.759	10864.63205
767.95	10773.07188
768.141	10864.63205
768.331	10699.8065
768.522	10640.77579
768.712	10445.28923
768.903	10825.9762
769.093	10506.39129
769.284	10644.84721
769.474	10545.08333
769.665	10463.62106
769.855	10386.21285
770.046	10679.45224
770.236	10282.29306
770.426	10345.4641
770.617	10447.32615
770.807	10349.53922
770.998	10461.58424
771.188	10457.51057
771.378	10011.1197
771.569	10294.52071
771.759	10094.74081
771.949	10640.77579
772.139	10602.09491
772.33	10355.65178
772.52	10431.03041
772.71	10469.73144
772.9	10498.24502
773.09	10467.69466
773.281	10467.69466
773.471	10131.44502
773.661	10347.50167
773.851	9966.23992
774.041	10215.03225
774.231	10274.14102
774.421	10139.60089
774.611	10119.21079
774.802	10117.1717
774.992	10117.1717
775.182	10019.27891
775.372	10131.44502
775.562	9684.55859
775.752	9862.17336
775.942	9849.92772
776.131	9978.48055
776.321	9817.27005
776.511	9854.00966
776.701	9678.43189
776.891	9729.48351
777.081	9647.7963
777.271	9627.37063
777.461	9829.51713
777.651	9510.91438
777.84	9645.7538
778.03	9837.68154
778.22	9608.9862
778.41	9664.13571
778.599	9768.27636
778.789	9807.06375
778.979	9582.42867
779.169	9641.66876
779.358	9359.64807
779.548	9533.3924
779.738	9302.38883
779.927	9625.32798
780.117	9490.47815
780.307	9351.46897
780.496	9306.47921
780.686	9408.71715
780.875	9269.66343
781.065	9633.49849
781.254	9627.37063
781.444	9369.87157
781.633	9398.4952
781.823	9212.38367
782.012	9130.53243
782.202	8868.42208
782.391	9126.43915
782.581	9095.73736
782.77	9058.89009
782.96	9181.69264
783.149	8696.25317
783.338	9054.79561
783.528	9114.1589
783.717	9322.84005
783.906	8745.45742
784.096	8972.89118
784.285	8958.55502
784.474	9087.54956
784.663	8888.90987
784.853	8995.41769
785.042	8821.29333
785.231	9236.93376
785.42	8897.10448
785.61	9044.55908
785.799	8927.83175
785.988	9189.87729
786.177	8507.53769
786.366	8907.34735
786.555	8644.98744
786.744	8819.24404
786.933	8289.90497
787.122	8862.27539
787.312	9026.13224
787.501	8772.10531
787.69	8679.8494
787.879	8868.42208
788.068	8772.10531
788.257	8763.90629
788.445	8729.05718
788.634	8995.41769
788.823	8634.7329
789.012	8706.50493
789.201	8712.65577
789.39	8622.42684
789.579	8487.01552
789.768	8745.45742
789.957	8540.36919
790.145	8632.68194
790.334	8562.93805
790.523	8720.85662
790.712	8558.83479
790.9	8792.60159
791.089	8458.28129
791.278	8761.85649
791.467	8238.54464
791.655	8296.06738
791.844	8250.87224
792.033	8265.25354
792.221	8148.12044
792.41	8139.89815
792.599	7753.08346
792.787	8409.01388
792.976	8370.00264
793.164	8215.94219
793.353	8224.16154
793.541	8437.75455
793.73	8267.30794
793.918	8104.94983
794.107	7899.25304
794.295	8269.36231
794.484	7853.97226
794.672	7975.38461
794.861	8074.10825
795.049	8100.83788
795.238	8045.31869
795.426	8484.9632
795.614	8269.36231
795.803	8351.52119
795.991	8156.34242
796.179	8113.17349
796.368	8039.14898
796.556	7981.55621
796.744	7882.78846
796.932	8150.17597
797.121	8207.72253
797.309	8051.48821
797.497	7940.40873
797.685	8150.17597
797.874	8326.87681
798.062	8267.30794
798.25	7633.59895
798.438	8150.17597
798.626	8022.69553
798.814	8022.69553
799.002	7944.52385
799.19	8000.06991
799.378	7868.38087
799.566	7882.78846
799.755	7726.30862
799.943	7983.61337
800.131	7746.90497
800.318	7926.00518
800.506	7839.56264
800.694	7907.48484
800.882	7462.48794
801.07	7800.44566
801.258	7639.78093
801.446	7829.26942
801.634	7487.23603
801.822	7837.50403
802.01	7497.54682
802.197	7689.22989
802.385	7419.17127
802.573	7520.22866
802.761	7577.95252
802.949	7853.97226
803.136	7580.01378
803.324	7808.68144
803.512	7390.28818
803.699	7895.13702
803.887	7431.54844
804.075	7709.83003
804.262	7501.67098
804.45	7746.90497
804.638	7214.83452
804.825	7375.84504
805.013	7260.26129
805.201	7689.22989
805.388	7454.23788
805.576	7759.26177
805.763	7452.17531
805.951	7783.97311
806.138	7417.10834
806.326	7555.27729
806.513	7429.48563
806.701	7798.38667
806.888	7481.0493
807.075	7940.40873
807.263	7536.72291
807.45	7821.03448
807.638	7437.73673
807.825	7627.41678
808.012	7483.11156
808.2	7516.10488
808.387	7481.0493
808.574	7709.83003
808.761	7507.85707
808.949	7676.86879
809.136	7520.22866
809.323	7804.56359
809.51	7495.4847
809.698	7668.62764
809.885	7612.99097
810.072	7794.26861
810.259	7470.73765
810.446	7476.9247
810.633	7565.58454
810.82	7763.38054
811.008	7779.85476
811.195	7981.55621
811.382	7991.84181
811.569	7656.26527
811.756	7627.41678
811.943	7602.68619
812.13	7303.61325
812.317	7567.64592
812.504	7326.31756
812.691	7474.86237
812.878	7313.93372
813.064	7755.14292
813.251	7565.58454
813.438	7695.41015
813.625	7742.78587
813.812	7602.68619
813.999	7421.23419
814.186	7534.6612
814.372	7417.10834
814.559	7474.86237
814.746	7373.78164
814.933	7404.73026
815.12	7487.23603
815.306	7377.90841
815.493	7225.15972
815.68	7342.82812
815.866	7315.99775
816.053	7152.87166
816.24	7202.44354
816.426	7610.93006
816.613	7365.52785
816.799	7802.50464
816.986	7299.48491
817.173	7713.9498
817.359	7503.73303
817.546	7573.82995
817.732	7561.4617
817.919	7814.85805
818.105	7769.55853
818.292	7792.20955
818.478	7602.68619
818.665	7594.44197
818.851	7643.90214
819.037	7823.09325
819.224	7305.67739
819.41	7460.42545
819.597	7177.6592
819.783	7474.86237
819.969	7057.82305
820.156	7260.26129
820.342	7221.02971
820.528	7225.15972
820.714	7229.28965
820.901	7445.98748
821.087	7225.15972
821.273	7266.45502
821.459	7429.48563
821.646	7287.09936
821.832	7280.90629
822.018	7270.58406
822.204	7057.82305
822.39	7214.83452
822.576	7070.22338
822.762	7163.20019
822.948	6958.59133
823.134	7140.47669
823.32	6983.40412
823.507	7066.09002
823.693	6919.29777
823.879	6863.44548
824.065	7152.87166
824.25	7014.41555
824.436	6842.75525
824.622	6788.94999
824.808	6668.86718
824.994	7192.11712
825.18	6735.12929
825.366	7140.47669
825.552	6743.41041
825.738	6956.52346
825.923	6685.43491
826.109	6772.39142
826.295	6662.6539
826.481	6942.04767
826.667	6722.70694
826.852	6675.08025
827.038	6621.22674
827.224	7202.44354
827.409	6542.48972
827.595	6652.29797
827.781	6702.00117
827.966	6954.45555
828.152	6403.58242
828.338	6952.38763
828.523	6664.72501
828.709	6695.789
828.894	6494.81687
829.08	6615.01187
829.266	6330.97737
829.451	6610.86851
829.637	6658.5116
829.822	6896.54513
830.008	6569.42982
830.193	6855.16966
830.378	6675.08025
830.564	6844.82437
830.749	6403.58242
830.935	6739.2699
831.12	6349.64997
831.305	6735.12929
831.491	6488.59777
831.676	6598.43787
831.861	6507.25445
832.047	6675.08025
832.232	6486.52469
832.417	6378.69248
832.602	6121.29928
832.788	6372.46947
832.973	6046.50464
833.158	6328.90252
833.343	6036.11408
833.528	6509.3273
833.714	6115.06755
833.899	6424.32148
834.084	6088.06098
834.269	6125.45364
834.454	6152.45472
834.639	6320.60289
834.824	6173.22207
835.009	6297.77697
835.194	6411.87832
835.379	6590.15032
835.564	5946.73098
835.749	6355.87375
835.934	5963.3637
836.119	6075.59506
836.304	5728.28668
836.489	6034.0359
836.674	5992.46731
836.859	5959.20566
837.044	5713.71447
837.228	5959.20566
837.413	5692.89503
837.598	5873.94512
837.783	5642.91874
837.968	5836.50114
838.152	5655.41409
838.337	5686.64874
838.522	5751.18352
838.707	5794.88775
838.891	5709.55077
839.076	5944.65179
839.261	5761.59023
839.445	5988.30994
839.63	5861.46464
839.815	6108.83562
839.999	5826.09868
840.184	6108.83562
840.368	5898.90353
840.553	5876.02512
840.737	5805.29198
840.922	6079.75046
841.106	5722.04159
841.291	5724.12331
841.475	5480.40201
841.66	5867.70499
841.844	5638.75344
842.029	5932.17612
842.213	5653.33159
842.397	5728.28668
842.582	5426.19794
842.766	5440.79291
842.951	5576.26256
843.135	5405.34598
843.319	5330.25952
843.504	5509.58224
843.688	5376.1493
843.872	5213.39801
844.056	5365.7208
844.241	5474.14851
844.425	5184.17119
844.609	5025.43179
844.793	4843.55326
844.977	5230.097
845.161	4623.81501
845.346	5240.53311
845.53	4994.08584
845.714	5394.91913
845.898	5113.17277
846.082	5374.06365
846.266	5058.86174
846.45	5169.55607
846.634	5196.69753
846.818	5113.17277
847.002	4929.28779
847.186	4966.91516
847.37	4956.46386
847.554	5117.34989
847.738	4977.36588
847.922	5113.17277
848.106	5056.77255
848.29	5213.39801
848.473	4960.64445
848.657	5146.58714
848.841	4929.28779
849.025	5106.90691
849.209	4787.07298
849.392	5006.62485
849.576	5031.70036
849.76	5100.64085
849.944	5033.78984
850.127	4971.09552
850.311	4770.3349
850.495	4996.17574
850.678	4644.75317
850.862	4989.90599
851.046	4665.68909
851.229	4849.82782
851.413	4692.90243
851.596	4715.92612
851.78	4780.79637
851.964	4860.28497
852.147	4594.49783
852.331	4973.18566
852.514	4699.18189
852.698	4443.65502
852.881	4166.81638
853.065	4636.37818
853.248	4294.79597
853.431	4684.5295
853.615	4246.55068
853.798	4552.60857
853.982	4556.79789
854.165	4747.31767
854.348	4317.86579
854.532	4468.80343
854.715	4422.69559
854.898	4502.32973
855.081	4168.91504
855.265	4724.2977
855.448	4267.52828
855.631	4452.03817
855.814	4238.15904
855.997	4345.12675
856.181	4122.7396
856.364	4217.17845
856.547	4099.64808
856.73	4303.18529
856.913	3845.47716
857.096	4301.08799
857.279	4238.15904
857.462	4294.79597
857.645	3864.39263
857.828	4112.24377
858.011	4118.54133
858.194	4351.41723
858.377	4183.60509
858.56	4267.52828
858.743	4145.82859
858.926	4303.18529
859.109	4068.15558
859.292	4219.2766
859.475	4078.6536
859.658	4349.32042
859.841	4156.32275
860.023	4137.43289
860.206	3914.82597
860.389	4091.25054
860.572	3805.53924
860.755	4137.43289
860.937	3851.7825
861.12	3977.85131
861.303	3847.57896
861.486	4000.95602
861.668	3797.13035
861.851	3881.20502
862.034	3643.61349
862.216	3763.49165
862.399	3588.91169
862.581	3757.18383
862.764	3588.91169
862.947	3771.90179
863.129	3466.83942
863.312	3673.06302
863.494	3454.20776
863.677	3614.16026
863.859	3557.34721
864.042	3652.02802
864.224	3536.30191
864.406	3713.02425
864.589	3308.89778
864.771	3532.09263
864.954	3266.76351
865.136	3460.52367
865.318	3401.56889
865.501	3317.32381
865.683	3334.17505
865.865	3431.04803
866.048	3294.15156
866.23	3304.68466
866.412	3199.33468
866.594	3266.76351
866.777	3197.22725
866.959	3401.56889
867.141	3376.2983
867.323	3363.66206
867.505	3304.68466
867.687	3475.26017
867.869	3319.43028
868.052	3489.99578
868.234	3157.18306
868.416	3397.3573
868.598	3308.89778
868.78	3496.31078
868.962	3140.3206
869.144	3574.18212
869.326	3174.0445
869.508	3471.04983
869.69	3091.83529
869.872	3367.87421
870.054	3106.59258
870.236	3207.76422
870.417	3174.0445
870.599	3557.34721
870.781	3201.44209
870.963	3336.28138
871.145	3142.42846
871.327	3220.40802
871.508	3041.23301
871.69	3287.8315
871.872	2899.92187
872.054	3178.25969
872.235	2965.31298
872.417	3207.76422
872.599	2855.61674
872.78	3167.72158
872.962	3104.48444
873.144	3325.74957
873.325	3085.51049
873.507	3174.0445
873.689	3237.2655
873.87	3302.57807
874.052	3083.4022
874.233	3376.2983
874.415	3308.89778
874.596	3485.7857
874.778	3043.34162
874.959	3115.02497
875.141	3064.42684
875.322	3243.58678
875.503	3060.20992
875.685	3180.36726
875.866	2994.83978
876.048	3123.4571
876.229	2693.11236
876.41	2937.89262
876.592	2851.39687
876.773	2940.00197
876.954	2598.10639
877.136	3207.76422
877.317	2969.53128
877.498	3022.25486
877.679	2838.73694
877.86	3241.4797
878.042	3001.16656
878.223	3148.75196
878.404	2946.32992
878.585	3058.10144
878.766	2857.72665
878.947	3157.18306
879.128	3081.29389
879.309	3216.19349
879.49	3133.99691
879.672	3216.19349
879.853	3009.60206
880.034	3226.7297
880.215	2912.57931
880.396	3039.12439
880.576	2893.59295
880.757	3064.42684
880.938	3013.81972
881.119	3336.28138
881.3	3224.62249
881.481	3129.78103
881.662	3043.34162
881.843	3119.24106
882.023	2965.31298
882.204	3131.88898
882.385	2830.29671
882.566	3093.94352
882.747	2980.07675
882.927	3005.38434
883.108	2819.74611
883.289	3146.64414
883.469	2883.04447
883.65	3119.24106
883.831	3032.79843
884.011	3085.51049
884.192	2965.31298
884.373	2942.1113
884.553	2891.48328
884.734	3085.51049
884.914	2823.96639
885.095	3159.2908
885.275	2809.19515
885.456	3034.9071
885.636	2859.83655
885.817	2956.87622
885.997	2851.39687
886.178	3072.86049
886.358	3026.47233
886.538	3209.87156
886.719	2912.57931
886.899	3144.53631
887.08	3241.4797
887.26	3369.98026
887.44	3093.94352
887.621	3209.87156
887.801	2963.20381
887.981	3207.76422
888.161	2874.60542
888.342	2925.23623
888.522	2914.68883
888.702	2969.53128
888.882	2853.50681
889.062	2899.92187
889.242	3055.99294
889.423	3064.42684
889.603	3039.12439
889.783	3174.0445
889.963	2988.51285
890.143	3148.75196
890.323	2821.85625
890.503	3174.0445
890.683	2937.89262
890.863	3001.16656
891.043	2908.36022
891.223	3190.90488
891.403	3106.59258
891.583	3091.83529
891.763	2709.99962
891.943	3032.79843
892.122	2923.12678
892.302	3184.58236
892.482	2783.87146
892.662	3127.67307
892.842	2802.86442
893.022	2988.51285
893.201	2813.41558
893.381	2821.85625
893.561	2790.20257
893.741	2686.77942
893.92	2693.11236
894.1	2971.6404
894.28	2802.86442
894.459	3011.7109
894.639	2828.18662
894.819	2925.23623
894.998	2709.99962
895.178	3034.9071
895.357	2608.66385
895.537	2954.76699
895.716	2779.65066
895.896	2830.29671
896.075	2534.75534
896.255	2701.55609
896.434	2581.21382
896.614	2716.33212
896.793	2443.93412
896.973	2629.77785
897.152	2517.85995
897.331	2646.66816
897.511	2541.09093
897.69	2448.15881
897.87	2397.45963
898.049	2574.87891
898.228	2355.20573
898.407	2587.54863
898.587	2323.51267
898.766	2600.21791
898.945	2302.38275
899.124	2530.53157
899.304	2329.85146
899.483	2566.4322
899.662	2186.15174
899.841	2361.54407
900.02	2279.13874
900.199	2496.73968
900.378	2082.57904
900.557	2384.78389
900.737	2245.32728
900.916	2481.95482
901.095	2135.42461
901.274	2323.51267
901.453	1998.01672
901.632	2122.74211
901.811	2042.41331
901.989	2162.90239
902.168	1894.41398
902.347	2076.23725
902.526	1907.10077
902.705	2186.15174
902.884	1892.2995
903.063	2031.84296
903.242	1841.55035
903.42	2078.35119
903.599	1873.2689
903.778	2118.51455
903.957	1962.07453
904.135	2200.94626
904.314	1746.38861
904.493	1875.38344
904.672	1864.81073
904.85	2025.50067
905.029	1737.9294
905.207	1909.21522
905.386	1843.66495
905.565	1805.60136
905.743	1763.30685
905.922	1691.40277
906.1	1621.61021
906.279	1687.173
906.457	1454.52339
906.636	1822.51869
906.814	1585.6555
906.993	1619.49525
907.171	1467.2137
907.35	1682.94322
907.528	1407.99228
907.707	1526.43498
907.885	1517.97483
908.063	1562.39042
908.242	1424.91267
908.42	1515.85979
908.598	1376.26667
908.777	1403.76219
908.955	1382.61177
909.133	1369.92157
909.311	1114.01932
909.49	1469.32875
909.668	1071.72658
909.846	1285.32149
910.024	1181.69149
910.202	1308.58624
910.38	1217.64393
910.559	1407.99228
910.737	1188.03596
910.915	1401.64714
911.093	1416.45247
911.271	1384.72681
911.449	1407.99228
911.627	1475.67391
911.805	1240.90777
911.983	1350.88633
912.161	1323.39119
912.339	1443.94813
912.517	1359.34643
912.695	1401.64714
912.872	1232.44815
913.05	1490.47925
913.228	1272.63175
913.406	1232.44815
913.584	1103.44595
913.762	1274.7467
913.939	1196.49531
914.117	1509.51466
914.295	1221.87369
914.473	1407.99228
914.65	1283.20653
914.828	1285.32149
915.006	1308.58624
915.184	1407.99228
915.361	1147.85487
915.539	1416.45247
915.716	1331.85121
915.894	1484.13411
916.072	1247.25252
916.249	1308.58624
916.427	1293.78137
916.604	1410.10733
916.782	1175.34704
916.959	1395.30201
917.137	1164.77305
917.314	1353.00136
917.492	1149.96963
917.669	1118.2487
917.847	1116.13401
918.024	1181.69149
918.201	1094.98734
918.379	1114.01932
918.556	993.49078
918.733	1120.3634
918.911	974.46173
919.088	1238.79286
919.265	976.57604
919.442	1232.44815
919.62	892.00914
919.797	1130.93695
919.974	936.4053
920.151	1088.64343
920.328	942.74787
920.506	1232.44815
920.683	1097.10198
920.86	1018.86366
921.037	1063.26828
921.214	1044.23742
921.391	976.57604
921.568	1020.97811
921.745	1012.52036
921.922	968.11884
922.099	868.75541
922.276	1171.11744
922.453	968.11884
922.63	1075.95576
922.807	860.29975
922.984	917.37796
923.161	672.20078
923.338	872.98328
923.514	944.86208
923.691	978.69036
923.868	775.75109
924.045	807.4551
924.222	706.01026
924.399	866.64148
924.575	718.68955
924.752	851.84424
924.929	782.09171
925.105	815.90986
925.282	725.02935
925.459	820.1373
925.635	843.38886
925.812	858.18586
925.989	917.37796
926.165	760.95663
926.342	739.82257
926.518	946.9763
926.695	693.33136
926.871	794.77323
927.048	697.55762
927.224	665.86183
927.401	663.74887
927.577	665.86183
927.754	587.69039
927.93	714.46308
928.107	585.57789
928.283	648.95847
928.459	684.87899
928.636	672.20078
928.812	598.2531
928.988	570.79075
929.165	494.75318
929.341	638.39427
929.517	536.99404
929.693	655.29714
929.87	579.24047
930.046	706.01026
930.222	410.28938
930.398	617.26677
930.574	549.6674
930.751	629.94312
930.927	583.4654
931.103	560.2289
931.279	498.97701
931.455	532.7697
931.631	486.30571
931.807	617.26677
931.983	448.29503
932.159	600.36568
932.335	446.18347
932.511	488.41755
932.687	406.06685
932.863	532.7697
933.039	410.28938
933.215	414.51198
933.391	285.7533
933.566	401.84439
933.742	327.96211
933.918	427.18015
934.094	296.30482
934.27	412.40067
934.445	311.07772
934.621	384.95518
934.797	241.44201
934.973	323.7409
935.148	266.76173
935.324	325.8515
935.5	216.12509
935.675	235.11252
935.851	243.55189
936.027	207.68674
936.202	270.98194
936.378	241.44201
936.553	190.81102
936.729	258.32152
936.904	192.92041
937.08	167.60902
937.255	182.37364
937.431	220.34438
937.606	173.93659
937.782	144.40954
937.957	148.62743
938.133	110.66943
938.308	133.86516
938.483	180.26435
938.659	123.32132
938.834	161.28164
939.009	68.5022
939.185	60.06984
939.36	125.43005
939.535	87.47635
939.71	30.55946
939.886	79.04317
940.061	110.66943
940.236	93.80147
940.411	121.21262
940.586	45.31408
940.761	91.69308
940.937	51.63784
941.112	89.5847
941.287	91.69308
941.462	68.5022
941.637	83.25972
941.812	98.01833
941.987	41.09836
942.162	133.86516
942.337	36.88273
942.512	83.25972
942.687	34.77495
942.862	41.09836
943.037	64.28597
943.212	93.80147
943.386	98.01833
943.561	30.55946
943.736	85.36802
943.911	60.06984
944.086	-32.6614
944.26	43.20621
944.435	13.69845
944.61	49.5299
944.785	72.71852
944.959	114.88664
945.134	55.85379
945.309	108.56086
945.483	-11.5902
945.658	93.80147
945.833	22.12877
946.007	55.85379
946.182	66.39408
946.357	76.93493
946.531	79.04317
946.706	89.5847
946.88	76.93493
947.055	-22.12611
947.229	34.77495
947.404	32.66719
947.578	116.99528
947.752	64.28597
947.927	131.75635
948.101	47.42198
948.276	68.5022
948.45	47.42198
948.624	66.39408
948.799	34.77495
948.973	43.20621
949.147	116.99528
949.321	72.71852
949.496	70.61035
949.67	95.90989
949.844	98.01833
950.018	55.85379
950.193	60.06984
950.367	60.06984
950.541	148.62743
950.715	49.5299
950.889	41.09836
951.063	133.86516
951.237	32.66719
951.411	72.71852
951.585	102.23527
951.759	53.7458
951.933	173.93659
952.107	81.15143
952.281	79.04317
952.455	76.93493
952.629	34.77495
952.803	57.9618
952.977	125.43005
953.151	5.26851
953.325	98.01833
953.499	47.42198
953.672	135.97399
953.846	106.45231
954.02	83.25972
954.194	49.5299
954.368	79.04317
954.541	9.48343
954.715	13.69845
954.889	114.88664
955.062	89.5847
955.236	87.47635
955.41	81.15143
955.583	102.23527
955.757	49.5299
955.93	108.56086
956.104	72.71852
956.278	93.80147
956.451	123.32132
956.625	38.99053
956.798	100.12679
956.972	87.47635
957.145	38.99053
957.319	116.99528
957.492	-7.37567
957.665	85.36802
957.839	81.15143
958.012	38.99053
958.185	114.88664
958.359	30.55946
958.532	38.99053
958.705	178.15507
958.879	17.91356
959.052	38.99053
959.225	72.71852
959.398	81.15143
959.572	20.02115
959.745	5.26851
959.918	91.69308
960.091	114.88664
960.264	76.93493
960.438	83.25972
960.611	43.20621
960.784	142.30062
960.957	22.12877
961.13	102.23527
961.303	89.5847
961.476	104.34378
961.649	127.53879
961.822	5.26851
961.995	125.43005
962.168	64.28597
962.341	60.06984
962.514	64.28597
962.686	51.63784
962.859	123.32132
963.032	43.20621
963.205	60.06984
963.378	26.34407
963.551	64.28597
963.723	41.09836
963.896	106.45231
964.069	68.5022
964.242	140.19172
964.414	47.42198
964.587	49.5299
964.76	15.80599
964.932	104.34378
965.105	89.5847
965.278	106.45231
965.45	47.42198
965.623	64.28597
965.795	60.06984
965.968	60.06984
966.14	76.93493
966.313	38.99053
966.485	43.20621
966.658	133.86516
966.83	38.99053
967.003	32.66719
967.175	32.66719
967.348	64.28597
967.52	22.12877
967.692	49.5299
967.865	83.25972
968.037	47.42198
968.209	85.36802
968.382	81.15143
968.554	43.20621
968.726	9.48343
968.898	32.66719
969.071	125.43005
969.243	5.26851
969.415	192.92041
969.587	68.5022
969.759	-7.37567
969.932	125.43005
970.104	49.5299
970.276	53.7458
970.448	-28.44736
970.62	98.01833
970.792	-1.05368
970.964	98.01833
971.136	85.36802
971.308	57.9618
971.48	55.85379
971.652	100.12679
971.824	87.47635
971.996	-20.01897
972.168	32.66719
972.339	51.63784
972.511	51.63784
972.683	102.23527
972.855	70.61035
973.027	144.40954
973.199	24.2364
973.37	79.04317
973.542	55.85379
973.714	76.93493
973.886	-3.16104
974.057	89.5847
974.229	72.71852
974.401	89.5847
974.572	15.80599
974.744	17.91356
974.915	30.55946
975.087	-3.16104
975.259	28.45175
975.43	102.23527
975.602	30.55946
975.773	100.12679
975.945	74.82672
976.116	70.61035
976.288	30.55946
976.459	15.80599
976.63	47.42198
976.802	43.20621
976.973	30.55946
977.145	47.42198
977.316	57.9618
977.487	68.5022
977.659	17.91356
977.83	11.59093
978.001	49.5299
978.172	-15.80464
978.344	47.42198
978.515	72.71852
978.686	-5.26836
978.857	76.93493
979.028	-28.44736
979.2	53.7458
979.371	47.42198
979.542	72.71852
979.713	79.04317
979.884	106.45231
980.055	-9.48295
980.226	24.2364
980.397	47.42198
980.568	36.88273
980.739	38.99053
980.91	98.01833
981.081	49.5299
981.252	81.15143
981.423	-28.44736
981.594	72.71852
981.765	-7.37567
981.936	64.28597
982.106	30.55946
982.277	53.7458
982.448	28.45175
982.619	7.37596
982.79	70.61035
982.96	57.9618
983.131	104.34378
983.302	38.99053
983.472	72.71852
983.643	131.75635
983.814	-20.01897
983.984	47.42198
984.155	26.34407
984.326	57.9618
984.496	53.7458
984.667	43.20621
984.837	100.12679
985.008	53.7458
985.178	55.85379
985.349	38.99053
985.519	20.02115
985.69	38.99053
985.86	66.39408
986.031	89.5847
986.201	110.66943
986.371	74.82672
986.542	60.06984
986.712	26.34407
986.882	43.20621
987.053	81.15143
987.223	47.42198
987.393	62.17789
987.563	15.80599
987.734	24.2364
987.904	60.06984
988.074	41.09836
988.244	-11.5902
988.414	60.06984
988.585	68.5022
988.755	45.31408
988.925	26.34407
989.095	17.91356
989.265	-17.91182
989.435	102.23527
989.605	-53.73012
989.775	13.69845
989.945	85.36802
990.115	-11.5902
990.285	15.80599
990.455	1.05369
990.625	26.34407
990.795	62.17789
990.965	47.42198
991.134	30.55946
991.304	13.69845
991.474	79.04317
991.644	5.26851
991.814	55.85379
991.984	68.5022
992.153	-24.23321
992.323	5.26851
992.493	22.12877
992.662	57.9618
992.832	70.61035
993.002	-17.91182
993.171	9.48343
993.341	30.55946
993.511	-36.87534
993.68	83.25972
993.85	74.82672
994.019	38.99053
994.189	24.2364
994.358	-20.01897
994.528	43.20621
994.697	68.5022
994.867	112.77803
995.036	-7.37567
995.206	26.34407
995.375	34.77495
995.544	22.12877
995.714	43.20621
995.883	-3.16104
996.052	51.63784
996.222	9.48343
996.391	47.42198
996.56	38.99053
996.73	-17.91182
996.899	49.5299
997.068	5.26851
997.237	66.39408
997.406	41.09836
997.576	38.99053
997.745	47.42198
997.914	-32.6614
998.083	-34.76838
998.252	93.80147
998.421	13.69845
998.59	1.05369
998.759	60.06984
998.928	119.10394
999.097	-70.58328
999.266	55.85379
999.435	22.12877
999.604	28.45175
999.773	85.36802
999.942	3.16109
1000.111	24.2364
1000.28	51.63784
1000.448	38.99053
1000.617	7.37596
1000.786	79.04317
1000.955	-11.5902
1001.124	-41.08919
1001.292	43.20621
1001.461	47.42198
1001.63	34.77495
1001.798	-11.5902
1001.967	34.77495
1002.136	9.48343
1002.304	-1.05368
1002.473	47.42198
1002.642	28.45175
1002.81	22.12877
1002.979	5.26851
1003.147	-3.16104
1003.316	15.80599
1003.484	22.12877
1003.653	20.02115
1003.821	-1.05368
1003.99	47.42198
1004.158	28.45175
1004.327	-5.26836
1004.495	47.42198
1004.663	26.34407
1004.832	-11.5902
1005	34.77495
1005.168	13.69845
1005.337	36.88273
1005.505	-7.37567
1005.673	30.55946
1005.842	-1.05368
1006.01	-11.5902
1006.178	38.99053
1006.346	47.42198
1006.514	20.02115
1006.683	76.93493
1006.851	5.26851
1007.019	13.69845
1007.187	1.05369
1007.355	7.37596
1007.523	-20.01897
1007.691	17.91356
1007.859	26.34407
1008.027	64.28597
1008.195	5.26851
1008.363	41.09836
1008.531	43.20621
1008.699	-26.3403
1008.867	3.16109
1009.035	79.04317
1009.203	-53.73012
1009.37	66.39408
1009.538	-9.48295
1009.706	30.55946
1009.874	30.55946
1010.042	-30.55439
1010.209	-20.01897
1010.377	81.15143
1010.545	32.66719
1010.713	47.42198
1010.88	17.91356
1011.048	-28.44736
1011.216	-28.44736
1011.383	17.91356
1011.551	22.12877
1011.718	7.37596
1011.886	5.26851
1012.054	-28.44736
1012.221	64.28597
1012.389	-45.30293
1012.556	13.69845
1012.724	-34.76838
1012.891	32.66719
1013.058	100.12679
1013.226	-1.05368
1013.393	15.80599
1013.561	-24.23321
1013.728	9.48343
1013.895	60.06984
1014.063	-34.76838
1014.23	-41.08919
1014.397	-1.05368
1014.565	-95.85994
1014.732	-3.16104
1014.899	79.04317
1015.066	41.09836
1015.233	163.39074
1015.401	7.37596
1015.568	5.26851
1015.735	43.20621
1015.902	102.23527
1016.069	-17.91182
1016.236	55.85379
1016.403	1.05369
1016.57	15.80599
1016.737	51.63784
1016.904	-1.05368
1017.071	38.99053
1017.238	15.80599
1017.405	47.42198
1017.572	26.34407
1017.739	30.55946
1017.906	-24.23321
1018.073	91.69308
1018.24	36.88273
1018.407	-36.87534
1018.573	-26.3403
1018.74	11.59093
1018.907	9.48343
1019.074	22.12877
1019.241	47.42198
1019.407	-41.08919
1019.574	9.48343
1019.741	51.63784
1019.907	-15.80464
1020.074	13.69845
1020.241	-5.26836
1020.407	106.45231
1020.574	43.20621
1020.74	24.2364
1020.907	9.48343
1021.073	1.05369
1021.24	-13.69743
1021.406	76.93493
1021.573	5.26851
1021.739	36.88273
1021.906	24.2364
1022.072	5.26851
1022.239	22.12877
1022.405	76.93493
1022.571	-34.76838
1022.738	20.02115
1022.904	60.06984
1023.07	34.77495
1023.237	74.82672
1023.403	-17.91182
1023.569	-3.16104
1023.735	28.45175
1023.902	-5.26836
1024.068	-36.87534
1024.234	-3.16104
1024.4	-45.30293
1024.566	7.37596
1024.732	22.12877
1024.898	13.69845
1025.065	55.85379
1025.231	1.05369
1025.397	17.91356
1025.563	28.45175
1025.729	-13.69743
1025.895	-51.62336
1026.061	-1.05368
1026.227	7.37596
1026.392	3.16109
1026.558	-20.01897
1026.724	60.06984
1026.89	17.91356
1027.056	-45.30293
1027.222	-32.6614
1027.388	-49.51657
1027.553	53.7458
1027.719	-62.1569
1027.885	9.48343
1028.051	43.20621
1028.216	60.06984
1028.382	20.02115
1028.548	22.12877
1028.713	5.26851
1028.879	13.69845
1029.045	-20.01897
1029.21	22.12877
1029.376	-15.80464
1029.541	-36.87534
1029.707	-62.1569
1029.873	26.34407
1030.038	5.26851
1030.204	79.04317
1030.369	-38.98228
1030.534	-51.62336
1030.7	22.12877
1030.865	-53.73012
1031.031	-70.58328
1031.196	64.28597
1031.361	13.69845
1031.527	-26.3403
1031.692	62.17789
1031.857	-76.90279
1032.023	-1.05368
1032.188	-57.94356
1032.353	32.66719
1032.518	7.37596
1032.684	-45.30293
1032.849	-32.6614
1033.014	1.05369
1033.179	-36.87534
1033.344	22.12877
1033.509	-20.01897
1033.674	-49.51657
1033.839	7.37596
1034.004	24.2364
1034.17	32.66719
1034.335	38.99053
1034.5	1.05369
1034.664	41.09836
1034.829	32.66719
1034.994	7.37596
1035.159	-45.30293
1035.324	9.48343
1035.489	38.99053
1035.654	53.7458
1035.819	41.09836
1035.984	85.36802
1036.148	1.05369
1036.313	30.55946
1036.478	32.66719
1036.643	15.80599
1036.807	-1.05368
1036.972	85.36802
1037.137	-79.00925
1037.301	-17.91182
1037.466	51.63784
1037.631	-5.26836
1037.795	-7.37567
1037.96	13.69845
1038.124	-38.98228
1038.289	-43.19607
1038.454	-3.16104
1038.618	9.48343
1038.783	-9.48295
1038.947	64.28597
1039.111	-64.26353
1039.276	-5.26836
1039.44	-62.1569
1039.605	-3.16104
1039.769	22.12877
1039.933	-3.16104
1040.098	-57.94356
1040.262	13.69845
1040.426	38.99053
1040.591	5.26851
1040.755	22.12877
1040.919	26.34407
1041.083	26.34407
1041.248	-22.12611
1041.412	-3.16104
1041.576	112.77803
1041.74	-79.00925
1041.904	15.80599
1042.068	13.69845
1042.232	-22.12611
1042.397	-66.37014
1042.561	9.48343
1042.725	47.42198
1042.889	-17.91182
1043.053	9.48343
1043.217	-30.55439
1043.381	53.7458
1043.544	41.09836
1043.708	17.91356
1043.872	-17.91182
1044.036	24.2364
1044.2	-11.5902
1044.364	11.59093
1044.528	-53.73012
1044.691	-43.19607
1044.855	-30.55439
1045.019	-24.23321
1045.183	93.80147
1045.346	-34.76838
1045.51	-24.23321
1045.674	-11.5902
1045.837	7.37596
1046.001	7.37596
1046.165	-11.5902
1046.328	34.77495
1046.492	30.55946
1046.655	85.36802
1046.819	-3.16104
1046.983	22.12877
1047.146	-11.5902
1047.31	-1.05368
1047.473	-45.30293
1047.636	-55.83685
1047.8	13.69845
1047.963	-34.76838
1048.127	22.12877
1048.29	9.48343
