Data from absorb_only_2.23.25_USB4F045381__1__0106.txt Node

Date: Sun Feb 23 19:11:47 EST 2025
User: ssocol
Spectrometer: USB4F04538
Trigger mode: 4
Integration Time (sec): 2.600000E-3
Scans to average: 1
Electric dark correction enabled: true
Nonlinearity correction enabled: true
Boxcar width: 0
XAxis mode: Wavelengths
Number of Pixels in Spectrum: 3648
>>>>>Begin Spectral Data<<<<<
345.52	-16.33143
345.736	-16.33143
345.952	-16.33143
346.168	25.81715
346.384	-43.72279
346.6	-31.08114
346.816	38.46358
347.032	4.74166
347.248	11.06405
347.464	17.38667
347.68	23.70949
347.896	72.19148
348.112	-64.79019
348.328	19.49425
348.544	25.81715
348.76	-45.82964
348.975	-71.10991
349.191	36.35578
349.407	-31.08114
349.623	4.74166
349.839	21.60186
350.055	2.63424
350.27	4.74166
350.486	30.03253
350.702	-24.75999
350.918	46.895
351.133	-31.08114
351.349	6.8491
351.565	34.24801
351.781	8.95656
351.996	42.67924
352.212	-16.33143
352.428	59.54283
352.644	72.19148
352.859	38.46358
353.075	8.95656
353.291	46.895
353.506	8.95656
353.722	13.17157
353.938	13.17157
354.153	51.11085
354.369	67.97517
354.584	53.21881
354.8	30.03253
355.016	-54.2568
355.231	-33.18815
355.447	25.81715
355.662	65.86705
355.878	127.01161
356.093	80.62436
356.309	51.11085
356.524	8.95656
356.74	118.57677
356.955	25.81715
357.171	-24.75999
357.386	67.97517
357.602	4.74166
357.817	-3.68787
358.033	86.94927
358.248	110.14229
358.464	-24.75999
358.679	67.97517
358.895	51.11085
359.11	34.24801
359.325	110.14229
359.541	15.2791
359.756	42.67924
359.972	17.38667
360.187	27.92483
360.402	-41.61591
360.618	-33.18815
360.833	114.35949
361.048	82.73264
361.264	15.2791
361.479	25.81715
361.694	70.08331
361.909	-96.3865
362.125	2.63424
362.34	19.49425
362.555	103.81665
362.77	17.38667
362.986	8.95656
363.201	30.03253
363.416	0.52684
363.631	44.78711
363.847	-41.61591
364.062	27.92483
364.277	8.95656
364.492	-12.11701
364.707	51.11085
364.922	21.60186
365.138	-37.40208
365.353	-14.22423
365.568	15.2791
365.783	8.95656
365.998	78.51611
366.213	72.19148
366.428	34.24801
366.643	25.81715
366.858	13.17157
367.073	27.92483
367.288	36.35578
367.503	70.08331
367.718	42.67924
367.933	25.81715
368.148	25.81715
368.363	46.895
368.578	-24.75999
368.793	-28.97412
369.008	51.11085
369.223	72.19148
369.438	-3.68787
369.653	46.895
369.868	-18.43861
370.083	42.67924
370.298	-3.68787
370.513	-1.58052
370.728	70.08331
370.943	-58.47023
371.157	25.81715
371.372	17.38667
371.587	-16.33143
371.802	95.38278
372.017	51.11085
372.232	-12.11701
372.446	2.63424
372.661	-16.33143
372.876	46.895
373.091	86.94927
373.306	59.54283
373.52	-24.75999
373.735	-1.58052
373.95	23.70949
374.165	42.67924
374.379	34.24801
374.594	23.70949
374.809	-56.36353
375.023	-3.68787
375.238	42.67924
375.453	11.06405
375.667	36.35578
375.882	-20.54576
376.097	78.51611
376.311	21.60186
376.526	11.06405
376.741	21.60186
376.955	57.4348
377.17	13.17157
377.384	55.32679
377.599	42.67924
377.813	17.38667
378.028	-24.75999
378.242	23.70949
378.457	59.54283
378.672	32.14026
378.886	23.70949
379.101	61.65088
379.315	-41.61591
379.53	8.95656
379.744	76.40788
379.958	-33.18815
380.173	110.14229
380.387	19.49425
380.602	25.81715
380.816	4.74166
381.031	86.94927
381.245	49.00291
381.459	44.78711
381.674	38.46358
381.888	-7.90249
382.103	65.86705
382.317	-7.90249
382.531	11.06405
382.746	21.60186
382.96	59.54283
383.174	-41.61591
383.388	21.60186
383.603	53.21881
383.817	15.2791
384.031	30.03253
384.246	13.17157
384.46	59.54283
384.674	-41.61591
384.888	-54.2568
385.103	108.03372
385.317	46.895
385.531	120.68545
385.745	76.40788
385.959	59.54283
386.174	57.4348
386.388	25.81715
386.602	17.38667
386.816	51.11085
387.03	36.35578
387.244	78.51611
387.458	78.51611
387.672	27.92483
387.887	8.95656
388.101	42.67924
388.315	21.60186
388.529	55.32679
388.743	95.38278
388.957	25.81715
389.171	-41.61591
389.385	42.67924
389.599	21.60186
389.813	8.95656
390.027	-12.11701
390.241	4.74166
390.455	74.29967
390.669	15.2791
390.883	51.11085
391.097	42.67924
391.311	61.65088
391.525	34.24801
391.738	53.21881
391.952	93.27437
392.166	46.895
392.38	-1.58052
392.594	89.05761
392.808	89.05761
393.022	-7.90249
393.236	6.8491
393.449	55.32679
393.663	93.27437
393.877	15.2791
394.091	70.08331
394.305	13.17157
394.518	42.67924
394.732	95.38278
394.946	-24.75999
395.16	2.63424
395.373	-1.58052
395.587	-16.33143
395.801	59.54283
396.015	42.67924
396.228	61.65088
396.442	91.16598
396.656	46.895
396.869	34.24801
397.083	21.60186
397.297	55.32679
397.51	53.21881
397.724	21.60186
397.938	53.21881
398.151	80.62436
398.365	99.59967
398.578	34.24801
398.792	-14.22423
399.005	-24.75999
399.219	70.08331
399.433	78.51611
399.646	-12.11701
399.86	55.32679
400.073	63.75895
400.287	53.21881
400.5	44.78711
400.714	59.54283
400.927	84.84094
401.141	72.19148
401.354	17.38667
401.567	-16.33143
401.781	-7.90249
401.994	4.74166
402.208	72.19148
402.421	55.32679
402.635	101.70815
402.848	65.86705
403.061	44.78711
403.275	76.40788
403.488	25.81715
403.701	34.24801
403.915	63.75895
404.128	101.70815
404.341	51.11085
404.555	67.97517
404.768	70.08331
404.981	46.895
405.195	67.97517
405.408	51.11085
405.621	118.57677
405.834	70.08331
406.048	-24.75999
406.261	67.97517
406.474	91.16598
406.687	25.81715
406.9	25.81715
407.114	93.27437
407.327	110.14229
407.54	17.38667
407.753	93.27437
407.966	36.35578
408.179	93.27437
408.392	13.17157
408.605	51.11085
408.819	84.84094
409.032	34.24801
409.245	97.49122
409.458	30.03253
409.671	78.51611
409.884	70.08331
410.097	101.70815
410.31	76.40788
410.523	61.65088
410.736	40.5714
410.949	59.54283
411.162	118.57677
411.375	110.14229
411.588	97.49122
411.801	84.84094
412.014	127.01161
412.227	25.81715
412.44	34.24801
412.653	36.35578
412.865	42.67924
413.078	82.73264
413.291	112.25088
413.504	67.97517
413.717	21.60186
413.93	86.94927
414.143	72.19148
414.356	137.55563
414.568	42.67924
414.781	101.70815
414.994	110.14229
415.207	112.25088
415.42	101.70815
415.632	154.42718
415.845	101.70815
416.058	105.92518
416.271	51.11085
416.483	86.94927
416.696	67.97517
416.909	114.35949
417.121	84.84094
417.334	70.08331
417.547	135.44678
417.759	80.62436
417.972	38.46358
418.185	86.94927
418.397	19.49425
418.61	99.59967
418.823	63.75895
419.035	118.57677
419.248	103.81665
419.46	124.90287
419.673	135.44678
419.885	97.49122
420.098	183.95562
420.311	97.49122
420.523	118.57677
420.736	95.38278
420.948	145.99124
421.161	67.97517
421.373	65.86705
421.586	143.8823
421.798	160.75436
422.01	152.31817
422.223	91.16598
422.435	179.73703
422.648	148.10019
422.86	186.06495
423.073	99.59967
423.285	131.22915
423.497	86.94927
423.71	169.1909
423.922	127.01161
424.134	183.95562
424.347	179.73703
424.559	173.40929
424.771	202.94032
424.984	173.40929
425.196	110.14229
425.408	202.94032
425.621	215.59768
425.833	169.1909
426.045	186.06495
426.257	186.06495
426.47	169.1909
426.682	198.72135
426.894	188.1743
427.106	211.37848
427.318	181.84631
427.531	249.35413
427.743	207.15936
427.955	154.42718
428.167	139.6645
428.379	215.59768
428.591	238.8047
428.804	186.06495
429.016	253.57403
429.228	177.62776
429.44	245.1343
429.652	234.58507
429.864	245.1343
430.076	238.8047
430.288	177.62776
430.5	323.21326
430.712	211.37848
430.924	356.9848
431.136	230.36551
431.348	209.26891
431.56	340.09847
431.772	283.11549
431.984	323.21326
432.196	283.11549
432.408	327.43445
432.62	259.90403
432.832	329.54508
433.044	329.54508
433.256	359.09566
433.468	435.09805
433.679	439.32102
433.891	359.09566
434.103	392.87187
434.315	382.31634
434.527	356.9848
434.739	285.22573
434.95	405.53904
435.162	460.4368
435.374	445.65559
435.586	492.11332
435.798	494.22521
436.009	397.09419
436.221	449.87871
436.433	559.70082
436.645	430.87514
436.856	475.21875
437.068	416.09547
437.28	468.88354
437.491	521.68107
437.703	593.49984
437.915	549.13933
438.126	566.03788
438.338	354.87394
438.55	525.90526
438.761	485.77775
438.973	566.03788
439.184	506.89684
439.396	587.16227
439.608	445.65559
439.819	542.8026
440.031	557.58849
440.242	568.15026
440.454	530.12951
440.665	515.34488
440.877	671.67253
441.088	553.36388
441.3	566.03788
441.511	610.4006
441.723	494.22521
441.934	570.26265
442.146	701.25563
442.357	658.99475
442.569	601.95012
442.78	652.65602
442.991	722.38775
443.203	608.28796
443.414	701.25563
443.626	692.80309
443.837	635.75326
444.048	658.99475
444.26	650.54313
444.471	760.42827
444.682	591.3873
444.894	709.70835
445.105	709.70835
445.316	811.15404
445.528	775.2227
445.739	787.90403
445.95	836.51897
446.161	754.08795
446.373	844.97423
446.584	720.27449
446.795	844.97423
447.006	785.79045
447.217	819.60887
447.429	811.15404
447.64	866.113
447.851	815.38144
448.062	844.97423
448.273	874.56875
448.484	853.42963
448.695	855.54351
448.907	874.56875
449.118	992.96219
449.329	760.42827
449.54	978.16178
449.751	868.22692
449.962	830.17761
450.173	973.93315
450.384	1124.06413
450.595	1107.14661
450.806	1035.25078
451.017	946.44774
451.228	1107.14661
451.439	1039.47978
451.65	1083.88554
451.861	931.6484
452.072	1140.98193
452.283	1200.1963
452.494	1238.26414
452.705	1200.1963
452.915	1191.73692
453.126	1293.25263
453.337	1322.86244
453.548	1312.28747
453.759	1352.4726
453.97	1339.7825
454.181	1369.39281
454.391	1257.29842
454.602	1384.19805
454.813	1462.45484
455.024	1602.04669
455.235	1379.96798
455.445	1335.55247
455.656	1449.76452
455.867	1498.41068
456.078	1453.99463
456.288	1428.614
456.499	1631.65628
456.71	1479.37525
456.921	1339.7825
457.131	1661.26542
457.342	1574.55174
457.553	1682.4145
457.763	1506.87086
457.974	1904.45771
458.184	1733.17107
458.395	1809.30205
458.606	1775.46669
458.816	1980.57441
459.027	1942.51701
459.237	1841.02169
459.448	2120.09989
459.659	2033.42853
459.869	1910.80105
460.08	2213.09859
460.29	2276.49731
460.501	2422.28187
460.711	2333.54905
460.922	2082.05056
461.132	2213.09859
461.343	2274.38415
461.553	2160.26036
461.764	2540.56297
461.974	2392.70627
462.184	2261.705
462.395	2515.21998
462.605	2717.91523
462.816	2363.12865
463.026	2663.02988
463.236	2475.09023
463.447	2768.57078
463.657	2603.91303
463.867	2857.19917
464.078	2916.27097
464.288	2886.73648
464.498	3139.79363
464.709	3091.30822
464.919	3084.98342
465.129	3103.9574
465.339	3165.08699
465.55	3108.17367
465.76	3179.84037
465.97	3232.52444
466.18	3135.57784
466.391	3693.5703
466.601	3371.55978
466.811	3569.44742
467.021	3565.23872
467.231	3598.90624
467.441	3321.01011
467.651	3977.32617
467.862	3716.70454
468.072	3973.12504
468.282	3826.03459
468.492	3920.60405
468.702	4061.33159
468.912	4170.48902
469.122	3994.12988
469.332	4313.14717
469.542	4365.57008
469.752	4405.40242
469.962	4631.66709
470.172	4625.38545
470.382	4619.10362
470.592	4665.16572
470.802	4692.37913
471.012	4920.40246
471.222	5012.37161
471.432	4974.75326
471.642	5008.19216
471.852	5454.86554
472.062	5444.44147
472.272	5509.0612
472.482	5565.32447
472.691	5611.15592
472.901	5484.04979
473.111	5602.82378
473.321	5738.1743
473.531	6106.23892
473.741	5904.62269
473.95	6340.83259
474.16	5964.92294
474.37	6349.13131
474.58	6174.77953
474.79	6593.77617
474.999	6224.61119
475.209	6415.50766
475.419	6620.70884
475.628	6825.68409
475.838	6622.78042
476.048	6848.44529
476.258	7015.96599
476.467	7298.96886
476.677	7228.77341
476.886	7614.53665
477.096	7690.77497
477.306	7729.91313
477.515	7585.68212
477.725	7678.41397
477.935	7830.81344
478.144	7892.56447
478.354	7713.43483
478.563	8305.82417
478.773	8098.26787
478.982	8484.45012
479.192	8468.03083
479.401	8523.44105
479.611	8523.44105
479.82	8740.84497
480.03	8798.23775
480.239	8898.64094
480.449	8915.02921
480.658	9095.22563
480.868	9459.30982
481.077	9397.98409
481.287	9618.68925
481.496	9759.59949
481.705	9639.11558
481.915	9929.00479
482.124	9926.96437
482.333	10026.92796
482.543	10190.06044
482.752	10114.62282
482.961	10265.47924
483.171	10434.59518
483.38	10147.24683
483.589	10672.83685
483.799	10750.17811
484.008	10884.46698
484.217	10864.12345
484.426	10758.31829
484.636	11144.76513
484.845	11063.44133
485.054	11177.28986
485.263	11547.07536
485.472	11354.09657
485.682	11603.93697
485.891	11699.36714
486.1	11971.33925
486.309	12060.61135
486.518	12172.1804
486.727	12141.75475
486.936	12407.41732
487.146	12202.60439
487.355	12362.81065
487.564	12474.32124
487.773	12531.08262
487.982	12403.3623
488.191	12687.15111
488.4	12739.84152
488.609	12877.62906
488.818	13110.59654
489.027	13159.20768
489.236	13234.14469
489.445	13278.69895
489.654	13335.4014
489.863	13608.74487
490.072	13365.77638
490.281	13677.5766
490.49	13875.9536
490.698	13778.79295
490.907	14102.63793
491.116	14222.04036
491.325	14278.70348
491.534	14258.46682
491.743	14203.82689
491.952	14282.75079
492.16	14450.70818
492.369	14630.7961
492.578	14602.4683
492.787	15100.20671
492.996	14950.48397
493.204	14845.27214
493.413	15005.11271
493.622	15209.46334
493.831	15071.88088
494.039	15262.06844
494.248	15401.67504
494.457	15725.4103
494.665	15591.86726
494.874	15593.89061
495.083	15850.86369
495.291	15893.35695
495.5	15927.75666
495.709	15733.50395
495.917	15778.01928
496.126	16053.21771
496.335	16211.06399
496.543	16698.83999
496.752	16358.80132
496.96	16466.069
497.169	16520.71699
497.377	16480.23685
497.586	16370.94455
497.794	16791.95686
498.003	16459.99709
498.211	17237.37405
498.42	16925.56846
498.628	16796.00554
498.837	16951.88721
499.045	17063.24076
499.254	17053.11738
499.462	17324.44873
499.671	17524.94441
499.879	17362.92536
500.087	17573.55407
500.296	17555.32523
500.504	17484.43777
500.713	17739.65124
500.921	17867.27781
501.129	17976.68293
501.338	17847.01872
501.546	18227.94886
501.754	17958.44803
501.962	18118.51975
502.171	18124.59887
502.379	18106.36162
502.587	17964.5263
502.795	18075.96686
503.004	18333.33522
503.212	18590.76412
503.42	18773.23186
503.628	18641.44642
503.837	18686.04886
504.045	19111.89629
504.253	18955.73168
504.461	18700.24095
504.669	18923.2849
504.877	18941.53609
505.085	19055.10638
505.294	19452.70327
505.502	19008.4599
505.71	19690.1201
505.918	19006.43184
506.126	19456.7612
506.334	18896.92264
506.542	19517.63212
506.75	19383.72103
506.958	19679.97291
507.166	19706.35582
507.374	19761.15335
507.582	19562.27317
507.79	19805.80545
507.998	19755.06458
508.206	20173.24765
508.414	19882.93659
508.622	20181.36948
508.83	20083.91201
509.037	20410.83883
509.245	19582.56523
509.453	20581.45252
509.661	20262.59143
509.869	20538.79633
510.077	20037.21707
510.285	20465.67573
510.492	20672.86483
510.7	20715.5268
510.908	20605.82831
511.116	20892.28871
511.324	20628.17331
511.531	20758.19059
511.739	20914.64015
511.947	20845.5555
512.155	20632.23609
512.362	20646.45596
512.57	20593.64034
512.778	21022.3404
512.985	21182.89609
513.193	21408.52973
513.401	21404.46382
513.608	21123.95497
513.816	21455.28883
514.024	21561.01282
514.231	21286.55944
514.439	21853.84238
514.646	21477.65263
514.854	21624.04567
515.061	21258.10178
515.269	21986.04866
515.477	21664.71402
515.684	21853.84238
515.892	21835.53817
516.099	22264.75111
516.307	22053.17492
516.514	22022.66247
516.722	22260.68196
516.929	22081.65398
517.136	22309.51275
517.344	22543.52273
517.551	22226.09476
517.759	22142.683
517.966	22740.94174
518.173	22289.16633
518.381	22364.44992
518.588	22797.93478
518.796	22799.9703
519.003	23174.5628
519.21	22337.99836
519.418	22911.92895
519.625	22659.52783
519.832	23052.40065
520.039	23211.21375
520.247	23394.48409
520.454	23282.48247
520.661	23347.64588
520.868	23030.00554
521.076	23799.80447
521.283	23526.86188
521.49	23537.04533
521.697	23439.28741
521.904	23325.24559
522.112	23264.15585
522.319	23752.95231
522.526	23663.32644
522.733	24027.97607
522.94	23675.54781
523.147	24623.0137
523.354	23919.99753
523.561	24213.39149
523.768	24347.88268
523.975	24441.62577
524.183	24276.56014
524.39	24335.65573
524.597	24576.13625
524.804	24704.54282
525.011	24409.01885
525.218	24372.33686
525.425	24480.34734
525.632	24661.73954
525.838	24665.81599
526.045	24543.52663
526.252	24726.96402
526.459	24775.88401
526.666	24663.77776
526.873	24519.06984
527.08	25120.40068
527.287	25299.81944
527.494	25120.40068
527.701	25161.17618
527.907	25571.01754
528.114	25522.07686
528.321	25607.72381
528.528	25617.9201
528.735	25844.29043
528.941	25905.4756
529.148	25562.86068
529.355	25881.00133
529.562	25750.47644
529.768	25689.29557
529.975	25950.34578
530.182	25895.27796
530.388	25844.29043
530.595	26213.46555
530.802	25876.92232
531.008	26601.05727
531.215	26562.2955
531.422	26429.69374
531.628	26545.97492
531.835	26395.01439
532.042	26586.77655
532.248	26707.14492
532.455	26768.35119
532.661	26788.75358
532.868	26729.58707
533.074	26625.53867
533.281	26972.38157
533.487	27492.72107
533.694	27045.83598
533.9	27664.14523
534.107	26845.88104
534.313	27384.56508
534.52	27111.13029
534.726	27345.79305
534.933	27092.76613
535.139	27664.14523
535.345	27207.03383
535.552	27382.52444
535.758	27798.84161
535.965	27951.91187
536.171	27704.96177
536.377	27600.88055
536.584	27735.57448
536.79	27543.73926
536.996	28037.63403
537.203	28209.08427
537.409	28090.70112
537.615	28339.71823
537.821	28327.47111
538.028	28276.44185
538.234	28454.02657
538.44	28300.93581
538.646	28333.59466
538.853	28227.4544
539.059	28151.93332
539.265	28725.52223
539.471	28384.62468
539.677	28454.02657
539.883	28554.04912
540.09	28378.50104
540.296	28466.2741
540.502	29099.11413
540.708	29001.11945
540.914	29370.65358
541.12	29172.61171
541.326	29795.35423
541.532	29329.8194
541.738	29309.40247
541.944	29178.73657
542.15	29599.33279
542.356	29272.65225
542.562	29325.73601
542.768	29384.94564
542.974	29854.57102
543.18	29405.36296
543.386	29891.32674
543.592	30260.94637
543.798	29966.8813
544.004	30389.60754
544.21	30418.19957
544.415	30363.05802
544.621	30430.45337
544.827	30322.21299
545.033	30834.85466
545.239	30730.68577
545.445	30822.59932
545.651	30477.42669
545.856	30734.77076
546.062	30659.19933
546.268	30326.29747
546.474	30614.26582
546.679	30385.52299
546.885	30138.41633
547.091	30189.47
547.297	30230.31346
547.502	30493.76539
547.708	30581.58729
547.914	30724.5583
548.119	30967.62414
548.325	31110.61339
548.531	30671.45403
548.736	30983.96541
548.942	30996.22142
549.147	30881.83396
549.353	30973.7521
549.559	31449.73185
549.764	31163.72552
549.97	31112.65615
550.175	31447.68884
550.381	31792.98223
550.586	31106.52788
550.792	31705.12179
550.997	31709.20825
551.203	32101.54281
551.408	32030.01822
551.614	31989.14811
551.819	32121.97886
552.025	32089.28128
552.23	32260.94942
552.435	32211.89989
552.641	32637.03768
552.846	32115.84802
553.052	31946.23534
553.257	32310.00016
553.462	32653.39111
553.668	32177.1572
553.873	32260.94942
554.078	32422.41282
554.283	32305.91255
554.489	32622.72856
554.694	32536.87625
554.899	32710.6293
555.105	32953.91332
555.31	32865.99983
555.515	32843.51109
555.72	33094.99399
555.925	32684.05419
556.131	33403.78194
556.336	32876.22208
556.541	33189.05496
556.746	33567.4055
556.951	33485.59127
557.156	32982.53735
557.361	33501.95372
557.567	33213.59358
557.772	33503.99904
557.977	33485.59127
558.182	33739.23191
558.387	33833.33711
558.592	33569.45092
558.797	33534.67921
559.002	33514.22569
559.207	33690.13632
559.412	33172.69611
559.617	33135.88934
559.822	33841.52051
560.027	34279.41466
560.232	33778.10059
560.437	33829.24543
560.642	34263.04176
560.847	34477.95587
561.051	34502.52027
561.256	34005.20003
561.461	34408.35989
561.666	34353.09576
561.871	34121.83549
562.076	34379.70406
562.281	34455.43902
562.485	34136.15996
562.69	33827.1996
562.895	33876.30056
563.1	34299.88113
563.305	34744.10182
563.509	34830.10276
563.714	34228.25015
563.919	34140.2527
564.123	34189.3667
564.328	34584.40582
564.533	34639.6823
564.737	34236.43631
564.942	34572.12257
565.147	35049.23588
565.351	35090.20115
565.556	34856.72367
565.761	34531.17947
565.965	34572.12257
566.17	34893.58462
566.374	34983.69529
566.579	34871.05831
566.784	34627.39838
566.988	34729.76907
567.193	34813.72103
567.397	35372.91364
567.602	35458.97523
567.806	35159.84643
568.011	35547.09523
568.215	35795.11313
568.42	35440.53271
568.624	35670.06951
568.828	34955.02277
569.033	35151.65259
569.237	35440.53271
569.442	35579.88652
569.646	35286.8609
569.85	35795.11313
570.055	35622.92712
570.259	35280.71461
570.463	35506.10799
570.668	35940.68151
570.872	35082.00795
571.076	35823.81453
571.281	36174.47125
571.485	36129.34802
571.689	36076.02424
571.893	36601.2371
572.098	36354.99327
572.302	36262.67501
572.506	36067.82093
572.71	36283.18911
572.914	36605.34194
573.119	36285.24055
573.323	36246.26416
573.527	36515.04137
573.731	36861.9469
573.935	36691.54966
574.139	36480.15583
574.343	35364.71777
574.547	36305.75532
574.751	36646.3918
574.955	36309.85835
575.159	36525.30217
575.364	36705.91874
575.568	36603.28952
575.772	36145.75613
575.976	36330.37385
576.18	36393.97584
576.383	37396.03163
576.587	37151.52518
576.791	36377.56186
576.995	37241.91886
577.199	37445.35655
577.403	37075.52305
577.607	37433.02491
577.811	37472.07602
578.015	36847.57426
578.219	37546.0751
578.422	37024.17576
578.626	37024.17576
578.83	37159.74221
579.034	37077.57704
579.238	37597.46919
579.442	37710.55325
579.645	37574.8552
579.849	37780.47165
580.053	38134.31962
580.257	37807.20758
580.46	38008.79925
580.664	38045.83483
580.868	37443.30125
581.071	37708.49697
581.275	37764.01944
581.479	37786.64136
581.682	37891.53747
581.886	37920.33615
582.09	38309.27735
582.293	38702.64736
582.497	37891.53747
582.7	38023.20166
582.904	38640.83994
583.107	38754.15981
583.311	38109.62464
583.515	38362.8062
583.718	38348.39401
583.922	38653.20078
584.125	38546.08434
584.329	38366.92405
584.532	37992.33985
584.735	38529.60704
584.939	37967.65174
585.142	38387.51381
585.346	38521.3686
585.549	38900.48655
585.753	38875.75198
585.956	39209.78366
586.159	39645.23388
586.363	39300.55195
586.566	39864.16143
586.769	39232.47396
586.973	38848.95771
587.176	38865.44631
587.379	39352.13331
587.582	39350.06994
587.786	39044.7985
587.989	39160.28164
588.192	39248.97674
588.395	39795.99224
588.599	40033.60115
588.802	40612.72435
589.005	39494.53007
589.208	39787.73008
589.411	39824.91111
589.615	39061.29425
589.818	39622.52162
590.021	39969.5363
590.224	40021.20071
590.427	39967.46986
590.63	40296.16821
590.833	40308.57729
591.036	39930.27579
591.239	40155.55943
591.442	39957.13783
591.645	40017.06731
591.848	40302.3727
592.051	39882.75501
592.254	39292.29951
592.457	39829.04255
592.66	39566.77858
592.863	40031.53439
593.066	39981.93515
593.269	40331.3283
593.472	40362.35455
593.675	40838.40554
593.878	40532.00877
594.081	40354.08064
594.284	40614.7942
594.486	40877.7584
594.689	40861.18827
594.892	40621.00384
595.095	40838.40554
595.298	40794.91512
595.5	40765.92431
595.703	41132.61797
595.906	41188.58654
596.109	41161.63763
596.311	41060.07893
596.514	41014.49033
596.717	40608.58467
596.92	41431.2174
597.122	41526.65586
597.325	41543.25648
597.528	41806.89632
597.73	42249.51484
597.933	41734.21985
598.136	41694.77324
598.338	40979.26665
598.541	41516.28087
598.743	41557.78266
598.946	41329.58281
599.148	41875.43376
599.351	41740.44866
599.554	41939.82979
599.756	41337.87843
599.959	41968.9158
600.161	41624.19567
600.363	41744.60127
600.566	41983.45973
600.768	41950.21737
600.971	42112.30429
601.173	41983.45973
601.376	42447.11251
601.578	42403.42305
601.78	42176.74478
601.983	42064.50146
602.185	41919.05557
602.388	42149.71987
602.59	42286.94552
602.792	42494.96939
602.995	42155.9562
603.197	41786.13006
603.399	42249.51484
603.601	41923.21031
603.804	41111.89106
604.006	41719.68637
604.208	41873.35667
604.41	41931.51995
604.613	41719.68637
604.815	41769.51795
605.017	42351.41919
605.219	41919.05557
605.421	41875.43376
605.623	42193.37657
605.826	42790.58572
606.028	42357.65923
606.23	42542.83312
606.432	42457.5156
606.634	42963.4978
606.836	42228.72181
607.038	42212.08829
607.24	42640.66293
607.442	42932.2419
607.644	42607.35594
607.846	42746.85123
608.048	43053.11454
608.25	42844.74119
608.452	42540.75194
608.654	42409.66405
608.856	42407.58371
609.058	42116.46138
609.26	42819.74525
609.462	42617.76402
609.664	42644.82654
609.866	42291.10474
610.067	42189.21854
610.269	42197.53464
610.471	42178.82371
610.673	42099.83335
610.875	42430.46824
611.077	42515.77887
611.278	42480.40353
611.48	42330.61989
611.682	42532.42738
611.884	43741.69439
612.085	42632.33587
612.287	43121.90682
612.489	42988.50466
612.69	42882.23865
612.892	43138.58591
613.094	43126.07651
613.295	42542.83312
613.497	42798.91675
613.699	42805.16516
613.9	42940.57652
614.102	42322.30053
614.304	42029.17323
614.505	42033.3293
614.707	42170.50807
614.908	42224.56335
615.11	42378.46019
615.311	42490.80765
615.513	42210.00916
615.714	42182.98161
615.916	42478.32275
616.117	42120.61851
616.319	43228.25069
616.52	43463.99945
616.722	43539.14135
616.923	43334.62934
617.124	43313.76803
617.326	42819.74525
617.527	42894.73875
617.729	43019.76591
617.93	42780.17222
618.131	43151.0958
618.333	43203.22548
618.534	43138.58591
618.735	43190.71359
618.937	42817.66234
619.138	42590.70369
619.339	42245.35613
619.54	42936.40919
619.742	43190.71359
619.943	42817.66234
620.144	43307.5099
620.345	43618.47682
620.546	43416.00127
620.748	43549.57911
620.949	43030.18699
621.15	43340.88799
621.351	43146.92578
621.552	42880.15535
621.753	42686.46548
621.954	43098.97445
622.155	42432.54873
622.356	43144.8408
622.558	43309.59593
622.759	42823.91111
622.96	42619.84567
623.161	42842.65812
623.362	42719.7804
623.563	43480.69614
623.764	42936.40919
623.965	43065.62115
624.166	43042.69273
624.366	42894.73875
624.567	42909.3228
624.768	42555.32043
624.969	42661.48149
625.17	42469.99973
625.371	42763.51131
625.572	43176.117
625.773	43153.18083
625.973	43495.30645
626.174	43320.02628
626.375	44168.10095
626.576	43463.99945
626.777	43605.94887
626.977	43188.62833
627.178	43428.52185
627.379	43608.03683
627.58	43873.31801
627.78	43856.6009
627.981	43388.87502
628.182	43211.567
628.382	43257.4492
628.583	43046.86141
628.784	42913.48979
628.984	42482.48433
629.185	43082.29737
629.386	42709.36913
629.586	43566.28023
629.787	42836.409
629.987	43522.44164
630.188	43328.37081
630.388	43582.98222
630.589	43238.67843
630.79	43768.85039
630.99	43182.37261
631.191	43076.04369
631.391	43438.95603
631.591	43290.82215
631.792	42986.42068
631.992	43745.87209
632.193	43854.51132
632.393	43779.29562
632.594	43706.18617
632.794	43821.07994
632.994	43455.65143
633.195	43491.13201
633.395	43549.57911
633.595	43426.43505
633.796	43151.0958
633.996	43760.49445
634.196	43821.07994
634.397	44291.53094
634.597	43153.18083
634.797	43938.10507
634.997	43209.4816
635.198	43806.4548
635.398	43253.27783
635.598	43982.00056
635.798	43330.45697
635.998	43399.30793
636.199	43923.47459
636.399	43766.76139
636.599	44195.29327
636.799	43773.02844
636.999	43119.82199
637.199	43681.12392
637.399	43679.03548
637.599	43670.68188
637.799	43818.99059
637.999	44316.64121
638.199	44103.26712
638.399	44153.4599
638.599	43902.57505
638.799	44260.14588
638.999	44147.18537
639.199	43967.36806
639.399	43821.07994
639.599	43413.91456
639.799	42742.68635
639.999	42917.65684
640.199	43065.62115
640.399	43324.19852
640.599	42838.49203
640.799	43875.40771
640.998	43864.95934
641.198	44253.86925
641.398	43724.98415
641.598	44149.27686
641.798	44350.12468
641.997	44019.63007
642.197	44337.56797
642.397	44513.40725
642.597	43998.72424
642.796	44500.84407
642.996	43804.36555
643.196	43856.6009
643.395	43676.94706
643.595	44105.35833
643.795	44525.97094
643.994	44859.09073
644.194	44297.80832
644.394	44603.45804
644.593	44143.00242
644.793	44258.05366
644.992	44212.02816
645.192	44157.64299
645.392	44356.40322
645.591	44704.01015
645.791	44616.0253
645.99	44626.4984
646.19	44251.77706
646.389	44055.17313
646.589	44007.08641
646.788	44683.05915
646.987	43660.24019
647.187	44268.51493
647.386	44042.62807
647.586	44523.87696
647.785	44668.39428
647.984	44387.7978
648.184	44442.22245
648.383	44928.27285
648.582	44660.01466
648.782	44381.51864
648.981	44383.61168
649.18	44670.48922
649.38	45045.70755
649.579	45463.37417
649.778	45245.02716
649.977	45062.4875
650.177	44373.14661
650.376	44318.73383
650.575	43770.93941
650.774	44479.90653
650.973	45081.36601
651.173	44806.69012
651.372	45001.66441
651.571	44880.05341
651.77	44693.53448
651.969	45110.73484
652.168	44836.03339
652.367	45075.07305
652.566	45266.0155
652.765	45173.67725
652.964	45280.70817
653.163	44924.07956
653.362	45289.10429
653.561	44632.78243
653.76	44163.91773
653.959	44241.31634
654.158	45144.30256
654.357	44689.34431
654.556	44126.27116
654.755	44932.4662
654.954	44538.53513
655.153	44241.31634
655.352	44488.28138
655.551	44343.84626
655.749	44364.77481
655.948	44327.10442
656.147	45182.07052
656.346	44913.59659
656.545	45417.17278
656.743	45131.71425
656.942	45312.19477
657.141	45524.28634
657.34	45014.24754
657.538	44982.79067
657.737	45087.6591
657.936	45875.28508
658.135	44810.88185
658.333	44664.20445
658.532	44903.11396
658.731	44473.62554
658.929	44316.64121
659.128	44228.76393
659.326	44934.56289
659.525	44373.14661
659.724	44214.12008
659.922	44928.27285
660.121	44007.08641
660.319	44375.2396
660.518	44134.63668
660.716	45093.95232
660.915	44869.57189
661.113	44989.08179
661.312	44704.01015
661.51	45117.02852
661.709	45358.38079
661.907	45385.67571
662.105	45010.05311
662.304	45289.10429
662.502	45381.47634
662.701	45284.9062
662.899	45014.24754
663.097	44706.10532
663.296	44505.03174
663.494	44859.09073
663.692	45091.85457
663.891	45419.2727
664.089	44699.81984
664.287	45093.95232
664.485	44325.01175
664.684	44586.70246
664.882	44092.81129
665.08	44798.30683
665.278	44444.31589
665.476	44172.28423
665.675	44155.55144
665.873	44924.07956
666.071	44475.71919
666.269	44626.4984
666.467	44536.44106
666.665	44567.8535
666.863	44383.61168
667.061	44693.53448
667.259	44724.96253
667.457	45245.02716
667.655	44846.51379
667.853	45144.30256
668.051	44821.36141
668.249	45585.21026
668.447	45583.10924
668.645	44871.66817
668.843	45373.07776
669.041	45240.82966
669.239	44582.51371
669.437	44649.54045
669.635	44362.68189
669.833	44630.68774
670.031	44310.36346
670.229	44771.06267
670.426	44509.21947
670.624	44724.96253
670.822	44157.64299
671.02	44609.74161
671.218	44415.00896
671.415	44819.26547
671.613	44109.54078
671.811	44197.38508
672.009	44046.8097
672.206	44082.3558
672.404	43733.33916
672.602	43683.21236
672.799	43982.00056
672.997	44170.19259
673.195	43982.00056
673.392	44255.96144
673.59	44009.17698
673.788	43413.91456
673.985	43879.58715
674.183	43877.49742
674.38	44389.89089
674.578	44502.9379
674.775	44371.05364
674.973	44080.26474
675.17	43933.92487
675.368	44442.22245
675.565	44469.43828
675.763	44461.06393
675.96	44237.13215
676.158	43685.30082
676.355	42798.91675
676.553	43560.01721
676.75	43518.26685
676.947	43076.04369
677.145	42963.4978
677.342	43608.03683
677.539	43315.8541
677.737	43990.36229
677.934	44069.80966
678.131	43798.09789
678.329	42963.4978
678.526	42944.74391
678.723	43299.16592
678.92	43582.98222
679.118	42603.1928
679.315	42948.91135
679.512	43376.35598
679.709	42738.52151
679.906	43113.56759
680.104	43192.79888
680.301	42815.57945
680.498	42996.8407
680.695	43405.56783
680.892	43315.8541
681.089	43036.4398
681.286	43086.46656
681.483	42705.20471
681.68	43036.4398
681.877	43048.94577
682.075	42717.69812
682.272	42457.5156
682.469	43610.1248
682.665	43142.75582
682.862	42938.49285
683.059	42505.37397
683.256	42998.92475
683.453	43205.31084
683.65	42811.4137
683.847	43194.88417
684.044	42717.69812
684.241	42767.67646
684.438	43063.53668
684.635	42336.85954
684.831	43051.03015
685.028	42682.30135
685.225	42769.75905
685.422	42237.03887
685.619	42686.46548
685.815	42330.61989
686.012	42524.10302
686.209	41862.9714
686.405	42655.23578
686.602	42035.40736
686.799	42002.15997
686.996	42696.87603
687.192	42709.36913
687.389	42459.59626
687.586	42603.1928
687.782	42619.84567
687.979	42305.66242
688.175	42276.5477
688.372	42355.5792
688.568	42070.73624
688.765	42031.25126
688.962	42126.85431
689.158	41998.00428
689.355	41493.45697
689.551	41725.91493
689.748	41431.2174
689.944	41657.40688
690.14	41601.36479
690.337	41429.14294
690.533	41364.84052
690.73	41124.32707
690.926	41642.87659
691.123	41053.86197
691.319	41402.176
691.515	41858.81738
691.712	41389.7304
691.908	40908.8294
692.104	40507.17664
692.301	40641.70335
692.497	40666.54427
692.693	40830.12126
692.889	41087.02032
693.086	41302.62337
693.282	41651.17954
693.478	41825.587
693.674	41921.13293
693.87	41781.97696
694.067	41549.48191
694.263	41072.51317
694.459	40896.40069
694.655	40892.25788
694.851	40950.26145
695.047	40875.6871
695.243	41174.07534
695.439	41035.21172
695.635	40995.84208
695.831	41642.87659
696.027	41201.02517
696.224	40871.54452
696.42	41198.95204
696.615	40832.19231
696.811	40649.98348
697.007	40896.40069
697.203	40430.62104
697.399	40269.28323
697.595	40370.62863
697.791	39911.68004
697.987	39717.50842
698.183	40267.21523
698.379	40099.74337
698.575	40331.3283
698.77	39703.05251
698.966	40019.134
699.162	39738.16061
699.358	40163.82914
699.554	39791.86114
699.749	40513.38452
699.945	40469.93147
700.141	39802.18897
700.337	40015.00063
700.532	40232.06091
700.728	41041.42837
700.924	40589.95668
701.119	40747.28855
701.315	40585.81725
701.511	39971.60275
701.706	40449.24127
701.902	40203.11265
702.097	40246.53583
702.293	40575.46888
702.489	40486.48443
702.684	40064.60395
702.88	39994.33439
703.075	39800.12338
703.271	39521.36379
703.466	39490.40196
703.662	39754.6831
703.857	39436.74015
704.053	39684.46707
704.248	39653.49319
704.443	40060.47011
704.639	39804.25457
704.834	39444.99537
705.03	39663.81756
705.225	39868.29326
705.42	39651.42835
705.616	39480.08186
705.811	38688.2249
706.006	38840.71364
706.202	38727.37262
706.397	38754.15981
706.592	38533.72631
706.787	38964.39042
706.983	39529.62066
707.178	40207.24799
707.373	40271.35124
707.568	39787.73008
707.763	39327.37349
707.959	39116.97193
708.154	39110.78518
708.349	38278.39797
708.544	39331.50003
708.739	39511.04293
708.934	39114.90967
709.129	38787.13078
709.324	38474.00034
709.519	39005.62353
709.714	38544.02465
709.909	39160.28164
710.104	38519.30901
710.299	38301.04266
710.494	38171.36437
710.689	38315.45346
710.884	38371.04193
711.079	38739.73575
711.274	37848.34242
711.469	38737.6752
711.664	38789.19154
711.859	38807.73883
712.054	38696.46625
712.249	38274.28087
712.443	38336.04105
712.638	39086.03902
712.833	38544.02465
713.028	38702.64736
713.223	38222.81996
713.417	38344.27632
713.612	37751.68061
713.807	37862.74037
714.002	37632.41993
714.196	37798.981
714.391	37235.75521
714.586	38043.77723
714.78	38226.93664
714.975	38589.33998
715.17	38189.88777
715.364	38558.44269
715.559	38066.41131
715.754	37309.72337
715.948	37443.30125
716.143	37373.42582
716.337	37365.20575
716.532	37747.56773
716.726	37973.82365
716.921	37317.94264
717.115	37546.0751
717.31	38340.15867
717.504	37687.93455
717.699	37864.79726
717.893	37237.80976
718.088	37182.33964
718.282	37135.09146
718.476	37198.77468
718.671	37018.01438
718.865	37753.73706
719.059	36861.9469
719.254	37400.14188
719.448	37677.65363
719.642	37556.35353
719.837	36857.8404
720.031	36794.19307
720.225	36357.04493
720.419	36673.0756
720.614	36408.3384
720.808	36447.32405
721.002	36030.90721
721.196	36853.73392
721.39	36086.27851
721.585	36203.18753
721.779	35952.98436
721.973	36246.26416
722.167	36307.80683
722.361	36855.78716
722.555	36771.61009
722.749	36685.39158
722.943	36279.08624
723.137	36192.93158
723.331	35883.27089
723.525	36252.41818
723.719	35723.36432
723.913	35479.4674
724.107	35766.4128
724.301	35942.73197
724.495	35901.72382
724.689	35897.62313
724.883	36092.43113
725.077	36088.32938
725.271	36410.39022
725.465	36311.90987
725.659	35610.62957
725.853	35936.58061
726.046	36106.78747
726.24	35696.71646
726.434	35469.22125
726.628	36043.21157
726.822	35438.48356
727.015	36531.45873
727.209	35567.58963
727.403	36141.65407
727.596	36067.82093
727.79	36231.90499
727.984	35834.06529
728.177	35909.92527
728.371	35895.5728
728.565	35225.39996
728.758	35520.45329
728.952	35407.74702
729.146	35522.50264
729.339	35405.69796
729.533	35713.11504
729.726	35370.86467
729.92	35256.12988
730.113	35676.21873
730.307	35948.88339
730.5	36190.88041
730.694	35653.67184
730.887	35680.31823
731.081	35916.07642
731.274	36156.0114
731.468	36000.1472
731.661	35502.00938
731.854	35452.82767
732.048	35475.36892
732.241	35071.76655
732.435	35702.86589
732.628	35764.36282
732.821	35725.4142
733.014	35696.71646
733.208	35631.12559
733.401	35573.73805
733.594	34617.16189
733.788	34623.30377
733.981	34756.3872
734.174	35524.55199
734.367	35600.38175
734.56	35192.62258
734.754	35131.1683
734.947	35129.1199
735.14	35241.78912
735.333	35280.71461
735.526	35288.90967
735.719	35254.08119
735.912	35592.18359
736.105	35508.15731
736.298	35743.8633
736.491	36004.24846
736.684	35567.58963
736.877	35512.25595
737.07	35420.0415
737.263	34596.68922
737.456	34666.29799
737.649	34897.68037
737.842	35252.0325
738.035	35053.33232
738.228	35143.45882
738.421	34801.43492
738.614	34821.91186
738.807	35297.10481
739	34936.5909
739.192	34342.86197
739.385	34633.54032
739.578	34389.9382
739.771	34418.59431
739.964	34426.78191
740.156	34385.84453
740.349	34256.90199
740.542	35032.85029
740.735	34817.81644
740.927	35182.3799
741.12	35014.41686
741.313	35131.1683
741.505	35231.54586
741.698	34611.02004
741.891	34457.48599
742.083	34162.76302
742.276	34537.32083
742.468	34328.53484
742.661	34117.74282
742.854	33855.84159
743.046	33945.86363
743.239	34025.66154
743.431	34168.90227
743.624	33614.45096
743.816	33622.63295
744.009	33870.16283
744.201	33493.77247
744.393	33287.2119
744.586	33645.13369
744.778	33712.63823
744.971	33835.38296
745.163	33829.24543
745.355	33250.40228
745.548	33835.38296
745.74	33657.40698
745.932	34461.57993
746.125	34322.39469
746.317	33939.72555
746.509	33559.22386
746.702	33984.73886
746.894	33724.91217
747.086	33203.36911
747.278	33248.35732
747.471	33454.9122
747.663	33184.96523
747.855	33215.63849
748.047	33270.85195
748.239	33960.18594
748.431	33784.23786
748.623	33792.42094
748.815	32976.40359
749.008	33422.18861
749.2	33354.69865
749.392	32763.78076
749.584	32520.5239
749.776	32859.8665
749.968	33385.3755
750.16	33888.5761
750.352	33039.78699
750.544	32880.311
750.736	32892.57782
750.928	32904.84473
751.12	32156.7206
751.311	32154.67696
751.503	32745.38199
751.695	32414.23713
751.887	32171.0262
752.079	32401.97366
752.271	32105.63
752.463	32111.76081
752.654	32363.13986
752.846	32771.95806
753.038	32937.55696
753.23	32469.42373
753.421	32626.81687
753.613	32357.00829
753.805	32882.35546
753.997	32675.87732
754.188	32424.45674
754.38	32702.4523
754.572	32972.31442
754.763	32651.34692
754.955	32258.90566
755.146	32446.9401
755.338	31807.28541
755.53	31886.97622
755.721	31874.71591
755.913	32050.45357
756.104	31590.70379
756.296	32495.99564
756.487	31862.45567
756.679	31980.97419
756.87	31703.07856
757.062	31425.2158
757.253	31555.97083
757.445	31531.45374
757.636	31437.4738
757.827	31267.90999
758.019	31112.65615
758.21	31549.84153
758.401	31586.61753
758.593	31445.64583
758.784	31135.12656
758.975	31041.16058
759.167	31198.45324
759.358	30914.51564
759.549	30765.40834
759.74	30702.091
759.932	30687.79371
760.123	30122.07931
760.314	30734.77076
760.505	30524.40067
760.696	30401.86124
760.888	30908.3878
761.079	30622.4355
761.27	30887.96175
761.461	30469.25737
761.652	30081.23708
761.843	29936.25088
762.034	29993.42786
762.225	29723.88692
762.416	29885.20076
762.607	29509.49294
762.798	29991.38581
762.989	30040.39532
763.18	30167.00629
763.371	30426.36877
763.562	30199.68082
763.753	30220.10255
763.944	30369.18481
764.135	30179.2592
764.326	30326.29747
764.517	29883.15877
764.708	29642.21163
764.899	29740.22219
765.089	29589.12361
765.28	29764.72522
765.471	29836.1933
765.662	29891.32674
765.853	29687.13282
766.043	28943.95699
766.234	29650.37908
766.425	28931.708
766.615	28841.88319
766.806	29109.32205
766.997	28694.90149
767.187	28258.07148
767.378	29280.81894
767.569	28794.93012
767.759	29293.069
767.95	28956.20602
768.141	29137.90435
768.331	28964.37206
768.522	29346.15302
768.712	28564.25565
768.903	28915.37607
769.093	28372.37741
769.284	28507.09944
769.474	28674.48779
769.665	28809.22012
769.855	28962.33055
770.046	28848.00755
770.236	28707.14976
770.426	28588.75141
770.617	28317.2652
770.807	28025.38788
770.998	28166.22098
771.188	28117.23495
771.378	27904.96963
771.569	28249.9069
771.759	27955.99383
771.949	27735.57448
772.139	28133.56355
772.33	27827.41423
772.52	28170.30317
772.71	28056.00332
772.9	27884.56015
773.09	27735.57448
773.281	28066.20852
773.471	27680.47179
773.661	27872.31452
773.851	27668.22686
774.041	27182.54754
774.231	27531.49482
774.421	27294.77793
774.611	27094.80658
774.802	26954.01825
774.992	27176.426
775.182	27084.60431
775.372	26676.54229
775.562	26872.40489
775.752	26668.38165
775.942	26494.97377
776.131	26425.61379
776.321	26095.16002
776.511	26576.57609
776.701	26335.85658
776.891	26254.26189
777.081	26466.41356
777.271	26535.77461
777.461	27176.426
777.651	26713.26549
777.84	26733.66747
778.03	26643.89986
778.22	26652.06043
778.41	26717.34587
778.599	26729.58707
778.789	26182.86873
778.979	25960.54367
779.169	26317.49755
779.358	25866.7248
779.548	26558.21535
779.738	25587.33136
779.927	25740.27951
780.117	25962.58325
780.307	25607.72381
780.496	25517.99852
780.686	26003.3753
780.875	25399.73027
781.065	25511.88103
781.254	25473.13734
781.444	25738.24013
781.633	25628.11645
781.823	25762.71282
782.012	25371.1838
782.202	25293.70262
782.391	25287.58581
782.581	25358.94973
782.77	25218.26337
782.96	25254.96317
783.149	24490.53738
783.338	25044.96834
783.528	25336.52079
783.717	25460.90264
783.906	25438.47256
784.096	24779.96074
784.285	25010.31128
784.474	25004.1954
784.663	25018.46582
784.853	25020.50447
785.042	24716.77253
785.231	25206.03026
785.42	24743.27053
785.61	24879.84358
785.799	24551.67897
785.988	25236.61318
786.177	24429.3981
786.366	24796.26775
786.555	24449.7776
786.744	24298.97545
786.933	24197.09032
787.122	24140.03761
787.312	24040.20055
787.501	24144.11273
787.69	23985.19116
787.879	24468.11938
788.068	24266.37147
788.257	24044.2754
788.445	24060.57492
788.634	24245.99434
788.823	24015.75168
789.012	24103.362
789.201	24366.22328
789.39	24398.82932
789.579	23905.73681
789.768	24005.56477
789.957	23958.7059
790.145	24168.56369
790.334	23795.73031
790.523	24085.02453
790.712	23909.81128
790.9	24003.5274
791.089	23683.69545
791.278	23406.70302
791.467	22905.82185
791.655	23433.17777
791.844	23524.8252
792.033	23431.14124
792.221	22926.17897
792.41	22973.00164
792.599	23129.76864
792.787	23435.21432
792.976	22979.10907
793.164	22895.64342
793.353	22985.21654
793.541	23339.50028
793.73	22944.50067
793.918	23361.90081
794.107	22714.48161
794.295	22983.18071
794.484	22871.21552
794.672	23378.19235
794.861	23146.05724
795.049	23146.05724
795.238	22688.02206
795.426	22474.3322
795.614	22079.61974
795.803	22468.22735
795.991	22144.71736
796.179	22126.40826
796.368	22433.63383
796.556	22187.43976
796.744	21953.50408
796.932	22022.66247
797.121	22028.7649
797.309	22101.99661
797.497	22372.58898
797.685	22633.06952
797.874	22651.38675
798.062	23091.08405
798.25	22486.54199
798.438	22329.85954
798.626	22165.06115
798.814	21984.01459
799.002	21827.40307
799.19	21829.43684
799.378	21770.45907
799.566	22124.37394
799.755	21727.75307
799.943	21802.99813
800.131	21697.24984
800.318	22012.49185
800.506	22167.09555
800.694	21994.18495
800.882	21680.98181
801.07	21833.50439
801.258	21567.11261
801.446	21866.04536
801.634	21432.92552
801.822	21217.44937
802.01	21441.05758
802.197	21748.08905
802.385	21607.77876
802.573	21453.25578
802.761	21699.28336
802.949	21750.12267
803.136	21636.24601
803.324	22254.57826
803.512	21758.25718
803.699	22073.51703
803.887	21821.30178
804.075	21390.23327
804.262	21335.34582
804.45	21664.71402
804.638	21335.34582
804.825	21491.88438
805.013	21703.35042
805.201	22065.38014
805.388	21813.16678
805.576	21650.47992
805.763	21672.84788
805.951	21270.29782
806.138	21644.37965
806.326	21443.0906
806.513	21414.62862
806.701	21223.54713
806.888	21109.72832
807.075	21296.72307
807.263	20953.24834
807.45	21561.01282
807.638	21221.51454
807.825	21646.41307
808.012	21376.00291
808.2	21569.14588
808.387	21237.77537
808.574	21428.85952
808.761	21343.47711
808.949	21563.04608
809.136	21512.2158
809.323	21855.8762
809.51	21817.23427
809.698	21725.7195
809.885	22104.03089
810.072	21662.68057
810.259	21497.98377
810.446	21331.2802
810.633	21752.15629
810.82	21961.64013
811.008	22307.47809
811.195	22197.612
811.382	22079.61974
811.569	21886.38396
811.756	21363.80561
811.943	21386.16743
812.13	20928.86405
812.317	21268.26514
812.504	21569.14588
812.691	21479.68572
812.878	21390.23327
813.064	21264.19979
813.251	21245.90589
813.438	21884.35008
813.625	21656.58023
813.812	21715.55167
813.999	21772.49273
814.186	21693.18281
814.372	21414.62862
814.559	21864.01152
814.746	21660.64712
814.933	21453.25578
815.12	21249.97117
815.306	21321.11622
815.493	21138.18182
815.68	21569.14588
815.866	21193.0587
816.053	21333.31301
816.24	21258.10178
816.426	21278.4286
816.613	21170.7011
816.799	21548.81335
816.986	21650.47992
817.173	21916.89259
817.359	21542.71367
817.546	21841.63954
817.732	20932.92805
817.919	21489.85126
818.105	21695.21632
818.292	22053.17492
818.478	21577.279
818.665	21739.95461
818.851	21461.388
819.037	21884.35008
819.224	21245.90589
819.41	21337.37863
819.597	21184.9286
819.783	21188.99364
819.969	20912.60818
820.156	20733.81106
820.342	20778.50733
820.528	20691.14831
820.714	20498.1731
820.901	20463.64468
821.087	20626.14193
821.273	20855.71471
821.459	20796.79275
821.646	21176.79858
821.832	21158.50625
822.018	21030.46919
822.204	20272.74465
822.39	20626.14193
822.576	20457.55155
822.762	20504.26648
822.948	20437.2414
823.134	20585.51511
823.32	20691.14831
823.507	20778.50733
823.693	20563.17107
823.879	20004.73495
824.065	19925.56429
824.25	19840.31073
824.436	20323.51231
824.622	20221.97961
824.808	20500.20422
824.994	20703.33748
825.18	20392.56055
825.366	20638.3303
825.552	20238.22414
825.738	20002.70485
825.923	19651.56134
826.109	19627.20922
826.295	19438.50065
826.481	20104.21485
826.667	19669.82583
826.852	19608.94553
827.038	19282.28525
827.224	19483.13814
827.409	19694.17901
827.595	19686.06121
827.781	19401.98057
827.966	19554.15647
828.152	19466.90609
828.338	19781.44951
828.523	19284.31386
828.709	19578.50678
828.894	19343.14548
829.08	19349.23171
829.266	19130.15087
829.451	19602.8577
829.637	19351.26046
829.822	19525.74852
830.008	19349.23171
830.193	19341.11674
830.378	19038.88127
830.564	18994.26357
830.749	19227.51421
830.935	19146.37744
831.12	19245.77089
831.305	19075.38812
831.491	19146.37744
831.676	19012.51603
831.861	19357.34673
832.047	19089.58559
832.232	19095.67027
832.417	19201.14404
832.602	19087.55737
832.788	19193.03028
832.973	19026.71261
833.158	19089.58559
833.343	18728.62569
833.528	18390.08592
833.714	18651.58317
833.899	18600.90039
834.084	18604.95492
834.269	18511.70458
834.454	18159.04781
834.639	18410.35474
834.824	18108.38797
835.009	18418.46238
835.194	18321.17474
835.379	18363.73701
835.564	18148.91566
835.749	18523.8672
835.934	18152.96851
836.119	18219.84263
836.304	18203.63036
836.489	18106.36162
836.674	17992.89196
836.859	18043.54667
837.044	17998.97041
837.228	17840.94106
837.413	17689.0095
837.598	17792.32088
837.783	17423.68017
837.968	17966.55239
838.152	17419.62976
838.337	17522.91905
838.522	17516.84298
838.707	17705.21463
838.891	17624.1911
839.076	17749.77984
839.261	17476.33659
839.445	17571.52863
839.63	17395.32758
839.815	17097.6608
839.999	17162.45366
840.184	17245.47379
840.368	17271.79827
840.553	17421.65496
840.737	17725.47134
840.922	17587.73223
841.106	17371.02584
841.291	17336.59913
841.475	17409.5038
841.66	17450.00811
841.844	16868.8834
842.029	17142.20558
842.213	17067.29014
842.397	16686.69468
842.582	16587.5111
842.766	17063.24076
842.951	16682.64627
843.135	17059.1914
843.319	16820.2978
843.504	16860.7857
843.688	16864.83455
843.872	16915.44598
844.056	16872.93227
844.241	16974.15727
844.425	16966.05903
844.609	16676.57366
844.793	16866.85897
844.977	16816.24907
845.161	16255.58656
845.346	16966.05903
845.53	16658.35596
845.714	16874.95671
845.898	16239.39644
846.082	16336.5389
846.266	16352.72973
846.45	16164.51855
846.634	15723.38689
846.818	15909.545
847.002	15905.49798
847.186	16083.57202
847.37	15713.26986
847.554	16024.88732
847.738	15945.96842
847.922	15889.30995
848.106	15923.70962
848.29	16243.44396
848.473	16397.25513
848.657	16115.95033
848.841	16154.40009
849.025	16583.4629
849.209	15751.71471
849.392	15931.80371
849.576	15858.9576
849.76	16039.05248
849.944	15430.00123
850.127	15595.91396
850.311	14986.90316
850.495	15067.83433
850.678	14877.64516
850.862	15387.51198
851.046	15209.46334
851.229	14930.25103
851.413	15114.36961
851.596	15427.97792
851.78	15092.11362
851.964	15478.56063
852.147	15029.39208
852.331	15031.41536
852.514	14978.81001
852.698	15296.46414
852.881	14796.71231
853.065	15104.25326
853.248	14740.05865
853.431	14930.25103
853.615	14523.55394
853.798	14642.93652
853.982	14412.26107
854.165	14598.42145
854.348	14410.23753
854.532	14746.12871
854.715	14294.89267
854.898	14254.41946
855.081	13977.15584
855.265	14100.6141
855.448	14284.77444
855.631	14383.93127
855.814	14408.21398
855.997	14432.49646
856.181	14157.28062
856.364	14015.61101
856.547	14173.47075
856.73	14217.99293
856.913	13817.25317
857.096	13908.33904
857.279	14151.20929
857.462	13841.54329
857.645	13960.96392
857.828	13948.81987
858.011	13958.93992
858.194	13873.92948
858.377	13641.13675
858.56	13732.2344
858.743	13485.2426
858.926	13394.12553
859.109	13898.21866
859.292	13631.01438
859.475	13294.89999
859.658	13452.84631
859.841	13420.44905
860.023	13477.14362
860.206	13236.16992
860.389	13639.11228
860.572	13386.02585
860.755	13744.38027
860.937	13859.76061
861.12	13823.32574
861.303	13479.16837
861.486	13440.69745
861.668	13213.89204
861.851	13256.42208
862.034	12950.56524
862.216	13236.16992
862.399	12952.59115
862.581	13051.85445
862.764	12857.36779
862.947	12958.66885
863.129	12514.86559
863.312	12626.34951
863.494	12820.89612
863.677	12737.81504
863.859	13059.95705
864.042	13371.85126
864.224	12820.89612
864.406	12723.6295
864.589	12674.99122
864.771	12626.34951
864.954	12368.89357
865.136	12683.09784
865.318	12520.94703
865.501	12472.29395
865.683	12346.58923
865.865	12433.77427
866.048	11957.13545
866.23	11741.99977
866.412	11774.47919
866.594	11942.93126
866.777	12020.03502
866.959	12180.29363
867.141	12168.12375
867.323	12279.67115
867.505	12247.22326
867.687	12360.783
867.869	12196.51972
868.052	12644.59056
868.234	12328.3396
868.416	12389.16953
868.598	12042.35238
868.78	11861.75674
868.962	12123.49854
869.144	12360.783
869.326	11969.31016
869.508	11922.63886
869.69	12237.08291
869.872	12269.53138
870.054	12164.06706
870.236	12121.47004
870.417	12151.89682
870.599	12030.17939
870.781	12082.927
870.963	12253.30738
871.145	11993.65871
871.327	11936.84363
871.508	11628.30401
871.69	11912.49236
871.872	11624.24293
872.054	11900.31628
872.235	11660.79138
872.417	11760.26972
872.599	11585.66081
872.78	11784.62855
872.962	11506.45545
873.144	11360.19198
873.325	11384.57274
873.507	11317.5222
873.689	11427.23566
873.87	11764.32961
874.052	11553.16802
874.233	11486.14407
874.415	11404.88896
874.596	11443.48707
874.778	11232.16924
874.959	11201.68163
875.141	11421.14122
875.322	11561.29144
875.503	11327.68208
875.685	11530.82785
875.866	11331.74595
876.048	11555.19889
876.229	11607.99823
876.41	11612.05946
876.592	11445.51845
876.773	11811.01589
876.954	11264.68678
877.136	11577.53784
877.317	11595.81432
877.498	11624.24293
877.679	11410.98363
877.86	11345.96921
878.042	11362.22377
878.223	11553.16802
878.404	11648.60889
878.585	11256.55764
878.766	11014.63871
878.947	11461.76916
879.128	11250.46068
879.309	11173.22442
879.49	11150.86372
879.672	11226.0719
879.853	11169.15893
880.034	11195.58383
880.215	11329.71402
880.396	11085.8071
880.576	11061.40802
880.757	11209.81189
880.938	11106.13847
881.119	11445.51845
881.3	11410.98363
881.481	11636.42607
881.662	11419.10972
881.843	11815.07536
882.023	11894.22813
882.204	11916.55099
882.385	11634.39557
882.566	11573.47629
882.747	11469.89428
882.927	11685.15539
883.108	11538.95168
883.289	11847.54984
883.469	11813.04563
883.65	11750.11984
883.831	11697.33691
884.011	11957.13545
884.192	11896.25753
884.373	11815.07536
884.553	11530.82785
884.734	11664.85214
884.914	11587.69153
885.095	11581.59934
885.275	11575.50707
885.456	11498.33101
885.636	11406.92052
885.817	11636.42607
885.997	11540.98261
886.178	11707.48794
886.358	11386.60441
886.538	11599.87566
886.719	11571.44551
886.899	11648.60889
887.08	11634.39557
887.26	11709.51812
887.44	11766.35954
887.621	12050.46756
887.801	11711.54829
887.981	11849.57942
888.161	11605.9676
888.342	11561.29144
888.522	11309.39412
888.702	11794.7777
888.882	11559.2606
889.062	11646.57844
889.242	11540.98261
889.423	11790.71807
889.603	11687.18567
889.783	11896.25753
889.963	11449.58118
890.143	11597.845
890.323	11282.97674
890.503	11932.78516
890.683	11536.92073
890.863	11632.36506
891.043	11427.23566
891.223	11806.9564
891.403	11471.92554
891.583	11863.78627
891.763	11620.18181
891.943	11713.57845
892.122	11557.22975
892.302	11733.87957
892.482	11465.83174
892.662	11555.19889
892.842	11305.33002
893.022	11408.95208
893.201	11626.27348
893.381	11782.5987
893.561	11869.87479
893.741	11650.63933
893.92	11605.9676
894.1	11303.29796
894.28	11191.51858
894.459	11264.68678
894.639	11051.24127
894.819	11431.29857
894.998	11232.16924
895.178	11156.96222
895.357	11270.78353
895.537	11234.20166
895.716	11083.7739
895.896	11254.52533
896.075	11246.39599
896.255	11303.29796
896.434	11087.84028
896.614	11374.41427
896.793	11020.73938
896.973	11410.98363
897.152	11047.17449
897.331	11268.75129
897.511	11343.93735
897.69	11203.71421
897.87	11161.02783
898.049	11191.51858
898.228	11122.4028
898.407	11297.2017
898.587	11051.24127
898.766	11161.02783
898.945	10662.65906
899.124	10874.29536
899.304	10786.80742
899.483	10982.10009
899.662	10680.97885
899.841	10713.54495
900.02	10986.16757
900.199	11063.44133
900.378	10636.1954
900.557	10709.47435
900.737	10467.18546
900.916	10723.72122
901.095	10457.00135
901.274	10424.41003
901.453	10412.18743
901.632	10611.76555
901.811	10234.9063
901.989	10206.36879
902.168	10106.46626
902.347	10589.36996
902.526	10375.51681
902.705	10503.8456
902.884	10420.33589
903.063	10436.63217
903.242	10589.36996
903.42	10340.87954
903.599	10308.27625
903.778	10444.78
903.957	10028.96767
904.135	10106.46626
904.314	9837.17127
904.493	10534.39257
904.672	10033.04706
904.85	10310.31406
905.029	10053.44312
905.207	10122.77916
905.386	9875.94907
905.565	9937.16633
905.743	9788.18109
905.922	9724.88925
906.1	9845.33547
906.279	9955.52894
906.457	9869.82662
906.636	10002.45028
906.814	9800.42945
906.993	9534.92492
907.171	9522.66449
907.35	9780.01522
907.528	9416.38334
907.707	9755.51616
907.885	9430.69296
908.063	9635.03044
908.242	9522.66449
908.42	9771.84911
908.598	9438.86953
908.777	9555.35769
908.955	9373.4497
909.133	9496.09828
909.311	9289.60598
909.49	9565.57348
909.668	8964.18719
909.846	9121.83413
910.024	8970.33122
910.202	9369.3604
910.38	9068.61422
910.559	9150.48618
910.737	8847.42023
910.915	8769.54315
911.093	8554.21853
911.271	8986.71452
911.449	8953.94678
911.627	8826.92879
911.805	8420.81854
911.983	8802.33669
912.161	8628.0672
912.339	9011.28737
912.517	8597.29988
912.695	8988.76236
912.872	8443.3996
913.05	8562.42514
913.228	8381.80941
913.406	8576.78599
913.584	8355.11493
913.762	8628.0672
913.939	8316.09401
914.117	8164.05023
914.295	8242.14026
914.473	8318.14792
914.65	8087.98752
914.828	7915.20185
915.006	7591.86559
915.184	8083.87524
915.361	8026.29483
915.539	8211.31867
915.716	7962.52652
915.894	8182.54783
916.072	7946.067
916.249	8164.05023
916.427	7890.5064
916.604	7989.27046
916.782	7655.75016
916.959	7742.27097
917.137	7534.14577
917.314	7760.80632
917.492	7581.55971
917.669	7468.15965
917.847	7290.71189
918.024	7387.70913
918.201	7329.92936
918.379	7336.12087
918.556	7195.73143
918.733	7581.55971
918.911	7367.07546
919.088	7459.90983
919.265	7152.35522
919.442	6989.08993
919.62	6782.22325
919.797	6980.81961
919.974	6883.61627
920.151	6869.1349
920.328	6686.98806
920.506	6997.35989
920.683	6879.47885
920.86	6984.95482
921.037	6916.71238
921.214	7007.69684
921.391	6782.22325
921.568	6937.3945
921.745	6678.70445
921.922	6759.45402
922.099	6691.12973
922.276	6871.20373
922.453	6498.44458
922.63	6575.12819
922.807	6353.28053
922.984	6208.00214
923.161	6016.89
923.338	6162.3195
923.514	6234.99108
923.691	6185.16224
923.868	6185.16224
924.045	6309.70905
924.222	6201.77336
924.399	6197.62072
924.575	6193.46799
924.752	6535.75408
924.929	5929.57692
925.105	6423.80303
925.282	5788.12468
925.459	5813.09477
925.635	5536.15307
925.812	5964.92294
925.989	5709.0303
926.165	5908.78196
926.342	5729.84792
926.518	5887.98464
926.695	5442.35658
926.871	5590.32486
927.048	5275.48982
927.224	5673.63495
927.401	5335.99636
927.577	5386.05584
927.754	5070.87419
927.93	5571.57489
928.107	5475.71191
928.283	5561.15741
928.459	5285.92338
928.636	5383.97029
928.812	5022.81983
928.988	5177.38574
929.165	4874.40121
929.341	5166.9461
929.517	4943.39892
929.693	5246.27272
929.87	5246.27272
930.046	4891.13022
930.222	4667.25919
930.398	5033.26747
930.574	4734.23847
930.751	5116.82775
930.927	4690.28592
931.103	4943.39892
931.279	4830.4806
931.455	4907.85776
931.631	4694.47231
931.807	4799.10258
931.983	4531.13687
932.159	4619.10362
932.335	4409.59484
932.511	4583.50276
932.687	4380.24607
932.863	4558.36887
933.039	4090.72568
933.215	4390.72826
933.391	4143.20497
933.566	4315.24435
933.742	3876.47667
933.918	4120.11569
934.094	3855.46053
934.27	3712.49849
934.445	3533.67112
934.621	3826.03459
934.797	3384.19563
934.973	3384.19563
935.148	3228.3101
935.324	3405.25397
935.5	3196.7004
935.675	3230.41728
935.851	3074.44177
936.027	3167.19466
936.202	2644.0291
936.378	2798.11628
936.553	2418.05691
936.729	2720.02603
936.904	2434.95649
937.08	2563.79256
937.255	2137.00991
937.431	2185.62336
937.606	1915.02992
937.782	2160.26036
937.957	1953.0887
938.133	2189.85041
938.308	1724.71177
938.483	1963.66025
938.659	1728.94142
938.834	1745.85991
939.009	1563.97668
939.185	1597.81672
939.36	1453.99463
939.535	1551.28657
939.71	1350.35758
939.886	1521.67614
940.061	1470.91504
940.236	1346.12754
940.411	1151.5557
940.586	1200.1963
940.761	925.30594
940.937	1081.77092
941.112	990.84783
941.287	1132.52299
941.462	861.88518
941.637	1077.54171
941.812	1014.10618
941.987	1020.4495
942.162	857.65739
942.337	1086.00015
942.512	1047.93783
942.687	992.96219
942.862	982.39044
943.037	1052.16689
943.212	855.54351
943.386	1045.82331
943.561	777.33623
943.736	912.62122
943.911	844.97423
944.086	912.62122
944.26	796.35845
944.435	834.40517
944.61	802.69936
944.785	817.49515
944.959	650.54313
945.134	766.76868
945.309	760.42827
945.483	904.16489
945.658	754.08795
945.833	692.80309
946.007	637.86606
946.182	737.18088
946.357	658.99475
946.531	828.06384
946.706	614.62592
946.88	735.06755
947.055	648.43026
947.229	656.88183
947.404	688.57688
947.578	830.17761
947.752	633.64047
947.927	779.44977
948.101	747.74772
948.276	925.30594
948.45	713.93477
948.624	918.96355
948.799	897.82273
948.973	999.30532
949.147	697.02933
949.321	921.07767
949.496	806.92668
949.67	838.63277
949.844	813.26773
950.018	870.34086
950.193	709.70835
950.367	872.4548
950.541	699.14248
950.715	743.52096
950.889	732.95422
951.063	921.07767
951.237	720.27449
951.411	891.48064
951.585	735.06755
951.759	946.44774
951.933	825.95009
952.107	948.56196
952.281	804.81301
952.455	844.97423
952.629	741.40759
952.803	925.30594
952.977	760.42827
953.151	859.77128
953.325	819.60887
953.499	874.56875
953.672	737.18088
953.846	853.42963
954.02	796.35845
954.194	899.93677
954.368	912.62122
954.541	988.73347
954.715	959.13317
954.889	1031.02181
955.062	711.82155
955.236	1031.02181
955.41	825.95009
955.583	1088.11478
955.757	830.17761
955.93	946.44774
956.104	735.06755
956.278	1001.41971
956.451	821.7226
956.625	887.25261
956.798	849.20191
956.972	916.84943
957.145	874.56875
957.319	982.39044
957.492	806.92668
957.665	1107.14661
957.839	912.62122
958.012	1126.17884
958.185	992.96219
958.359	1024.67841
958.532	878.79667
958.705	992.96219
958.879	948.56196
959.052	1115.60533
959.225	997.19094
959.398	1132.52299
959.572	883.02463
959.745	1007.76292
959.918	844.97423
960.091	1031.02181
960.264	942.21932
960.438	1018.33505
960.611	857.65739
960.784	992.96219
960.957	680.12461
961.13	828.06384
961.303	811.15404
961.476	1014.10618
961.649	737.18088
961.822	923.1918
961.995	686.4638
962.168	851.31577
962.341	735.06755
962.514	817.49515
962.686	718.16124
962.859	844.97423
963.032	796.35845
963.205	895.70869
963.378	635.75326
963.551	787.90403
963.723	730.84091
963.896	760.42827
964.069	794.24483
964.242	925.30594
964.414	658.99475
964.587	840.74658
964.76	718.16124
964.932	866.113
965.105	806.92668
965.278	794.24483
965.45	561.81316
965.623	796.35845
965.795	692.80309
965.968	724.50103
966.14	661.10768
966.313	813.26773
966.485	724.50103
966.658	720.27449
966.83	656.88183
967.003	832.29139
967.175	667.44655
967.348	631.5277
967.52	593.49984
967.692	642.09171
967.865	559.70082
968.037	616.7386
968.209	563.92551
968.382	798.47207
968.554	502.6729
968.726	642.09171
968.898	635.75326
969.071	568.15026
969.243	568.15026
969.415	646.31739
969.587	498.44903
969.759	711.82155
969.932	490.00145
970.104	574.48747
970.276	458.32515
970.448	532.24166
970.62	481.5541
970.792	656.88183
970.964	523.79316
971.136	542.8026
971.308	481.5541
971.48	574.48747
971.652	511.12083
971.824	557.58849
971.996	555.47618
972.168	616.7386
972.339	519.56899
972.511	498.44903
972.683	490.00145
972.855	464.66014
973.027	540.69038
973.199	422.42952
973.37	517.45693
973.542	494.22521
973.714	413.98415
973.886	494.22521
974.057	479.44231
974.229	540.69038
974.401	464.66014
974.572	470.99526
974.744	416.09547
974.915	549.13933
975.087	432.98659
975.259	418.2068
975.43	409.76156
975.602	481.5541
975.773	426.6523
975.945	549.13933
976.116	500.56096
976.288	555.47618
976.459	384.42741
976.63	443.54405
976.802	490.00145
976.973	437.20952
977.145	367.53931
977.316	494.22521
977.487	473.107
977.659	405.53904
977.83	464.66014
978.001	375.98323
978.172	337.98775
978.344	380.20529
978.515	405.53904
978.686	373.87222
978.857	194.50247
979.028	409.76156
979.2	304.21876
979.371	306.32919
979.542	266.2342
979.713	354.87394
979.884	259.90403
980.055	262.01407
980.226	247.24421
980.397	272.56455
980.568	348.54149
980.739	346.43071
980.91	281.00526
981.081	316.8816
981.252	274.6747
981.423	318.99213
981.594	310.5501
981.765	318.99213
981.936	344.31995
982.106	289.44628
982.277	266.2342
982.448	299.99796
982.619	240.91455
982.79	245.1343
982.96	236.69488
983.131	321.10269
983.302	302.10835
983.472	287.336
983.643	268.3443
983.814	245.1343
983.984	215.59768
984.155	283.11549
984.326	177.62776
984.496	299.99796
984.667	228.25576
984.837	236.69488
985.008	213.48807
985.178	238.8047
985.349	167.08173
985.519	249.35413
985.69	211.37848
985.86	207.15936
986.031	266.2342
986.201	289.44628
986.371	169.1909
986.542	190.28367
986.712	228.25576
986.882	228.25576
987.053	188.1743
987.223	202.94032
987.393	230.36551
987.563	232.47528
987.734	293.6669
987.904	131.22915
988.074	211.37848
988.244	143.8823
988.414	167.08173
988.585	264.12413
988.755	89.05761
988.925	112.25088
989.095	158.64528
989.265	154.42718
989.435	131.22915
989.605	205.04983
989.775	101.70815
989.945	118.57677
990.115	143.8823
990.285	74.29967
990.455	160.75436
990.625	160.75436
990.795	160.75436
990.965	150.20917
991.134	186.06495
991.304	118.57677
991.474	169.1909
991.644	114.35949
991.814	118.57677
991.984	202.94032
992.153	135.44678
992.323	105.92518
992.493	181.84631
992.662	156.53622
992.832	162.86346
993.002	190.28367
993.171	129.12037
993.341	40.5714
993.511	160.75436
993.68	194.50247
993.85	156.53622
994.019	181.84631
994.189	103.81665
994.358	177.62776
994.528	110.14229
994.697	80.62436
994.867	84.84094
995.036	114.35949
995.206	78.51611
995.375	101.70815
995.544	63.75895
995.714	152.31817
995.883	99.59967
996.052	131.22915
996.222	80.62436
996.391	156.53622
996.56	70.08331
996.73	135.44678
996.899	89.05761
997.068	122.79415
997.237	190.28367
997.406	108.03372
997.576	177.62776
997.745	173.40929
997.914	112.25088
998.083	72.19148
998.252	86.94927
998.421	135.44678
998.59	101.70815
998.759	143.8823
998.928	105.92518
999.097	99.59967
999.266	112.25088
999.435	63.75895
999.604	120.68545
999.773	145.99124
999.942	158.64528
1000.111	105.92518
1000.28	51.11085
1000.448	86.94927
1000.617	150.20917
1000.786	65.86705
1000.955	53.21881
1001.124	42.67924
1001.292	103.81665
1001.461	72.19148
1001.63	51.11085
1001.798	127.01161
1001.967	13.17157
1002.136	93.27437
1002.304	46.895
1002.473	17.38667
1002.642	70.08331
1002.81	44.78711
1002.979	99.59967
1003.147	13.17157
1003.316	55.32679
1003.484	4.74166
1003.653	46.895
1003.821	120.68545
1003.99	74.29967
1004.158	116.46812
1004.327	95.38278
1004.495	59.54283
1004.663	91.16598
1004.832	108.03372
1005	72.19148
1005.168	59.54283
1005.337	162.86346
1005.505	82.73264
1005.673	141.77339
1005.842	44.78711
1006.01	63.75895
1006.178	53.21881
1006.346	80.62436
1006.514	103.81665
1006.683	124.90287
1006.851	63.75895
1007.019	63.75895
1007.187	84.84094
1007.355	53.21881
1007.523	44.78711
1007.691	135.44678
1007.859	63.75895
1008.027	42.67924
1008.195	55.32679
1008.363	34.24801
1008.531	30.03253
1008.699	25.81715
1008.867	19.49425
1009.035	34.24801
1009.203	17.38667
1009.37	169.1909
1009.538	53.21881
1009.706	93.27437
1009.874	118.57677
1010.042	59.54283
1010.209	72.19148
1010.377	110.14229
1010.545	89.05761
1010.713	-16.33143
1010.88	25.81715
1011.048	-7.90249
1011.216	27.92483
1011.383	67.97517
1011.551	49.00291
1011.718	84.84094
1011.886	13.17157
1012.054	42.67924
1012.221	27.92483
1012.389	61.65088
1012.556	59.54283
1012.724	25.81715
1012.891	36.35578
1013.058	4.74166
1013.226	72.19148
1013.393	63.75895
1013.561	67.97517
1013.728	110.14229
1013.895	13.17157
1014.063	53.21881
1014.23	101.70815
1014.397	49.00291
1014.565	84.84094
1014.732	70.08331
1014.899	21.60186
1015.066	4.74166
1015.233	65.86705
1015.401	110.14229
1015.568	17.38667
1015.735	19.49425
1015.902	76.40788
1016.069	13.17157
1016.236	38.46358
1016.403	70.08331
1016.57	17.38667
1016.737	36.35578
1016.904	61.65088
1017.071	23.70949
1017.238	-16.33143
1017.405	59.54283
1017.572	4.74166
1017.739	72.19148
1017.906	65.86705
1018.073	61.65088
1018.24	-7.90249
1018.407	19.49425
1018.573	40.5714
1018.74	51.11085
1018.907	120.68545
1019.074	116.46812
1019.241	46.895
1019.407	-33.18815
1019.574	57.4348
1019.741	74.29967
1019.907	80.62436
1020.074	40.5714
1020.241	27.92483
1020.407	65.86705
1020.574	42.67924
1020.74	118.57677
1020.907	0.52684
1021.073	70.08331
1021.24	19.49425
1021.406	0.52684
1021.573	65.86705
1021.739	74.29967
1021.906	46.895
1022.072	-16.33143
1022.239	-1.58052
1022.405	34.24801
1022.571	-7.90249
1022.738	61.65088
1022.904	11.06405
1023.07	23.70949
1023.237	30.03253
1023.403	105.92518
1023.569	42.67924
1023.735	21.60186
1023.902	76.40788
1024.068	137.55563
1024.234	101.70815
1024.4	80.62436
1024.566	44.78711
1024.732	17.38667
1024.898	17.38667
1025.065	21.60186
1025.231	8.95656
1025.397	-5.79519
1025.563	72.19148
1025.729	8.95656
1025.895	84.84094
1026.061	76.40788
1026.227	36.35578
1026.392	63.75895
1026.558	112.25088
1026.724	-16.33143
1026.89	38.46358
1027.056	84.84094
1027.222	53.21881
1027.388	76.40788
1027.553	17.38667
1027.719	49.00291
1027.885	51.11085
1028.051	105.92518
1028.216	-22.65289
1028.382	8.95656
1028.548	0.52684
1028.713	49.00291
1028.879	72.19148
1029.045	0.52684
1029.21	63.75895
1029.376	13.17157
1029.541	34.24801
1029.707	32.14026
1029.873	30.03253
1030.038	-98.49271
1030.204	49.00291
1030.369	-16.33143
1030.534	55.32679
1030.7	4.74166
1030.865	63.75895
1031.031	-52.15005
1031.196	17.38667
1031.361	-5.79519
1031.527	0.52684
1031.692	46.895
1031.857	6.8491
1032.023	59.54283
1032.188	30.03253
1032.353	11.06405
1032.518	30.03253
1032.684	34.24801
1032.849	23.70949
1033.014	51.11085
1033.179	13.17157
1033.344	-3.68787
1033.509	55.32679
1033.674	19.49425
1033.839	67.97517
1034.004	67.97517
1034.17	30.03253
1034.335	38.46358
1034.5	59.54283
1034.664	-12.11701
1034.829	-41.61591
1034.994	67.97517
1035.159	53.21881
1035.324	32.14026
1035.489	0.52684
1035.654	76.40788
1035.819	59.54283
1035.984	-20.54576
1036.148	55.32679
1036.313	25.81715
1036.478	-14.22423
1036.643	67.97517
1036.807	36.35578
1036.972	11.06405
1037.137	53.21881
1037.301	2.63424
1037.466	17.38667
1037.631	118.57677
1037.795	-47.93647
1037.96	53.21881
1038.124	65.86705
1038.289	0.52684
1038.454	17.38667
1038.618	84.84094
1038.783	-33.18815
1038.947	25.81715
1039.111	-12.11701
1039.276	0.52684
1039.44	67.97517
1039.605	21.60186
1039.769	61.65088
1039.933	42.67924
1040.098	-35.29512
1040.262	78.51611
1040.426	30.03253
1040.591	93.27437
1040.755	51.11085
1040.919	93.27437
1041.083	-3.68787
1041.248	86.94927
1041.412	-3.68787
1041.576	17.38667
1041.74	34.24801
1041.904	-24.75999
1042.068	67.97517
1042.232	42.67924
1042.397	4.74166
1042.561	67.97517
1042.725	59.54283
1042.889	8.95656
1043.053	78.51611
1043.217	17.38667
1043.381	30.03253
1043.544	21.60186
1043.708	8.95656
1043.872	44.78711
1044.036	86.94927
1044.2	76.40788
1044.364	38.46358
1044.528	-22.65289
1044.691	67.97517
1044.855	-7.90249
1045.019	76.40788
1045.183	-24.75999
1045.346	-20.54576
1045.51	8.95656
1045.674	-14.22423
1045.837	59.54283
1046.001	-31.08114
1046.165	-14.22423
1046.328	101.70815
1046.492	21.60186
1046.655	11.06405
1046.819	72.19148
1046.983	8.95656
1047.146	32.14026
1047.31	-1.58052
1047.473	59.54283
1047.636	4.74166
1047.8	-5.79519
1047.963	70.08331
1048.127	-22.65289
1048.29	32.14026
