Data from absorb_only_2.23.25_USB4F045381__76__0181.txt Node

Date: Sun Feb 23 19:27:49 EST 2025
User: ssocol
Spectrometer: USB4F04538
Trigger mode: 4
Integration Time (sec): 2.600000E-3
Scans to average: 1
Electric dark correction enabled: true
Nonlinearity correction enabled: true
Boxcar width: 0
XAxis mode: Wavelengths
Number of Pixels in Spectrum: 3648
>>>>>Begin Spectral Data<<<<<
345.52	48.12461
345.736	48.12461
345.952	48.12461
346.168	94.50427
346.384	5.97099
346.6	-21.42373
346.816	-29.85205
347.032	-61.45468
347.248	-2.45859
347.464	-48.81431
347.68	73.42125
347.896	-17.20943
348.112	60.77252
348.328	-10.88778
348.544	22.83131
348.76	54.44846
348.975	-19.31659
349.191	10.18593
349.407	27.04663
349.623	39.69314
349.839	20.72369
350.055	16.50851
350.27	-63.56133
350.486	37.58533
350.702	64.98867
350.918	-31.95906
351.133	-21.42373
351.349	10.18593
351.565	37.58533
351.781	1.75615
351.996	43.90883
352.212	-31.95906
352.428	90.28749
352.644	52.34049
352.859	31.26204
353.075	27.04663
353.291	18.61609
353.506	-4.56592
353.722	37.58533
353.938	-8.78052
354.153	33.36978
354.369	-82.51994
354.584	-27.74501
354.8	73.42125
355.016	20.72369
355.231	10.18593
355.447	37.58533
355.662	52.34049
355.878	-19.31659
356.093	60.77252
356.309	-10.88778
356.524	33.36978
356.74	5.97099
356.955	56.55646
357.171	20.72369
357.386	18.61609
357.602	-36.17303
357.817	-46.70749
358.033	39.69314
358.248	-10.88778
358.464	-23.53085
358.679	22.83131
358.895	39.69314
359.11	-12.99502
359.325	52.34049
359.541	-2.45859
359.756	-10.88778
359.972	1.75615
360.187	-4.56592
360.402	1.75615
360.618	46.01671
360.833	43.90883
361.048	10.18593
361.264	-6.67324
361.479	3.86356
361.694	60.77252
361.909	86.0708
362.125	10.18593
362.34	39.69314
362.555	1.75615
362.77	86.0708
362.986	31.26204
363.201	-15.10224
363.416	-19.31659
363.631	48.12461
363.847	43.90883
364.062	56.55646
364.277	-29.85205
364.492	18.61609
364.707	35.47754
364.922	29.15432
365.138	83.96248
365.353	46.01671
365.568	12.29343
365.783	-4.56592
365.998	-29.85205
366.213	1.75615
366.428	10.18593
366.643	-29.85205
366.858	-48.81431
367.073	46.01671
367.288	-19.31659
367.503	39.69314
367.718	71.31307
367.933	-29.85205
368.148	14.40096
368.363	-61.45468
368.578	18.61609
368.793	-0.35123
369.008	29.15432
369.223	-38.27997
369.438	24.93896
369.653	52.34049
369.868	-15.10224
370.083	60.77252
370.298	1.75615
370.513	10.18593
370.728	-36.17303
370.943	18.61609
371.157	31.26204
371.372	69.20492
371.587	18.61609
371.802	-17.20943
372.017	-29.85205
372.232	-82.51994
372.446	3.86356
372.661	1.75615
372.876	-78.3071
373.091	58.66448
373.306	-21.42373
373.52	69.20492
373.735	-2.45859
373.95	14.40096
374.165	24.93896
374.379	50.23254
374.594	-21.42373
374.809	8.07845
375.023	14.40096
375.238	-27.74501
375.453	18.61609
375.667	50.23254
375.882	8.07845
376.097	48.12461
376.311	5.97099
376.526	10.18593
376.741	35.47754
376.955	3.86356
377.17	5.97099
377.384	-6.67324
377.599	-6.67324
377.813	71.31307
378.028	29.15432
378.242	-44.60065
378.457	-19.31659
378.672	79.74592
378.886	33.36978
379.101	10.18593
379.315	-12.99502
379.53	-23.53085
379.744	52.34049
379.958	69.20492
380.173	48.12461
380.387	64.98867
380.602	1.75615
380.816	1.75615
381.031	35.47754
381.245	111.37229
381.459	27.04663
381.674	20.72369
381.888	-19.31659
382.103	16.50851
382.317	1.75615
382.531	-0.35123
382.746	33.36978
382.96	14.40096
383.174	-4.56592
383.388	10.18593
383.603	46.01671
383.817	1.75615
384.031	12.29343
384.246	10.18593
384.46	-21.42373
384.674	-6.67324
384.888	-15.10224
385.103	31.26204
385.317	50.23254
385.531	1.75615
385.745	-15.10224
385.959	60.77252
386.174	46.01671
386.388	-15.10224
386.602	18.61609
386.816	-2.45859
387.03	10.18593
387.244	37.58533
387.458	-4.56592
387.672	18.61609
387.887	-40.38689
388.101	56.55646
388.315	62.88058
388.529	-6.67324
388.743	5.97099
388.957	-40.38689
389.171	-46.70749
389.385	39.69314
389.599	12.29343
389.813	39.69314
390.027	3.86356
390.241	48.12461
390.455	-61.45468
390.669	20.72369
390.883	-29.85205
391.097	-10.88778
391.311	41.80097
391.525	37.58533
391.738	-2.45859
391.952	5.97099
392.166	31.26204
392.38	16.50851
392.594	33.36978
392.808	22.83131
393.022	35.47754
393.236	43.90883
393.449	-23.53085
393.663	73.42125
393.877	58.66448
394.091	-12.99502
394.305	-44.60065
394.518	35.47754
394.732	52.34049
394.946	31.26204
395.16	-6.67324
395.373	-10.88778
395.587	3.86356
395.801	-31.95906
396.015	29.15432
396.228	18.61609
396.442	-23.53085
396.656	31.26204
396.869	1.75615
397.083	62.88058
397.297	10.18593
397.51	1.75615
397.724	46.01671
397.938	79.74592
398.151	18.61609
398.365	35.47754
398.578	52.34049
398.792	-8.78052
399.005	52.34049
399.219	18.61609
399.433	-55.13461
399.646	-38.27997
399.86	-40.38689
400.073	111.37229
400.287	3.86356
400.5	18.61609
400.714	35.47754
400.927	56.55646
401.141	1.75615
401.354	-6.67324
401.567	-40.38689
401.781	43.90883
401.994	-6.67324
402.208	48.12461
402.421	20.72369
402.635	43.90883
402.848	39.69314
403.061	-6.67324
403.275	60.77252
403.488	48.12461
403.701	73.42125
403.915	-17.20943
404.128	69.20492
404.341	52.34049
404.555	-31.95906
404.768	75.52945
404.981	8.07845
405.195	52.34049
405.408	86.0708
405.621	56.55646
405.834	48.12461
406.048	35.47754
406.261	52.34049
406.474	35.47754
406.687	-15.10224
406.9	39.69314
407.114	24.93896
407.327	-36.17303
407.54	46.01671
407.753	88.17913
407.966	-27.74501
408.179	-19.31659
408.392	39.69314
408.605	60.77252
408.819	48.12461
409.032	-6.67324
409.245	-31.95906
409.458	-10.88778
409.671	37.58533
409.884	119.80683
410.097	39.69314
410.31	69.20492
410.523	37.58533
410.736	-17.20943
410.949	56.55646
411.162	39.69314
411.375	35.47754
411.588	-10.88778
411.801	18.61609
412.014	20.72369
412.227	-65.66794
412.44	35.47754
412.653	-34.06606
412.865	3.86356
413.078	31.26204
413.291	20.72369
413.504	46.01671
413.717	60.77252
413.93	-10.88778
414.143	27.04663
414.356	-29.85205
414.568	-8.78052
414.781	43.90883
414.994	-2.45859
415.207	16.50851
415.42	37.58533
415.632	-0.35123
415.845	60.77252
416.058	88.17913
416.271	-4.56592
416.483	5.97099
416.696	-4.56592
416.909	48.12461
417.121	-19.31659
417.334	90.28749
417.547	31.26204
417.759	77.63768
417.972	-53.02787
418.185	79.74592
418.397	54.44846
418.61	48.12461
418.823	18.61609
419.035	-4.56592
419.248	-21.42373
419.46	16.50851
419.673	-15.10224
419.885	5.97099
420.098	-4.56592
420.311	90.28749
420.523	12.29343
420.736	56.55646
420.948	1.75615
421.161	-2.45859
421.373	60.77252
421.586	5.97099
421.798	52.34049
422.01	37.58533
422.223	77.63768
422.435	-25.63794
422.648	100.82962
422.86	71.31307
423.073	27.04663
423.285	96.6127
423.497	-42.49378
423.71	-15.10224
423.922	-2.45859
424.134	60.77252
424.347	37.58533
424.559	-34.06606
424.771	-19.31659
424.984	3.86356
425.196	27.04663
425.408	113.4809
425.621	107.15516
425.833	35.47754
426.045	1.75615
426.257	37.58533
426.47	-19.31659
426.682	50.23254
426.894	5.97099
427.106	35.47754
427.318	5.97099
427.531	56.55646
427.743	-17.20943
427.955	67.09678
428.167	102.93811
428.379	64.98867
428.591	1.75615
428.804	-17.20943
429.016	60.77252
429.228	10.18593
429.44	-15.10224
429.652	18.61609
429.864	-4.56592
430.076	56.55646
430.288	69.20492
430.5	29.15432
430.712	16.50851
430.924	54.44846
431.136	62.88058
431.348	22.83131
431.56	37.58533
431.772	43.90883
431.984	-2.45859
432.196	58.66448
432.408	-31.95906
432.62	-6.67324
432.832	-86.73269
433.044	12.29343
433.256	1.75615
433.468	-4.56592
433.679	35.47754
433.891	3.86356
434.103	24.93896
434.315	79.74592
434.527	50.23254
434.739	-12.99502
434.95	-61.45468
435.162	-29.85205
435.374	18.61609
435.586	10.18593
435.798	54.44846
436.009	1.75615
436.221	48.12461
436.433	64.98867
436.645	18.61609
436.856	-19.31659
437.068	102.93811
437.28	-36.17303
437.491	48.12461
437.703	29.15432
437.915	22.83131
438.126	105.04662
438.338	1.75615
438.55	54.44846
438.761	92.39587
438.973	64.98867
439.184	27.04663
439.396	31.26204
439.608	10.18593
439.819	-6.67324
440.031	52.34049
440.242	67.09678
440.454	24.93896
440.665	54.44846
440.877	20.72369
441.088	-29.85205
441.3	145.11251
441.511	54.44846
441.723	-8.78052
441.934	60.77252
442.146	64.98867
442.357	24.93896
442.569	16.50851
442.78	124.02423
442.991	-6.67324
443.203	24.93896
443.414	27.04663
443.626	105.04662
443.837	88.17913
444.048	43.90883
444.26	43.90883
444.471	69.20492
444.682	121.91552
444.894	46.01671
445.105	46.01671
445.316	94.50427
445.528	41.80097
445.739	-19.31659
445.95	62.88058
446.161	102.93811
446.373	147.22146
446.584	39.69314
446.795	27.04663
447.006	62.88058
447.217	81.85419
447.429	90.28749
447.64	35.47754
447.851	52.34049
448.062	18.61609
448.273	94.50427
448.484	-10.88778
448.695	-23.53085
448.907	35.47754
449.118	92.39587
449.329	43.90883
449.54	96.6127
449.751	96.6127
449.962	-6.67324
450.173	86.0708
450.384	20.72369
450.595	64.98867
450.806	136.67694
451.017	94.50427
451.228	48.12461
451.439	39.69314
451.65	71.31307
451.861	75.52945
452.072	90.28749
452.283	73.42125
452.494	98.72115
452.705	22.83131
452.915	64.98867
453.126	18.61609
453.337	-17.20943
453.548	88.17913
453.759	10.18593
453.97	94.50427
454.181	22.83131
454.391	50.23254
454.602	121.91552
454.813	43.90883
455.024	98.72115
455.235	94.50427
455.445	62.88058
455.656	18.61609
455.867	43.90883
456.078	41.80097
456.288	96.6127
456.499	22.83131
456.71	73.42125
456.921	-38.27997
457.131	94.50427
457.342	102.93811
457.553	77.63768
457.763	18.61609
457.974	119.80683
458.184	73.42125
458.395	27.04663
458.606	18.61609
458.816	96.6127
459.027	90.28749
459.237	105.04662
459.448	60.77252
459.659	73.42125
459.869	22.83131
460.08	24.93896
460.29	77.63768
460.501	111.37229
460.711	119.80683
460.922	73.42125
461.132	67.09678
461.343	105.04662
461.553	54.44846
461.764	96.6127
461.974	105.04662
462.184	107.15516
462.395	136.67694
462.605	113.4809
462.816	64.98867
463.026	134.5681
463.236	98.72115
463.447	81.85419
463.657	113.4809
463.867	35.47754
464.078	60.77252
464.288	56.55646
464.498	54.44846
464.709	149.33043
464.919	98.72115
465.129	105.04662
465.339	161.98467
465.55	197.84241
465.76	58.66448
465.97	138.7858
466.18	77.63768
466.391	121.91552
466.601	124.02423
466.811	77.63768
467.021	37.58533
467.231	180.96744
467.441	212.60907
467.651	170.42125
467.862	132.45929
468.072	132.45929
468.282	121.91552
468.492	113.4809
468.702	168.31207
468.912	252.69488
469.122	111.37229
469.332	172.53045
469.542	54.44846
469.752	128.24171
469.962	121.91552
470.172	212.60907
470.382	199.95188
470.592	204.17086
470.802	208.38993
471.012	206.28038
471.222	178.85816
471.432	170.42125
471.642	216.8283
471.852	240.03545
472.062	195.73297
472.272	237.92561
472.482	297.00827
472.691	254.80485
472.901	320.22329
473.111	204.17086
473.321	240.03545
473.531	381.43673
473.741	229.48645
473.95	301.22902
474.16	332.88694
474.37	385.65888
474.58	328.66565
474.79	417.32708
474.999	256.91485
475.209	322.33385
475.419	381.43673
475.628	465.89196
475.838	301.22902
476.048	362.43791
476.258	402.54813
476.467	506.01685
476.677	448.99889
476.886	413.10444
477.096	478.56239
477.306	423.66115
477.515	448.99889
477.725	503.90488
477.935	529.24946
478.144	563.04536
478.354	499.68099
478.563	550.37148
478.773	622.19641
478.982	622.19641
479.192	748.98054
479.401	694.03574
479.611	639.09854
479.82	626.42187
480.03	662.34023
480.239	651.77565
480.449	761.66112
480.658	795.47777
480.868	825.06936
481.077	932.88167
481.287	770.11505
481.496	983.6238
481.705	977.28082
481.915	1017.45403
482.124	865.2322
482.333	962.48076
482.543	1015.3396
482.752	1091.46294
482.961	987.85249
483.171	1061.85857
483.38	1023.79738
483.589	1169.70757
483.799	977.28082
484.008	1231.03822
484.217	1099.92152
484.426	1376.97168
484.636	1127.41242
484.845	1398.12207
485.054	1245.84257
485.263	1453.11335
485.472	1370.62658
485.682	1459.45851
485.891	1362.16646
486.1	1277.56664
486.309	1455.22841
486.518	1546.17526
486.727	1465.80367
486.936	1624.43017
487.146	1531.37006
487.355	1539.83018
487.564	1563.09543
487.773	1854.94276
487.982	1624.43017
488.191	1802.07688
488.4	1649.80956
488.609	1823.22358
488.818	1821.10893
489.027	1903.57668
489.236	1956.43638
489.445	1998.72145
489.654	1878.2028
489.863	2070.60006
490.072	1812.65028
490.281	2081.16976
490.49	1812.65028
490.698	2106.53629
490.907	2055.80217
491.116	2112.87775
491.325	2091.73927
491.534	2110.76394
491.743	2146.69771
491.952	2402.38898
492.16	2231.23848
492.369	2389.71339
492.578	2309.42617
492.787	2383.37545
492.996	2258.71126
493.204	2529.12363
493.413	2444.63824
493.622	2486.88317
493.831	2277.72998
494.039	2529.12363
494.248	2410.83917
494.457	2706.48151
494.665	2657.92792
494.874	2765.58091
495.083	2651.59435
495.291	2651.59435
495.5	2531.23553
495.709	2672.70582
495.917	2590.36406
496.126	2809.89856
496.335	2835.22021
496.543	2866.86943
496.752	3001.86953
496.96	2989.21585
497.169	2875.30869
497.377	2919.611
497.586	2790.90602
497.794	3090.42979
498.003	3065.12965
498.211	3145.23892
498.42	2885.85743
498.628	3202.14455
498.837	3060.91274
499.045	3141.02322
499.254	3406.48232
499.462	3358.04575
499.671	3277.99998
499.879	3379.10627
500.087	3208.46666
500.296	3387.52999
500.504	3187.39239
500.713	3440.17181
500.921	3288.53373
501.129	3349.62105
501.338	3157.88565
501.546	3522.27068
501.754	3288.53373
501.962	3663.24692
502.171	3507.53702
502.379	3547.5263
502.587	3425.43322
502.795	3776.80756
503.004	3452.8042
503.212	3659.0399
503.42	3537.00345
503.628	3810.44428
503.837	3726.34312
504.045	3810.44428
504.253	3608.5497
504.461	4020.55807
504.669	3621.17327
504.877	3995.3551
505.085	3818.85267
505.294	3995.3551
505.502	3749.47404
505.71	4049.95778
505.918	4020.55807
506.126	4091.95034
506.334	3806.23997
506.542	4190.59999
506.75	3944.94035
506.958	3936.53675
507.166	3995.3551
507.374	4165.41726
507.582	3913.4252
507.79	4213.68148
507.998	3970.14919
508.206	4270.32514
508.414	4108.74504
508.622	4389.85477
508.83	4178.009
509.037	4412.91378
509.245	4171.71323
509.453	4379.37252
509.661	4381.46902
509.869	4492.55181
510.077	4339.53506
510.285	4419.20214
510.492	4333.24422
510.7	4490.45648
510.908	4318.56483
511.116	4561.68533
511.324	4469.50196
511.531	4456.92819
511.739	4448.54524
511.947	4469.50196
512.155	4308.07891
512.362	4630.79465
512.57	4350.01936
512.778	4798.23089
512.985	4676.854
513.193	4735.45924
513.401	4479.97949
513.608	4685.22725
513.816	4484.17035
514.024	4737.55195
514.231	4643.35737
514.439	4484.17035
514.646	4683.13397
514.854	4952.97996
515.061	4768.93999
515.269	4817.0584
515.477	4664.29343
515.684	4844.25044
515.892	4756.38539
516.099	4886.07682
516.307	4814.96655
516.514	5009.41118
516.722	4894.441
516.929	4975.97249
517.136	4881.89459
517.344	5105.51447
517.551	4789.86252
517.759	5090.89322
517.966	5138.9302
518.173	5026.12831
518.381	4946.70879
518.588	5201.56866
518.796	5184.86712
519.003	5276.7071
519.21	5266.27301
519.418	5078.35981
519.625	5293.40041
519.832	5268.35988
520.039	5287.14059
520.247	5397.69968
520.454	5276.7071
520.661	5572.79022
520.868	5303.83298
521.076	5570.70679
521.283	5305.91942
521.49	5453.99689
521.697	5372.6732
521.904	5681.0963
522.112	5535.2848
522.319	5535.2848
522.526	5670.68503
522.733	5749.79591
522.94	5618.61981
523.147	5610.288
523.354	5604.0389
523.561	5855.91749
523.768	5576.95702
523.975	5706.08095
524.183	5551.95482
524.39	5835.11418
524.597	5812.22781
524.804	5893.35751
525.011	5818.46983
525.218	6026.4157
525.425	6036.8068
525.632	5978.60903
525.838	5926.63111
526.045	5803.90478
526.252	6063.82092
526.459	6051.35336
526.666	5872.55844
526.873	5980.68784
527.08	5899.59677
527.287	6144.83943
527.494	6009.7887
527.701	6263.18684
527.907	6022.25909
528.114	6252.80854
528.321	6217.51792
528.528	6454.0434
528.735	6385.60669
528.941	6275.64004
529.148	6142.76248
529.355	6138.60851
529.562	6180.144
529.768	6510.01824
529.975	5976.53019
530.182	6126.14603
530.388	6022.25909
530.595	6532.81796
530.802	6350.34151
531.008	6742.03025
531.215	6441.60225
531.422	6592.91288
531.628	6410.4957
531.835	6478.9232
532.042	6516.23662
532.248	6694.40848
532.455	6437.45501
532.661	6748.24089
532.868	6559.75947
533.074	6971.68738
533.281	6675.77058
533.487	6646.77458
533.694	6626.06038
533.9	6808.26647
534.107	6721.32662
534.313	6963.4163
534.52	6791.70961
534.726	7103.97574
534.933	6992.3635
535.139	6988.22846
535.345	6777.22115
535.552	7145.29706
535.758	6758.5915
535.965	7000.63332
536.171	6996.49845
536.377	7128.7696
536.584	6977.89045
536.79	7025.44061
536.996	7205.19716
537.203	7031.64193
537.409	6948.94104
537.615	7163.88874
537.821	7029.57485
538.028	7537.41014
538.234	6996.49845
538.44	7273.33671
538.646	7232.04289
538.853	7250.6262
539.059	7155.62599
539.265	7421.92182
539.471	7275.40117
539.677	7134.96756
539.883	7118.43921
540.09	7438.4243
540.296	7388.91269
540.502	7640.4678
540.708	7500.29627
540.914	7580.70086
541.12	7386.84943
541.326	7755.8294
541.532	7438.4243
541.738	7582.76209
541.944	7584.82329
542.15	7611.61703
542.356	7665.19372
542.562	7825.83824
542.768	7646.64957
542.974	7939.03701
543.18	7764.06699
543.386	7883.47451
543.592	7838.19024
543.798	7879.35817
544.004	7887.59077
544.21	7895.82303
544.415	7673.43502
544.621	8204.29757
544.827	7733.1743
545.033	8027.49459
545.239	7751.71048
545.445	7961.66929
545.651	7998.69858
545.856	8126.19362
546.062	8126.19362
546.268	8087.13081
546.474	7959.61191
546.679	8109.747
546.885	8050.11722
547.091	8117.97047
547.297	7799.073
547.502	8031.60797
547.708	7969.89859
547.914	8179.63627
548.119	8243.33879
548.325	8210.46245
548.531	7986.35622
548.736	8370.68711
548.942	8113.85878
549.147	8068.62483
549.353	8263.88394
549.559	8450.75504
549.764	8169.35989
549.97	8364.52682
550.175	8263.88394
550.381	8479.49025
550.586	8360.41986
550.792	8684.63395
550.997	8506.1696
551.203	8641.56931
551.408	8715.38942
551.614	8627.21261
551.819	8313.18427
552.025	8619.00837
552.23	8502.06529
552.435	8842.46829
552.641	8838.37007
552.846	8842.46829
553.052	8758.44011
553.257	8865.00727
553.462	8577.98268
553.668	8826.07494
553.873	8473.33302
554.078	8778.93761
554.283	8727.69044
554.489	8989.95692
554.694	8854.76255
554.899	8768.68909
555.105	8840.41919
555.31	9073.90262
555.515	8979.71762
555.72	9094.37275
555.925	8996.10028
556.131	9127.12137
556.336	8760.48994
556.541	9090.27886
556.746	8891.64144
556.951	9073.90262
557.156	8858.86049
557.361	9131.21463
557.567	9008.38654
557.772	9215.11158
557.977	9071.85551
558.182	9004.29119
558.387	9041.14681
558.592	9560.63589
558.797	9133.26124
559.002	9241.7071
559.207	8987.90909
559.412	9298.98014
559.617	9022.71971
559.822	9274.43615
560.027	9174.18981
560.232	9380.77619
560.437	9301.02536
560.642	9303.07057
560.847	9444.15009
561.051	9489.11568
561.256	9317.38655
561.461	9554.50635
561.666	9376.68701
561.871	9311.25123
562.076	9415.53155
562.281	9507.50846
562.485	9497.29041
562.69	9570.85148
562.895	9376.68701
563.1	9390.99884
563.305	9554.50635
563.509	9609.66713
563.714	9360.32965
563.919	9885.30257
564.123	9438.01781
564.328	9499.33405
564.533	9309.20609
564.737	9544.29013
564.942	9658.68935
565.147	9803.66156
565.351	9660.73175
565.556	9683.19711
565.761	9435.97369
565.965	9801.62023
566.17	9689.3237
566.374	9793.45476
566.579	9505.46488
566.784	9677.07038
566.988	9572.89455
567.193	9995.48057
567.397	9850.60805
567.602	9960.79947
567.806	9681.15488
568.011	9773.04001
568.215	9897.54667
568.42	9917.95234
568.624	10046.47462
568.828	9819.99167
569.033	9883.26183
569.237	9895.50602
569.442	9915.91183
569.646	9683.19711
569.85	9909.79025
570.055	9926.11419
570.259	9997.5205
570.463	9973.04034
570.668	9917.95234
570.872	9856.73092
571.076	9795.49615
571.281	10009.7598
571.485	10146.39729
571.689	10309.46497
571.893	10219.78855
572.098	10270.74427
572.302	10287.04831
572.506	9981.20062
572.71	10113.77319
572.914	10229.98037
573.119	10042.39543
573.323	10409.30147
573.527	10099.49902
573.731	10360.40592
573.935	10287.04831
574.139	10262.59192
574.343	10132.12468
574.547	10629.23986
574.751	10085.22416
574.955	10354.29345
575.159	10272.78232
575.364	10513.1797
575.568	10158.63041
575.772	10291.12419
575.976	10498.92388
576.18	10368.55571
576.383	10234.05701
576.587	10541.68948
576.791	10229.98037
576.995	10623.13244
577.199	10285.01036
577.403	10490.77742
577.607	10323.72928
577.811	10684.20168
578.015	10405.22713
578.219	10629.23986
578.422	10340.03054
578.626	10678.09525
578.83	10313.54055
579.034	10704.55566
579.238	10649.59713
579.442	10810.37703
579.645	10661.8109
579.849	10655.70407
580.053	10594.62967
580.257	10688.27257
580.46	10694.37882
580.664	11170.3447
580.868	10690.308
581.071	10922.26901
581.275	10714.73219
581.479	10570.19679
581.682	10897.85919
581.886	10596.66566
582.09	10456.15266
582.293	11093.09263
582.497	11028.02617
582.7	10967.01612
582.904	11003.62335
583.107	10944.64325
583.311	10794.09891
583.515	10922.26901
583.718	10800.20329
583.922	11160.18083
584.125	10912.09845
584.329	11109.35751
584.532	11021.92561
584.735	11174.41017
584.939	11060.5608
585.142	10989.38763
585.346	11137.81939
585.549	11176.44289
585.753	11084.95993
585.956	11247.58153
586.159	11095.12578
586.363	11824.37816
586.566	11410.13715
586.769	11312.61151
586.973	11373.56772
587.176	11446.70342
587.379	11003.62335
587.582	11046.32724
587.786	11076.82706
587.989	11544.19824
588.192	11125.6217
588.395	11304.48333
588.599	11296.35499
588.802	11497.48471
589.005	10985.32019
589.208	11633.54953
589.411	11428.42068
589.615	11375.59944
589.818	11489.3601
590.021	11499.51583
590.224	11444.67204
590.427	11572.63013
590.63	11493.42242
590.833	11710.70238
591.036	11479.20413
591.239	11601.06021
591.442	11645.73242
591.645	11649.79331
591.848	11607.15214
592.051	11548.26005
592.254	11605.12151
592.457	11629.48849
592.66	11661.97577
592.863	11789.87231
593.066	11625.42742
593.269	11655.88458
593.472	11761.45386
593.675	11871.05866
593.878	11749.274
594.081	11952.23167
594.284	11621.36631
594.486	11942.08576
594.689	11824.37816
594.892	11909.61748
595.095	12027.30517
595.298	11946.14415
595.5	11850.76334
595.703	12207.84391
595.906	12118.59631
596.109	12002.9582
596.311	12073.96704
596.514	11956.28998
596.717	11871.05866
596.92	11962.37738
597.122	12205.81571
597.325	11998.90026
597.528	11938.02734
597.73	12232.18168
597.933	12232.18168
598.136	12181.4768
598.338	12106.42506
598.541	12505.91227
598.743	12236.23788
598.946	12303.16094
599.148	12278.82618
599.351	12428.87466
599.554	12065.85223
599.756	12376.1592
599.959	12114.53926
600.161	12199.73108
600.363	12272.74233
600.566	12110.48217
600.768	12124.68183
600.971	12268.68639
601.173	12278.82618
601.376	12497.80349
601.578	12311.27231
601.78	12467.39465
601.983	12288.96579
602.185	12572.8058
602.388	12550.50872
602.59	12481.58562
602.792	12475.50382
602.995	12538.34636
603.197	12165.25026
603.399	12574.83277
603.601	12280.85412
603.804	12366.02109
604.006	12222.04107
604.208	12459.28537
604.41	12323.43914
604.613	12471.44924
604.815	12376.1592
605.017	12489.69461
605.219	12372.10398
605.421	12465.36734
605.623	12361.9658
605.826	12732.91768
606.028	12479.55836
606.23	12599.15593
606.432	12359.93814
606.634	12730.89118
606.836	12335.60572
607.038	12522.12952
607.24	12453.20335
607.442	12769.39372
607.644	12826.13059
607.846	12854.4974
608.048	12635.639
608.25	12781.55199
608.452	12949.72111
608.654	12615.37087
608.856	12297.07735
609.058	12562.67086
609.26	12432.92951
609.462	12439.01173
609.664	12576.85974
609.866	12461.3127
610.067	12619.42454
610.269	12570.77883
610.471	12376.1592
610.673	12716.70551
610.875	12434.95692
611.077	12534.29219
611.278	12447.12127
611.48	12686.30668
611.682	12838.28792
611.884	12919.33183
612.085	12497.80349
612.287	12789.65739
612.489	12718.73205
612.69	12886.9153
612.892	12732.91768
613.094	12763.31451
613.295	12528.21088
613.497	12757.23525
613.699	12597.12903
613.9	12613.34402
614.102	12728.86467
614.304	12562.67086
614.505	12625.50501
614.707	12704.54613
614.908	12183.50508
615.11	12726.83816
615.311	12670.09343
615.513	12777.49926
615.714	12680.22675
615.916	13065.18993
616.117	12497.80349
616.319	12826.13059
616.52	12716.70551
616.722	12613.34402
616.923	12789.65739
617.124	12895.01956
617.326	12694.41316
617.527	13036.83067
617.729	12992.26416
617.93	13221.14929
618.131	12840.31413
618.333	12613.34402
618.534	12927.43576
618.735	12698.46637
618.937	12866.65427
619.138	12720.75859
619.339	13121.90562
619.54	12874.75875
619.742	12888.94137
619.943	12931.48769
620.144	12876.78485
620.345	13130.00756
620.546	12805.86793
620.748	13101.65045
620.949	13038.85636
621.15	13132.03303
621.351	12728.86467
621.552	12805.86793
621.753	12803.84163
621.954	12963.90238
622.155	12562.67086
622.356	13042.90774
622.558	12627.53182
622.759	12866.65427
622.96	12629.55862
623.161	12801.81533
623.362	12475.50382
623.563	13089.49712
623.764	12911.22783
623.965	13055.06174
624.166	12649.82632
624.366	12878.81095
624.567	12757.23525
624.768	13065.18993
624.969	12678.2001
625.17	12984.16089
625.371	12913.25384
625.572	12947.6952
625.773	12653.87979
625.973	12986.18672
626.174	12787.63105
626.375	12712.65241
626.576	12949.72111
626.777	13332.53261
626.977	13008.47044
627.178	13312.28205
627.379	13130.00756
627.58	12933.51364
627.78	12959.85061
627.981	13109.75258
628.182	13051.01042
628.382	13008.47044
628.583	12801.81533
628.784	12951.74702
628.984	12941.61742
629.185	13308.23189
629.386	12741.02363
629.586	13221.14929
629.787	12609.29031
629.987	12818.02559
630.188	12899.07166
630.388	13253.55305
630.589	12759.26168
630.79	12886.9153
630.99	12895.01956
631.191	13227.22508
631.391	12872.73264
631.591	12789.65739
631.792	12870.70652
631.992	13208.99759
632.193	13186.71905
632.393	13109.75258
632.594	12728.86467
632.794	12854.4974
632.994	13044.93341
633.195	12880.83705
633.395	12809.9205
633.595	13101.65045
633.796	12949.72111
633.996	13178.61763
634.196	13046.95909
634.397	13500.59676
634.597	13215.07346
634.797	13219.12402
634.997	13079.36921
635.198	13332.53261
635.398	13202.92168
635.598	13403.40633
635.798	12897.04561
635.998	13046.95909
636.199	12903.12374
636.399	13320.38232
636.599	13178.61763
636.799	13087.47154
636.999	12967.95412
637.199	13148.23665
637.399	13034.80497
637.599	13079.36921
637.799	12872.73264
637.999	13261.65382
638.199	13312.28205
638.399	13591.70504
638.599	13107.72705
638.799	13180.64299
638.999	13010.4962
639.199	13391.2569
639.399	13196.84573
639.599	13599.80321
639.799	12915.27984
639.999	13364.93264
640.199	13273.80484
640.399	13377.08238
640.599	12813.97306
640.799	13545.13949
640.998	13385.18213
641.198	13356.83273
641.398	13283.93057
641.598	13194.8204
641.798	13496.54733
641.997	13427.70477
642.197	13334.55764
642.397	13522.86835
642.597	13470.22569
642.796	13575.50854
642.996	13383.1572
643.196	13567.4102
643.395	13194.8204
643.595	13364.93264
643.795	13162.41457
643.994	13235.32608
644.194	13138.10942
644.394	13551.21337
644.593	13431.75445
644.793	13565.38561
644.992	13318.35726
645.192	13620.04839
645.392	13549.18875
645.591	13423.65507
645.791	13504.64617
645.99	13575.50854
646.19	13271.77968
646.389	13340.63271
646.589	13198.87105
646.788	13632.19533
646.987	13285.9557
647.187	13563.36102
647.386	13632.19533
647.586	13522.86835
647.785	13425.67992
647.984	13707.09885
648.184	13413.53075
648.383	13620.04839
648.582	13575.50854
648.782	13618.02388
648.981	13650.41552
649.18	14018.81556
649.38	13891.30303
649.579	13725.31795
649.778	13557.28721
649.977	13753.65828
650.177	13652.43997
650.376	13842.72405
650.575	13375.05744
650.774	14032.98301
650.973	13553.23798
651.173	13419.60535
651.372	13709.1232
651.571	13579.55769
651.77	13729.36661
651.969	13696.97701
652.168	13567.4102
652.367	13518.819
652.566	13557.28721
652.765	13769.85249
652.964	13909.51974
653.163	13613.97487
653.362	13545.13949
653.561	13899.39937
653.76	13421.63021
653.959	13494.52262
654.158	13729.36661
654.357	13431.75445
654.556	13322.40738
654.755	13786.0465
654.954	13571.45938
655.153	13858.91722
655.352	13705.07448
655.551	13796.16766
655.749	13711.14756
655.948	13624.09738
656.147	13577.53311
656.346	13771.87675
656.545	13591.70504
656.743	13743.53681
656.942	13709.1232
657.141	13996.5522
657.34	13771.87675
657.538	13891.30303
657.737	13905.4716
657.936	14061.31754
658.135	13923.68814
658.333	13852.8448
658.532	13535.0163
658.731	13826.5307
658.929	13362.90767
659.128	13433.77929
659.326	13790.09497
659.525	13923.68814
659.724	13755.68257
659.922	13794.14343
660.121	13858.91722
660.319	13826.5307
660.518	13796.16766
660.716	13753.65828
660.915	13901.42345
661.113	14174.65128
661.312	13816.40976
661.51	14047.15033
661.709	13597.77867
661.907	13618.02388
662.105	13773.90101
662.304	14024.88734
662.502	13796.16766
662.701	14000.6001
662.899	13733.41525
663.097	13964.16858
663.296	13652.43997
663.494	14093.69932
663.692	13737.46388
663.891	13877.13433
664.089	13486.4237
664.287	13937.85642
664.485	13393.28182
664.684	13907.49567
664.882	13611.95036
665.08	13798.19188
665.278	13565.38561
665.476	13579.55769
665.675	13518.819
665.873	13779.97377
666.071	13729.36661
666.269	13603.85227
666.467	13640.29322
666.665	14097.747
666.863	13692.92825
667.061	14132.15193
667.259	14130.12813
667.457	14196.91248
667.655	13798.19188
667.853	14039.05473
668.051	13682.8063
668.249	13945.95251
668.447	13763.77968
668.645	13945.95251
668.843	14039.05473
669.041	14012.74376
669.239	13648.39106
669.437	13767.82822
669.635	13996.5522
669.833	13883.20665
670.031	13755.68257
670.229	13644.34215
670.426	13660.53773
670.624	13939.88044
670.822	13567.4102
671.02	13753.65828
671.218	13632.19533
671.415	13609.92584
671.613	13632.19533
671.811	13563.36102
672.009	13585.63138
672.206	13439.85378
672.404	13549.18875
672.602	13512.74495
672.799	13713.17191
672.997	13800.2161
673.195	13512.74495
673.392	13998.57615
673.59	13595.75413
673.788	13460.10182
673.985	13439.85378
674.183	13875.11022
674.38	13579.55769
674.578	13482.37422
674.775	13496.54733
674.973	13486.4237
675.17	13510.72026
675.368	13583.60682
675.565	13490.47317
675.763	13561.33642
675.96	13421.63021
676.158	13678.7575
676.355	13198.87105
676.553	13763.77968
676.75	13417.58049
676.947	13322.40738
677.145	13330.50757
677.342	13565.38561
677.539	13595.75413
677.737	13658.51329
677.934	13528.94234
678.131	13739.48819
678.329	13541.09023
678.526	13478.32473
678.723	13186.71905
678.92	13516.79432
679.118	13121.90562
679.315	13480.34948
679.512	13275.82999
679.709	13561.33642
679.906	13356.83273
680.104	13755.68257
680.301	13397.33163
680.498	13636.24428
680.695	13377.08238
680.892	13437.82895
681.089	13271.77968
681.286	13464.15138
681.483	13279.88029
681.68	13340.63271
681.877	12909.20181
682.075	13093.54825
682.272	13300.13152
682.469	13221.14929
682.665	13204.94699
682.862	13415.55562
683.059	12903.12374
683.256	13267.72935
683.453	12868.6804
683.65	13111.77809
683.847	13022.65068
684.044	13334.55764
684.241	13239.37655
684.438	13198.87105
684.635	13162.41457
684.831	12994.28996
685.028	13059.11303
685.225	13241.40177
685.422	12799.78902
685.619	12992.26416
685.815	12907.17579
686.012	12943.64335
686.209	12757.23525
686.405	13042.90774
686.602	13034.80497
686.799	12976.05755
686.996	12901.0977
687.192	13002.39312
687.389	13020.62494
687.586	13215.07346
687.782	13121.90562
687.979	13281.90543
688.175	12959.85061
688.372	13024.67641
688.568	12659.95995
688.765	12897.04561
688.962	12753.18238
689.158	13044.93341
689.355	12984.16089
689.551	12674.14677
689.748	12870.70652
689.944	12986.18672
690.14	12813.97306
690.337	13125.9566
690.533	12951.74702
690.73	13022.65068
690.926	12743.0501
691.123	12911.22783
691.319	12880.83705
691.515	12969.97999
691.712	12884.88922
691.908	12745.07657
692.104	12745.07657
692.301	12767.36732
692.497	12489.69461
692.693	12773.4465
692.889	12864.62814
693.086	13071.26679
693.282	12809.9205
693.478	12980.10923
693.674	12674.14677
693.87	12943.64335
694.067	12720.75859
694.263	12481.58562
694.459	12483.61288
694.655	12511.99379
694.851	12550.50872
695.047	12597.12903
695.243	12368.04873
695.439	12522.12952
695.635	12455.2307
695.831	12769.39372
696.027	12463.34002
696.224	12489.69461
696.42	12453.20335
696.615	12436.98433
696.811	12327.49469
697.007	12584.96753
697.203	12359.93814
697.399	12516.0481
697.595	12329.52246
697.791	12422.79234
697.987	12282.88204
698.183	12489.69461
698.379	12497.80349
698.575	12647.79958
698.77	12179.44851
698.966	12627.53182
699.162	12120.62483
699.358	12311.27231
699.554	11976.58103
699.749	12053.67978
699.945	11984.69723
700.141	12071.93835
700.337	12321.41135
700.532	12339.66119
700.728	12278.82618
700.924	12661.98666
701.119	12303.16094
701.315	12193.64639
701.511	11893.38255
701.706	12238.26596
701.902	12254.49039
702.097	12499.8307
702.293	12331.55022
702.489	12205.81571
702.684	12305.18879
702.88	12305.18879
703.075	12051.65101
703.271	12199.73108
703.466	12090.19629
703.662	12163.22191
703.857	12230.15358
704.053	12039.47823
704.248	12238.26596
704.443	12461.3127
704.639	12112.51072
704.834	12347.77206
705.03	12100.33933
705.225	12280.85412
705.42	12138.88113
705.616	12118.59631
705.811	11866.99966
706.006	12067.88094
706.202	11938.02734
706.397	12084.11038
706.592	12041.50705
706.787	11944.11496
706.983	12043.53585
707.178	12213.92845
707.373	11862.94063
707.568	11785.81263
707.763	11978.61009
707.959	12195.67463
708.154	11907.58814
708.349	11836.55611
708.544	11773.6334
708.739	11998.90026
708.934	11948.17333
709.129	11944.11496
709.324	11783.78278
709.519	12317.35575
709.714	11806.11067
709.909	11927.88114
710.104	11753.33399
710.299	11696.49098
710.494	11639.64101
710.689	11986.72626
710.884	11615.27458
711.079	11873.08815
711.274	11621.36631
711.469	11791.90213
711.664	11659.94538
711.859	12128.73881
712.054	11592.93752
712.249	11546.22915
712.443	11499.51583
712.638	11822.34848
712.833	11436.54644
713.028	11840.61536
713.223	11361.37719
713.417	11800.02135
713.612	11629.48849
713.807	11684.30944
714.002	11609.18276
714.196	11694.46075
714.391	11619.33574
714.586	11806.11067
714.78	11513.73346
714.975	11933.96889
715.17	11613.24398
715.364	11791.90213
715.559	11690.40025
715.754	11363.40897
715.948	11349.18631
716.143	11635.58003
716.337	11525.91962
716.532	11800.02135
716.726	11745.21398
716.921	11871.05866
717.115	11320.73952
717.31	11596.99888
717.504	11192.70428
717.699	11666.03652
717.893	11208.965
718.088	11659.94538
718.282	11314.64353
718.476	11442.64065
718.671	11257.74315
718.865	11562.4761
719.059	11192.70428
719.254	11473.11043
719.448	11286.19434
719.642	11688.36999
719.837	10995.48872
720.031	11312.61151
720.225	11072.76056
720.419	11588.87611
720.614	11503.57806
720.808	11469.04792
721.002	10918.20082
721.196	11469.04792
721.39	11249.61387
721.585	11328.86738
721.779	11460.92278
721.973	11241.48443
722.167	11143.91809
722.361	11361.37719
722.555	11284.16218
722.749	11103.25826
722.943	11066.66073
723.137	11131.72059
723.331	10881.58505
723.525	11343.09074
723.719	11103.25826
723.913	11206.93244
724.107	10987.35392
724.301	11381.69453
724.495	11036.16009
724.689	11154.08239
724.883	10751.36524
725.077	11048.36064
725.271	10692.34342
725.465	10840.8965
725.659	10883.61936
725.853	11036.16009
726.046	11127.65468
726.24	10893.79072
726.434	11007.6906
726.628	10930.40526
726.822	10751.36524
727.015	10936.50732
727.209	10942.60928
727.403	10804.27283
727.596	10625.16826
727.79	10842.93104
727.984	10877.51641
728.177	11143.91809
728.371	10861.24135
728.565	10934.47331
728.758	10942.60928
728.952	11048.36064
729.146	10604.80951
729.339	11172.37744
729.533	10773.75019
729.726	11017.85852
729.92	10800.20329
730.113	11107.32444
730.307	10808.34231
730.5	11170.3447
730.694	11028.02617
730.887	10826.65441
731.081	11078.8603
731.274	11054.46077
731.468	10816.48114
731.661	10914.13259
731.854	10775.78512
732.048	10824.61978
732.241	10865.31019
732.435	11255.71085
732.628	11078.8603
732.821	10954.8129
733.014	10853.10355
733.208	10958.88069
733.401	10844.96556
733.594	10539.65315
733.788	10425.59832
733.981	10482.63075
734.174	10578.34128
734.367	10625.16826
734.56	10393.0038
734.754	10706.59099
734.947	10543.7258
735.14	10604.80951
735.333	10641.45437
735.526	10704.55566
735.719	10651.63279
735.912	10515.2162
736.105	10555.94344
736.298	10488.74077
736.491	10590.55765
736.684	10800.20329
736.877	10651.63279
737.07	10547.79839
737.263	10586.48557
737.456	10814.44645
737.649	10865.31019
737.842	10910.0643
738.035	10598.70164
738.228	10478.55734
738.421	10460.22636
738.614	10409.30147
738.807	10655.70407
739	10519.28915
739.192	10494.85067
739.385	10539.65315
739.578	10633.31141
739.771	10319.65383
739.964	10152.51391
740.156	10500.96046
740.349	10164.74678
740.542	10126.00764
740.735	9989.36068
740.927	10625.16826
741.12	10519.28915
741.313	10637.38291
741.505	10507.07014
741.698	10337.99293
741.891	10077.06679
742.083	10331.88001
742.276	10307.42716
742.468	10535.58045
742.661	10376.70528
742.854	10246.28658
743.046	10364.48084
743.239	10386.89195
743.431	10344.10572
743.624	10250.363
743.816	10093.3813
744.009	10221.82694
744.201	10079.10615
744.393	10075.02741
744.586	10197.36533
744.778	10307.42716
744.971	10052.59331
745.163	10205.51942
745.355	10036.27653
745.548	10195.32678
745.74	10250.363
745.932	10011.79964
746.125	10170.86303
746.317	10360.40592
746.509	10119.89048
746.702	10238.13359
746.894	10154.55276
747.086	10303.3515
747.278	10266.66812
747.471	10146.39729
747.663	10048.5142
747.855	9960.79947
748.047	9889.38399
748.239	9946.51781
748.431	10091.34204
748.623	10160.66921
748.815	10101.53823
749.008	10346.14329
749.2	10303.3515
749.392	10527.4349
749.584	9826.11521
749.776	10164.74678
749.968	10168.82429
750.16	10213.67329
750.352	9797.53752
750.544	9954.67885
750.736	9930.19503
750.928	10181.0565
751.12	9813.86799
751.311	10054.63285
751.503	9762.83208
751.695	9883.26183
751.887	9646.43463
752.079	9956.71907
752.271	9711.7867
752.463	9775.08156
752.654	9885.30257
752.846	9924.07375
753.038	9860.81276
753.23	10034.23687
753.421	9779.1646
753.613	9864.89454
753.805	9760.79045
753.997	9679.11264
754.188	9779.1646
754.38	9689.3237
754.572	9689.3237
754.763	9840.40296
754.955	9717.91265
755.146	9779.1646
755.338	9993.44062
755.53	9670.94351
755.721	9666.85885
755.913	9879.18031
756.104	9715.87068
756.296	9438.01781
756.487	9405.30988
756.679	9429.84122
756.87	9227.38679
757.062	9386.90983
757.253	9509.55202
757.445	9415.53155
757.636	9321.47669
757.827	9478.89691
758.019	9360.32965
758.21	9464.58996
758.401	9245.79847
758.593	9542.24684
758.784	9358.2849
758.975	9311.25123
759.167	9348.06093
759.358	9307.16093
759.549	8926.46618
759.74	9096.41967
759.932	9161.91196
760.123	9241.7071
760.314	9388.95434
760.505	9127.12137
760.696	8989.95692
760.888	9010.43419
761.079	9266.25429
761.27	9294.88964
761.461	9145.54053
761.652	9290.79908
761.843	9262.16326
762.034	9176.23606
762.225	8862.95836
762.416	8885.49536
762.607	8750.2406
762.798	8901.88454
762.989	8819.92714
763.18	9030.90971
763.371	8856.81153
763.562	8713.33918
763.753	8887.54407
763.944	8719.48983
764.135	8594.39386
764.326	8795.33429
764.517	8676.4318
764.708	9125.07471
764.899	8590.29118
765.089	8860.90944
765.28	8834.27176
765.471	8813.77917
765.662	8430.2276
765.853	8869.10503
766.043	8672.33061
766.234	8819.92714
766.425	8532.84573
766.615	8762.53976
766.806	8553.36366
766.997	8795.33429
767.187	8662.07731
767.378	8627.21261
767.569	8434.33324
767.759	8729.74055
767.95	8352.20572
768.141	8571.82818
768.331	8302.9143
768.522	8430.2276
768.712	8282.37289
768.903	8368.6337
769.093	8580.03414
769.284	8555.41535
769.474	8438.43881
769.665	8438.43881
769.855	8208.40751
770.046	8500.01311
770.236	7862.89199
770.426	8255.66612
770.617	8387.11369
770.807	8126.19362
770.998	8161.13842
771.188	8282.37289
771.378	8122.08208
771.569	8142.63895
771.759	8101.52321
771.949	8270.0471
772.139	8298.80617
772.33	7922.57561
772.52	7926.69108
772.71	8362.47335
772.9	8175.52578
773.09	8383.00716
773.281	8031.60797
773.471	8136.4721
773.661	8060.39943
773.851	7852.59996
774.041	7871.12525
774.231	8039.83451
774.421	7980.18476
774.611	7910.2287
774.802	7998.69858
774.992	7982.24194
775.182	7996.64157
775.372	7881.41635
775.562	7817.60316
775.752	8029.55129
775.942	7694.03678
776.131	7739.35322
776.321	7714.63642
776.511	7755.8294
776.701	7615.73883
776.891	7718.7561
777.081	7770.24496
777.271	7776.42274
777.461	7574.51705
777.651	7815.54433
777.84	7611.61703
778.03	7718.7561
778.22	7842.3074
778.41	7745.53194
778.599	7694.03678
778.789	7846.42449
778.979	7685.79633
779.169	7840.24883
779.358	7706.39682
779.548	7982.24194
779.738	7685.79633
779.927	7685.79633
780.117	7574.51705
780.307	7426.04757
780.496	7485.86122
780.686	7479.67444
780.875	7452.86284
781.065	7163.88874
781.254	7223.78306
781.444	7293.98032
781.633	7329.06942
781.823	7582.76209
782.012	7494.10995
782.202	7479.67444
782.391	7370.3426
782.581	7430.17324
782.77	7234.10779
782.96	7364.15218
783.149	6984.09332
783.338	7254.75558
783.528	7260.94949
783.717	7380.65954
783.906	7397.1655
784.096	7207.26235
784.285	7099.84312
784.474	7062.64549
784.663	7128.7696
784.853	6959.28062
785.042	6781.36083
785.231	7006.83545
785.42	7017.17187
785.61	7151.49448
785.799	6802.05782
785.988	7023.37346
786.177	6545.25299
786.366	6793.77929
786.555	6957.21275
786.744	6748.24089
786.933	6665.41538
787.122	7188.67486
787.312	6922.05548
787.501	6998.5659
787.69	6866.20401
787.879	7050.24467
788.068	6713.04453
788.257	7013.03737
788.445	6665.41538
788.634	6888.96031
788.823	6758.5915
789.012	6793.77929
789.201	6760.66155
789.39	6859.99727
789.579	6793.77929
789.768	6783.43063
789.957	6824.82187
790.145	6934.46467
790.334	6553.54254
790.523	6582.55307
790.712	6799.98822
790.9	6901.37168
791.089	6665.41538
791.278	6979.9581
791.467	6675.77058
791.655	6934.46467
791.844	6594.98477
792.033	6605.34389
792.221	6480.99636
792.41	6715.11509
792.599	6271.48907
792.787	6443.67583
792.976	6356.56527
793.164	6319.21958
793.353	6483.0695
793.541	6480.99636
793.73	6429.16026
793.918	6491.36184
794.107	5976.53019
794.295	6387.6809
794.484	6425.01274
794.672	6451.96993
794.861	6319.21958
795.049	6470.6303
795.238	6225.82221
795.426	6254.88425
795.614	6250.73281
795.803	6460.26366
795.991	6242.42965
796.179	6356.56527
796.368	6246.58127
796.556	6433.30768
796.744	6028.49396
796.932	6310.91951
797.121	6153.147
797.309	6072.13216
797.497	6134.45444
797.685	6250.73281
797.874	6248.65705
798.062	6200.90823
798.25	6011.86716
798.438	6028.49396
798.626	6018.10239
798.814	5932.86924
799.002	5822.63106
799.19	5897.51704
799.378	5776.85234
799.566	6126.14603
799.755	5862.15803
799.943	6018.10239
800.131	5914.15422
800.318	6043.04118
800.506	5716.49022
800.694	5687.34278
800.882	5593.62327
801.07	6022.25909
801.258	5776.85234
801.446	6038.88495
801.634	5889.19789
801.822	6026.4157
802.01	6038.88495
802.197	6151.07014
802.385	5720.65376
802.573	5768.52771
802.761	5666.52035
802.949	6055.50931
803.136	5810.14709
803.324	5951.58235
803.512	5870.47841
803.699	6026.4157
803.887	5924.55169
804.075	5756.04006
804.262	5893.35751
804.45	5926.63111
804.638	5961.9777
804.825	6173.91428
805.013	5885.03817
805.201	5961.9777
805.388	5943.26565
805.576	6275.64004
805.763	6067.97659
805.951	6286.01705
806.138	6043.04118
806.326	5812.22781
806.513	5878.79841
806.701	6038.88495
806.888	5893.35751
807.075	6059.66516
807.263	6051.35336
807.45	5847.59645
807.638	5961.9777
807.825	6192.60282
808.012	5932.86924
808.2	6155.22383
808.387	5862.15803
808.574	5980.68784
808.761	5726.8989
808.949	5772.69008
809.136	5795.58138
809.323	5651.94325
809.51	5693.58905
809.698	5593.62327
809.885	5368.50179
810.072	5860.07787
810.259	5797.66227
810.446	5795.58138
810.633	5841.35542
810.82	6067.97659
811.008	5930.78989
811.195	5951.58235
811.382	5651.94325
811.569	6034.72863
811.756	5930.78989
811.943	6153.147
812.13	6022.25909
812.317	5980.68784
812.504	5789.33858
812.691	6232.05017
812.878	5980.68784
813.064	5737.30699
813.251	5770.60891
813.438	6047.19732
813.625	5957.81963
813.812	6009.7887
813.999	5728.98056
814.186	6094.98612
814.372	5747.71449
814.559	6009.7887
814.746	5835.11418
814.933	5930.78989
815.12	5926.63111
815.306	5939.10715
815.493	5984.84538
815.68	6009.7887
815.866	5520.6973
816.053	5718.572
816.24	5620.7027
816.426	5833.03372
816.613	5612.37099
816.799	5922.47224
816.986	5797.66227
817.173	5735.22542
817.359	5591.54007
817.546	6034.72863
817.732	5737.30699
817.919	5926.63111
818.105	5660.27316
818.292	5812.22781
818.478	5693.58905
818.665	5849.67675
818.851	5395.61427
819.037	5885.03817
819.224	5410.21165
819.41	5606.12196
819.597	5599.87272
819.783	5510.27695
819.969	5497.77175
820.156	5660.27316
820.342	5554.03847
820.528	5768.52771
820.714	5437.31802
820.901	5647.77815
821.087	5708.16285
821.273	5664.43798
821.459	5470.67425
821.646	5660.27316
821.832	5470.67425
822.018	5679.01409
822.204	5243.31597
822.39	5470.67425
822.576	5651.94325
822.762	5701.91708
822.948	5662.35558
823.134	5849.67675
823.32	5583.20704
823.507	5716.49022
823.693	5612.37099
823.879	5581.12372
824.065	5353.90113
824.25	5364.33029
824.436	5249.57726
824.622	5570.70679
824.808	5599.87272
824.994	5566.53985
825.18	5468.58966
825.366	5312.17861
825.552	5189.04264
825.738	5351.81522
825.923	4988.51269
826.109	5287.14059
826.295	5157.72394
826.481	5145.19499
826.667	5220.3561
826.852	5330.9549
827.038	5128.48843
827.224	5303.83298
827.409	5353.90113
827.595	5412.2969
827.781	5015.68028
827.966	5362.24451
828.152	5051.20124
828.338	5368.50179
828.523	5222.44348
828.709	5633.19955
828.894	5212.00636
829.08	5080.44877
829.266	5055.37973
829.451	5237.05447
829.637	5044.93332
829.822	5209.91887
830.008	5017.76993
830.193	5230.79276
830.378	5184.86712
830.564	5264.18613
830.749	5030.30736
830.935	4934.16583
831.12	4743.82997
831.305	4783.586
831.491	4852.61645
831.676	5178.60366
831.861	4952.97996
832.047	4950.8896
832.232	4994.78248
832.417	5057.46895
832.602	4724.99531
832.788	4975.97249
832.973	4722.90246
833.158	4607.76091
833.343	4842.15889
833.528	4777.30927
833.714	4565.87446
833.899	4768.93999
834.084	4322.75905
834.269	4691.50696
834.454	4601.47851
834.639	5021.94917
834.824	4771.03235
835.009	5032.39686
835.194	4837.9757
835.379	5053.2905
835.564	4574.25247
835.749	4883.98572
835.934	4607.76091
836.119	4649.63842
836.304	4482.07493
836.489	4444.35363
836.674	4574.25247
836.859	4741.73732
837.044	4588.91311
837.228	4649.63842
837.413	4362.59981
837.598	4553.30679
837.783	4419.20214
837.968	4620.3251
838.152	4232.56442
838.337	4496.7424
838.522	4526.0741
838.707	4431.77828
838.891	4356.30968
839.076	4339.53506
839.261	4251.44564
839.445	4492.55181
839.63	4435.97015
839.815	4591.0074
839.999	4276.61791
840.184	4591.0074
840.368	4224.17222
840.553	4528.16906
840.737	4314.37053
840.922	4331.14723
841.106	4303.88439
841.291	4406.62522
841.475	4171.71323
841.66	4632.88849
841.844	4215.77967
842.029	4364.69647
842.213	4331.14723
842.397	4385.66193
842.582	4060.4567
842.766	4368.88974
842.951	4052.05761
843.135	4383.56549
843.319	4146.52822
843.504	4175.91043
843.688	4123.43931
843.872	4188.50154
844.056	4146.52822
844.241	4421.29822
844.425	4003.75642
844.609	4108.74504
844.793	3869.29638
844.977	4226.2703
845.161	3825.15876
845.346	4028.9584
845.53	3793.62655
845.714	4110.84429
845.898	4079.35345
846.082	3894.51393
846.266	3936.53675
846.45	3717.93129
846.634	3633.79616
846.818	3972.2498
847.002	3785.21721
847.186	3928.13283
847.37	3547.5263
847.554	3728.44603
847.738	3566.46627
847.922	3795.72883
848.106	3633.79616
848.29	3944.94035
848.473	3532.79418
848.657	3835.66851
848.841	3722.13724
849.025	3980.65201
849.209	3686.3842
849.392	3831.46467
849.576	3829.36272
849.76	3759.98733
849.944	3621.17327
850.127	3890.3112
850.311	3332.77082
850.495	3585.40473
850.678	3157.88565
850.862	3604.34169
851.046	3387.52999
851.229	3619.06938
851.413	3339.08979
851.596	3667.45387
851.78	3560.15311
851.964	3404.37658
852.147	3429.64434
852.331	3629.5886
852.514	3366.47017
852.698	3488.59243
852.881	3151.56236
853.065	3313.813
853.248	3237.96787
853.431	3457.01485
853.615	3147.34675
853.798	3358.04575
853.982	3054.58726
854.165	3385.42408
854.348	3221.11044
854.532	3547.5263
854.715	3307.49341
854.898	3509.64189
855.081	3069.3465
855.265	3427.53879
855.448	3132.59162
855.631	3159.99338
855.814	3107.29529
855.997	3204.25194
856.181	3018.74025
856.364	3081.99666
856.547	3157.88565
856.73	3166.31647
856.913	2883.74771
857.096	3256.93121
857.279	3071.4549
857.462	3183.17733
857.645	2987.10685
857.828	3250.61025
858.011	2984.99784
858.194	3271.67953
858.377	2955.47006
858.56	3208.46666
858.743	3039.82727
858.926	3141.02322
859.109	2862.64972
859.292	3035.60999
859.475	3069.3465
859.658	3200.03715
859.841	3014.52266
860.023	2854.21012
860.206	2622.03619
860.389	2902.73468
860.572	2647.37191
860.755	2672.70582
860.937	2687.48309
861.12	2793.01636
861.303	2605.14473
861.486	2788.79567
861.668	2767.69141
861.851	2683.26107
862.034	2617.8134
862.216	2873.19889
862.399	2689.59407
862.581	2592.47562
862.764	2508.00397
862.947	2662.15024
863.129	2702.25972
863.312	2666.37251
863.494	2670.59473
863.677	2674.81689
863.859	2508.00397
864.042	2906.95385
864.224	2480.54671
864.406	2733.92181
864.589	2444.63824
864.771	2565.0244
864.954	2328.44285
865.136	2546.01853
865.318	2404.50155
865.501	2529.12363
865.683	2271.39049
865.865	2410.83917
866.048	2091.73927
866.23	2510.11598
866.412	2275.61682
866.594	2402.38898
866.777	2410.83917
866.959	2366.47383
867.141	2203.76422
867.323	2476.32235
867.505	2262.93771
867.687	2600.92174
867.869	2332.66867
868.052	2512.22799
868.234	2427.73904
868.416	2450.97525
868.598	2319.99109
868.78	2503.7799
868.962	2300.97406
869.144	2442.52587
869.326	2220.67163
869.508	2307.31315
869.69	2210.10456
869.872	2157.26603
870.054	2286.1825
870.236	2425.6266
870.417	2227.01177
870.599	2322.10404
870.781	2186.85625
870.963	2252.37152
871.145	2047.34608
871.327	2176.2885
871.508	2093.85316
871.69	2184.74272
871.872	2047.34608
872.054	2267.16412
872.235	2165.72055
872.417	2250.25826
872.599	2079.05583
872.78	2279.84312
872.962	2093.85316
873.144	2252.37152
873.325	1977.57923
873.507	2233.35183
873.689	2148.81139
873.87	2243.91842
874.052	2049.46012
874.233	2085.39759
874.415	2140.35662
874.596	2284.06939
874.778	2013.52063
874.959	2212.21799
875.141	2066.37212
875.322	2199.53728
875.503	2055.80217
875.685	2377.03742
875.866	2108.65012
876.048	2233.35183
876.229	2057.91618
876.41	2199.53728
876.592	1899.34776
876.773	2273.50366
876.954	1907.80559
877.136	2034.66174
877.317	1954.32206
877.498	2191.0833
877.679	2034.66174
877.86	2199.53728
878.042	2053.68816
878.223	2265.05092
878.404	2076.9419
878.585	2195.3103
878.766	2009.29232
878.947	2148.81139
879.128	1979.69348
879.309	2098.0809
879.49	2013.52063
879.672	2269.27731
879.853	1903.57668
880.034	2072.71401
880.215	2091.73927
880.396	2131.90172
880.576	1937.4073
880.757	2043.118
880.938	1840.14061
881.119	2117.10535
881.3	1975.46497
881.481	2317.87812
881.662	2218.55824
881.843	2271.39049
882.023	2060.03017
882.204	2258.71126
882.385	2041.00394
882.566	2064.25815
882.747	2002.94982
882.927	2241.80512
883.108	2034.66174
883.289	2311.53917
883.469	1914.1489
883.65	2165.72055
883.831	2043.118
884.011	2269.27731
884.192	2081.16976
884.373	2231.23848
884.553	1912.03447
884.734	2106.53629
884.914	1808.42094
885.095	2106.53629
885.275	1821.10893
885.456	2165.72055
885.636	2019.86303
885.817	2241.80512
885.997	1916.26333
886.178	2178.40207
886.358	1914.1489
886.538	2038.88988
886.719	1880.31732
886.899	2072.71401
887.08	1971.23644
887.26	2159.37968
887.44	1873.97375
887.621	2216.44483
887.801	2005.06399
887.981	2165.72055
888.161	2049.46012
888.342	2142.47033
888.522	2199.53728
888.702	2174.17493
888.882	2032.54766
889.062	2117.10535
889.242	2169.94776
889.423	2174.17493
889.603	1983.92196
889.783	2436.18873
889.963	1933.17855
890.143	1969.12216
890.323	1886.66085
890.503	2241.80512
890.683	1958.55069
890.863	2174.17493
891.043	1818.99427
891.223	2055.80217
891.403	1939.52167
891.583	1967.00788
891.763	1926.83539
891.943	2079.05583
892.122	1901.46222
892.302	2095.96703
892.482	1992.37885
892.662	2085.39759
892.842	1903.57668
893.022	2068.48609
893.201	1909.92003
893.381	1964.89359
893.561	1964.89359
893.741	1981.80772
893.92	1871.85921
894.1	2102.30861
894.28	1852.82818
894.459	2134.01546
894.639	1869.74468
894.819	2038.88988
894.998	1850.7136
895.178	2117.10535
895.357	1806.30626
895.537	2053.68816
895.716	1759.78224
895.896	2045.23204
896.075	1886.66085
896.255	1954.32206
896.434	1873.97375
896.614	2140.35662
896.793	1804.19157
896.973	1912.03447
897.152	1594.82048
897.331	1740.74914
897.511	1675.1886
897.69	1825.33822
897.87	1645.57968
898.049	1787.27394
898.228	1556.75038
898.407	1740.74914
898.587	1586.3605
898.766	2017.7489
898.945	1569.44047
899.124	1704.79696
899.304	1694.22261
899.483	1844.36982
899.662	1747.09354
899.841	1806.30626
900.02	1550.40531
900.199	1818.99427
900.378	1514.44976
900.557	1818.99427
900.737	1630.77505
900.916	1683.64819
901.095	1410.81234
901.274	1662.49913
901.453	1484.83912
901.632	1641.3498
901.811	1288.14145
901.989	1531.37006
902.168	1324.09619
902.347	1459.45851
902.526	1184.51125
902.705	1311.40622
902.884	1254.30227
903.063	1425.61768
903.242	1313.52121
903.42	1421.38758
903.599	1262.762
903.778	1205.65967
903.957	1220.46377
904.135	1294.48636
904.314	1243.72766
904.493	1450.9983
904.672	1167.59277
904.85	1277.56664
905.029	1176.05198
905.207	1328.3262
905.386	1127.41242
905.565	1203.54481
905.743	1017.45403
905.922	1102.03617
906.1	1044.94226
906.279	1129.52714
906.457	960.36649
906.636	1188.74091
906.814	1019.56848
906.993	1051.28583
907.171	909.62625
907.35	979.39514
907.528	873.68793
907.707	1023.79738
907.885	797.5914
908.063	1006.88191
908.242	799.70503
908.42	930.7675
908.598	848.32114
908.777	1040.71324
908.955	820.84188
909.133	930.7675
909.311	736.30033
909.49	884.25779
909.668	831.41065
909.846	918.08266
910.024	689.80952
910.202	886.37178
910.38	865.2322
910.559	998.42433
910.737	806.04598
910.915	926.53919
911.093	975.1665
911.271	987.85249
911.449	825.06936
911.627	894.82784
911.805	871.57399
911.983	1063.97313
912.161	888.48578
912.339	998.42433
912.517	787.02337
912.695	1083.00445
912.872	905.3981
913.05	966.70931
913.228	892.71381
913.406	880.02982
913.584	820.84188
913.762	829.29687
913.939	858.89049
914.117	772.22855
914.295	797.5914
914.473	913.85444
914.65	742.64038
914.828	795.47777
915.006	778.56913
915.184	930.7675
915.361	694.03574
915.539	915.96855
915.716	763.77459
915.894	848.32114
916.072	763.77459
916.249	797.5914
916.427	778.56913
916.604	975.1665
916.782	668.67912
916.959	837.75202
917.137	803.93232
917.314	922.31091
917.492	837.75202
917.669	839.86582
917.847	740.52702
918.024	736.30033
918.201	668.67912
918.379	799.70503
918.556	710.94105
918.733	763.77459
918.911	736.30033
919.088	757.43422
919.265	658.11436
919.442	763.77459
919.62	622.19641
919.797	677.13115
919.974	660.22729
920.151	664.45318
920.328	706.71465
920.506	774.34207
920.683	563.04536
920.86	755.32078
921.037	603.18247
921.214	626.42187
921.391	666.56615
921.568	653.88854
921.745	664.45318
921.922	810.27334
922.099	567.2701
922.276	702.4883
922.453	546.14697
922.63	704.60147
922.807	558.82068
922.984	592.61962
923.161	565.15772
923.338	649.66276
923.514	529.24946
923.691	510.24083
923.868	584.16957
924.045	546.14697
924.222	423.66115
924.399	626.42187
924.575	516.57691
924.752	584.16957
924.929	444.77578
925.105	628.53462
925.282	499.68099
925.459	520.80104
925.635	518.68897
925.812	480.67419
925.989	440.55273
926.165	520.80104
926.342	468.00366
926.518	499.68099
926.695	356.10527
926.871	398.32572
927.048	360.32701
927.224	487.00965
927.401	387.76998
927.577	470.11538
927.754	284.34646
927.93	334.99761
928.107	360.32701
928.283	362.43791
928.459	425.77255
928.636	366.65975
928.812	453.22206
928.988	389.88109
929.165	408.88187
929.341	351.8836
929.517	307.56028
929.693	339.219
929.87	290.67728
930.046	334.99761
930.222	328.66565
930.398	379.32569
930.574	273.79547
930.751	330.77629
930.927	368.7707
931.103	391.99222
931.279	313.8917
931.455	305.44984
931.631	254.80485
931.807	337.1083
931.983	343.44047
932.159	299.11864
932.335	316.00221
932.511	259.02486
932.687	240.03545
932.863	271.68532
933.039	229.48645
933.215	284.34646
933.391	297.00827
933.566	313.8917
933.742	301.22902
933.918	244.25518
934.094	204.17086
934.27	246.36508
934.445	107.15516
934.621	189.40476
934.797	180.96744
934.973	197.84241
935.148	202.06136
935.324	229.48645
935.5	185.18606
935.675	202.06136
935.851	237.92561
936.027	180.96744
936.202	115.58952
936.378	140.89469
936.553	168.31207
936.729	180.96744
936.904	113.4809
937.08	105.04662
937.255	132.45929
937.431	176.7489
937.606	147.22146
937.782	180.96744
937.957	69.20492
938.133	180.96744
938.308	100.82962
938.483	100.82962
938.659	113.4809
938.834	92.39587
939.009	117.69816
939.185	166.20292
939.36	119.80683
939.535	79.74592
939.71	69.20492
939.886	60.77252
940.061	77.63768
940.236	50.23254
940.411	94.50427
940.586	79.74592
940.761	88.17913
940.937	119.80683
941.112	29.15432
941.287	71.31307
941.462	27.04663
941.637	96.6127
941.812	69.20492
941.987	62.88058
942.162	124.02423
942.337	39.69314
942.512	81.85419
942.687	94.50427
942.862	67.09678
943.037	69.20492
943.212	102.93811
943.386	41.80097
943.561	102.93811
943.736	43.90883
943.911	1.75615
944.086	172.53045
944.26	71.31307
944.435	88.17913
944.61	67.09678
944.785	35.47754
944.959	71.31307
945.134	10.18593
945.309	46.01671
945.483	60.77252
945.658	71.31307
945.833	50.23254
946.007	69.20492
946.182	130.35049
946.357	60.77252
946.531	35.47754
946.706	145.11251
946.88	-0.35123
947.055	69.20492
947.229	48.12461
947.404	43.90883
947.578	96.6127
947.752	96.6127
947.927	73.42125
948.101	-23.53085
948.276	90.28749
948.45	77.63768
948.624	18.61609
948.799	58.66448
948.973	20.72369
949.147	81.85419
949.321	-2.45859
949.496	-12.99502
949.67	73.42125
949.844	199.95188
950.018	60.77252
950.193	64.98867
950.367	64.98867
950.541	107.15516
950.715	-23.53085
950.889	29.15432
951.063	48.12461
951.237	56.55646
951.411	39.69314
951.585	56.55646
951.759	31.26204
951.933	60.77252
952.107	77.63768
952.281	54.44846
952.455	132.45929
952.629	67.09678
952.803	86.0708
952.977	-112.00696
953.151	73.42125
953.325	117.69816
953.499	-8.78052
953.672	79.74592
953.846	111.37229
954.02	12.29343
954.194	86.0708
954.368	12.29343
954.541	92.39587
954.715	75.52945
954.889	88.17913
955.062	86.0708
955.236	56.55646
955.41	29.15432
955.583	92.39587
955.757	43.90883
955.93	81.85419
956.104	73.42125
956.278	-40.38689
956.451	88.17913
956.625	64.98867
956.798	83.96248
956.972	64.98867
957.145	86.0708
957.319	3.86356
957.492	35.47754
957.665	14.40096
957.839	105.04662
958.012	20.72369
958.185	77.63768
958.359	64.98867
958.532	14.40096
958.705	102.93811
958.879	98.72115
959.052	64.98867
959.225	96.6127
959.398	73.42125
959.572	20.72369
959.745	31.26204
959.918	111.37229
960.091	71.31307
960.264	83.96248
960.438	22.83131
960.611	77.63768
960.784	111.37229
960.957	124.02423
961.13	43.90883
961.303	77.63768
961.476	105.04662
961.649	22.83131
961.822	67.09678
961.995	69.20492
962.168	35.47754
962.341	41.80097
962.514	81.85419
962.686	79.74592
962.859	96.6127
963.032	115.58952
963.205	31.26204
963.378	52.34049
963.551	18.61609
963.723	77.63768
963.896	60.77252
964.069	64.98867
964.242	113.4809
964.414	119.80683
964.587	37.58533
964.76	54.44846
964.932	100.82962
965.105	67.09678
965.278	31.26204
965.45	-23.53085
965.623	98.72115
965.795	119.80683
965.968	62.88058
966.14	64.98867
966.313	31.26204
966.485	100.82962
966.658	-6.67324
966.83	105.04662
967.003	83.96248
967.175	14.40096
967.348	33.36978
967.52	77.63768
967.692	98.72115
967.865	71.31307
968.037	77.63768
968.209	35.47754
968.382	58.66448
968.554	102.93811
968.726	96.6127
968.898	60.77252
969.071	3.86356
969.243	3.86356
969.415	52.34049
969.587	35.47754
969.759	60.77252
969.932	124.02423
970.104	75.52945
970.276	94.50427
970.448	14.40096
970.62	37.58533
970.792	1.75615
970.964	94.50427
971.136	102.93811
971.308	98.72115
971.48	1.75615
971.652	-4.56592
971.824	39.69314
971.996	73.42125
972.168	83.96248
972.339	27.04663
972.511	71.31307
972.683	105.04662
972.855	14.40096
973.027	81.85419
973.199	69.20492
973.37	96.6127
973.542	1.75615
973.714	46.01671
973.886	31.26204
974.057	-15.10224
974.229	86.0708
974.401	67.09678
974.572	67.09678
974.744	81.85419
974.915	60.77252
975.087	-6.67324
975.259	37.58533
975.43	22.83131
975.602	81.85419
975.773	64.98867
975.945	94.50427
976.116	69.20492
976.288	79.74592
976.459	-2.45859
976.63	22.83131
976.802	128.24171
976.973	27.04663
977.145	41.80097
977.316	60.77252
977.487	60.77252
977.659	22.83131
977.83	35.47754
978.001	31.26204
978.172	73.42125
978.344	69.20492
978.515	27.04663
978.686	29.15432
978.857	1.75615
979.028	20.72369
979.2	31.26204
979.371	52.34049
979.542	48.12461
979.713	75.52945
979.884	119.80683
980.055	-2.45859
980.226	77.63768
980.397	-65.66794
980.568	31.26204
980.739	111.37229
980.91	60.77252
981.081	5.97099
981.252	-2.45859
981.423	60.77252
981.594	1.75615
981.765	69.20492
981.936	-15.10224
982.106	48.12461
982.277	37.58533
982.448	-19.31659
982.619	111.37229
982.79	48.12461
982.96	81.85419
983.131	56.55646
983.302	90.28749
983.472	35.47754
983.643	35.47754
983.814	136.67694
983.984	3.86356
984.155	18.61609
984.326	81.85419
984.496	60.77252
984.667	111.37229
984.837	79.74592
985.008	77.63768
985.178	29.15432
985.349	111.37229
985.519	37.58533
985.69	46.01671
985.86	58.66448
986.031	18.61609
986.201	-12.99502
986.371	35.47754
986.542	35.47754
986.712	56.55646
986.882	-4.56592
987.053	5.97099
987.223	73.42125
987.393	-23.53085
987.563	-15.10224
987.734	29.15432
987.904	20.72369
988.074	50.23254
988.244	-8.78052
988.414	-19.31659
988.585	31.26204
988.755	48.12461
988.925	48.12461
989.095	8.07845
989.265	35.47754
989.435	39.69314
989.605	48.12461
989.775	67.09678
989.945	60.77252
990.115	56.55646
990.285	-17.20943
990.455	-6.67324
990.625	50.23254
990.795	-6.67324
990.965	67.09678
991.134	-38.27997
991.304	18.61609
991.474	69.20492
991.644	-2.45859
991.814	1.75615
991.984	69.20492
992.153	3.86356
992.323	56.55646
992.493	-10.88778
992.662	-19.31659
992.832	33.36978
993.002	-6.67324
993.171	50.23254
993.341	54.44846
993.511	111.37229
993.68	-17.20943
993.85	-2.45859
994.019	48.12461
994.189	-0.35123
994.358	64.98867
994.528	27.04663
994.697	18.61609
994.867	64.98867
995.036	33.36978
995.206	88.17913
995.375	94.50427
995.544	64.98867
995.714	102.93811
995.883	105.04662
996.052	-4.56592
996.222	39.69314
996.391	-31.95906
996.56	12.29343
996.73	39.69314
996.899	69.20492
997.068	10.18593
997.237	10.18593
997.406	83.96248
997.576	12.29343
997.745	33.36978
997.914	81.85419
998.083	-23.53085
998.252	-8.78052
998.421	27.04663
998.59	27.04663
998.759	43.90883
998.928	14.40096
999.097	-15.10224
999.266	35.47754
999.435	50.23254
999.604	1.75615
999.773	-6.67324
999.942	83.96248
1000.111	60.77252
1000.28	20.72369
1000.448	12.29343
1000.617	37.58533
1000.786	12.29343
1000.955	1.75615
1001.124	14.40096
1001.292	12.29343
1001.461	37.58533
1001.63	88.17913
1001.798	43.90883
1001.967	37.58533
1002.136	20.72369
1002.304	5.97099
1002.473	-19.31659
1002.642	77.63768
1002.81	1.75615
1002.979	-31.95906
1003.147	37.58533
1003.316	-46.70749
1003.484	35.47754
1003.653	-2.45859
1003.821	18.61609
1003.99	-17.20943
1004.158	5.97099
1004.327	-0.35123
1004.495	10.18593
1004.663	-34.06606
1004.832	-10.88778
1005	22.83131
1005.168	10.18593
1005.337	22.83131
1005.505	12.29343
1005.673	-6.67324
1005.842	-12.99502
1006.01	1.75615
1006.178	-74.09415
1006.346	10.18593
1006.514	56.55646
1006.683	-15.10224
1006.851	60.77252
1007.019	16.50851
1007.187	-53.02787
1007.355	52.34049
1007.523	-27.74501
1007.691	46.01671
1007.859	43.90883
1008.027	48.12461
1008.195	-10.88778
1008.363	77.63768
1008.531	1.75615
1008.699	31.26204
1008.867	14.40096
1009.035	-2.45859
1009.203	52.34049
1009.37	75.52945
1009.538	77.63768
1009.706	24.93896
1009.874	86.0708
1010.042	-23.53085
1010.209	-42.49378
1010.377	-40.38689
1010.545	-15.10224
1010.713	39.69314
1010.88	46.01671
1011.048	56.55646
1011.216	27.04663
1011.383	35.47754
1011.551	43.90883
1011.718	22.83131
1011.886	-8.78052
1012.054	-44.60065
1012.221	96.6127
1012.389	22.83131
1012.556	-42.49378
1012.724	128.24171
1012.891	27.04663
1013.058	5.97099
1013.226	43.90883
1013.393	43.90883
1013.561	43.90883
1013.728	3.86356
1013.895	33.36978
1014.063	-29.85205
1014.23	-2.45859
1014.397	46.01671
1014.565	1.75615
1014.732	-4.56592
1014.899	48.12461
1015.066	-10.88778
1015.233	3.86356
1015.401	48.12461
1015.568	5.97099
1015.735	-19.31659
1015.902	10.18593
1016.069	29.15432
1016.236	39.69314
1016.403	60.77252
1016.57	14.40096
1016.737	50.23254
1016.904	37.58533
1017.071	48.12461
1017.238	20.72369
1017.405	-2.45859
1017.572	-63.56133
1017.739	60.77252
1017.906	-10.88778
1018.073	41.80097
1018.24	-21.42373
1018.407	31.26204
1018.573	-38.27997
1018.74	1.75615
1018.907	60.77252
1019.074	-15.10224
1019.241	-19.31659
1019.407	18.61609
1019.574	-19.31659
1019.741	-12.99502
1019.907	3.86356
1020.074	22.83131
1020.241	18.61609
1020.407	71.31307
1020.574	-19.31659
1020.74	1.75615
1020.907	-4.56592
1021.073	60.77252
1021.24	-10.88778
1021.406	-48.81431
1021.573	50.23254
1021.739	10.18593
1021.906	-6.67324
1022.072	10.18593
1022.239	-12.99502
1022.405	90.28749
1022.571	88.17913
1022.738	62.88058
1022.904	31.26204
1023.07	-48.81431
1023.237	-10.88778
1023.403	-17.20943
1023.569	33.36978
1023.735	-15.10224
1023.902	-34.06606
1024.068	10.18593
1024.234	-6.67324
1024.4	-12.99502
1024.566	22.83131
1024.732	-17.20943
1024.898	14.40096
1025.065	-57.24133
1025.231	22.83131
1025.397	-4.56592
1025.563	92.39587
1025.729	31.26204
1025.895	16.50851
1026.061	27.04663
1026.227	-19.31659
1026.392	10.18593
1026.558	14.40096
1026.724	-17.20943
1026.89	75.52945
1027.056	-57.24133
1027.222	-48.81431
1027.388	-23.53085
1027.553	27.04663
1027.719	64.98867
1027.885	39.69314
1028.051	-57.24133
1028.216	-2.45859
1028.382	69.20492
1028.548	12.29343
1028.713	-6.67324
1028.879	-8.78052
1029.045	39.69314
1029.21	39.69314
1029.376	-34.06606
1029.541	20.72369
1029.707	-10.88778
1029.873	-17.20943
1030.038	64.98867
1030.204	-12.99502
1030.369	-17.20943
1030.534	-10.88778
1030.7	58.66448
1030.865	64.98867
1031.031	29.15432
1031.196	64.98867
1031.361	-10.88778
1031.527	-15.10224
1031.692	12.29343
1031.857	-6.67324
1032.023	-23.53085
1032.188	69.20492
1032.353	-10.88778
1032.518	37.58533
1032.684	-2.45859
1032.849	37.58533
1033.014	27.04663
1033.179	-10.88778
1033.344	-42.49378
1033.509	-2.45859
1033.674	60.77252
1033.839	10.18593
1034.004	12.29343
1034.17	5.97099
1034.335	18.61609
1034.5	20.72369
1034.664	35.47754
1034.829	27.04663
1034.994	18.61609
1035.159	52.34049
1035.324	-2.45859
1035.489	50.23254
1035.654	18.61609
1035.819	-2.45859
1035.984	10.18593
1036.148	46.01671
1036.313	64.98867
1036.478	-2.45859
1036.643	3.86356
1036.807	33.36978
1036.972	71.31307
1037.137	-29.85205
1037.301	-4.56592
1037.466	22.83131
1037.631	48.12461
1037.795	-23.53085
1037.96	-15.10224
1038.124	10.18593
1038.289	86.0708
1038.454	-6.67324
1038.618	29.15432
1038.783	48.12461
1038.947	1.75615
1039.111	62.88058
1039.276	22.83131
1039.44	35.47754
1039.605	-10.88778
1039.769	20.72369
1039.933	18.61609
1040.098	12.29343
1040.262	3.86356
1040.426	3.86356
1040.591	37.58533
1040.755	12.29343
1040.919	10.18593
1041.083	12.29343
1041.248	-2.45859
1041.412	3.86356
1041.576	18.61609
1041.74	35.47754
1041.904	60.77252
1042.068	29.15432
1042.232	-27.74501
1042.397	86.0708
1042.561	-6.67324
1042.725	-44.60065
1042.889	20.72369
1043.053	43.90883
1043.217	-42.49378
1043.381	52.34049
1043.544	10.18593
1043.708	27.04663
1043.872	14.40096
1044.036	62.88058
1044.2	14.40096
1044.364	22.83131
1044.528	27.04663
1044.691	88.17913
1044.855	10.18593
1045.019	27.04663
1045.183	56.55646
1045.346	-34.06606
1045.51	20.72369
1045.674	29.15432
1045.837	-27.74501
1046.001	5.97099
1046.165	31.26204
1046.328	50.23254
1046.492	31.26204
1046.655	22.83131
1046.819	-10.88778
1046.983	18.61609
1047.146	50.23254
1047.31	69.20492
1047.473	3.86356
1047.636	-19.31659
1047.8	12.29343
1047.963	-29.85205
1048.127	71.31307
1048.29	-31.95906
