Data from absorb_only_2.23.25_USB4F045381__49__0154.txt Node

Date: Sun Feb 23 19:21:34 EST 2025
User: ssocol
Spectrometer: USB4F04538
Trigger mode: 4
Integration Time (sec): 2.600000E-3
Scans to average: 1
Electric dark correction enabled: true
Nonlinearity correction enabled: true
Boxcar width: 0
XAxis mode: Wavelengths
Number of Pixels in Spectrum: 3648
>>>>>Begin Spectral Data<<<<<
345.52	56.55646
345.736	56.55646
345.952	56.55646
346.168	46.01671
346.384	3.86356
346.6	-23.53085
346.816	-15.10224
347.032	-25.63794
347.248	16.50851
347.464	43.90883
347.68	8.07845
347.896	-4.56592
348.112	-23.53085
348.328	-23.53085
348.544	18.61609
348.76	20.72369
348.975	8.07845
349.191	-8.78052
349.407	18.61609
349.623	-4.56592
349.839	16.50851
350.055	20.72369
350.27	-23.53085
350.486	-8.78052
350.702	14.40096
350.918	-34.06606
351.133	-8.78052
351.349	-6.67324
351.565	1.75615
351.781	1.75615
351.996	-25.63794
352.212	-21.42373
352.428	-19.31659
352.644	111.37229
352.859	-15.10224
353.075	-48.81431
353.291	-2.45859
353.506	-0.35123
353.722	58.66448
353.938	-46.70749
354.153	67.09678
354.369	58.66448
354.584	1.75615
354.8	79.74592
355.016	3.86356
355.231	-17.20943
355.447	33.36978
355.662	12.29343
355.878	29.15432
356.093	1.75615
356.309	-42.49378
356.524	41.80097
356.74	29.15432
356.955	27.04663
357.171	-0.35123
357.386	67.09678
357.602	43.90883
357.817	-55.13461
358.033	50.23254
358.248	58.66448
358.464	33.36978
358.679	-8.78052
358.895	33.36978
359.11	20.72369
359.325	-0.35123
359.541	33.36978
359.756	83.96248
359.972	-23.53085
360.187	39.69314
360.402	39.69314
360.618	8.07845
360.833	27.04663
361.048	-63.56133
361.264	-34.06606
361.479	12.29343
361.694	-25.63794
361.909	-0.35123
362.125	-17.20943
362.34	-2.45859
362.555	-0.35123
362.77	37.58533
362.986	-4.56592
363.201	22.83131
363.416	3.86356
363.631	37.58533
363.847	-59.34802
364.062	33.36978
364.277	-19.31659
364.492	41.80097
364.707	3.86356
364.922	35.47754
365.138	16.50851
365.353	8.07845
365.568	24.93896
365.783	24.93896
365.998	35.47754
366.213	-31.95906
366.428	54.44846
366.643	-8.78052
366.858	27.04663
367.073	14.40096
367.288	41.80097
367.503	39.69314
367.718	-21.42373
367.933	33.36978
368.148	50.23254
368.363	-36.17303
368.578	22.83131
368.793	31.26204
369.008	10.18593
369.223	33.36978
369.438	-29.85205
369.653	35.47754
369.868	-15.10224
370.083	-46.70749
370.298	-17.20943
370.513	-15.10224
370.728	71.31307
370.943	-40.38689
371.157	41.80097
371.372	-12.99502
371.587	12.29343
371.802	64.98867
372.017	50.23254
372.232	75.52945
372.446	-4.56592
372.661	56.55646
372.876	33.36978
373.091	14.40096
373.306	-27.74501
373.52	62.88058
373.735	-21.42373
373.95	64.98867
374.165	86.0708
374.379	1.75615
374.594	41.80097
374.809	35.47754
375.023	46.01671
375.238	-31.95906
375.453	-8.78052
375.667	3.86356
375.882	90.28749
376.097	8.07845
376.311	-31.95906
376.526	18.61609
376.741	-0.35123
376.955	88.17913
377.17	-8.78052
377.384	43.90883
377.599	-31.95906
377.813	31.26204
378.028	-8.78052
378.242	-25.63794
378.457	8.07845
378.672	16.50851
378.886	52.34049
379.101	-0.35123
379.315	67.09678
379.53	33.36978
379.744	98.72115
379.958	46.01671
380.173	75.52945
380.387	94.50427
380.602	-27.74501
380.816	67.09678
381.031	-12.99502
381.245	58.66448
381.459	3.86356
381.674	-6.67324
381.888	-44.60065
382.103	33.36978
382.317	-8.78052
382.531	54.44846
382.746	16.50851
382.96	-42.49378
383.174	37.58533
383.388	71.31307
383.603	-40.38689
383.817	33.36978
384.031	60.77252
384.246	86.0708
384.46	-55.13461
384.674	-21.42373
384.888	-15.10224
385.103	41.80097
385.317	-29.85205
385.531	18.61609
385.745	-4.56592
385.959	5.97099
386.174	-42.49378
386.388	-8.78052
386.602	33.36978
386.816	50.23254
387.03	-15.10224
387.244	35.47754
387.458	46.01671
387.672	41.80097
387.887	35.47754
388.101	14.40096
388.315	50.23254
388.529	50.23254
388.743	71.31307
388.957	-12.99502
389.171	33.36978
389.385	12.29343
389.599	39.69314
389.813	33.36978
390.027	3.86356
390.241	24.93896
390.455	113.4809
390.669	22.83131
390.883	10.18593
391.097	67.09678
391.311	41.80097
391.525	1.75615
391.738	-34.06606
391.952	29.15432
392.166	-6.67324
392.38	43.90883
392.594	-29.85205
392.808	1.75615
393.022	-0.35123
393.236	77.63768
393.449	10.18593
393.663	24.93896
393.877	67.09678
394.091	-0.35123
394.305	8.07845
394.518	24.93896
394.732	-67.77453
394.946	-95.15786
395.16	-6.67324
395.373	29.15432
395.587	-17.20943
395.801	107.15516
396.015	96.6127
396.228	-4.56592
396.442	41.80097
396.656	-17.20943
396.869	3.86356
397.083	33.36978
397.297	111.37229
397.51	31.26204
397.724	18.61609
397.938	8.07845
398.151	58.66448
398.365	-12.99502
398.578	79.74592
398.792	67.09678
399.005	60.77252
399.219	22.83131
399.433	111.37229
399.646	-23.53085
399.86	43.90883
400.073	56.55646
400.287	-27.74501
400.5	54.44846
400.714	69.20492
400.927	-50.9211
401.141	5.97099
401.354	-40.38689
401.567	52.34049
401.781	-0.35123
401.994	37.58533
402.208	41.80097
402.421	50.23254
402.635	-25.63794
402.848	14.40096
403.061	41.80097
403.275	69.20492
403.488	27.04663
403.701	27.04663
403.915	-6.67324
404.128	60.77252
404.341	100.82962
404.555	-25.63794
404.768	27.04663
404.981	39.69314
405.195	41.80097
405.408	52.34049
405.621	22.83131
405.834	29.15432
406.048	-8.78052
406.261	-12.99502
406.474	54.44846
406.687	16.50851
406.9	52.34049
407.114	-46.70749
407.327	-0.35123
407.54	69.20492
407.753	41.80097
407.966	29.15432
408.179	52.34049
408.392	10.18593
408.605	27.04663
408.819	-23.53085
409.032	8.07845
409.245	48.12461
409.458	64.98867
409.671	3.86356
409.884	16.50851
410.097	16.50851
410.31	43.90883
410.523	-17.20943
410.736	64.98867
410.949	29.15432
411.162	39.69314
411.375	1.75615
411.588	102.93811
411.801	33.36978
412.014	-2.45859
412.227	73.42125
412.44	52.34049
412.653	62.88058
412.865	24.93896
413.078	27.04663
413.291	88.17913
413.504	92.39587
413.717	12.29343
413.93	20.72369
414.143	-42.49378
414.356	33.36978
414.568	33.36978
414.781	18.61609
414.994	60.77252
415.207	35.47754
415.42	-23.53085
415.632	56.55646
415.845	90.28749
416.058	20.72369
416.271	-34.06606
416.483	24.93896
416.696	27.04663
416.909	-67.77453
417.121	35.47754
417.334	39.69314
417.547	71.31307
417.759	50.23254
417.972	-31.95906
418.185	24.93896
418.397	8.07845
418.61	-23.53085
418.823	64.98867
419.035	54.44846
419.248	41.80097
419.46	41.80097
419.673	92.39587
419.885	16.50851
420.098	50.23254
420.311	126.13296
420.523	43.90883
420.736	88.17913
420.948	24.93896
421.161	81.85419
421.373	12.29343
421.586	58.66448
421.798	75.52945
422.01	81.85419
422.223	1.75615
422.435	75.52945
422.648	-61.45468
422.86	58.66448
423.073	75.52945
423.285	18.61609
423.497	58.66448
423.71	58.66448
423.922	83.96248
424.134	-17.20943
424.347	67.09678
424.559	10.18593
424.771	-50.9211
424.984	20.72369
425.196	75.52945
425.408	37.58533
425.621	18.61609
425.833	52.34049
426.045	75.52945
426.257	10.18593
426.47	69.20492
426.682	27.04663
426.894	52.34049
427.106	58.66448
427.318	-36.17303
427.531	5.97099
427.743	79.74592
427.955	77.63768
428.167	27.04663
428.379	-12.99502
428.591	67.09678
428.804	58.66448
429.016	-15.10224
429.228	69.20492
429.44	58.66448
429.652	3.86356
429.864	-21.42373
430.076	111.37229
430.288	33.36978
430.5	35.47754
430.712	67.09678
430.924	-17.20943
431.136	24.93896
431.348	-8.78052
431.56	-0.35123
431.772	67.09678
431.984	58.66448
432.196	50.23254
432.408	102.93811
432.62	64.98867
432.832	41.80097
433.044	-8.78052
433.256	-2.45859
433.468	35.47754
433.679	41.80097
433.891	16.50851
434.103	-12.99502
434.315	41.80097
434.527	35.47754
434.739	75.52945
434.95	88.17913
435.162	16.50851
435.374	27.04663
435.586	-19.31659
435.798	94.50427
436.009	46.01671
436.221	124.02423
436.433	60.77252
436.645	-38.27997
436.856	67.09678
437.068	71.31307
437.28	16.50851
437.491	100.82962
437.703	5.97099
437.915	18.61609
438.126	54.44846
438.338	124.02423
438.55	77.63768
438.761	92.39587
438.973	117.69816
439.184	52.34049
439.396	27.04663
439.608	73.42125
439.819	92.39587
440.031	14.40096
440.242	62.88058
440.454	105.04662
440.665	67.09678
440.877	10.18593
441.088	83.96248
441.3	18.61609
441.511	134.5681
441.723	-10.88778
441.934	33.36978
442.146	94.50427
442.357	41.80097
442.569	29.15432
442.78	67.09678
442.991	90.28749
443.203	50.23254
443.414	16.50851
443.626	107.15516
443.837	62.88058
444.048	3.86356
444.26	77.63768
444.471	37.58533
444.682	96.6127
444.894	100.82962
445.105	24.93896
445.316	109.26371
445.528	102.93811
445.739	22.83131
445.95	96.6127
446.161	75.52945
446.373	41.80097
446.584	102.93811
446.795	60.77252
447.006	138.7858
447.217	69.20492
447.429	62.88058
447.64	52.34049
447.851	69.20492
448.062	69.20492
448.273	46.01671
448.484	83.96248
448.695	86.0708
448.907	117.69816
449.118	77.63768
449.329	5.97099
449.54	77.63768
449.751	5.97099
449.962	39.69314
450.173	105.04662
450.384	71.31307
450.595	33.36978
450.806	35.47754
451.017	109.26371
451.228	143.00359
451.439	113.4809
451.65	27.04663
451.861	56.55646
452.072	71.31307
452.283	136.67694
452.494	64.98867
452.705	33.36978
452.915	24.93896
453.126	79.74592
453.337	109.26371
453.548	83.96248
453.759	130.35049
453.97	90.28749
454.181	22.83131
454.391	134.5681
454.602	180.96744
454.813	64.98867
455.024	83.96248
455.235	111.37229
455.445	140.89469
455.656	77.63768
455.867	102.93811
456.078	100.82962
456.288	105.04662
456.499	52.34049
456.71	77.63768
456.921	153.54842
457.131	218.93794
457.342	60.77252
457.553	75.52945
457.763	67.09678
457.974	145.11251
458.184	62.88058
458.395	161.98467
458.606	172.53045
458.816	166.20292
459.027	143.00359
459.237	134.5681
459.448	128.24171
459.659	98.72115
459.869	227.37671
460.08	157.7665
460.29	178.85816
460.501	168.31207
460.711	149.33043
460.922	161.98467
461.132	113.4809
461.343	231.59621
461.553	166.20292
461.764	172.53045
461.974	202.06136
462.184	105.04662
462.395	136.67694
462.605	244.25518
462.816	193.62355
463.026	193.62355
463.236	183.07674
463.447	187.2954
463.657	126.13296
463.867	278.01581
464.078	252.69488
464.288	204.17086
464.498	240.03545
464.709	229.48645
464.919	286.45672
465.129	240.03545
465.339	320.22329
465.55	273.79547
465.76	237.92561
465.97	244.25518
466.18	229.48645
466.391	240.03545
466.601	288.56699
466.811	339.219
467.021	280.12601
467.231	404.65936
467.441	324.44443
467.651	429.99538
467.862	368.7707
468.072	366.65975
468.282	322.33385
468.492	465.89196
468.702	394.10337
468.912	544.03473
469.122	423.66115
469.332	457.4453
469.542	468.00366
469.752	468.00366
469.962	364.54882
470.172	432.10681
470.382	508.12883
470.592	552.48376
470.802	554.59606
471.012	573.6073
471.222	554.59606
471.432	660.22729
471.642	582.05709
471.852	681.35723
472.062	755.32078
472.272	776.4556
472.482	611.63298
472.691	683.47028
472.901	649.66276
473.111	700.37515
473.321	827.18311
473.531	806.04598
473.741	888.48578
473.95	1053.40037
474.16	797.5914
474.37	928.65334
474.58	865.2322
474.79	958.25223
474.999	1004.76751
475.209	973.05219
475.419	1021.68293
475.628	1203.54481
475.838	1076.66063
476.048	1167.59277
476.258	1152.78931
476.467	1209.8894
476.677	1300.83129
476.886	1372.74161
477.096	1264.87694
477.306	1370.62658
477.515	1252.18734
477.725	1434.07789
477.935	1300.83129
478.144	1605.39541
478.354	1444.65315
478.563	1770.35605
478.773	1512.33472
478.982	1766.12654
479.192	1749.20833
479.401	1850.7136
479.611	1785.15922
479.82	1717.48608
480.03	1757.66746
480.239	1882.43183
480.449	1766.12654
480.658	2155.15239
480.868	2076.9419
481.077	2013.52063
481.287	1990.26464
481.496	2281.95626
481.705	2121.33293
481.915	2438.30112
482.124	2281.95626
482.333	2349.57157
482.543	2262.93771
482.752	2442.52587
482.961	2307.31315
483.171	2653.70555
483.38	2417.1767
483.589	2630.48163
483.799	2577.69444
484.008	2923.82993
484.217	2628.37029
484.426	2942.81441
484.636	2833.11015
484.845	2892.18651
485.054	2780.35413
485.263	2934.37701
485.472	2936.48638
485.682	3178.96222
485.891	2966.01603
486.1	3193.71484
486.309	3124.15976
486.518	3404.37658
486.727	3345.4086
486.936	3429.64434
487.146	3311.70649
487.355	3246.39619
487.564	3208.46666
487.773	3372.7883
487.982	3332.77082
488.191	3713.72526
488.4	3640.10735
488.609	3741.06307
488.818	3600.13361
489.027	3833.5666
489.236	3766.29506
489.445	3797.8311
489.654	3753.67942
489.863	4047.85794
490.072	3814.64852
490.281	4003.75642
490.49	3989.0539
490.698	4136.03357
490.907	4035.25843
491.116	4152.82475
491.325	4094.04975
491.534	4272.42275
491.743	4249.34782
491.952	4295.49509
492.16	4379.37252
492.369	4555.40146
492.578	4467.40638
492.787	4639.16988
492.996	4404.52899
493.204	4553.30679
493.413	4666.38692
493.622	4678.94734
493.831	4517.69406
494.039	4798.23089
494.248	4614.04311
494.457	4998.96222
494.665	4745.92259
494.874	5099.24836
495.083	4952.97996
495.291	4890.25895
495.5	4917.44059
495.709	4990.60264
495.917	5078.35981
496.126	5278.79384
496.335	5293.40041
496.543	5299.66002
496.752	5166.07611
496.96	5151.45957
497.169	5195.30576
497.377	5424.80788
497.586	5241.22883
497.794	5549.87115
498.003	5295.48697
498.211	5706.08095
498.42	5193.21807
498.628	5458.16637
498.837	5451.91211
499.045	5579.04038
499.254	5280.88057
499.462	5828.87272
499.671	5799.74313
499.879	5891.27771
500.087	5758.12139
500.296	5795.58138
500.504	5760.20271
500.713	5816.38918
500.921	5756.04006
501.129	6074.20991
501.338	5620.7027
501.546	6173.91428
501.754	6011.86716
501.962	6076.28764
502.171	6136.53148
502.379	6196.75557
502.587	6256.95993
502.795	6090.83107
503.004	6028.49396
503.212	6425.01274
503.42	6084.59831
503.628	6288.09239
503.837	6412.56963
504.045	6433.30768
504.253	6327.51927
504.461	6375.23528
504.669	6286.01705
504.877	6422.93895
505.085	6352.41612
505.294	6642.63192
505.502	6366.93773
505.71	6679.91249
505.918	6462.33704
506.126	6679.91249
506.334	6626.06038
506.542	6872.41054
506.75	6572.19269
506.958	6779.291
507.166	6597.05664
507.374	6845.51408
507.582	6708.90335
507.79	6936.53279
507.998	6806.19694
508.206	6907.57705
508.414	6777.22115
508.622	6969.61964
508.83	7035.77603
509.037	7145.29706
509.245	7064.71222
509.453	7066.77892
509.661	6924.12373
509.869	7145.29706
510.077	6862.0662
510.285	7399.22864
510.492	7052.31153
510.7	7267.1432
510.908	7056.44518
511.116	7366.21568
511.324	7068.8456
511.531	7281.59442
511.739	7370.3426
511.947	7407.48101
512.155	7201.06672
512.362	7623.98216
512.57	7110.17451
512.778	7355.89798
512.985	7648.71012
513.193	7572.45574
513.401	7308.42954
513.608	7452.86284
513.816	7566.27167
514.024	7502.35834
514.231	7582.76209
514.439	7531.22498
514.646	7450.80025
514.854	7729.05492
515.061	7333.19713
515.269	7706.39682
515.477	7588.94564
515.684	7936.97941
515.892	7611.61703
516.099	7918.46006
516.307	7794.95496
516.514	8111.8029
516.722	7764.06699
516.929	8117.97047
517.136	7780.54116
517.344	8025.43786
517.551	7864.95034
517.759	7926.69108
517.966	8021.32435
518.173	8019.26756
518.381	7998.69858
518.588	8366.58027
518.796	8173.4705
519.003	8282.37289
519.21	8327.56141
519.418	8319.34602
519.625	8152.91663
519.832	8191.96728
520.039	8333.72275
520.247	8346.0449
520.454	8245.39339
520.661	8862.95836
520.868	8569.77664
521.076	8584.13701
521.283	8456.9129
521.49	8526.68999
521.697	8569.77664
521.904	8674.38121
522.112	8502.06529
522.319	8815.82851
522.526	8582.08559
522.733	8793.28477
522.94	8674.38121
523.147	8577.98268
523.354	8653.87433
523.561	8895.73873
523.768	8797.3838
523.975	8948.9971
524.183	8826.07494
524.39	8963.33384
524.597	9022.71971
524.804	9075.94971
525.011	8936.70777
525.218	8908.03019
525.425	9094.37275
525.632	9225.34096
525.838	9120.98134
526.045	9202.83576
526.252	9127.12137
526.459	9378.73161
526.666	9180.32851
526.873	9452.32623
527.08	9253.981
527.287	9393.04332
527.494	9399.17667
527.701	9636.22194
527.907	9163.95831
528.114	9683.19711
528.321	9401.22109
528.528	9658.68935
528.735	9654.60451
528.941	9626.00886
529.148	9143.49403
529.355	9703.61855
529.562	9636.22194
529.768	9689.3237
529.975	9650.5196
530.182	9909.79025
530.388	9460.50212
530.595	9705.66061
530.802	9397.13224
531.008	9866.93541
531.215	9864.89454
531.422	10095.42056
531.628	9864.89454
531.835	9717.91265
532.042	9907.74969
532.248	9948.55809
532.455	9764.8737
532.661	10066.86975
532.868	10036.27653
533.074	10323.72928
533.281	10052.59331
533.487	10401.15274
533.694	9975.08043
533.9	10270.74427
534.107	10050.55376
534.313	10362.44339
534.52	10315.57833
534.726	10289.08626
534.933	9993.44062
535.139	10297.23791
535.345	10195.32678
535.552	10366.51828
535.758	10427.63536
535.965	10382.81732
536.171	10305.38934
536.377	10317.61608
536.584	10395.04105
536.79	10486.70411
536.996	10657.73969
537.203	10505.03359
537.409	10562.05209
537.615	10775.78512
537.821	10590.55765
538.028	10859.20692
538.234	10694.37882
538.44	10667.91762
538.646	10564.08828
538.853	11192.70428
539.059	10735.08436
539.265	10844.96556
539.471	11001.58971
539.677	11007.6906
539.883	11084.95993
540.09	10981.25269
540.296	11166.27919
540.502	11294.32288
540.708	10832.75823
540.914	11312.61151
541.12	11247.58153
541.326	11452.79749
541.532	11225.22505
541.738	11204.89988
541.944	11251.64621
542.15	11479.20413
542.356	11458.89147
542.562	11215.06259
542.768	11404.04247
542.974	11412.16869
543.18	11629.48849
543.386	11929.9104
543.592	11645.73242
543.798	11619.33574
544.004	11586.8454
544.21	11489.3601
544.415	11475.14168
544.621	11532.01258
544.827	11767.54367
545.033	11779.72306
545.239	11550.29094
545.445	11970.4938
545.651	12078.0244
545.856	12000.92924
546.062	11968.46471
546.268	12165.25026
546.474	11895.41195
546.679	11619.33574
546.885	11753.33399
547.091	12029.33403
547.297	11749.274
547.502	11897.44133
547.708	11787.84247
547.914	12049.62223
548.119	12055.70854
548.325	12053.67978
548.531	11940.05655
548.736	12163.22191
548.942	11895.41195
549.147	11836.55611
549.353	12124.68183
549.559	12191.61814
549.764	12049.62223
549.97	12288.96579
550.175	12293.02158
550.381	12546.45463
550.586	12211.90028
550.792	12803.84163
550.997	12311.27231
551.203	12134.82422
551.408	12619.42454
551.614	12524.15665
551.819	12293.02158
552.025	12591.04831
552.23	12376.1592
552.435	12576.85974
552.641	12732.91768
552.846	12783.57835
553.052	12483.61288
553.257	12732.91768
553.462	12791.68373
553.668	12749.12948
553.873	12530.23799
554.078	12556.58982
554.283	12836.26172
554.489	13071.26679
554.694	12878.81095
554.899	12951.74702
555.105	12921.35782
555.31	12935.5396
555.515	12909.20181
555.72	12862.602
555.925	12619.42454
556.131	13298.10641
556.336	12876.78485
556.541	13409.48099
556.746	13061.13867
556.951	13269.75452
557.156	12880.83705
557.361	13190.76974
557.567	13371.00753
557.772	13192.79507
557.977	12955.79883
558.182	13283.93057
558.387	12860.57586
558.592	13160.38917
558.797	12994.28996
559.002	13318.35726
559.207	13292.03108
559.412	13219.12402
559.617	13265.70418
559.822	13356.83273
560.027	13237.35131
560.232	13512.74495
560.437	13213.04817
560.642	13298.10641
560.847	13371.00753
561.051	13729.36661
561.256	13567.4102
561.461	13737.46388
561.666	13646.36661
561.871	13658.51329
562.076	13526.91768
562.281	13611.95036
562.485	13411.50587
562.69	13846.77236
562.895	13638.26875
563.1	13703.05012
563.305	13508.69557
563.509	13765.80395
563.714	13273.80484
563.919	13781.99801
564.123	13692.92825
564.328	13844.74821
564.533	13676.73309
564.737	13607.90132
564.942	13585.63138
565.147	13998.57615
565.351	13889.27894
565.556	13666.61101
565.761	13798.19188
565.965	13978.33649
566.17	13607.90132
566.374	13919.64004
566.579	13810.33716
566.784	14168.58
566.988	13958.09658
567.193	14196.91248
567.397	13954.04857
567.602	13941.90447
567.806	14077.5085
568.011	14221.19714
568.215	14180.72254
568.42	13992.50428
568.624	13820.45814
568.828	14016.79163
569.033	14075.48464
569.237	14122.0329
569.442	14312.2622
569.646	14186.79378
569.85	14439.74744
570.055	14247.50521
570.259	14124.05671
570.463	14164.53247
570.668	14267.74198
570.872	14427.60626
571.076	14281.9076
571.281	14407.37083
571.485	14237.38676
571.689	14625.9062
571.893	14522.71082
572.098	14694.70153
572.302	14316.30946
572.506	14561.15652
572.71	14255.59994
572.914	14619.83596
573.119	14399.27662
573.323	14476.17067
573.527	14403.32373
573.731	14994.15326
573.935	14393.20594
574.139	14676.49111
574.343	14464.02965
574.547	14658.28062
574.751	14684.58464
574.955	14492.35863
575.159	14658.28062
575.364	14352.73441
575.568	14415.46502
575.772	14658.28062
575.976	14401.30017
576.18	14530.80469
576.383	14961.78067
576.587	15081.15422
576.791	14917.2682
576.995	15014.38608
577.199	15295.62111
577.403	14939.52446
577.607	14941.54776
577.811	15255.15559
578.015	14963.80396
578.219	15062.94475
578.422	15030.57232
578.626	15406.90189
578.83	14753.37906
579.034	15050.8051
579.238	15162.08509
579.442	15222.78322
579.645	15077.10768
579.849	15111.50331
580.053	15299.66767
580.257	14929.40799
580.46	14969.87383
580.664	15232.89958
580.868	15151.96873
581.071	15176.24798
581.275	15158.03855
581.479	15200.52723
581.682	15291.57455
581.886	15386.66894
582.09	15483.78753
582.293	15471.64764
582.497	15287.528
582.7	15637.56149
582.904	15501.9974
583.107	15437.2514
583.311	15540.44063
583.515	15520.20732
583.718	15356.31959
583.922	15402.85529
584.125	15421.06498
584.329	15524.25398
584.532	15512.11402
584.735	15791.34026
584.939	15566.74403
585.142	15742.77793
585.346	15477.71758
585.549	15669.93552
585.753	15758.96531
585.956	15663.86537
586.159	15417.01838
586.363	15673.98229
586.566	15706.35657
586.769	15659.81861
586.973	15746.82477
587.176	15671.9589
587.379	15722.54381
587.582	15969.40779
587.786	15708.37997
587.989	15910.72539
588.192	15935.00763
588.395	16295.21911
588.599	16228.43444
588.802	16311.40963
589.005	15601.14096
589.208	15872.27888
589.411	15864.18493
589.615	15748.84819
589.818	16062.4926
590.021	16307.36199
590.224	15961.3136
590.427	16422.72274
590.63	16279.02871
590.833	16633.22258
591.036	16200.10212
591.239	16386.29235
591.442	16272.95734
591.645	16457.12981
591.848	16649.41586
592.051	16586.66772
592.254	15955.24297
592.457	16349.8626
592.66	16163.67535
592.863	16343.79103
593.066	16368.07739
593.269	16473.32158
593.472	16586.66772
593.675	16576.54726
593.878	16499.63348
594.081	16442.96212
594.284	16544.16213
594.486	16787.06473
594.689	16564.40277
594.892	16544.16213
595.095	16750.62719
595.298	16635.24673
595.5	16653.4642
595.703	16880.18651
595.906	17131.23799
596.109	16983.43656
596.311	16635.24673
596.514	16811.35686
596.717	16766.82155
596.92	16888.28431
597.122	16803.25944
597.325	17068.47121
597.528	17102.89137
597.73	17171.73413
597.933	16849.82013
598.136	17281.07945
598.338	17175.7838
598.541	17461.31579
598.743	17167.68446
598.946	16805.28379
599.148	17080.61941
599.351	17236.53033
599.554	17382.33284
599.756	17056.32311
599.959	17218.3061
600.161	16977.36284
600.363	17102.89137
600.566	17056.32311
600.768	17119.08937
600.971	17240.58019
601.173	17034.05185
601.376	17301.32953
601.578	17412.71034
601.78	17123.1389
601.983	17266.90458
602.185	17321.5799
602.388	17297.27949
602.59	17467.3916
602.792	17349.93094
602.995	17034.05185
603.197	16900.43109
603.399	17313.47972
603.601	17356.00623
603.804	17351.95603
604.006	17353.98113
604.208	17285.12944
604.41	17424.86154
604.613	17489.6698
604.815	17281.07945
605.017	17422.83633
605.219	17392.4586
605.421	17526.12587
605.623	17515.99908
605.826	17746.91006
606.028	17307.40461
606.23	17366.13179
606.432	17327.65508
606.634	17568.65926
606.836	17165.65963
607.038	17680.06301
607.24	17544.35429
607.442	17807.6833
607.644	17673.98619
607.846	18247.37027
608.048	17576.76102
608.25	17578.78647
608.452	17183.88319
608.654	17649.67919
608.856	17434.98762
609.058	17528.15124
609.26	17347.90584
609.462	17337.78042
609.664	17293.22946
609.866	17321.5799
610.067	17372.20716
610.269	17360.05645
610.471	17252.72985
610.673	17748.93579
610.875	17558.53213
611.077	17639.55141
611.278	17392.4586
611.48	17963.68209
611.682	17578.78647
611.884	17655.75589
612.085	17801.60583
612.287	17919.1089
612.489	17817.81247
612.69	17892.77099
612.892	17684.11424
613.094	17661.83263
613.295	17266.90458
613.497	17238.55526
613.699	17564.6084
613.9	17704.37061
614.102	17740.83291
614.304	17661.83263
614.505	17455.24001
614.707	17469.41688
614.908	17378.28256
615.11	17913.03087
615.311	17607.14307
615.513	17710.44758
615.714	17463.34106
615.916	17720.57594
616.117	17305.37958
616.319	17688.16549
616.52	17570.68469
616.722	17888.71906
616.923	18006.23082
617.124	17718.55026
617.326	17544.35429
617.527	17791.4768
617.729	17615.24508
617.93	17799.58002
618.131	17917.08289
618.333	17690.19112
618.534	17552.4559
618.735	17906.95287
618.937	17538.27812
619.138	17736.78149
619.339	17360.05645
619.54	17771.21899
619.742	17676.01179
619.943	17441.0633
620.144	17356.00623
620.345	17556.50672
620.546	17702.34496
620.748	18172.38861
620.949	17848.20049
621.15	18192.65343
621.351	18103.49097
621.552	17990.0216
621.753	18077.14886
621.954	18233.18416
622.155	17734.75578
622.356	18184.54746
622.558	18038.64995
622.759	17906.95287
622.96	17528.15124
623.161	17823.89001
623.362	17582.83737
623.563	17957.60383
623.764	17917.08289
623.965	17787.42521
624.166	17815.78662
624.366	18026.49267
624.567	17748.93579
624.768	18012.30934
624.969	17906.95287
625.17	17941.39528
625.371	17797.55421
625.572	17866.43367
625.773	17611.19407
625.973	18190.62693
626.174	17655.75589
626.375	18022.44027
626.576	17864.40775
626.777	17947.47346
626.977	18046.75488
627.178	18190.62693
627.379	17992.04774
627.58	18198.73294
627.78	17834.01931
627.981	17957.60383
628.182	17898.84892
628.382	18069.04372
628.583	18032.5713
628.784	18050.80736
628.984	17807.6833
629.185	18083.22776
629.386	18241.29049
629.586	18389.24139
629.787	18180.49449
629.987	18285.87633
630.188	18146.0449
630.388	18241.29049
630.589	17791.4768
630.79	18204.81249
630.99	17831.99345
631.191	18289.92968
631.391	18121.72817
631.591	17866.43367
631.792	17819.83831
631.992	18103.49097
632.193	18030.54508
632.393	18087.28037
632.594	18139.96567
632.794	18413.56401
632.994	18287.90301
633.195	18117.67543
633.395	18198.73294
633.595	18336.54426
633.796	18099.4383
633.996	18322.357
634.196	18239.2639
634.397	18448.02198
634.597	17965.70819
634.797	18253.45009
634.997	18069.04372
635.198	18109.57
635.398	18164.28279
635.598	18180.49449
635.798	18036.62373
635.998	18077.14886
636.199	18016.3617
636.399	18091.333
636.599	17789.45101
636.799	18334.5175
636.999	18133.88647
637.199	17973.8126
637.399	18091.333
637.599	18188.60043
637.799	18024.46647
637.999	18441.94108
638.199	18454.10292
638.399	18683.17668
638.599	18502.75162
638.799	18518.96835
638.999	18379.10713
639.199	18433.83327
639.399	18281.823
639.599	18478.42699
639.799	18571.67442
639.999	18486.53514
640.199	18123.75454
640.399	18166.30924
640.599	17718.55026
640.799	18553.42972
640.998	18358.83889
641.198	18326.41049
641.398	18322.357
641.598	18821.05045
641.798	18693.31383
641.997	18654.79316
642.197	18452.07593
642.397	18533.15819
642.597	18456.1299
642.796	18460.18388
642.996	18452.07593
643.196	18634.5197
643.395	18334.5175
643.595	18673.03962
643.795	18334.5175
643.994	18587.8922
644.194	18368.97296
644.394	18628.43773
644.593	18520.99546
644.793	18774.41462
644.992	18695.34128
645.192	18419.64475
645.392	18537.21246
645.591	18666.95743
645.791	18774.41462
645.99	18829.16124
646.19	18464.23788
646.389	18486.53514
646.589	18709.53349
646.788	18567.62001
646.987	18144.01848
647.187	18626.41042
647.386	18148.07132
647.586	18385.18768
647.785	18352.75849
647.984	18401.40263
648.184	18585.86496
648.383	18958.94261
648.582	18634.5197
648.782	19072.51485
648.981	18796.71845
649.18	18727.7809
649.38	19080.62764
649.579	19080.62764
649.778	18969.08248
649.977	19046.14874
650.177	18892.02204
650.376	19001.53072
650.575	18664.93005
650.774	18725.75339
650.973	18630.46505
651.173	18460.18388
651.372	18531.13106
651.571	19151.61732
651.77	18877.82733
651.969	18962.99855
652.168	18885.93857
652.367	19019.78331
652.566	19017.75522
652.765	19096.85341
652.964	18768.33185
653.163	18900.13339
653.362	18920.41205
653.561	18658.84791
653.76	18233.18416
653.959	18555.45689
654.158	18770.35943
654.357	18713.58844
654.556	18387.21453
654.755	18985.30647
654.954	18602.08296
655.153	18794.69081
655.352	18675.06702
655.551	18788.60791
655.749	19046.14874
655.948	18954.8867
656.147	18537.21246
656.346	19111.05118
656.545	18415.59092
656.743	18717.64341
656.942	19285.49722
657.141	19070.48666
657.34	18894.04987
657.538	19029.92377
657.737	19230.72601
657.936	19198.27041
658.135	19038.03622
658.333	19194.21354
658.532	18934.60735
658.731	19078.59944
658.929	19133.36236
659.128	18634.5197
659.326	18689.25896
659.525	19013.69907
659.724	18516.94125
659.922	19102.93815
660.121	18869.71616
660.319	18881.88294
660.518	18835.24437
660.716	18853.494
660.915	19068.45848
661.113	19263.18267
661.312	18857.54951
661.51	19149.58898
661.709	19216.52656
661.907	19011.671
662.105	18626.41042
662.304	19255.0684
662.502	19482.29271
662.701	19283.46861
662.899	19165.81586
663.097	19133.36236
663.296	19275.35418
663.494	19214.49808
663.692	18958.94261
663.891	19125.24914
664.089	18776.44222
664.287	18808.88438
664.485	18768.33185
664.684	18991.39053
664.882	18648.71108
665.08	18810.91204
665.278	19070.48666
665.476	18827.13353
665.675	18768.33185
665.873	18806.85671
666.071	18934.60735
666.269	18991.39053
666.467	18944.74698
666.665	18910.27267
666.863	18646.68373
667.061	18881.88294
667.259	18569.64721
667.457	18831.18895
667.655	18336.54426
667.853	18370.99979
668.051	18523.02257
668.249	18671.01222
668.447	18533.15819
668.645	18407.4833
668.843	18956.91465
669.041	19021.81139
669.239	18466.26489
669.437	18859.57728
669.635	18885.93857
669.833	19052.23316
670.031	18683.17668
670.229	18733.86344
670.426	18875.79953
670.624	18746.02863
670.822	18271.68973
671.02	18800.77374
671.218	18630.46505
671.415	18310.19665
671.613	17963.68209
671.811	18342.62457
672.009	18512.88705
672.206	18983.27845
672.404	18429.77939
672.602	18506.80578
672.799	18691.28639
672.997	19066.4303
673.195	18952.85875
673.392	19038.03622
673.59	19058.31763
673.788	18697.36872
673.985	18648.71108
674.183	18760.22153
674.38	18561.53843
674.578	19082.65585
674.775	18731.83592
674.973	18894.04987
675.17	18977.19444
675.368	18975.16644
675.565	18577.75606
675.763	18614.24662
675.96	18255.4767
676.158	18178.46802
676.355	18310.19665
676.553	18458.15689
676.75	18083.22776
676.947	18478.42699
677.145	18253.45009
677.342	18806.85671
677.539	18478.42699
677.737	18541.26675
677.934	18581.8105
678.131	18825.10583
678.329	18373.02662
678.526	18419.64475
678.723	18462.21088
678.92	18257.50331
679.118	17915.05688
679.315	17888.71906
679.512	18026.49267
679.709	17937.34318
679.906	17852.25228
680.104	18156.17702
680.301	18060.93864
680.498	17921.13492
680.695	17625.37266
680.892	18296.00973
681.089	18223.05134
681.286	18407.4833
681.483	17769.19323
681.68	18109.57
681.877	18176.44155
682.075	17878.58929
682.272	18168.33569
682.469	18610.19205
682.665	18267.63645
682.862	18235.21074
683.059	18156.17702
683.256	18340.59779
683.453	18117.67543
683.65	18328.43723
683.847	18107.54366
684.044	17882.64119
684.241	17817.81247
684.438	18081.20145
684.635	17840.09694
684.831	18312.22336
685.028	18233.18416
685.225	18182.52097
685.422	17864.40775
685.619	17904.92688
685.815	17965.70819
686.012	18144.01848
686.209	17702.34496
686.405	18243.31708
686.602	17803.63165
686.799	17898.84892
686.996	17789.45101
687.192	17866.43367
687.389	17611.19407
687.586	17825.91586
687.782	17706.39626
687.979	17882.64119
688.175	16977.36284
688.372	17761.09021
688.568	17730.70438
688.765	17848.20049
688.962	17706.39626
689.158	17544.35429
689.355	17726.653
689.551	17629.42371
689.748	17556.50672
689.944	17588.91375
690.14	17485.61919
690.337	17568.65926
690.533	17497.77106
690.73	17613.21957
690.926	17736.78149
691.123	17607.14307
691.319	17451.18951
691.515	17592.96469
691.712	17305.37958
691.908	17524.10051
692.104	17408.65997
692.301	17495.74574
692.497	17485.61919
692.693	17319.55485
692.889	17339.8055
693.086	17370.18204
693.282	17546.37969
693.478	17688.16549
693.674	17580.81192
693.87	17791.4768
694.067	17281.07945
694.263	17520.04979
694.459	16776.94311
694.655	17299.30451
694.851	17200.0821
695.047	17479.5433
695.243	17487.6445
695.439	17366.13179
695.635	17378.28256
695.831	17420.81113
696.027	17467.3916
696.224	17337.78042
696.42	17351.95603
696.615	17451.18951
696.811	16878.16207
697.007	17094.79244
697.203	16884.23541
697.399	16681.80285
697.595	17003.68247
697.791	17046.19977
697.987	16851.84454
698.183	16953.06819
698.379	16653.4642
698.575	16926.74942
698.77	17001.65787
698.966	17135.28755
699.162	16951.04365
699.358	17187.9329
699.554	16926.74942
699.749	16985.46114
699.945	16617.02945
700.141	16756.70006
700.337	16799.21075
700.532	16969.26458
700.728	17092.76771
700.924	17027.97792
701.119	16819.45431
701.315	16661.56091
701.511	16841.72252
701.706	16872.08875
701.902	16876.13763
702.097	16750.62719
702.293	16866.01546
702.489	16521.89768
702.684	16702.04502
702.88	16704.06925
703.075	16831.60057
703.271	16691.9239
703.466	16388.31624
703.662	16955.09273
703.857	16582.61953
704.053	16738.48152
704.248	16683.82705
704.443	16837.67373
704.639	16734.43298
704.834	16987.48572
705.03	16523.92171
705.225	16691.9239
705.42	16461.17774
705.616	17040.12579
705.811	16693.94812
706.006	16843.74692
706.202	16738.48152
706.397	16287.1239
706.592	16659.53673
706.787	16637.27089
706.983	16679.77864
707.178	16519.87365
707.373	16556.30649
707.568	16418.67489
707.763	16230.45819
707.959	16487.48948
708.154	16442.96212
708.349	16517.84962
708.544	16465.22568
708.739	16295.21911
708.934	15979.52556
709.129	16283.0763
709.324	16104.98888
709.519	16374.14903
709.714	16090.82338
709.909	16572.49908
710.104	16766.82155
710.299	16262.83842
710.494	16366.05352
710.689	16206.1733
710.884	16305.33817
711.079	16234.50569
711.274	16028.09134
711.469	16236.52945
711.664	15847.9971
711.859	16155.58058
712.054	16145.46216
712.249	15767.05902
712.443	15773.12932
712.638	15823.71549
712.833	15785.26994
713.028	16019.99699
713.223	15795.38715
713.417	16210.22077
713.612	16036.18572
713.807	16159.62796
714.002	16058.44537
714.196	16283.0763
714.391	16026.06775
714.586	16382.24457
714.78	16323.5526
714.975	16074.63432
715.17	15647.67835
715.364	16064.51622
715.559	16317.48111
715.754	15673.98229
715.948	15639.58486
716.143	15655.77185
716.337	15769.08245
716.532	16060.46898
716.726	15767.05902
716.921	15987.6198
717.115	15597.09425
717.31	15659.81861
717.504	15673.98229
717.699	15803.48094
717.893	15544.4873
718.088	15930.96057
718.282	15694.21619
718.476	15455.46115
718.671	15378.57577
718.865	15542.46396
719.059	15536.39396
719.254	15700.28638
719.448	15348.22644
719.642	15330.01688
719.837	14901.08179
720.031	15141.85238
720.225	15236.94612
720.419	15083.1775
720.614	14973.9204
720.808	15742.77793
721.002	15291.57455
721.196	15433.20479
721.39	15245.03922
721.585	15366.43603
721.779	15512.11402
721.973	15510.09069
722.167	15247.06249
722.361	15342.15658
722.555	15176.24798
722.749	14919.2915
722.943	15018.43265
723.137	14903.10509
723.331	14880.84873
723.525	14977.96698
723.719	14927.38469
723.913	15309.78407
724.107	15346.20316
724.301	15481.76421
724.495	15030.57232
724.689	15404.87859
724.883	15050.8051
725.077	14973.9204
725.271	15014.38608
725.465	14901.08179
725.659	14911.1983
725.853	14929.40799
726.046	14982.01355
726.24	15334.06345
726.434	14793.84592
726.628	15006.29296
726.822	14591.50808
727.015	15164.10836
727.209	14909.175
727.403	15087.22404
727.596	14830.26585
727.79	15145.89892
727.984	15020.45593
728.177	15220.75994
728.371	15081.15422
728.565	14957.73409
728.758	15095.31714
728.952	14739.21559
729.146	14870.73219
729.339	15145.89892
729.533	14921.3148
729.726	14986.06012
729.92	14682.56126
730.113	14884.89535
730.307	14783.72923
730.5	14870.73219
730.694	14982.01355
730.887	14716.95861
731.081	14890.96527
731.274	14761.47246
731.468	14741.23894
731.661	15170.17817
731.854	14771.58918
732.048	14472.12367
732.241	14488.31165
732.435	15014.38608
732.628	14870.73219
732.821	14712.91188
733.014	14797.89259
733.208	14423.55918
733.401	14759.44911
733.594	14516.64041
733.788	14528.78123
733.981	14731.12215
734.174	14710.88851
734.367	14901.08179
734.56	15018.43265
734.754	14903.10509
734.947	14892.98857
735.14	14767.5425
735.333	14917.2682
735.526	14911.1983
735.719	14741.23894
735.912	14480.21767
736.105	14350.71081
736.298	14492.35863
736.491	14765.51915
736.684	14870.73219
736.877	14577.34405
737.07	14712.91188
737.263	14890.96527
737.456	14816.10257
737.649	14749.33236
737.842	14585.43779
738.035	14761.47246
738.228	14613.76572
738.421	14937.50117
738.614	14731.12215
738.807	14860.61562
739	14698.74828
739.192	14569.25029
739.385	14482.24117
739.578	14265.71831
739.771	14779.68255
739.964	14512.59346
740.156	14557.10962
740.349	13915.59193
740.542	14441.77096
740.735	14107.86616
740.927	14522.71082
741.12	14304.16768
741.313	14441.77096
741.505	14441.77096
741.698	14000.6001
741.891	14287.97855
742.083	14431.65332
742.276	14257.62362
742.468	14316.30946
742.661	14334.522
742.854	14498.42909
743.046	14093.69932
743.239	14277.86029
743.431	13976.31251
743.624	13492.49789
743.816	13725.31795
744.009	13820.45814
744.201	13952.02456
744.393	14113.93763
744.586	14051.19812
744.778	14002.62405
744.971	13893.32712
745.163	14360.82876
745.355	13883.20665
745.548	14012.74376
745.74	14049.17423
745.932	14132.15193
746.125	14174.65128
746.317	14294.04949
746.509	14178.69879
746.702	14255.59994
746.894	14132.15193
747.086	13856.89309
747.278	13796.16766
747.471	13968.21657
747.663	13680.7819
747.855	13877.13433
748.047	13636.24428
748.239	13836.65156
748.431	13996.5522
748.623	13956.07258
748.815	14032.98301
749.008	13919.64004
749.2	13792.1192
749.392	13873.0861
749.584	13719.24494
749.776	13958.09658
749.968	13474.27522
750.16	13713.17191
750.352	13804.26453
750.544	13931.78431
750.736	13976.31251
750.928	13834.6274
751.12	13844.74821
751.311	13646.36661
751.503	13682.8063
751.695	14059.29366
751.887	13678.7575
752.079	13804.26453
752.271	13711.14756
752.463	14043.10254
752.654	13850.82066
752.846	13753.65828
753.038	13492.49789
753.23	13350.75775
753.421	13885.23075
753.613	13601.82774
753.805	13318.35726
753.997	13362.90767
754.188	13595.75413
754.38	13569.43479
754.572	13982.38444
754.763	13947.97653
754.955	13642.31769
755.146	13561.33642
755.338	13557.28721
755.53	13816.40976
755.721	13636.24428
755.913	13581.58225
756.104	13559.31181
756.296	13557.28721
756.487	13105.70152
756.679	13287.98083
756.87	13150.26208
757.062	13148.23665
757.253	13138.10942
757.445	13172.54152
757.636	13156.33834
757.827	13304.18171
758.019	13403.40633
758.21	13073.29241
758.401	12759.26168
758.593	12927.43576
758.784	12714.67896
758.975	12550.50872
759.167	12657.93324
759.358	12730.89118
759.549	12880.83705
759.74	12955.79883
759.932	13032.77927
760.123	13152.28751
760.314	12903.12374
760.505	12872.73264
760.696	12422.79234
760.888	12574.83277
761.079	12617.39771
761.27	12382.24199
761.461	12684.28004
761.652	12532.26509
761.843	12412.65501
762.034	12615.37087
762.225	12035.42058
762.416	12485.64013
762.607	12039.47823
762.798	12363.99345
762.989	12175.3919
763.18	12408.60002
763.371	12469.42195
763.562	12479.55836
763.753	12264.63043
763.944	12386.29715
764.135	12457.25804
764.326	12526.18377
764.517	12238.26596
764.708	12591.04831
764.899	12224.06921
765.089	12554.5628
765.28	12228.12546
765.471	12341.68892
765.662	12118.59631
765.853	12463.34002
766.043	12359.93814
766.234	12335.60572
766.425	11755.36397
766.615	11885.26489
766.806	11919.76404
766.997	12278.82618
767.187	12013.10291
767.378	12416.70996
767.569	12029.33403
767.759	11773.6334
767.95	11905.5588
768.141	11986.72626
768.331	11710.70238
768.522	11883.23545
768.712	12149.02325
768.903	12084.11038
769.093	12007.01611
769.284	11919.76404
769.474	11676.18823
769.665	11806.11067
769.855	11708.67221
770.046	11692.4305
770.236	11271.969
770.426	11261.80773
770.617	11440.60926
770.807	11347.15446
770.998	11659.94538
771.188	11582.78394
771.378	11497.48471
771.569	11507.64025
771.759	11578.72245
771.949	11489.3601
772.139	11558.41442
772.33	11276.03343
772.52	11048.36064
772.71	11290.25863
772.9	11241.48443
773.09	11444.67204
773.281	11481.23534
773.471	11180.5083
773.661	11198.80213
773.851	11147.98384
774.041	11263.84
774.231	11357.31361
774.421	11117.48969
774.611	11145.95097
774.802	10905.99598
774.992	11147.98384
775.182	11015.82496
775.372	11084.95993
775.562	10863.27578
775.752	11086.99312
775.942	10547.79839
776.131	11385.75788
776.321	11066.66073
776.511	10895.82496
776.701	10879.55074
776.891	10912.09845
777.081	10869.37897
777.271	10529.47131
777.461	10293.16211
777.651	10692.34342
777.84	10366.51828
778.03	10572.23293
778.22	10617.0249
778.41	10905.99598
778.599	10671.98871
778.789	10417.45
778.979	10496.88728
779.169	10704.55566
779.358	10938.54132
779.548	10897.85919
779.738	10708.62631
779.927	10610.91726
780.117	10889.72221
780.307	10580.37737
780.496	10419.4871
780.686	10452.07892
780.875	10401.15274
781.065	10368.55571
781.254	10252.40119
781.444	10529.47131
781.633	10600.73761
781.823	10480.59405
782.012	10223.86532
782.202	10456.15266
782.391	10087.26347
782.581	10309.46497
782.77	10325.76698
782.96	10509.10667
783.149	10015.87926
783.338	10270.74427
783.528	9985.28068
783.717	10278.8964
783.906	10060.75136
784.096	10219.78855
784.285	10132.12468
784.474	9928.15462
784.663	9826.11521
784.853	9750.58205
785.042	9681.15488
785.231	9707.70265
785.42	10009.7598
785.61	9901.62792
785.799	9919.99282
785.988	10160.66921
786.177	9781.20609
786.366	10015.87926
786.555	10009.7598
786.744	9775.08156
786.933	9583.10967
787.122	9956.71907
787.312	9895.50602
787.501	9911.83079
787.69	9748.54033
787.879	10138.2416
788.068	9828.15637
788.257	9721.99654
788.445	9779.1646
788.634	9881.22108
788.823	9789.37193
789.012	10038.31618
789.201	9934.27581
789.39	9799.57888
789.579	9617.83812
789.768	9734.24784
789.957	9423.7086
790.145	9660.73175
790.334	9644.39213
790.523	9341.92635
790.712	9446.19415
790.9	9591.28147
791.089	9382.82075
791.278	9364.41908
791.467	9149.63349
791.655	9509.55202
791.844	9384.8653
792.033	9419.62011
792.221	9223.29512
792.41	9337.83655
792.599	8981.76552
792.787	9487.07196
792.976	9380.77619
793.164	9292.84437
793.353	9131.21463
793.541	9431.88539
793.73	9219.20338
793.918	9411.44293
794.107	8756.39026
794.295	8983.81339
794.484	8963.33384
794.672	9037.05202
794.861	9047.28886
795.049	9100.51345
795.238	9059.5725
795.426	9018.6246
795.614	8928.51453
795.803	9045.24153
795.991	9159.86559
796.179	9022.71971
796.368	8969.47789
796.556	9120.98134
796.744	9004.29119
796.932	9102.56032
797.121	8920.32101
797.309	8914.17568
797.497	8647.72191
797.685	8899.83596
797.874	8946.94892
798.062	8989.95692
798.25	8508.22172
798.438	8625.16158
798.626	8627.21261
798.814	8614.90614
799.002	8549.26023
799.19	8534.89761
799.378	8645.67106
799.566	8660.02659
799.755	8249.50254
799.943	8569.77664
800.131	8703.08773
800.318	8536.94947
800.506	8436.38603
800.694	8805.58163
800.882	8391.22014
801.07	8600.54774
801.258	8428.17474
801.446	8709.23866
801.634	8358.36635
801.822	8300.86025
802.01	8150.86114
802.197	8309.07634
802.385	8031.60797
802.573	8526.68999
802.761	8298.80617
802.949	8514.37798
803.136	8321.3999
803.324	8586.18842
803.512	8485.64731
803.699	8473.33302
803.887	8571.82818
804.075	8378.90055
804.262	8551.31195
804.45	8393.27334
804.638	8573.8797
804.825	8764.58955
805.013	8666.17868
805.201	8780.98726
805.388	8588.23981
805.576	8916.22414
805.763	8575.9312
805.951	8590.29118
806.138	8378.90055
806.326	8432.28043
806.513	8255.66612
806.701	8452.80768
806.888	8508.22172
807.075	8584.13701
807.263	8370.68711
807.45	8746.14074
807.638	8577.98268
807.825	8549.26023
808.012	8444.59701
808.2	8370.68711
808.387	8430.2276
808.574	8469.22811
808.761	8259.77507
808.949	8619.00837
809.136	8405.59212
809.323	8549.26023
809.51	8270.0471
809.698	8575.9312
809.885	8399.43282
810.072	8409.69823
810.259	8309.07634
810.446	8625.16158
810.633	8263.88394
810.82	8819.92714
811.008	8655.9251
811.195	8553.36366
811.382	8473.33302
811.569	8666.17868
811.756	8506.1696
811.943	8670.27998
812.13	8403.53904
812.317	8633.3656
812.504	8473.33302
812.691	8877.30034
812.878	8596.44517
813.064	8469.22811
813.251	8707.18837
813.438	8772.78855
813.625	8471.28058
813.812	8600.54774
813.999	8536.94947
814.186	8444.59701
814.372	8280.31864
814.559	8214.57227
814.746	7959.61191
814.933	8325.50759
815.12	8440.49156
815.306	8456.9129
815.493	8592.34253
815.68	8551.31195
815.866	8354.25928
816.053	8686.68445
816.24	8378.90055
816.426	8707.18837
816.613	8329.61521
816.799	8594.39386
816.986	8623.11053
817.173	8534.89761
817.359	8485.64731
817.546	8440.49156
817.732	8475.38545
817.919	8674.38121
818.105	8625.16158
818.292	8686.68445
818.478	8477.43786
818.665	8530.79384
818.851	8563.62192
819.037	8575.9312
819.224	8290.58969
819.41	8154.97211
819.597	7959.61191
819.783	8052.1737
819.969	8039.83451
820.156	8058.34303
820.342	7922.57561
820.528	8101.52321
820.714	7984.29909
820.901	8087.13081
821.087	8126.19362
821.273	8339.88391
821.459	8272.10144
821.646	8575.9312
821.832	8218.68201
822.018	8608.75265
822.204	8037.77791
822.39	8368.6337
822.576	8212.51737
822.762	8105.63515
822.948	7934.92178
823.134	8329.61521
823.32	7821.72074
823.507	8159.083
823.693	7914.34442
823.879	8021.32435
824.065	7895.82303
824.25	8181.69149
824.436	7887.59077
824.622	8017.21076
824.808	7784.65949
824.994	7762.00762
825.18	7343.51603
825.366	7774.3635
825.552	7617.79969
825.738	7698.15687
825.923	7568.33305
826.109	7621.92136
826.295	7574.51705
826.481	7403.35487
826.667	7531.22498
826.852	7661.07295
827.038	7522.97779
827.224	7860.83363
827.409	7479.67444
827.595	7813.48549
827.781	7199.00146
827.966	7403.35487
828.152	7324.94162
828.338	7580.70086
828.523	7114.3069
828.709	7522.97779
828.894	7308.42954
829.08	7566.27167
829.266	7269.20772
829.451	7494.10995
829.637	7304.3013
829.822	7327.00553
830.008	7199.00146
830.193	7500.29627
830.378	7376.53283
830.564	7749.65099
830.749	7248.56147
830.935	7444.61238
831.12	7221.71805
831.305	7370.3426
831.491	7209.32752
831.676	7362.08867
831.861	7134.96756
832.047	7384.78616
832.232	6895.16609
832.417	7184.54406
832.602	7019.23909
832.788	7192.80557
832.973	7075.04551
833.158	7298.10878
833.343	7128.7696
833.528	7316.68575
833.714	6822.75253
833.899	7048.17779
834.084	6814.47492
834.269	7122.57143
834.454	7122.57143
834.639	7293.98032
834.824	7132.9016
835.009	7215.52288
835.194	7182.47863
835.379	7432.23604
835.564	6797.9186
835.749	6998.5659
835.934	7089.51117
836.119	7114.3069
836.304	6990.29599
836.489	7037.84305
836.674	6911.71386
836.859	6841.37582
837.044	6634.34634
837.228	7029.57485
837.413	6499.65381
837.598	6973.75509
837.783	6565.97618
837.968	6911.71386
838.152	6422.93895
838.337	6708.90335
838.522	6514.16385
838.707	6735.8194
838.891	6557.68718
839.076	6553.54254
839.261	6536.96306
839.445	6584.62508
839.63	6379.38391
839.815	6818.61377
839.999	6578.40899
840.184	6762.73158
840.368	6495.50787
840.553	6866.20401
840.737	6433.30768
840.922	6607.41564
841.106	6532.81796
841.291	6526.60013
841.475	6522.4548
841.66	6541.10807
841.844	6414.64354
842.029	6597.05664
842.213	6422.93895
842.397	6456.11684
842.582	6124.06886
842.766	6337.89337
842.951	6119.91447
843.135	6065.89877
843.319	6200.90823
843.504	6194.67921
843.688	6090.83107
843.872	6101.21852
844.056	6132.37737
844.241	6155.22383
844.425	6126.14603
844.609	6148.99326
844.793	5903.75616
844.977	6132.37737
845.161	5959.89867
845.346	6148.99326
845.53	5982.76662
845.714	6011.86716
845.898	5701.91708
846.082	5991.08153
846.266	5737.30699
846.45	5885.03817
846.634	5714.40841
846.818	5934.94857
847.002	5976.53019
847.186	6107.45072
847.37	5758.12139
847.554	6045.11926
847.738	5814.3085
847.922	6117.83723
848.106	5903.75616
848.29	5887.11804
848.473	5951.58235
848.657	5986.92412
848.841	5743.55156
849.025	6051.35336
849.209	5670.68503
849.392	5745.63303
849.576	5701.91708
849.76	5585.29033
849.944	5428.97802
850.127	5924.55169
850.311	5458.16637
850.495	5574.87363
850.678	5493.60316
850.862	5572.79022
851.046	5295.48697
851.229	5516.52923
851.413	5393.52883
851.596	5535.2848
851.78	5301.74651
851.964	5447.74249
852.147	5216.18128
852.331	5372.6732
852.514	5360.1587
852.698	5485.26571
852.881	5368.50179
853.065	5449.82731
853.248	5280.88057
853.431	5349.7293
853.615	5143.10675
853.798	5514.44516
853.982	5161.90007
854.165	5443.57277
854.348	5168.16409
854.532	5224.53084
854.715	5065.82557
854.898	4944.61836
855.081	4630.79465
855.265	4952.97996
855.448	4881.89459
855.631	4982.24269
855.814	5030.30736
855.997	4955.07031
856.181	4764.75521
856.364	5122.22308
856.547	4998.96222
856.73	5065.82557
856.913	4798.23089
857.096	4940.43741
857.279	4869.34737
857.462	4971.79223
857.645	4681.04067
857.828	5019.85956
858.011	4676.854
858.194	4980.15265
858.377	4915.34984
858.56	5184.86712
858.743	4992.69257
858.926	5155.63584
859.109	4733.3665
859.292	4919.53133
859.475	4764.75521
859.658	4831.70075
859.841	4473.69304
860.023	4865.16477
860.206	4691.50696
860.389	4892.34999
860.572	4557.49611
860.755	4706.15883
860.937	4528.16906
861.12	4593.10167
861.303	4444.35363
861.486	4555.40146
861.668	4400.33646
861.851	4748.0152
862.034	4350.01936
862.216	4519.7891
862.399	4282.9105
862.581	4358.40641
862.764	4119.24105
862.947	4639.16988
863.129	4102.44719
863.312	4329.05021
863.494	4052.05761
863.677	4094.04975
863.859	4161.21984
864.042	4240.95629
864.224	3785.21721
864.406	4295.49509
864.589	4087.75146
864.771	4186.40308
864.954	4016.35778
865.136	4054.15741
865.318	3926.0318
865.501	4188.50154
865.683	3833.5666
865.865	4039.45835
866.048	4020.55807
866.23	4108.74504
866.412	4150.72593
866.594	4102.44719
866.777	4033.15844
866.959	4226.2703
867.141	3923.93075
867.323	4007.95695
867.505	3757.88471
867.687	4209.48503
867.869	3938.63768
868.052	4104.54649
868.234	4112.94351
868.416	4112.94351
868.598	3871.39795
868.78	3810.44428
868.962	3869.29638
869.144	4140.23149
869.326	3730.54891
869.508	3875.60103
869.69	3682.17759
869.872	3728.44603
870.054	3564.3619
870.236	3591.71722
870.417	3759.98733
870.599	3902.91914
870.781	3543.31721
870.963	3774.7051
871.145	3656.93636
871.327	3854.58481
871.508	3492.80247
871.69	3661.14342
871.872	3539.10805
872.054	3949.14203
872.235	3650.62562
872.417	4106.64578
872.599	3667.45387
872.78	3942.83948
872.962	3724.24019
873.144	3728.44603
873.325	3541.21264
873.507	3986.95346
873.689	3635.89991
873.87	3892.41258
874.052	3766.29506
874.233	3913.4252
874.415	3701.10671
874.596	3804.13778
874.778	3347.51483
874.959	3732.65178
875.141	3623.27713
875.322	3915.52635
875.503	3480.17214
875.685	3665.35041
875.866	3364.36409
876.048	3587.50891
876.229	3358.04575
876.41	3389.63587
876.592	3288.53373
876.773	3574.88355
876.954	3309.59996
877.136	3612.75763
877.317	3616.96548
877.498	3572.77926
877.679	3440.17181
877.86	3635.89991
878.042	3570.67495
878.223	3913.4252
878.404	3566.46627
878.585	3558.04869
878.766	3488.59243
878.947	3781.01243
879.128	3353.83343
879.309	3652.72922
879.49	3446.48809
879.672	3799.93335
879.853	3345.4086
880.034	3774.7051
880.215	3709.51915
880.396	3606.4457
880.576	3488.59243
880.757	3923.93075
880.938	3473.85673
881.119	3732.65178
881.3	3499.11739
881.481	3732.65178
881.662	3309.59996
881.843	3576.98782
882.023	3431.74987
882.204	3646.41837
882.385	3454.90953
882.566	3789.42192
882.747	3568.57062
882.927	3644.31471
883.108	3522.27068
883.289	3614.86157
883.469	3429.64434
883.65	3736.85747
883.831	3621.17327
884.011	3699.00355
884.192	3286.42702
884.373	3417.01078
884.553	3248.50323
884.734	3539.10805
884.914	3269.57267
885.095	3572.77926
885.275	3315.91949
885.456	3566.46627
885.636	3532.79418
885.817	3585.40473
885.997	3372.7883
886.178	3452.8042
886.358	3469.64637
886.538	3635.89991
886.719	3741.06307
886.899	3871.39795
887.08	3509.64189
887.26	3699.00355
887.44	3595.92545
887.621	3724.24019
887.801	3433.85538
887.981	3503.32724
888.161	3480.17214
888.342	3583.30053
888.522	3305.38685
888.702	3522.27068
888.882	3404.37658
889.062	3751.57674
889.242	3513.85156
889.423	3715.82828
889.603	3534.89882
889.783	3894.51393
889.963	3524.37542
890.143	3835.66851
890.323	3450.69884
890.503	3673.76415
890.683	3482.27724
890.863	3680.07426
891.043	3505.43214
891.223	3709.51915
891.403	3463.33069
891.583	3661.14342
891.763	3694.79718
891.943	3650.62562
892.122	3488.59243
892.302	3532.79418
892.482	3549.63081
892.662	3360.15188
892.842	3391.74174
893.022	3600.13361
893.201	3598.02954
893.381	3614.86157
893.561	3507.53702
893.741	3627.4848
893.92	3221.11044
894.1	3534.89882
894.28	3530.68952
894.459	3555.94425
894.639	3364.36409
894.819	3454.90953
894.998	3092.53803
895.178	3398.05924
895.357	3126.26775
895.537	3294.85378
895.716	3187.39239
895.896	3275.89318
896.075	3105.18715
896.255	3185.28487
896.434	3060.91274
896.614	3162.10109
896.793	2982.88881
896.973	3227.4321
897.152	2995.54276
897.331	3273.78636
897.511	3029.28395
897.69	3328.55809
897.87	2915.39201
898.049	3113.61958
898.228	2843.66031
898.407	3208.46666
898.587	2959.6885
898.766	3058.80427
898.945	2923.82993
899.124	2835.22021
899.304	2603.03324
899.483	2959.6885
899.662	2660.03909
899.841	2873.19889
900.02	2828.88998
900.199	3128.37573
900.378	2942.81441
900.557	3008.19616
900.737	2759.24933
900.916	2972.34344
901.095	2795.12668
901.274	2877.41846
901.453	2522.78785
901.632	2577.69444
901.811	2503.7799
901.989	2691.70505
902.168	2546.01853
902.347	2765.58091
902.526	2467.87349
902.705	2598.81023
902.884	2396.05123
903.063	2396.05123
903.242	2412.95169
903.42	2501.66784
903.599	2184.74272
903.778	2326.32992
903.957	2140.35662
904.135	2632.59296
904.314	2129.78798
904.493	2537.57117
904.672	2239.69181
904.85	2281.95626
905.029	2180.51563
905.207	2265.05092
905.386	2026.20538
905.565	2134.01546
905.743	2174.17493
905.922	2159.37968
906.1	2024.09127
906.279	2290.40871
906.457	2007.17816
906.636	2117.10535
906.814	2019.86303
906.993	2036.77582
907.171	1962.7793
907.35	2036.77582
907.528	1783.04449
907.707	1962.7793
907.885	1799.96219
908.063	1914.1489
908.242	1575.78549
908.42	1702.6821
908.598	1520.79488
908.777	1753.43791
908.955	1799.96219
909.133	1859.1719
909.311	1590.5905
909.49	1865.51558
909.668	1603.28043
909.846	1812.65028
910.024	1787.27394
910.202	1829.5675
910.38	1647.69462
910.559	1888.77534
910.737	1626.54513
910.915	1977.57923
911.093	1685.76308
911.271	1818.99427
911.449	1607.51039
911.627	1901.46222
911.805	1692.10773
911.983	1945.86473
912.161	1709.02668
912.339	1947.97907
912.517	1728.06025
912.695	1937.4073
912.872	1768.24129
913.05	1833.79675
913.228	1664.61404
913.406	1768.24129
913.584	1793.61808
913.762	1895.11881
913.939	1732.28989
914.117	1876.08828
914.295	1531.37006
914.473	1706.91182
914.65	1607.51039
914.828	1852.82818
915.006	1474.26387
915.184	1609.62537
915.361	1525.02495
915.539	1709.02668
915.716	1656.15435
915.894	1635.00495
916.072	1635.00495
916.249	1744.97874
916.427	1588.4755
916.604	1643.46474
916.782	1569.44047
916.959	1766.12654
917.137	1480.60903
917.314	1575.78549
917.492	1503.87455
917.669	1611.74035
917.847	1362.16646
918.024	1622.3152
918.201	1237.38293
918.379	1503.87455
918.556	1431.96284
918.733	1622.3152
918.911	1560.98041
919.088	1626.54513
919.265	1243.72766
919.442	1550.40531
919.62	1360.05143
919.797	1436.19294
919.974	1247.95749
920.151	1334.67122
920.328	1209.8894
920.506	1402.35216
920.683	1307.17624
920.86	1309.29123
921.037	1294.48636
921.214	1387.54686
921.391	1235.26802
921.568	1385.43182
921.745	1144.33028
921.922	1357.93641
922.099	1300.83129
922.276	1313.52121
922.453	1091.46294
922.63	1296.60134
922.807	1110.49485
922.984	1203.54481
923.161	985.73814
923.338	1165.47798
923.514	930.7675
923.691	1131.64186
923.868	1212.00427
924.045	1237.38293
924.222	903.28403
924.399	1123.183
924.575	985.73814
924.752	1188.74091
924.929	1015.3396
925.105	1131.64186
925.282	913.85444
925.459	1055.51491
925.635	818.72815
925.812	1038.59873
925.989	854.66273
926.165	956.13798
926.342	810.27334
926.518	856.7766
926.695	856.7766
926.871	1057.62946
927.048	793.36416
927.224	920.19678
927.401	844.09347
927.577	926.53919
927.754	877.91585
927.93	918.08266
928.107	987.85249
928.283	869.46005
928.459	801.81867
928.636	886.37178
928.812	776.4556
928.988	818.72815
929.165	822.95561
929.341	768.00155
929.517	748.98054
929.693	873.68793
929.87	734.18699
930.046	894.82784
930.222	651.77565
930.398	765.88806
930.574	694.03574
930.751	700.37515
930.927	683.47028
931.103	759.54766
931.279	586.28206
931.455	607.4077
931.631	605.29508
931.807	717.28072
931.983	520.80104
932.159	636.98573
932.335	546.14697
932.511	522.91312
932.687	438.44123
932.863	651.77565
933.039	510.24083
933.215	596.84472
933.391	497.56906
933.566	558.82068
933.742	522.91312
933.918	539.8103
934.094	417.32708
934.27	459.55694
934.445	398.32572
934.621	463.78027
934.797	349.77279
934.973	404.65936
935.148	425.77255
935.324	465.89196
935.5	328.66565
935.675	389.88109
935.851	337.1083
936.027	290.67728
936.202	332.88694
936.378	366.65975
936.553	383.5478
936.729	294.89792
936.904	265.355
937.08	316.00221
937.255	303.33942
937.431	250.58493
937.606	265.355
937.782	227.37671
937.957	157.7665
938.133	218.93794
938.308	218.93794
938.483	185.18606
938.659	227.37671
938.834	183.07674
939.009	159.87558
939.185	126.13296
939.36	111.37229
939.535	136.67694
939.71	174.63967
939.886	138.7858
940.061	159.87558
940.236	92.39587
940.411	195.73297
940.586	204.17086
940.761	50.23254
940.937	143.00359
941.112	145.11251
941.287	75.52945
941.462	168.31207
941.637	136.67694
941.812	128.24171
941.987	88.17913
942.162	172.53045
942.337	136.67694
942.512	147.22146
942.687	92.39587
942.862	147.22146
943.037	52.34049
943.212	83.96248
943.386	54.44846
943.561	69.20492
943.736	92.39587
943.911	157.7665
944.086	96.6127
944.26	102.93811
944.435	90.28749
944.61	71.31307
944.785	50.23254
944.959	113.4809
945.134	92.39587
945.309	69.20492
945.483	157.7665
945.658	168.31207
945.833	56.55646
946.007	176.7489
946.182	77.63768
946.357	126.13296
946.531	136.67694
946.706	100.82962
946.88	100.82962
947.055	62.88058
947.229	100.82962
947.404	164.09378
947.578	64.98867
947.752	94.50427
947.927	60.77252
948.101	94.50427
948.276	71.31307
948.45	16.50851
948.624	71.31307
948.799	138.7858
948.973	39.69314
949.147	117.69816
949.321	22.83131
949.496	67.09678
949.67	69.20492
949.844	111.37229
950.018	191.51415
950.193	140.89469
950.367	88.17913
950.541	153.54842
950.715	79.74592
950.889	100.82962
951.063	96.6127
951.237	71.31307
951.411	140.89469
951.585	96.6127
951.759	151.43941
951.933	100.82962
952.107	69.20492
952.281	83.96248
952.455	185.18606
952.629	176.7489
952.803	143.00359
952.977	83.96248
953.151	83.96248
953.325	77.63768
953.499	96.6127
953.672	69.20492
953.846	143.00359
954.02	128.24171
954.194	86.0708
954.368	130.35049
954.541	126.13296
954.715	88.17913
954.889	24.93896
955.062	170.42125
955.236	121.91552
955.41	130.35049
955.583	31.26204
955.757	75.52945
955.93	218.93794
956.104	128.24171
956.278	98.72115
956.451	147.22146
956.625	105.04662
956.798	73.42125
956.972	48.12461
957.145	102.93811
957.319	138.7858
957.492	119.80683
957.665	151.43941
957.839	111.37229
958.012	109.26371
958.185	94.50427
958.359	138.7858
958.532	100.82962
958.705	159.87558
958.879	67.09678
959.052	92.39587
959.225	115.58952
959.398	172.53045
959.572	153.54842
959.745	161.98467
959.918	161.98467
960.091	143.00359
960.264	126.13296
960.438	100.82962
960.611	71.31307
960.784	67.09678
960.957	58.66448
961.13	138.7858
961.303	130.35049
961.476	96.6127
961.649	77.63768
961.822	138.7858
961.995	79.74592
962.168	83.96248
962.341	124.02423
962.514	124.02423
962.686	50.23254
962.859	52.34049
963.032	29.15432
963.205	50.23254
963.378	102.93811
963.551	136.67694
963.723	75.52945
963.896	-53.02787
964.069	62.88058
964.242	20.72369
964.414	115.58952
964.587	86.0708
964.76	79.74592
964.932	88.17913
965.105	117.69816
965.278	83.96248
965.45	134.5681
965.623	35.47754
965.795	86.0708
965.968	29.15432
966.14	117.69816
966.313	178.85816
966.485	39.69314
966.658	109.26371
966.83	140.89469
967.003	161.98467
967.175	164.09378
967.348	145.11251
967.52	94.50427
967.692	86.0708
967.865	75.52945
968.037	98.72115
968.209	69.20492
968.382	83.96248
968.554	126.13296
968.726	24.93896
968.898	41.80097
969.071	83.96248
969.243	8.07845
969.415	-17.20943
969.587	33.36978
969.759	109.26371
969.932	83.96248
970.104	121.91552
970.276	88.17913
970.448	71.31307
970.62	140.89469
970.792	58.66448
970.964	58.66448
971.136	16.50851
971.308	39.69314
971.48	105.04662
971.652	39.69314
971.824	83.96248
971.996	170.42125
972.168	60.77252
972.339	67.09678
972.511	132.45929
972.683	18.61609
972.855	94.50427
973.027	16.50851
973.199	107.15516
973.37	111.37229
973.542	54.44846
973.714	33.36978
973.886	24.93896
974.057	58.66448
974.229	35.47754
974.401	145.11251
974.572	88.17913
974.744	92.39587
974.915	105.04662
975.087	16.50851
975.259	69.20492
975.43	96.6127
975.602	-29.85205
975.773	52.34049
975.945	41.80097
976.116	18.61609
976.288	20.72369
976.459	41.80097
976.63	102.93811
976.802	58.66448
976.973	67.09678
977.145	100.82962
977.316	41.80097
977.487	67.09678
977.659	113.4809
977.83	134.5681
978.001	79.74592
978.172	8.07845
978.344	33.36978
978.515	117.69816
978.686	62.88058
978.857	54.44846
979.028	94.50427
979.2	46.01671
979.371	83.96248
979.542	54.44846
979.713	73.42125
979.884	43.90883
980.055	67.09678
980.226	58.66448
980.397	83.96248
980.568	109.26371
980.739	73.42125
980.91	60.77252
981.081	92.39587
981.252	100.82962
981.423	64.98867
981.594	164.09378
981.765	50.23254
981.936	46.01671
982.106	60.77252
982.277	39.69314
982.448	83.96248
982.619	54.44846
982.79	39.69314
982.96	29.15432
983.131	117.69816
983.302	31.26204
983.472	48.12461
983.643	69.20492
983.814	73.42125
983.984	117.69816
984.155	37.58533
984.326	33.36978
984.496	8.07845
984.667	58.66448
984.837	71.31307
985.008	92.39587
985.178	37.58533
985.349	54.44846
985.519	27.04663
985.69	27.04663
985.86	18.61609
986.031	50.23254
986.201	41.80097
986.371	83.96248
986.542	88.17913
986.712	41.80097
986.882	50.23254
987.053	60.77252
987.223	52.34049
987.393	-0.35123
987.563	22.83131
987.734	43.90883
987.904	60.77252
988.074	60.77252
988.244	20.72369
988.414	24.93896
988.585	18.61609
988.755	60.77252
988.925	20.72369
989.095	75.52945
989.265	24.93896
989.435	58.66448
989.605	86.0708
989.775	69.20492
989.945	24.93896
990.115	62.88058
990.285	94.50427
990.455	-6.67324
990.625	54.44846
990.795	-42.49378
990.965	12.29343
991.134	54.44846
991.304	1.75615
991.474	-15.10224
991.644	8.07845
991.814	62.88058
991.984	88.17913
992.153	27.04663
992.323	50.23254
992.493	62.88058
992.662	-0.35123
992.832	54.44846
993.002	16.50851
993.171	67.09678
993.341	31.26204
993.511	73.42125
993.68	54.44846
993.85	41.80097
994.019	50.23254
994.189	16.50851
994.358	83.96248
994.528	100.82962
994.697	41.80097
994.867	1.75615
995.036	48.12461
995.206	111.37229
995.375	-6.67324
995.544	-25.63794
995.714	39.69314
995.883	-29.85205
996.052	69.20492
996.222	67.09678
996.391	86.0708
996.56	12.29343
996.73	-34.06606
996.899	-31.95906
997.068	69.20492
997.237	54.44846
997.406	29.15432
997.576	8.07845
997.745	27.04663
997.914	31.26204
998.083	-34.06606
998.252	24.93896
998.421	31.26204
998.59	10.18593
998.759	33.36978
998.928	1.75615
999.097	100.82962
999.266	41.80097
999.435	43.90883
999.604	20.72369
999.773	20.72369
999.942	-40.38689
1000.111	-38.27997
1000.28	31.26204
1000.448	16.50851
1000.617	54.44846
1000.786	-38.27997
1000.955	16.50851
1001.124	83.96248
1001.292	29.15432
1001.461	29.15432
1001.63	79.74592
1001.798	3.86356
1001.967	-8.78052
1002.136	16.50851
1002.304	3.86356
1002.473	31.26204
1002.642	18.61609
1002.81	79.74592
1002.979	16.50851
1003.147	71.31307
1003.316	60.77252
1003.484	67.09678
1003.653	10.18593
1003.821	67.09678
1003.99	92.39587
1004.158	62.88058
1004.327	46.01671
1004.495	-0.35123
1004.663	46.01671
1004.832	54.44846
1005	-23.53085
1005.168	98.72115
1005.337	62.88058
1005.505	-31.95906
1005.673	20.72369
1005.842	92.39587
1006.01	27.04663
1006.178	27.04663
1006.346	58.66448
1006.514	69.20492
1006.683	79.74592
1006.851	-25.63794
1007.019	64.98867
1007.187	18.61609
1007.355	-10.88778
1007.523	16.50851
1007.691	3.86356
1007.859	14.40096
1008.027	71.31307
1008.195	-38.27997
1008.363	52.34049
1008.531	3.86356
1008.699	54.44846
1008.867	-21.42373
1009.035	54.44846
1009.203	-8.78052
1009.37	-10.88778
1009.538	41.80097
1009.706	-10.88778
1009.874	22.83131
1010.042	69.20492
1010.209	12.29343
1010.377	-6.67324
1010.545	8.07845
1010.713	58.66448
1010.88	92.39587
1011.048	98.72115
1011.216	75.52945
1011.383	69.20492
1011.551	-34.06606
1011.718	-10.88778
1011.886	8.07845
1012.054	22.83131
1012.221	-8.78052
1012.389	-8.78052
1012.556	33.36978
1012.724	58.66448
1012.891	-6.67324
1013.058	18.61609
1013.226	75.52945
1013.393	75.52945
1013.561	27.04663
1013.728	52.34049
1013.895	52.34049
1014.063	75.52945
1014.23	69.20492
1014.397	109.26371
1014.565	3.86356
1014.732	50.23254
1014.899	33.36978
1015.066	31.26204
1015.233	16.50851
1015.401	3.86356
1015.568	29.15432
1015.735	113.4809
1015.902	27.04663
1016.069	43.90883
1016.236	83.96248
1016.403	109.26371
1016.57	-0.35123
1016.737	75.52945
1016.904	-44.60065
1017.071	50.23254
1017.238	-21.42373
1017.405	-25.63794
1017.572	83.96248
1017.739	12.29343
1017.906	41.80097
1018.073	60.77252
1018.24	29.15432
1018.407	46.01671
1018.573	-17.20943
1018.74	8.07845
1018.907	-76.20064
1019.074	-21.42373
1019.241	-8.78052
1019.407	27.04663
1019.574	-25.63794
1019.741	10.18593
1019.907	27.04663
1020.074	62.88058
1020.241	41.80097
1020.407	50.23254
1020.574	54.44846
1020.74	33.36978
1020.907	12.29343
1021.073	86.0708
1021.24	-25.63794
1021.406	35.47754
1021.573	79.74592
1021.739	-65.66794
1021.906	29.15432
1022.072	79.74592
1022.239	56.55646
1022.405	29.15432
1022.571	16.50851
1022.738	12.29343
1022.904	-17.20943
1023.07	8.07845
1023.237	29.15432
1023.403	-8.78052
1023.569	-40.38689
1023.735	20.72369
1023.902	29.15432
1024.068	50.23254
1024.234	58.66448
1024.4	48.12461
1024.566	20.72369
1024.732	-21.42373
1024.898	-57.24133
1025.065	1.75615
1025.231	33.36978
1025.397	43.90883
1025.563	1.75615
1025.729	18.61609
1025.895	14.40096
1026.061	16.50851
1026.227	69.20492
1026.392	1.75615
1026.558	-31.95906
1026.724	-34.06606
1026.89	-40.38689
1027.056	145.11251
1027.222	50.23254
1027.388	-67.77453
1027.553	29.15432
1027.719	-17.20943
1027.885	-15.10224
1028.051	14.40096
1028.216	10.18593
1028.382	-8.78052
1028.548	16.50851
1028.713	27.04663
1028.879	8.07845
1029.045	8.07845
1029.21	-8.78052
1029.376	24.93896
1029.541	52.34049
1029.707	46.01671
1029.873	14.40096
1030.038	90.28749
1030.204	-48.81431
1030.369	18.61609
1030.534	27.04663
1030.7	33.36978
1030.865	37.58533
1031.031	-21.42373
1031.196	-17.20943
1031.361	-8.78052
1031.527	16.50851
1031.692	24.93896
1031.857	33.36978
1032.023	-74.09415
1032.188	24.93896
1032.353	-15.10224
1032.518	20.72369
1032.684	33.36978
1032.849	-50.9211
1033.014	16.50851
1033.179	-19.31659
1033.344	60.77252
1033.509	60.77252
1033.674	33.36978
1033.839	33.36978
1034.004	18.61609
1034.17	39.69314
1034.335	50.23254
1034.5	16.50851
1034.664	35.47754
1034.829	8.07845
1034.994	67.09678
1035.159	86.0708
1035.324	29.15432
1035.489	-44.60065
1035.654	50.23254
1035.819	86.0708
1035.984	12.29343
1036.148	56.55646
1036.313	-21.42373
1036.478	35.47754
1036.643	27.04663
1036.807	16.50851
1036.972	12.29343
1037.137	75.52945
1037.301	18.61609
1037.466	-8.78052
1037.631	12.29343
1037.795	43.90883
1037.96	54.44846
1038.124	88.17913
1038.289	48.12461
1038.454	-2.45859
1038.618	41.80097
1038.783	52.34049
1038.947	-42.49378
1039.111	8.07845
1039.276	29.15432
1039.44	22.83131
1039.605	5.97099
1039.769	16.50851
1039.933	60.77252
1040.098	-0.35123
1040.262	90.28749
1040.426	50.23254
1040.591	33.36978
1040.755	39.69314
1040.919	24.93896
1041.083	16.50851
1041.248	-0.35123
1041.412	27.04663
1041.576	10.18593
1041.74	8.07845
1041.904	31.26204
1042.068	-0.35123
1042.232	41.80097
1042.397	24.93896
1042.561	8.07845
1042.725	8.07845
1042.889	50.23254
1043.053	67.09678
1043.217	136.67694
1043.381	50.23254
1043.544	54.44846
1043.708	50.23254
1043.872	92.39587
1044.036	3.86356
1044.2	-34.06606
1044.364	16.50851
1044.528	-38.27997
1044.691	-42.49378
1044.855	16.50851
1045.019	-6.67324
1045.183	41.80097
1045.346	77.63768
1045.51	46.01671
1045.674	-17.20943
1045.837	37.58533
1046.001	-31.95906
1046.165	29.15432
1046.328	-31.95906
1046.492	124.02423
1046.655	24.93896
1046.819	-0.35123
1046.983	37.58533
1047.146	18.61609
1047.31	31.26204
1047.473	-19.31659
1047.636	58.66448
1047.8	-25.63794
1047.963	52.34049
1048.127	-17.20943
1048.29	33.36978
