Data from mixed_try1_USB4F045381__36__00101.txt Node

Date: Thu Apr 03 19:57:39 EDT 2025
User: mmckonesweet
Spectrometer: USB4F04538
Trigger mode: 4
Integration Time (sec): 2.700000E-3
Scans to average: 1
Electric dark correction enabled: true
Nonlinearity correction enabled: true
Boxcar width: 0
XAxis mode: Wavelengths
Number of Pixels in Spectrum: 3648
>>>>>Begin Spectral Data<<<<<
345.52	-20.54576
345.736	-20.54576
345.952	-20.54576
346.168	-26.86706
346.384	-10.00976
346.6	76.40788
346.816	-16.33143
347.032	-66.89679
347.248	-3.68787
347.464	-3.68787
347.68	-12.11701
347.896	-3.68787
348.112	53.21881
348.328	-5.79519
348.544	13.17157
348.76	-45.82964
348.975	15.2791
349.191	30.03253
349.407	-79.53586
349.623	17.38667
349.839	80.62436
350.055	34.24801
350.27	-14.22423
350.486	-12.11701
350.702	21.60186
350.918	-3.68787
351.133	34.24801
351.349	25.81715
351.565	30.03253
351.781	13.17157
351.996	46.895
352.212	53.21881
352.428	19.49425
352.644	91.16598
352.859	-12.11701
353.075	112.25088
353.291	-12.11701
353.506	-3.68787
353.722	17.38667
353.938	84.84094
354.153	8.95656
354.369	44.78711
354.584	63.75895
354.8	30.03253
355.016	30.03253
355.231	-5.79519
355.447	21.60186
355.662	11.06405
355.878	51.11085
356.093	-24.75999
356.309	-18.43861
356.524	4.74166
356.74	-12.11701
356.955	-3.68787
357.171	46.895
357.386	-10.00976
357.602	13.17157
357.817	46.895
358.033	34.24801
358.248	19.49425
358.464	23.70949
358.679	-18.43861
358.895	34.24801
359.11	57.4348
359.325	51.11085
359.541	38.46358
359.756	-5.79519
359.972	40.5714
360.187	0.52684
360.402	84.84094
360.618	49.00291
360.833	4.74166
361.048	-1.58052
361.264	-20.54576
361.479	36.35578
361.694	30.03253
361.909	-41.61591
362.125	-20.54576
362.34	4.74166
362.555	46.895
362.77	0.52684
362.986	19.49425
363.201	0.52684
363.416	-60.57691
363.631	40.5714
363.847	21.60186
364.062	8.95656
364.277	55.32679
364.492	8.95656
364.707	-50.04327
364.922	23.70949
365.138	57.4348
365.353	74.29967
365.568	-60.57691
365.783	-26.86706
365.998	-12.11701
366.213	23.70949
366.428	38.46358
366.643	46.895
366.858	34.24801
367.073	82.73264
367.288	23.70949
367.503	80.62436
367.718	17.38667
367.933	-37.40208
368.148	57.4348
368.363	6.8491
368.578	-26.86706
368.793	-26.86706
369.008	-43.72279
369.223	51.11085
369.438	-3.68787
369.653	4.74166
369.868	65.86705
370.083	15.2791
370.298	4.74166
370.513	-1.58052
370.728	-7.90249
370.943	105.92518
371.157	32.14026
371.372	4.74166
371.587	65.86705
371.802	15.2791
372.017	13.17157
372.232	122.79415
372.446	72.19148
372.661	-100.5989
372.876	0.52684
373.091	4.74166
373.306	13.17157
373.52	4.74166
373.735	38.46358
373.95	-37.40208
374.165	46.895
374.379	6.8491
374.594	-24.75999
374.809	-45.82964
375.023	38.46358
375.238	21.60186
375.453	46.895
375.667	55.32679
375.882	67.97517
376.097	72.19148
376.311	-58.47023
376.526	19.49425
376.741	38.46358
376.955	34.24801
377.17	0.52684
377.384	27.92483
377.599	-3.68787
377.813	-35.29512
378.028	-54.2568
378.242	4.74166
378.457	-43.72279
378.672	6.8491
378.886	-28.97412
379.101	46.895
379.315	40.5714
379.53	-1.58052
379.744	-7.90249
379.958	-18.43861
380.173	46.895
380.387	4.74166
380.602	11.06405
380.816	6.8491
381.031	-62.68356
381.245	82.73264
381.459	30.03253
381.674	-33.18815
381.888	-3.68787
382.103	4.74166
382.317	51.11085
382.531	17.38667
382.746	6.8491
382.96	74.29967
383.174	-18.43861
383.388	49.00291
383.603	21.60186
383.817	-18.43861
384.031	-47.93647
384.246	21.60186
384.46	46.895
384.674	80.62436
384.888	-37.40208
385.103	38.46358
385.317	2.63424
385.531	-28.97412
385.745	-1.58052
385.959	49.00291
386.174	30.03253
386.388	63.75895
386.602	2.63424
386.816	13.17157
387.03	-24.75999
387.244	8.95656
387.458	0.52684
387.672	51.11085
387.887	-22.65289
388.101	-12.11701
388.315	63.75895
388.529	17.38667
388.743	15.2791
388.957	-18.43861
389.171	30.03253
389.385	-3.68787
389.599	6.8491
389.813	-39.50901
390.027	4.74166
390.241	59.54283
390.455	-16.33143
390.669	21.60186
390.883	21.60186
391.097	30.03253
391.311	-1.58052
391.525	63.75895
391.738	40.5714
391.952	-3.68787
392.166	-3.68787
392.38	13.17157
392.594	-45.82964
392.808	-3.68787
393.022	4.74166
393.236	72.19148
393.449	65.86705
393.663	-18.43861
393.877	53.21881
394.091	4.74166
394.305	-39.50901
394.518	21.60186
394.732	8.95656
394.946	-20.54576
395.16	15.2791
395.373	-12.11701
395.587	4.74166
395.801	13.17157
396.015	51.11085
396.228	23.70949
396.442	0.52684
396.656	80.62436
396.869	-3.68787
397.083	55.32679
397.297	-45.82964
397.51	21.60186
397.724	34.24801
397.938	21.60186
398.151	25.81715
398.365	30.03253
398.578	21.60186
398.792	34.24801
399.005	72.19148
399.219	57.4348
399.433	82.73264
399.646	17.38667
399.86	84.84094
400.073	30.03253
400.287	40.5714
400.5	38.46358
400.714	-3.68787
400.927	2.63424
401.141	23.70949
401.354	38.46358
401.567	34.24801
401.781	46.895
401.994	-54.2568
402.208	-41.61591
402.421	-26.86706
402.635	15.2791
402.848	15.2791
403.061	67.97517
403.275	17.38667
403.488	4.74166
403.701	49.00291
403.915	15.2791
404.128	21.60186
404.341	-1.58052
404.555	-14.22423
404.768	-41.61591
404.981	30.03253
405.195	42.67924
405.408	46.895
405.621	103.81665
405.834	21.60186
406.048	57.4348
406.261	51.11085
406.474	67.97517
406.687	-12.11701
406.9	59.54283
407.114	55.32679
407.327	46.895
407.54	23.70949
407.753	57.4348
407.966	49.00291
408.179	-1.58052
408.392	17.38667
408.605	15.2791
408.819	17.38667
409.032	67.97517
409.245	25.81715
409.458	6.8491
409.671	-43.72279
409.884	84.84094
410.097	34.24801
410.31	15.2791
410.523	-41.61591
410.736	-43.72279
410.949	-14.22423
411.162	-18.43861
411.375	6.8491
411.588	32.14026
411.801	67.97517
412.014	97.49122
412.227	-14.22423
412.44	40.5714
412.653	89.05761
412.865	51.11085
413.078	40.5714
413.291	105.92518
413.504	4.74166
413.717	15.2791
413.93	63.75895
414.143	34.24801
414.356	17.38667
414.568	46.895
414.781	30.03253
414.994	65.86705
415.207	30.03253
415.42	53.21881
415.632	4.74166
415.845	49.00291
416.058	-1.58052
416.271	13.17157
416.483	-26.86706
416.696	32.14026
416.909	76.40788
417.121	34.24801
417.334	40.5714
417.547	74.29967
417.759	13.17157
417.972	86.94927
418.185	32.14026
418.397	34.24801
418.61	55.32679
418.823	91.16598
419.035	-16.33143
419.248	-24.75999
419.46	72.19148
419.673	30.03253
419.885	51.11085
420.098	40.5714
420.311	-3.68787
420.523	25.81715
420.736	61.65088
420.948	51.11085
421.161	55.32679
421.373	13.17157
421.586	82.73264
421.798	97.49122
422.01	101.70815
422.223	15.2791
422.435	42.67924
422.648	57.4348
422.86	42.67924
423.073	-18.43861
423.285	15.2791
423.497	-60.57691
423.71	53.21881
423.922	-7.90249
424.134	25.81715
424.347	63.75895
424.559	-10.00976
424.771	55.32679
424.984	36.35578
425.196	40.5714
425.408	38.46358
425.621	38.46358
425.833	89.05761
426.045	51.11085
426.257	-7.90249
426.47	46.895
426.682	13.17157
426.894	-10.00976
427.106	46.895
427.318	6.8491
427.531	13.17157
427.743	103.81665
427.955	91.16598
428.167	13.17157
428.379	30.03253
428.591	-20.54576
428.804	38.46358
429.016	61.65088
429.228	30.03253
429.44	25.81715
429.652	38.46358
429.864	76.40788
430.076	34.24801
430.288	4.74166
430.5	-20.54576
430.712	42.67924
430.924	32.14026
431.136	-12.11701
431.348	-12.11701
431.56	38.46358
431.772	-18.43861
431.984	27.92483
432.196	80.62436
432.408	11.06405
432.62	15.2791
432.832	4.74166
433.044	4.74166
433.256	23.70949
433.468	80.62436
433.679	-31.08114
433.891	72.19148
434.103	-5.79519
434.315	72.19148
434.527	42.67924
434.739	42.67924
434.95	80.62436
435.162	8.95656
435.374	97.49122
435.586	82.73264
435.798	70.08331
436.009	-31.08114
436.221	-18.43861
436.433	55.32679
436.645	15.2791
436.856	65.86705
437.068	57.4348
437.28	11.06405
437.491	-50.04327
437.703	101.70815
437.915	67.97517
438.126	49.00291
438.338	38.46358
438.55	89.05761
438.761	34.24801
438.973	23.70949
439.184	23.70949
439.396	-20.54576
439.608	57.4348
439.819	23.70949
440.031	40.5714
440.242	67.97517
440.454	114.35949
440.665	57.4348
440.877	61.65088
441.088	25.81715
441.3	74.29967
441.511	46.895
441.723	-3.68787
441.934	-10.00976
442.146	17.38667
442.357	72.19148
442.569	-1.58052
442.78	114.35949
442.991	36.35578
443.203	101.70815
443.414	17.38667
443.626	127.01161
443.837	42.67924
444.048	6.8491
444.26	38.46358
444.471	63.75895
444.682	34.24801
444.894	114.35949
445.105	21.60186
445.316	6.8491
445.528	46.895
445.739	15.2791
445.95	51.11085
446.161	46.895
446.373	80.62436
446.584	17.38667
446.795	21.60186
447.006	49.00291
447.217	34.24801
447.429	13.17157
447.64	80.62436
447.851	108.03372
448.062	36.35578
448.273	59.54283
448.484	-33.18815
448.695	-10.00976
448.907	23.70949
449.118	44.78711
449.329	63.75895
449.54	84.84094
449.751	4.74166
449.962	51.11085
450.173	59.54283
450.384	55.32679
450.595	80.62436
450.806	30.03253
451.017	55.32679
451.228	97.49122
451.439	0.52684
451.65	42.67924
451.861	63.75895
452.072	65.86705
452.283	51.11085
452.494	6.8491
452.705	38.46358
452.915	21.60186
453.126	-50.04327
453.337	63.75895
453.548	15.2791
453.759	70.08331
453.97	122.79415
454.181	23.70949
454.391	97.49122
454.602	32.14026
454.813	32.14026
455.024	78.51611
455.235	34.24801
455.445	63.75895
455.656	-28.97412
455.867	97.49122
456.078	23.70949
456.288	21.60186
456.499	114.35949
456.71	-1.58052
456.921	116.46812
457.131	63.75895
457.342	30.03253
457.553	25.81715
457.763	156.53622
457.974	40.5714
458.184	101.70815
458.395	23.70949
458.606	97.49122
458.816	72.19148
459.027	95.38278
459.237	89.05761
459.448	38.46358
459.659	55.32679
459.869	42.67924
460.08	42.67924
460.29	38.46358
460.501	42.67924
460.711	80.62436
460.922	72.19148
461.132	84.84094
461.343	21.60186
461.553	13.17157
461.764	38.46358
461.974	57.4348
462.184	74.29967
462.395	118.57677
462.605	44.78711
462.816	63.75895
463.026	118.57677
463.236	55.32679
463.447	122.79415
463.657	53.21881
463.867	93.27437
464.078	108.03372
464.288	112.25088
464.498	101.70815
464.709	38.46358
464.919	74.29967
465.129	46.895
465.339	67.97517
465.55	80.62436
465.76	141.77339
465.97	127.01161
466.18	17.38667
466.391	101.70815
466.601	122.79415
466.811	124.90287
467.021	164.97259
467.231	80.62436
467.441	148.10019
467.651	135.44678
467.862	183.95562
468.072	124.90287
468.282	120.68545
468.492	127.01161
468.702	192.39306
468.912	135.44678
469.122	114.35949
469.332	219.81696
469.542	122.79415
469.752	179.73703
469.962	177.62776
470.172	181.84631
470.382	131.22915
470.592	264.12413
470.802	192.39306
471.012	116.46812
471.222	228.25576
471.432	158.64528
471.642	232.47528
471.852	207.15936
472.062	213.48807
472.272	200.83082
472.482	230.36551
472.691	211.37848
472.901	135.44678
473.111	268.3443
473.321	291.55658
473.531	327.43445
473.741	291.55658
473.95	287.336
474.16	291.55658
474.37	207.15936
474.58	329.54508
474.79	299.99796
474.999	321.10269
475.209	270.45441
475.419	344.31995
475.628	378.09425
475.838	310.5501
476.048	394.98302
476.258	316.8816
476.467	432.98659
476.677	388.64961
476.886	464.66014
477.096	443.54405
477.306	413.98415
477.515	418.2068
477.725	494.22521
477.935	384.42741
478.144	544.91483
478.354	304.21876
478.563	582.93728
478.773	504.78487
478.982	451.9903
479.192	555.47618
479.401	479.44231
479.611	544.91483
479.82	572.37505
480.03	608.28796
480.239	582.93728
480.449	604.06272
480.658	724.50103
480.868	790.01762
481.077	800.58571
481.287	756.20138
481.496	790.01762
481.705	673.78553
481.915	783.67688
482.124	639.97888
482.333	946.44774
482.543	836.51897
482.752	902.05083
482.961	840.74658
483.171	1028.90734
483.38	1011.99175
483.589	1018.33505
483.799	967.59026
484.008	1102.91728
484.217	885.13862
484.426	1191.73692
484.636	1140.98193
484.845	1168.47394
485.054	1145.21142
485.263	1238.26414
485.472	1253.06856
485.682	1371.50784
485.891	1119.83472
486.1	1280.56283
486.309	1382.08301
486.518	1432.84411
486.727	1441.30431
486.936	1500.52573
487.146	1316.51745
487.355	1534.36635
487.564	1407.46352
487.773	1654.92065
487.982	1549.17155
488.191	1610.50661
488.4	1745.85991
488.609	1750.08949
488.818	1671.84
489.027	1758.54862
489.236	1788.15508
489.445	1695.10381
489.654	1838.90708
489.863	1950.97438
490.072	1781.8109
490.281	1864.28209
490.49	1745.85991
490.698	2067.25295
490.907	1870.62573
491.116	2134.89618
491.325	1982.68866
491.534	2153.91942
491.743	2077.8227
491.952	2065.13897
492.16	2141.23733
492.369	2137.00991
492.578	2177.16916
492.787	2441.29366
492.996	2382.14306
493.204	2124.32744
493.413	2101.07553
493.622	2413.83191
493.831	2295.51532
494.039	2456.08
494.248	2481.42678
494.457	2485.65109
494.665	2553.23383
494.874	2546.89845
495.083	2660.91874
495.291	2758.01818
495.5	2576.46265
495.709	2694.69557
495.917	2587.02073
496.126	2690.47365
496.335	2584.90914
496.543	2819.21857
496.752	2774.90219
496.96	2825.54898
497.169	2654.58522
497.377	2844.53948
497.586	2821.32872
497.794	2996.42148
498.003	2730.57984
498.211	3112.38987
498.42	2793.89566
498.628	3034.37993
498.837	3034.37993
499.045	3051.24876
499.254	3213.55937
499.462	3192.48549
499.671	3342.07369
499.879	3299.94482
500.087	3217.77395
500.296	3308.37114
500.504	3139.79363
500.713	3308.37114
500.921	3377.87779
501.129	3264.1299
501.338	3160.87159
501.546	3495.78453
501.754	3493.67955
501.962	3470.52353
502.171	3430.52164
502.379	3495.78453
502.587	3462.10262
502.795	3594.69806
503.004	3447.36533
503.212	3556.8211
503.42	3706.18927
503.628	3708.29236
503.837	3626.25757
504.045	3754.55552
504.253	3779.78602
504.461	3737.73364
504.669	3708.29236
504.877	4141.10605
505.085	3619.946
505.294	3916.40182
505.502	3907.99713
505.71	4027.73337
505.918	3750.35017
506.126	4008.83205
506.334	3754.55552
506.542	3987.82864
506.75	3754.55552
506.958	4246.02621
507.166	3863.86722
507.374	4059.23185
507.582	4185.17896
507.79	4170.48902
507.998	4191.47433
508.206	4361.37674
508.414	4141.10605
508.622	4220.85021
508.83	4115.91737
509.037	4327.82695
509.245	3966.82319
509.453	4342.50566
509.661	4321.53574
509.869	4397.01732
510.077	4212.45752
510.285	4355.08658
510.492	4373.95649
510.7	4455.7057
510.908	4380.24607
511.116	4426.36365
511.324	4361.37674
511.531	4508.09149
511.739	4564.65264
511.947	4612.82158
512.155	4445.22689
512.362	4635.85473
512.57	4675.63287
512.778	4899.49418
512.985	4600.25691
513.193	4757.25726
513.401	4727.96015
513.608	4811.6544
513.816	4719.58873
514.024	4790.73424
514.231	4838.8472
514.439	4880.67476
514.646	4746.79452
514.854	5012.37161
515.061	4797.01053
515.269	5066.69603
515.477	4903.67602
515.684	4981.0235
515.892	4863.94483
516.099	5192.00025
516.307	4991.47345
516.514	5087.58587
516.722	4916.22099
516.929	5377.71353
517.136	5012.37161
517.344	5227.48788
517.551	5047.89319
517.759	5192.00025
517.966	5179.4736
518.173	5256.70792
518.381	5018.64061
518.588	5454.86554
518.796	5219.13846
519.003	5267.14254
519.21	5056.25024
519.418	5329.73798
519.625	5269.2294
519.832	5421.50645
520.039	5338.08244
520.247	5659.05841
520.454	5413.16574
520.661	5746.50031
520.868	5421.50645
521.076	5717.35763
521.283	5446.52633
521.49	5500.72444
521.697	5617.40478
521.904	5765.23244
522.112	5654.89347
522.319	5704.8665
522.526	5827.65908
522.733	5754.82594
522.94	5438.18675
523.147	5704.8665
523.354	5571.57489
523.561	5877.5851
523.768	5681.96388
523.975	6131.16574
524.183	5898.3836
524.39	6189.31516
524.597	6029.3599
524.804	5962.84395
525.011	5921.25922
525.218	6021.04673
525.425	6072.99789
525.632	5921.25922
525.838	5944.13199
526.045	6253.67342
526.252	6131.16574
526.459	6349.13131
526.666	6189.31516
526.873	6218.38297
527.08	6284.80643
527.287	6324.23402
527.494	6108.31628
527.701	6255.74912
527.907	6129.08863
528.114	6295.18293
528.321	6311.78412
528.528	6440.39264
528.735	6473.56741
528.941	6628.99503
529.148	6276.50481
529.355	6282.73106
529.562	6270.27835
529.768	6693.20053
529.975	6374.02524
530.182	6519.17301
530.388	6419.65539
530.595	6529.53635
530.802	6718.04834
531.008	6951.87065
531.215	6784.29304
531.422	6958.07437
531.628	6802.92014
531.835	6767.73406
532.042	6720.11884
532.248	6833.96121
532.455	6641.42363
532.661	6982.88722
532.868	6877.4101
533.074	6885.68495
533.281	6883.61627
533.487	7274.1969
533.694	6796.71131
533.9	7325.80158
534.107	7090.37219
534.313	7094.50501
534.52	7108.96921
534.726	6980.81961
534.933	7257.68051
535.139	7150.28944
535.345	7338.18466
535.552	7139.96022
535.758	7191.60079
535.965	7369.13893
536.171	7301.03305
536.377	7358.82139
536.584	7232.90326
536.79	7230.83835
536.996	7445.47182
537.203	7517.65131
537.409	7369.13893
537.615	7346.43962
537.821	7474.34679
538.028	7816.40218
538.234	7371.20237
538.44	7563.00778
538.646	7548.5773
538.853	7424.84424
539.059	7305.16136
539.265	7775.22152
539.471	7674.29347
539.677	7637.20513
539.883	7563.00778
540.09	7779.33996
540.296	7738.15178
540.502	7839.04799
540.708	7787.5766
540.914	7997.49866
541.12	7948.12451
541.326	7946.067
541.532	7906.97036
541.738	7904.91244
541.944	7950.182
542.15	8069.48163
542.356	8048.9176
542.562	8096.21184
542.768	7941.95191
542.974	7972.81306
543.18	8040.69142
543.386	8124.99443
543.592	7966.6412
543.798	8260.63109
544.004	8266.79434
544.21	8233.92161
544.415	8061.25626
544.621	8392.07565
544.827	8235.9763
545.033	8535.75256
545.239	8215.42847
545.445	8664.98246
545.651	8180.49262
545.856	8340.73962
546.062	8270.90308
546.268	8482.39778
546.474	8248.30405
546.679	8533.70069
546.885	8235.9763
547.091	8671.13441
547.297	8363.32896
547.502	8607.55612
547.708	8513.18095
547.914	8650.62724
548.119	8634.22016
548.325	8648.57642
548.531	8223.64784
548.736	8869.95872
548.942	8654.72882
549.147	8888.39769
549.353	8662.93177
549.559	8591.14591
549.764	8755.19451
549.97	8689.58928
550.175	8543.95985
550.381	9011.28737
550.586	8902.73812
550.792	8908.88374
550.997	8783.8909
551.203	8970.33122
551.408	9001.04899
551.614	9048.14191
551.819	9046.09459
552.025	9123.88081
552.23	9050.18922
552.435	9150.48618
552.641	9058.37829
552.846	9287.56067
553.052	9375.49432
553.257	9289.60598
553.462	9293.69657
553.668	9359.13688
553.873	9383.67265
554.078	9303.92273
554.283	9408.20606
554.489	9457.26586
554.694	9271.19753
554.899	9310.05823
555.105	9379.58352
555.31	9400.02852
555.515	9494.05461
555.72	9369.3604
555.925	9432.73713
556.131	9745.30757
556.336	9285.51533
556.541	9506.31637
556.746	9400.02852
556.951	9665.66748
557.156	9400.02852
557.361	9677.92132
557.567	9483.83603
557.772	9630.94523
557.977	9671.79447
558.182	9845.33547
558.387	9710.59552
558.592	9796.34672
558.797	9698.34316
559.002	9900.43756
559.207	9677.92132
559.412	9898.39694
559.617	9835.13019
559.822	10010.60974
560.027	9726.93115
560.232	9977.97054
560.437	9682.00581
560.642	10167.63502
560.847	9598.26136
561.051	9904.51877
561.256	9843.29444
561.461	10069.75895
561.666	9865.74491
561.871	9953.48871
562.076	10053.44312
562.281	10118.70101
562.485	9777.97372
562.69	9939.20668
562.895	10071.79836
563.1	10257.32675
563.305	9788.18109
563.509	10012.64956
563.714	9882.07139
563.919	10285.85951
564.123	10041.20565
564.328	10249.17405
564.533	9849.41747
564.737	10226.753
564.942	10183.94459
565.147	10575.11744
565.351	10316.42739
565.556	10434.59518
565.761	10141.1301
565.965	10306.23843
566.17	10175.78991
566.374	10402.00158
566.579	10234.9063
566.784	10259.36489
566.988	10265.47924
567.193	10575.11744
567.397	10314.38963
567.602	10375.51681
567.806	10147.24683
568.011	10558.8281
568.215	10839.70968
568.42	10342.91713
568.624	10619.90903
568.828	10636.1954
569.033	10302.16275
569.237	10746.10795
569.442	10412.18743
569.646	10558.8281
569.85	10581.22574
570.055	10703.36837
570.259	10560.86431
570.463	10713.54495
570.668	10666.73021
570.872	10723.72122
571.076	10522.17413
571.281	10998.36976
571.485	10711.50966
571.689	11039.04081
571.893	10790.87711
572.098	10815.29424
572.302	10634.15964
572.506	10676.90787
572.71	10632.12388
572.914	10855.98571
573.119	10912.94601
573.323	10872.261
573.527	10786.80742
573.731	11191.51858
573.935	11128.50175
574.139	11002.43706
574.343	10823.4329
574.547	11055.308
574.751	10937.35482
574.955	11193.55121
575.159	10894.63832
575.364	11106.13847
575.568	10900.74099
575.772	11161.02783
575.976	10990.23501
576.18	10902.77519
576.383	11244.36363
576.587	11195.58383
576.791	11098.00605
576.995	11191.51858
577.199	11254.52533
577.403	11388.63606
577.607	11303.29796
577.811	11307.36208
578.015	11161.02783
578.219	11333.77788
578.422	11057.34135
578.626	11475.98802
578.83	11311.42616
579.034	11524.73487
579.238	11185.42062
579.442	11494.26873
579.645	11266.71904
579.849	11404.88896
580.053	11528.79686
580.257	11484.11288
580.46	11331.74595
580.664	11754.17981
580.868	11526.76587
581.071	11504.42435
581.275	11463.80045
581.479	11656.73058
581.682	11587.69153
581.886	11843.49064
582.09	11677.0342
582.293	11965.25196
582.497	11741.99977
582.7	11979.45553
582.904	11603.93697
583.107	11908.4337
583.311	11790.71807
583.515	11721.699
583.718	11547.07536
583.922	11794.7777
584.125	11573.47629
584.329	11717.63874
584.532	11551.13714
584.735	12022.06391
584.939	11559.2606
585.142	11768.38947
585.346	11942.93126
585.549	12084.95565
585.753	11768.38947
585.956	12093.07017
586.159	11932.78516
586.363	12520.94703
586.566	12299.95016
586.769	12170.15208
586.973	12068.72624
587.176	12241.13907
587.379	12018.00612
587.582	12350.64463
587.786	11892.19873
587.989	12557.43441
588.192	12299.95016
588.395	12322.25626
588.599	12281.69909
588.802	12476.34851
589.005	12153.92521
589.208	12500.67536
589.411	12178.26533
589.615	12192.46324
589.818	12642.5638
590.021	12476.34851
590.224	12569.59642
590.427	12200.57617
590.63	12397.27973
590.833	12297.9223
591.036	12439.85648
591.239	12727.68254
591.442	12326.31183
591.645	12555.40739
591.848	12484.45757
592.051	12695.25758
592.254	12324.28405
592.457	12865.47236
592.66	12541.21805
592.863	12549.32628
593.066	12849.26313
593.269	12699.31078
593.472	12754.02673
593.675	12829.00109
593.878	12591.89286
594.081	12833.05354
594.284	12518.91989
594.486	12889.78557
594.689	12818.86987
594.892	12833.05354
595.095	12901.94188
595.298	13070.08519
595.5	13064.00832
595.703	13023.49473
595.906	12770.23805
596.109	12956.64295
596.311	13003.2372
596.514	12873.57685
596.717	12901.94188
596.92	13303.00041
597.122	13284.77438
597.325	13003.2372
597.528	12950.56524
597.73	13086.28996
597.933	12982.97916
598.136	13226.04368
598.338	13205.79086
598.541	13469.04458
598.743	13232.11944
598.946	13394.12553
599.148	13118.69859
599.351	13392.10062
599.554	13207.81617
599.756	13043.75177
599.959	13396.15044
600.161	13132.87698
600.363	13590.52405
600.566	13402.22514
600.768	13213.89204
600.971	13452.84631
601.173	13327.30125
601.376	13481.19312
601.578	13238.19516
601.78	13671.50336
601.983	13384.00092
602.185	13236.16992
602.388	13286.79951
602.59	13568.25378
602.792	13254.39689
602.995	13359.70145
603.197	13778.79295
603.399	13323.25115
603.601	13456.8959
603.804	13499.41568
604.006	13786.88993
604.208	13531.8106
604.41	13677.5766
604.613	13592.5486
604.815	13309.07568
605.017	13833.44663
605.219	13596.59769
605.421	13450.82151
605.623	13410.32469
605.826	13552.05696
606.028	13203.76556
606.23	13610.76939
606.432	13426.52361
606.634	13934.6517
606.836	13317.17597
607.038	13602.6713
607.24	13730.21008
607.442	13758.5503
607.644	13896.19458
607.846	13841.54329
608.048	13707.94233
608.25	13774.74445
608.452	13853.6882
608.654	13906.31497
608.856	13691.74736
609.058	13831.42246
609.26	13614.81841
609.462	13813.20478
609.664	13987.27571
609.866	13762.59886
610.067	13839.51913
610.269	13831.42246
610.471	13624.94092
610.673	13671.50336
610.875	13669.47894
611.077	13952.8679
611.278	13823.32574
611.48	13877.97771
611.682	13647.21013
611.884	13914.41123
612.085	13586.47494
612.287	13932.62766
612.489	13817.25317
612.69	13985.25174
612.892	13979.17982
613.094	14052.04141
613.295	13606.72035
613.497	14009.5392
613.699	13770.69593
613.9	14104.66177
614.102	13938.69976
614.304	14098.59026
614.505	13817.25317
614.707	13952.8679
614.908	13669.47894
615.11	13691.74736
615.311	13894.17049
615.513	13918.45934
615.714	13799.03531
615.916	14167.39947
616.117	13776.7687
616.319	13991.32364
616.52	13671.50336
616.722	13944.77184
616.923	13853.6882
617.124	13938.69976
617.326	13760.57458
617.527	14398.09621
617.729	13896.19458
617.93	14246.32473
618.131	14041.92193
618.333	14003.46736
618.534	14050.01752
618.735	14155.25685
618.937	13873.92948
619.138	14124.89996
619.339	13920.4834
619.54	14193.70823
619.742	14189.66075
619.943	14076.32792
620.144	14110.73325
620.345	13983.22777
620.546	13809.15637
620.748	13936.67573
620.949	13857.73648
621.15	14122.87615
621.351	13756.52602
621.552	13983.22777
621.753	14141.09036
621.954	14250.3721
622.155	13748.42886
622.356	13718.06408
622.558	14031.80239
622.759	14383.93127
622.96	13989.29967
623.161	14323.22349
623.362	14137.04277
623.563	14367.74268
623.764	13958.93992
623.965	14286.79809
624.166	14203.82689
624.366	14009.5392
624.567	14031.80239
624.768	14420.35525
624.969	14167.39947
625.17	14359.64834
625.371	13628.9899
625.572	14001.44342
625.773	14084.42335
625.973	14300.96359
626.174	14035.85021
626.375	14230.13518
626.576	14011.56314
626.777	14157.28062
626.977	13954.89191
627.178	14420.35525
627.379	14114.78089
627.58	14187.63701
627.78	14302.98723
627.981	14319.17625
628.182	14468.91979
628.382	14325.24711
628.583	14343.45959
628.784	14130.97138
628.984	14167.39947
629.185	14185.61326
629.386	13861.78475
629.586	14748.15207
629.787	14432.49646
629.987	14418.3317
630.188	14246.32473
630.388	14371.78983
630.589	14335.36517
630.79	14736.01194
630.99	14537.71819
631.191	14578.18715
631.391	14487.13128
631.591	14434.51999
631.792	14452.7317
631.992	14744.10536
632.193	14731.96522
632.393	14551.88238
632.594	14539.74165
632.794	14576.16371
632.994	14539.74165
633.195	14897.87823
633.395	14390.00197
633.595	14400.11977
633.796	14213.9455
633.996	14640.91312
634.196	14412.26107
634.397	14723.87177
634.597	14614.60881
634.797	14655.07691
634.997	14420.35525
635.198	14525.5774
635.398	14321.19987
635.598	14673.28742
635.798	14481.0608
635.998	14547.83547
636.199	14501.2957
636.399	14450.70818
636.599	14284.77444
636.799	14622.70246
636.999	14519.507
637.199	14406.19043
637.399	14493.20175
637.599	14351.55398
637.799	14139.06657
637.999	14545.81202
638.199	14566.04651
638.399	14667.21726
638.599	14302.98723
638.799	14776.47893
638.999	14950.48397
639.199	14655.07691
639.399	14624.72587
639.599	14568.06995
639.799	14547.83547
639.999	14719.82505
640.199	14564.02307
640.399	14988.92644
640.599	14355.60116
640.799	15162.92812
640.998	14865.5053
641.198	14776.47893
641.398	14541.76511
641.598	14614.60881
641.798	14596.39802
641.997	14578.18715
642.197	14907.99474
642.397	14855.38873
642.597	14883.71509
642.796	15037.48519
642.996	14574.14027
643.196	15185.18409
643.395	14859.43536
643.595	14976.78673
643.795	14792.66564
643.994	15189.23063
644.194	14980.8333
644.394	15011.18256
644.593	14867.52861
644.793	15128.53251
644.992	14887.7617
645.192	14800.75898
645.392	14582.23402
645.591	14786.59563
645.791	14847.29546
645.99	15023.32224
646.19	14982.85659
646.389	15077.95071
646.589	14685.42772
646.788	14861.45867
646.987	14992.97301
647.187	15272.18482
647.386	15173.04447
647.586	15286.34775
647.785	15508.91042
647.984	15476.53732
648.184	15051.64813
648.383	15288.37103
648.582	15063.78778
648.782	15173.04447
648.981	15160.90485
649.18	15225.64952
649.38	14940.3675
649.579	15448.21097
649.778	15160.90485
649.977	15288.37103
650.177	14986.90316
650.376	15201.37026
650.575	15132.57906
650.774	15223.62625
650.973	14687.4511
651.173	15193.27718
651.372	15197.32372
651.571	15177.09101
651.77	14744.10536
651.969	15233.74261
652.168	15173.04447
652.367	15278.25465
652.566	15209.46334
652.765	15338.95305
652.964	15253.97534
653.163	15387.51198
653.362	14877.64516
653.561	15150.78849
653.76	15124.48597
653.959	15579.72716
654.158	15440.11774
654.357	15173.04447
654.556	14972.74015
654.755	15523.0737
654.954	15164.95139
655.153	15205.4168
655.352	15290.39431
655.551	15160.90485
655.749	15480.58395
655.948	15780.04272
656.147	15274.20809
656.346	15326.81335
656.545	15284.32448
656.743	15324.79007
656.942	15559.49372
657.141	15622.21762
657.34	15059.74123
657.538	15480.58395
657.737	15148.76522
657.936	15359.18591
658.135	15480.58395
658.333	15298.48742
658.532	15219.5797
658.731	15448.21097
658.929	15272.18482
659.128	15312.65038
659.326	15168.99793
659.525	15545.33035
659.724	15482.60726
659.922	15442.14105
660.121	15235.76588
660.319	15300.5107
660.518	15312.65038
660.716	15411.79152
660.915	15614.12418
661.113	15715.29327
661.312	14956.55384
661.51	15209.46334
661.709	14922.15784
661.907	15468.44406
662.105	15395.60515
662.304	15201.37026
662.502	15104.25326
662.701	15512.95707
662.899	15166.97466
663.097	15587.82055
663.296	15213.50989
663.494	15245.88225
663.692	15391.55856
663.891	15278.25465
664.089	15470.46738
664.287	15622.21762
664.485	15442.14105
664.684	15707.19966
664.882	15628.28772
665.08	15622.21762
665.278	15731.48053
665.476	15448.21097
665.675	15488.67721
665.873	15448.21097
666.071	15395.60515
666.269	15347.04619
666.467	15181.13755
666.665	15644.47467
666.863	15324.79007
667.061	15427.97792
667.259	15288.37103
667.457	15440.11774
667.655	15144.71868
667.853	15314.67366
668.051	15438.09444
668.249	15084.02053
668.447	15217.55643
668.645	15233.74261
668.843	15201.37026
669.041	15324.79007
669.239	15148.76522
669.437	15448.21097
669.635	15369.30235
669.833	15488.67721
670.031	15227.67279
670.229	15555.44704
670.426	15027.3688
670.624	15430.00123
670.822	15092.11362
671.02	15587.82055
671.218	15508.91042
671.415	15488.67721
671.613	15171.0212
671.811	15229.69606
672.009	15039.50847
672.206	15233.74261
672.404	15229.69606
672.602	15446.18766
672.799	15363.23249
672.997	15359.18591
673.195	15019.27568
673.392	15347.04619
673.59	15047.60158
673.788	14948.46067
673.985	14924.18113
674.183	15401.67504
674.38	15436.07114
674.578	15417.86142
674.775	15249.92879
674.973	15221.60297
675.17	15075.92743
675.368	15272.18482
675.565	15138.64887
675.763	15415.83812
675.96	15181.13755
676.158	15231.71934
676.355	14796.71231
676.553	15090.09035
676.75	14825.03893
676.947	15409.76823
677.145	14849.31878
677.342	15193.27718
677.539	14881.69178
677.737	15349.06948
677.934	15470.46738
678.131	15460.35082
678.329	15035.46191
678.526	15318.72022
678.723	15270.16154
678.92	15296.46414
679.118	15197.32372
679.315	15306.58054
679.512	14907.99474
679.709	15126.50924
679.906	14841.2255
680.104	15035.46191
680.301	14910.01804
680.498	14897.87823
680.695	14754.22212
680.892	15229.69606
681.089	14877.64516
681.286	14972.74015
681.483	14833.13222
681.68	15357.16262
681.877	14841.2255
682.075	14893.83162
682.272	14677.33419
682.469	15098.18344
682.665	14744.10536
682.862	15100.20671
683.059	15007.13599
683.256	14839.20218
683.453	14754.22212
683.65	14729.94186
683.847	14796.71231
684.044	14606.51514
684.241	14705.66147
684.438	14928.22773
684.635	14796.71231
684.831	14865.5053
685.028	14481.0608
685.225	15116.39289
685.422	14614.60881
685.619	14940.3675
685.815	14485.10779
686.012	14897.87823
686.209	14495.22524
686.405	14679.35757
686.602	14608.53856
686.799	14744.10536
686.996	14479.0373
687.192	14806.82897
687.389	14663.17048
687.586	14642.93652
687.782	14671.26404
687.979	15229.69606
688.175	14762.31552
688.372	14731.96522
688.568	14537.71819
688.765	14584.25745
688.962	14501.2957
689.158	14513.43657
689.355	14513.43657
689.551	14578.18715
689.748	14400.11977
689.944	14327.27073
690.14	14404.16687
690.337	14479.0373
690.533	14527.60087
690.73	14369.76626
690.926	14541.76511
691.123	14377.86056
691.319	14466.89628
691.515	14387.97841
691.712	14056.08918
691.908	14331.31795
692.104	14331.31795
692.301	14353.57757
692.497	14165.3757
692.693	14410.23753
692.889	14317.15263
693.086	14489.15477
693.282	14102.63793
693.478	14448.68466
693.674	14155.25685
693.87	14323.22349
694.067	14325.24711
694.263	14228.11148
694.459	14432.49646
694.655	14610.56198
694.851	14345.48319
695.047	14323.22349
695.243	14396.07265
695.439	14234.18258
695.635	14313.10538
695.831	14422.37879
696.027	14222.04036
696.224	14365.71909
696.42	14076.32792
696.615	14371.78983
696.811	14017.63494
697.007	14252.39578
697.203	13902.26682
697.399	14120.85234
697.595	13604.69582
697.791	14050.01752
697.987	13902.26682
698.183	14256.44314
698.379	14090.4949
698.575	14072.28019
698.77	14084.42335
698.966	14236.20627
699.162	13825.34992
699.358	14039.89803
699.554	13944.77184
699.749	14266.5615
699.945	13869.88125
700.141	14157.28062
700.337	14238.22997
700.532	14173.47075
700.728	14078.35178
700.924	14181.56577
701.119	13938.69976
701.315	13847.61576
701.511	13768.67167
701.706	13831.42246
701.902	13764.62313
702.097	13782.84145
702.293	14066.20858
702.489	14135.01898
702.684	13797.01108
702.88	13993.3476
703.075	13602.6713
703.271	13908.33904
703.466	13335.4014
703.662	13918.45934
703.857	14106.6856
704.053	14076.32792
704.248	13871.90537
704.443	14313.10538
704.639	14323.22349
704.834	14284.77444
705.03	13851.66405
705.225	14025.73064
705.42	13576.35211
705.616	14088.47105
705.811	13566.22919
706.006	13906.31497
706.202	13835.4708
706.397	13960.96392
706.592	13750.45316
706.787	13554.08157
706.983	13667.45452
707.178	13594.57315
707.373	13434.62297
707.568	13552.05696
707.763	13452.84631
707.959	13764.62313
708.154	13649.23459
708.349	13829.39828
708.544	13635.06334
708.739	13475.11887
708.934	13369.8263
709.129	13748.42886
709.324	13479.16837
709.519	13558.13079
709.714	13456.8959
709.909	13756.52602
710.104	13311.10076
710.299	13562.18
710.494	13519.66262
710.689	13345.5265
710.884	13108.57102
711.079	13438.67263
711.274	13582.42582
711.469	13651.25904
711.664	13556.10619
711.859	13829.39828
712.054	13738.30735
712.249	13545.98309
712.443	13124.77507
712.638	13537.88455
712.833	13284.77438
713.028	13363.75141
713.223	13155.15685
713.417	13256.42208
713.612	13191.61363
713.807	13335.4014
714.002	13280.7241
714.196	13438.67263
714.391	13226.04368
714.586	13616.84292
714.78	13153.13143
714.975	13477.14362
715.17	13021.469
715.364	13361.72643
715.559	13339.45145
715.754	13100.46888
715.948	13219.96788
716.143	13240.22039
716.337	13151.10601
716.532	13521.68729
716.726	13363.75141
716.921	13580.40126
717.115	13173.38542
717.31	13367.80134
717.504	13219.96788
717.699	13456.8959
717.893	13256.42208
718.088	13440.69745
718.282	13092.36667
718.476	13406.27493
718.671	12824.94862
718.865	12897.8898
719.059	12593.91977
719.254	12938.40969
719.448	12857.36779
719.642	12997.15984
719.837	12776.31721
720.031	12964.74649
720.225	12664.85782
720.419	12802.65962
720.614	12551.35333
720.808	12802.65962
721.002	12654.72426
721.196	12816.8436
721.39	12810.76479
721.585	12573.65038
721.779	12837.10597
721.973	12606.08111
722.167	12304.00588
722.361	12636.48349
722.555	12707.41712
722.749	12891.81163
722.943	12786.44902
723.137	12950.56524
723.331	12638.51027
723.525	12808.7385
723.719	12575.67734
723.913	12873.57685
724.107	12859.39394
724.301	12648.64406
724.495	12454.04808
724.689	12780.36995
724.883	12478.37579
725.077	12802.65962
725.271	12593.91977
725.465	12851.2893
725.659	12711.47025
725.853	12468.23936
726.046	12443.91126
726.24	12415.52727
726.434	12190.43499
726.628	12897.8898
726.822	12338.47835
727.015	12537.1639
727.209	12421.60966
727.403	12612.16169
727.596	12316.17287
727.79	12602.02735
727.984	12488.51205
728.177	12638.51027
728.371	12458.10276
728.565	12762.13244
728.758	12583.78515
728.952	12922.20198
729.146	12719.57644
729.339	12895.86375
729.533	12766.18526
729.726	12541.21805
729.92	12543.24512
730.113	12522.97416
730.307	12614.18854
730.5	12768.21166
730.694	12470.26666
730.887	12395.25219
731.081	12642.5638
731.274	12516.89274
731.468	12160.01034
731.661	12403.3623
731.854	12597.97357
732.048	12304.00588
732.241	12145.8116
732.435	12089.01293
732.628	12407.41732
732.821	12437.82908
733.014	12666.88451
733.208	12267.50341
733.401	12435.80168
733.594	12502.70256
733.788	12072.78364
733.981	12176.23703
734.174	12488.51205
734.367	12354.7
734.56	12332.39512
734.754	12273.58731
734.947	12456.07543
735.14	12330.36736
735.333	12711.47025
735.526	12585.81209
735.719	12322.25626
735.912	12228.97051
736.105	12125.52704
736.298	12310.08941
736.491	12301.97803
736.684	12168.12375
736.877	12326.31183
737.07	12344.56152
737.263	12251.27935
737.456	12226.94239
737.649	12299.95016
737.842	12447.96601
738.035	12210.71717
738.228	12105.24173
738.421	12379.03164
738.614	12186.37847
738.807	12046.40999
739	12135.66941
739.192	12176.23703
739.385	12180.29363
739.578	12283.72701
739.771	12237.08291
739.964	12068.72624
740.156	12190.43499
740.349	11999.74567
740.542	12013.9483
740.735	11951.04799
740.927	12210.71717
741.12	12204.6326
741.313	12224.91426
741.505	12439.85648
741.698	11953.07715
741.891	11940.90206
742.083	12160.01034
742.276	12210.71717
742.468	12040.32357
742.661	12009.89044
742.854	12168.12375
743.046	11760.26972
743.239	11928.72667
743.431	11993.65871
743.624	11656.73058
743.816	11644.54799
744.009	11815.07536
744.201	11451.61254
744.393	11567.38391
744.586	11480.05047
744.778	11662.82176
744.971	11561.29144
745.163	11656.73058
745.355	11620.18181
745.548	11697.33691
745.74	11652.66975
745.932	11681.09481
746.125	11813.04563
746.317	11987.57168
746.509	11790.71807
746.702	11880.02216
746.894	11538.95168
747.086	11713.57845
747.278	11571.44551
747.471	11845.52024
747.663	11691.24619
747.855	11961.19372
748.047	11715.6086
748.239	11561.29144
748.431	11829.28321
748.623	11794.7777
748.815	11904.37501
749.008	11882.05161
749.2	12024.09279
749.392	11926.69741
749.584	11778.53896
749.776	11924.66814
749.968	11540.98261
750.16	11660.79138
750.352	11664.85214
750.544	11577.53784
750.736	11713.57845
750.928	12013.9483
751.12	11626.27348
751.311	11567.38391
751.503	11701.39735
751.695	11685.15539
751.887	11325.65012
752.079	11693.27644
752.271	11711.54829
752.463	11228.10436
752.654	11425.20419
752.846	11620.18181
753.038	11250.46068
753.23	11433.33001
753.421	11232.16924
753.613	11315.4902
753.805	11518.64182
753.997	11612.05946
754.188	11254.52533
754.38	11287.04107
754.572	11116.30376
754.763	11163.06062
754.955	11024.80644
755.146	11213.87696
755.338	11095.97292
755.53	11144.76513
755.721	11004.4707
755.913	11335.80979
756.104	11028.87346
756.296	11299.2338
756.487	11095.97292
756.679	11333.77788
756.87	11138.66644
757.062	11201.68163
757.253	11404.88896
757.445	11156.96222
757.636	11132.56766
757.827	11022.77292
758.019	11024.80644
758.21	11037.00736
758.401	11197.61644
758.593	11004.4707
758.784	10853.95125
758.975	10988.2013
759.167	10626.01651
759.358	10868.19225
759.549	10591.40599
759.74	10760.35331
759.932	10652.48097
760.123	10691.15609
760.314	10711.50966
760.505	10772.56315
760.696	10546.61056
760.888	10980.06633
761.079	10882.43268
761.27	11000.40341
761.461	10518.10121
761.652	10727.79164
761.843	10713.54495
762.034	10579.18965
762.225	10558.8281
762.416	10507.9187
762.607	10434.59518
762.798	10644.33828
762.989	10595.478
763.18	10727.79164
763.371	10487.55272
763.562	10511.99174
763.753	10357.17991
763.944	10709.47435
764.135	10373.47943
764.326	10626.01651
764.517	10481.44268
764.708	10422.37297
764.899	10188.02184
765.089	10391.81539
765.28	10269.5554
765.471	10410.15029
765.662	10267.51733
765.853	10249.17405
766.043	10155.40227
766.234	10497.73587
766.425	10067.71952
766.615	10208.40728
766.806	10037.12638
766.997	10183.94459
767.187	10151.32458
767.378	10112.5837
767.569	10375.51681
767.759	10222.67627
767.95	10332.72904
768.141	10338.84193
768.331	10118.70101
768.522	9971.85028
768.712	9845.33547
768.903	10088.11317
769.093	9769.80754
769.284	9837.17127
769.474	9669.75216
769.665	9902.47817
769.855	9826.9657
770.046	10151.32458
770.236	9769.80754
770.426	9931.0452
770.617	9865.74491
770.807	9877.98986
770.998	10049.36402
771.188	9890.23428
771.378	9637.07301
771.569	9804.51211
771.759	9459.30982
771.949	9747.34932
772.139	9753.47447
772.33	9510.4035
772.52	9467.48548
772.71	9880.03063
772.9	9590.08977
773.09	9694.25892
773.281	9859.62223
773.471	9808.59472
773.661	9588.04683
773.851	9494.05461
774.041	9565.57348
774.231	9371.40506
774.421	9203.68827
774.611	9406.1617
774.802	9058.37829
774.992	9127.97414
775.182	9181.1811
775.372	9050.18922
775.562	8958.043
775.752	9035.85769
775.942	9072.70848
776.131	9158.67187
776.321	9397.98409
776.511	9492.01093
776.701	9457.26586
776.891	9361.18162
777.081	9308.01308
777.271	9350.95777
777.461	9350.95777
777.651	9581.91792
777.84	9248.69648
778.03	9105.46001
778.22	9234.37657
778.41	9170.94988
778.599	9101.36631
778.789	9387.76171
778.979	9130.02077
779.169	8947.80233
779.358	9017.43019
779.548	8888.39769
779.738	8990.81017
779.927	9056.33105
780.117	8941.65771
780.307	8929.36801
780.496	8763.39384
780.686	8814.63307
780.875	8804.38613
781.065	9080.89678
781.254	8513.18095
781.444	9048.14191
781.633	8816.6824
781.823	9168.90359
782.012	9123.88081
782.202	8826.92879
782.391	8945.75414
782.581	8904.78668
782.77	8908.88374
782.96	8869.95872
783.149	8804.38613
783.338	8935.51294
783.528	8478.29303
783.717	8749.04482
783.906	8533.70069
784.096	8607.55612
784.285	8264.73994
784.474	8387.96921
784.663	8369.48929
784.853	8465.97833
785.042	8309.93217
785.231	8330.47095
785.42	8289.39142
785.61	8207.20879
785.799	8143.49544
785.988	8314.04008
786.177	8168.16094
786.366	8418.7656
786.555	8289.39142
786.744	8482.39778
786.933	8227.75741
787.122	8344.84695
787.312	8170.21627
787.501	8293.49973
787.69	8104.43584
787.879	8104.43584
788.068	8133.2173
788.257	8254.46766
788.445	7974.8703
788.634	8198.98879
788.823	8079.76288
789.012	8030.40824
789.201	7964.58387
789.39	8104.43584
789.579	7719.61435
789.768	8057.14345
789.957	7771.103
790.145	7826.69604
790.334	7974.8703
790.523	7904.91244
790.712	7777.28075
790.9	7857.57451
791.089	7641.32639
791.278	8161.99484
791.467	7814.34334
791.655	8071.53792
791.844	7865.80798
792.033	8034.52158
792.221	7719.61435
792.41	7857.57451
792.599	7645.44757
792.787	7787.5766
792.976	7791.69479
793.164	7795.81289
793.353	7707.25512
793.541	7923.43301
793.73	7810.22561
793.918	7760.80632
794.107	7752.5686
794.295	7754.62806
794.484	7709.31505
794.672	7606.29292
794.861	7612.47575
795.049	7923.43301
795.238	7472.28443
795.426	7791.69479
795.614	7758.74692
795.803	7595.98779
795.991	7822.57856
796.179	7723.73393
796.368	7521.77505
796.556	7641.32639
796.744	7383.58257
796.932	7546.51572
797.121	7301.03305
797.309	7426.90709
797.497	7468.15965
797.685	7610.41483
797.874	7422.78136
798.062	7216.38333
798.25	7183.33923
798.438	7402.1514
798.626	7494.96917
798.814	7480.53373
799.002	7121.36621
799.19	7389.77237
799.378	7015.96599
799.566	7280.39019
799.755	6999.42733
799.943	7234.96815
800.131	7280.39019
800.318	7203.99246
800.506	7018.03322
800.694	7135.82837
800.882	7036.63729
801.07	7439.28377
801.258	7422.78136
801.446	7542.39249
801.634	7195.73143
801.822	7395.96198
802.01	7156.48671
802.197	7379.45592
802.385	7073.83999
802.573	7284.51894
802.761	7077.97317
802.949	7373.26579
803.136	7077.97317
803.324	7389.77237
803.512	7065.57335
803.699	7422.78136
803.887	7350.56696
804.075	7472.28443
804.262	7340.24843
804.45	7265.93888
804.638	7164.74942
804.825	7292.77617
805.013	6941.53066
805.201	7451.65967
805.388	7301.03305
805.576	7482.596
805.763	7249.42178
805.951	7301.03305
806.138	7305.16136
806.326	7305.16136
806.513	7106.90296
806.701	7536.20748
806.888	7065.57335
807.075	7352.6306
807.263	6945.66672
807.45	7216.38333
807.638	7034.57026
807.825	7125.49837
808.012	7187.47005
808.2	7290.71189
808.387	7193.66612
808.574	7294.84042
808.761	6962.21007
808.949	7298.96886
809.136	7123.4323
809.323	7166.81505
809.51	7305.16136
809.698	7148.22364
809.885	7164.74942
810.072	7181.27378
810.259	7379.45592
810.446	7175.07732
810.633	7148.22364
810.82	7412.46665
811.008	7445.47182
811.195	7406.27756
811.382	7365.01198
811.569	7387.70913
811.756	7301.03305
811.943	7342.31218
812.13	7428.96993
812.317	7443.40916
812.504	7404.21449
812.691	7395.96198
812.878	7230.83835
813.064	7538.26917
813.251	7125.49837
813.438	7404.21449
813.625	7216.38333
813.812	7334.05706
813.999	7111.03543
814.186	7162.68378
814.372	7189.53543
814.559	7435.1583
814.746	7024.23478
814.933	7383.58257
815.12	7065.57335
815.306	6900.16505
815.493	7230.83835
815.68	7303.09721
815.866	7173.01178
816.053	7354.69422
816.24	7367.07546
816.426	7150.28944
816.613	6929.12193
816.799	7197.79672
816.986	7220.51345
817.173	7191.60079
817.359	7206.05766
817.546	7210.188
817.732	7042.83824
817.919	7307.22548
818.105	6788.43255
818.292	6966.34568
818.478	7044.90518
818.665	7197.79672
818.851	7018.03322
819.037	7055.23955
819.224	6836.03043
819.41	6958.07437
819.597	6949.80269
819.783	7063.50663
819.969	6937.3945
820.156	6966.34568
820.342	6958.07437
820.528	6966.34568
820.714	6587.56039
820.901	7268.00342
821.087	6920.84899
821.273	7036.63729
821.459	6695.27131
821.646	7206.05766
821.832	6982.88722
822.018	7160.61811
822.204	6833.96121
822.39	6809.12877
822.576	6780.15343
822.762	7057.30635
822.948	6655.92261
823.134	6662.13611
823.32	6684.91719
823.507	6827.75341
823.693	6711.8367
823.879	6782.22325
824.065	6608.27886
824.25	6674.5625
824.436	6517.10027
824.622	6875.34134
824.808	6672.49149
824.994	6635.20944
825.18	6361.5787
825.366	6577.20028
825.552	6403.06392
825.738	6747.03328
825.923	6668.34941
826.109	6860.85933
826.295	6635.20944
826.481	6655.92261
826.667	6477.71384
826.852	6657.9938
827.038	6589.63234
827.224	6597.91991
827.409	6519.17301
827.595	6570.98394
827.781	6552.33367
827.966	6784.29304
828.152	6297.25816
828.338	6676.63348
828.523	6232.91515
828.709	6504.66336
828.894	6272.35386
829.08	6643.49498
829.266	6326.30893
829.451	6427.95057
829.637	6257.82479
829.822	6270.27835
830.008	6390.61933
830.193	6374.02524
830.378	6189.31516
830.564	6527.46373
830.749	6220.45907
830.935	6672.49149
831.12	6178.93268
831.305	6234.99108
831.491	6249.52195
831.676	6411.35984
831.861	6093.77424
832.047	6249.52195
832.232	5929.57692
832.417	6359.50419
832.602	5908.78196
832.788	6095.85174
832.973	5854.70403
833.158	6174.77953
833.343	5939.97351
833.528	6054.29717
833.714	6104.16153
833.899	6089.61916
834.084	5987.79026
834.269	6199.69705
834.454	5681.96388
834.639	6087.54158
834.824	5756.90729
835.009	6031.43814
835.194	5652.81096
835.379	5929.57692
835.564	5627.81907
835.749	5852.62379
835.934	5831.8201
836.119	5854.70403
836.304	5819.33676
836.489	5723.60288
836.674	5671.55265
836.859	5833.90058
837.044	5969.08084
837.228	5967.0019
837.413	5700.7026
837.598	5912.94114
837.783	5704.8665
837.968	5954.52776
838.152	5679.88168
838.337	5771.47606
838.522	5615.32185
838.707	5729.84792
838.891	5436.10179
839.076	5665.30564
839.261	5465.28901
839.445	5771.47606
839.63	5342.25453
839.815	5663.22325
839.999	5563.24095
840.184	5817.25612
840.368	5521.56564
840.553	5671.55265
840.737	5500.72444
840.922	5581.99177
841.106	5398.56859
841.291	5371.45655
841.475	5175.29786
841.66	5444.44147
841.844	5029.08848
842.029	5448.61117
842.213	5108.4734
842.397	5200.35089
842.582	5189.91253
842.766	5400.65397
842.951	5354.77025
843.135	5386.05584
843.319	5248.35981
843.504	5396.48319
843.688	5310.96156
843.872	5371.45655
844.056	5371.45655
844.241	5513.22944
844.425	5087.58587
844.609	5246.27272
844.793	5214.9636
844.977	5438.18675
845.161	5121.0048
845.346	5340.1685
845.53	5077.14124
845.714	5204.52607
845.898	4870.21873
846.082	5148.15329
846.266	4972.66313
846.45	5037.44636
846.634	4830.4806
846.818	4893.22124
847.002	4719.58873
847.186	5047.89319
847.37	4713.30993
847.554	5148.15329
847.738	5004.01262
847.922	5045.80387
848.106	4790.73424
848.29	4912.03942
848.473	4893.22124
848.657	5022.81983
848.841	4912.03942
849.025	4807.47055
849.209	4541.61116
849.392	4788.6421
849.576	4587.69143
849.76	4516.47194
849.944	4581.40839
850.127	4790.73424
850.311	4568.84171
850.495	4746.79452
850.678	4606.53935
850.862	5024.9094
851.046	4522.75704
851.229	4853.48789
851.413	4352.98981
851.596	4512.28176
851.78	4535.32666
851.964	4589.78574
852.147	4300.56367
852.331	4671.44608
852.514	4493.42486
852.698	4604.44522
852.881	4434.74753
853.065	4510.18664
853.248	4558.36887
853.431	4748.88711
853.615	4229.24255
853.798	4598.16272
853.982	4065.53099
854.165	4434.74753
854.348	4204.0645
854.532	4520.66203
854.715	4159.99558
854.898	4348.79622
855.081	4229.24255
855.265	4570.93622
855.448	4409.59484
855.631	4640.04228
855.814	4336.21492
855.997	4332.02097
856.181	4082.32778
856.364	4237.63455
856.547	4084.42729
856.73	4067.63066
856.913	4107.52047
857.096	4174.68625
857.279	4071.82994
857.462	4082.32778
857.645	3981.52722
857.828	4199.86786
858.011	4080.22826
858.194	4210.3593
858.377	4170.48902
858.56	3960.52116
858.743	3889.08539
858.926	4036.13342
859.109	3783.99083
859.292	3916.40182
859.475	3796.60478
859.658	4023.53322
859.841	3826.03459
860.023	3933.21024
860.206	3779.78602
860.389	4019.33299
860.572	3796.60478
860.755	3947.91655
860.937	3765.06857
861.12	3901.6934
861.303	3826.03459
861.486	3947.91655
861.668	3611.53032
861.851	3783.99083
862.034	3579.96885
862.216	3611.53032
862.399	3329.43575
862.581	3438.94363
862.764	3521.04291
862.947	3706.18927
863.129	3579.96885
863.312	3470.52353
863.494	3285.19809
863.677	3512.62374
863.859	3342.07369
864.042	3426.31054
864.224	3287.30482
864.406	3561.02995
864.589	3133.46992
864.771	3533.67112
864.954	3344.17995
865.136	3472.62872
865.318	3205.13001
865.501	3409.46543
865.683	3259.91605
865.865	3249.38115
866.048	3165.08699
866.23	3255.70214
866.412	3278.87781
866.594	3190.37801
866.777	3101.84925
866.959	3342.07369
867.141	3049.14021
867.323	3384.19563
867.505	3207.23738
867.687	3295.73155
867.869	2869.85836
868.052	3373.6658
868.234	2996.42148
868.416	3152.4406
868.598	3131.36199
868.78	3369.45375
868.962	3291.51822
869.144	3262.02298
869.326	3118.71405
869.508	3379.98375
869.69	2909.94239
869.872	3219.88121
870.054	3165.08699
870.236	3211.45205
870.417	2941.58397
870.599	3063.89973
870.781	2945.8026
870.963	3209.34472
871.145	3030.16257
871.327	3150.33281
871.508	2966.89485
871.69	3139.79363
871.872	2869.85836
872.054	3080.76681
872.235	2901.50408
872.417	3224.09569
872.599	2888.84618
872.78	3203.02263
872.962	2933.14654
873.144	3144.00935
873.325	2933.14654
873.507	3158.76387
873.689	2947.91189
873.87	2928.92773
874.052	2812.88803
874.233	2907.83283
874.415	2770.68126
874.596	3047.03165
874.778	3030.16257
874.959	3030.16257
875.141	2928.92773
875.322	3133.46992
875.503	3051.24876
875.685	3047.03165
875.866	2658.80758
876.048	2912.05193
876.229	2852.97933
876.41	2844.53948
876.592	2692.58462
876.773	3021.72767
876.954	2772.79173
877.136	2971.11312
877.317	2793.89566
877.498	3017.51012
877.679	3000.63933
877.86	2861.41896
878.042	2810.77782
878.223	3049.14021
878.404	2629.25002
878.585	3061.79127
878.766	2641.91784
878.947	2926.81831
879.128	2652.47402
879.309	2899.39446
879.49	2663.02988
879.672	2966.89485
879.853	2871.96817
880.034	2855.08926
880.215	2593.35543
880.396	3009.07485
880.576	2781.23347
880.757	2939.47464
880.938	2739.02264
881.119	3196.7004
881.3	3006.96599
881.481	3257.80911
881.662	2895.17519
881.843	3087.09171
882.023	3038.59723
882.204	3034.37993
882.385	2950.02117
882.566	3144.00935
882.747	2861.41896
882.927	3036.48859
883.108	2836.0994
883.289	2897.28484
883.469	2831.87927
883.65	2914.16146
883.831	2614.47032
884.011	3006.96599
884.192	2871.96817
884.373	3021.72767
884.553	2962.67652
884.734	3017.51012
884.914	2871.96817
885.095	3097.63288
885.275	2850.86939
885.456	3051.24876
885.636	2922.59942
885.817	3148.22501
885.997	2981.65854
886.178	3028.05387
886.358	2924.70887
886.538	3084.98342
886.719	2840.31946
886.899	3017.51012
887.08	2869.85836
887.26	3215.66666
887.44	3215.66666
887.621	3249.38115
887.801	2895.17519
887.981	3295.73155
888.161	3099.74107
888.342	3198.80783
888.522	2793.89566
888.702	3131.36199
888.882	2863.52883
889.062	3141.9015
889.242	3011.18369
889.423	3034.37993
889.603	2772.79173
889.783	3066.00817
889.963	2772.79173
890.143	3127.14608
890.323	2762.23926
890.503	3169.30232
890.683	3038.59723
890.863	3114.49795
891.043	2969.00399
891.223	3038.59723
891.403	2844.53948
891.583	3023.83642
891.763	2838.20944
891.943	2950.02117
892.122	2679.91861
892.302	3129.25404
892.482	2945.8026
892.662	2979.54948
892.842	2827.65909
893.022	2998.53042
893.201	2909.94239
893.381	2975.33133
893.561	2817.1084
893.741	2947.91189
893.92	2667.25214
894.1	2751.68645
894.28	2669.36325
894.459	2922.59942
894.639	2424.39433
894.819	2886.73648
894.998	2701.02836
895.178	2983.76757
895.357	2565.90427
895.537	2831.87927
895.716	2684.14066
895.896	2971.11312
896.075	2616.58174
896.255	2863.52883
896.434	2608.13598
896.614	2920.48995
896.793	2601.80153
896.973	2882.51703
897.152	2498.32374
897.331	2627.13867
897.511	2637.69528
897.69	2760.12872
897.87	2618.69315
898.049	2760.12872
898.228	2557.45736
898.407	2717.91523
898.587	2380.03039
898.766	2825.54898
898.945	2460.30458
899.124	2523.66783
899.304	2388.48102
899.483	2599.69003
899.662	2498.32374
899.841	2606.02451
900.02	2358.90311
900.199	2472.97803
900.378	2386.36838
900.557	2365.2414
900.737	2278.61046
900.916	2456.08
901.095	2270.1578
901.274	2375.80501
901.453	2210.98516
901.632	2185.62336
901.811	2075.70877
901.989	2202.53136
902.168	2022.85804
902.347	2170.82842
902.526	1866.39664
902.705	2027.08625
902.884	2012.28737
903.063	2272.27098
903.242	2092.62006
903.42	1974.23165
903.599	1798.72862
903.778	1984.80289
903.957	1902.34325
904.135	2033.42853
904.314	1847.3655
904.493	1940.40265
904.672	1838.90708
904.85	1915.02992
905.029	1866.39664
905.207	1752.20428
905.386	1864.28209
905.565	1771.2372
905.743	1703.56329
905.922	1762.77816
906.1	1625.3114
906.279	1745.85991
906.457	1411.69361
906.636	1724.71177
906.814	1557.63163
906.993	1663.38034
907.171	1481.4903
907.35	1673.9549
907.528	1413.80866
907.707	1644.34597
907.885	1301.71254
908.063	1494.18059
908.242	1382.08301
908.42	1538.59641
908.598	1339.7825
908.777	1434.95916
908.955	1348.24256
909.133	1464.56989
909.311	1403.23343
909.49	1434.95916
909.668	1263.64323
909.846	1447.64947
910.024	1333.43747
910.202	1441.30431
910.38	1470.91504
910.559	1477.2602
910.737	1246.72379
910.915	1445.53442
911.093	1407.46352
911.271	1557.63163
911.449	1403.23343
911.627	1627.42636
911.805	1411.69361
911.983	1638.00113
912.161	1399.00334
912.339	1650.69078
912.517	1388.42813
912.695	1703.56329
912.872	1373.62287
913.05	1644.34597
913.228	1282.67779
913.406	1589.35675
913.584	1365.16275
913.762	1576.66675
913.939	1248.83871
914.117	1487.83544
914.295	1415.92371
914.473	1424.3839
914.65	1358.81767
914.828	1525.90622
915.006	1422.26885
915.184	1390.54317
915.361	1223.45986
915.539	1318.63245
915.716	1238.26414
915.894	1458.22473
916.072	1377.85294
916.249	1418.03876
916.427	1195.9666
916.604	1449.76452
916.782	1215.00033
916.959	1375.73791
917.137	1242.49396
917.314	1411.69361
917.492	1225.57474
917.669	1339.7825
917.847	1257.29842
918.024	1265.75817
918.201	1162.12957
918.379	1272.10301
918.556	1153.67046
918.733	1327.09245
918.911	1149.44094
919.088	1289.02269
919.265	1031.02181
919.442	1286.90772
919.62	1081.77092
919.797	1200.1963
919.974	1075.42711
920.151	1060.62508
920.328	1128.29355
920.506	1255.18349
920.683	1231.91943
920.86	1179.04797
921.037	982.39044
921.214	1094.45868
921.391	1003.53411
921.568	1111.37596
921.745	967.59026
921.922	1069.08335
922.099	1052.16689
922.276	1056.39597
922.453	863.99908
922.63	1138.86719
922.807	1028.90734
922.984	984.50478
923.161	802.69936
923.338	1014.10618
923.514	853.42963
923.691	961.24743
923.868	935.87675
924.045	908.39304
924.222	785.79045
924.399	1071.19793
924.575	775.2227
924.752	935.87675
924.929	849.20191
925.105	895.70869
925.282	806.92668
925.459	895.70869
925.635	751.97453
925.812	918.96355
925.989	796.35845
926.165	885.13862
926.342	781.56332
926.518	929.53424
926.695	768.88217
926.871	861.88518
927.048	705.48196
927.224	743.52096
927.401	716.048
927.577	768.88217
927.754	654.76892
927.93	739.29423
928.107	675.89855
928.283	828.06384
928.459	599.83753
928.636	741.40759
928.812	633.64047
928.988	604.06272
929.165	566.03788
929.341	591.3873
929.517	589.27478
929.693	661.10768
929.87	572.37505
930.046	726.61431
930.222	578.71235
930.398	585.04977
930.574	656.88183
930.751	637.86606
930.927	544.91483
931.103	680.12461
931.279	566.03788
931.455	570.26265
931.631	441.43252
931.807	642.09171
931.983	428.76371
932.159	487.88959
932.335	456.21352
932.511	487.88959
932.687	418.2068
932.863	494.22521
933.039	454.1019
933.215	443.54405
933.391	405.53904
933.566	536.46599
933.742	403.4278
933.918	464.66014
934.094	367.53931
934.27	490.00145
934.445	316.8816
934.621	443.54405
934.797	342.2092
934.973	380.20529
935.148	428.76371
935.324	397.09419
935.5	356.9848
935.675	397.09419
935.851	259.90403
936.027	318.99213
936.202	198.72135
936.378	281.00526
936.553	318.99213
936.729	327.43445
936.904	274.6747
937.08	232.47528
937.255	200.83082
937.431	262.01407
937.606	148.10019
937.782	181.84631
937.957	164.97259
938.133	148.10019
938.308	243.02442
938.483	131.22915
938.659	219.81696
938.834	150.20917
939.009	110.14229
939.185	74.29967
939.36	114.35949
939.535	173.40929
939.71	133.33796
939.886	118.57677
940.061	139.6645
940.236	38.46358
940.411	99.59967
940.586	124.90287
940.761	80.62436
940.937	139.6645
941.112	120.68545
941.287	175.51851
941.462	118.57677
941.637	74.29967
941.812	76.40788
941.987	74.29967
942.162	65.86705
942.337	124.90287
942.512	101.70815
942.687	105.92518
942.862	40.5714
943.037	67.97517
943.212	131.22915
943.386	135.44678
943.561	42.67924
943.736	148.10019
943.911	118.57677
944.086	122.79415
944.26	80.62436
944.435	131.22915
944.61	152.31817
944.785	139.6645
944.959	116.46812
945.134	-5.79519
945.309	67.97517
945.483	32.14026
945.658	139.6645
945.833	135.44678
946.007	82.73264
946.182	217.70731
946.357	160.75436
946.531	93.27437
946.706	51.11085
946.88	82.73264
947.055	158.64528
947.229	59.54283
947.404	23.70949
947.578	82.73264
947.752	65.86705
947.927	46.895
948.101	131.22915
948.276	27.92483
948.45	108.03372
948.624	27.92483
948.799	91.16598
948.973	67.97517
949.147	143.8823
949.321	74.29967
949.496	105.92518
949.67	67.97517
949.844	127.01161
950.018	61.65088
950.193	101.70815
950.367	84.84094
950.541	110.14229
950.715	133.33796
950.889	89.05761
951.063	118.57677
951.237	49.00291
951.411	84.84094
951.585	116.46812
951.759	59.54283
951.933	124.90287
952.107	93.27437
952.281	55.32679
952.455	78.51611
952.629	141.77339
952.803	74.29967
952.977	70.08331
953.151	152.31817
953.325	122.79415
953.499	164.97259
953.672	25.81715
953.846	63.75895
954.02	72.19148
954.194	103.81665
954.368	127.01161
954.541	80.62436
954.715	97.49122
954.889	84.84094
955.062	118.57677
955.236	139.6645
955.41	103.81665
955.583	148.10019
955.757	76.40788
955.93	103.81665
956.104	105.92518
956.278	44.78711
956.451	169.1909
956.625	108.03372
956.798	25.81715
956.972	72.19148
957.145	183.95562
957.319	127.01161
957.492	133.33796
957.665	105.92518
957.839	112.25088
958.012	114.35949
958.185	21.60186
958.359	105.92518
958.532	118.57677
958.705	72.19148
958.879	105.92518
959.052	122.79415
959.225	108.03372
959.398	152.31817
959.572	89.05761
959.745	160.75436
959.918	122.79415
960.091	108.03372
960.264	84.84094
960.438	55.32679
960.611	21.60186
960.784	97.49122
960.957	46.895
961.13	67.97517
961.303	164.97259
961.476	177.62776
961.649	116.46812
961.822	131.22915
961.995	131.22915
962.168	86.94927
962.341	57.4348
962.514	78.51611
962.686	156.53622
962.859	139.6645
963.032	91.16598
963.205	67.97517
963.378	122.79415
963.551	38.46358
963.723	74.29967
963.896	72.19148
964.069	63.75895
964.242	65.86705
964.414	181.84631
964.587	93.27437
964.76	133.33796
964.932	114.35949
965.105	141.77339
965.278	133.33796
965.45	34.24801
965.623	101.70815
965.795	99.59967
965.968	30.03253
966.14	89.05761
966.313	53.21881
966.485	105.92518
966.658	158.64528
966.83	72.19148
967.003	93.27437
967.175	67.97517
967.348	101.70815
967.52	103.81665
967.692	97.49122
967.865	63.75895
968.037	80.62436
968.209	82.73264
968.382	108.03372
968.554	21.60186
968.726	150.20917
968.898	99.59967
969.071	89.05761
969.243	118.57677
969.415	25.81715
969.587	97.49122
969.759	84.84094
969.932	181.84631
970.104	49.00291
970.276	118.57677
970.448	74.29967
970.62	38.46358
970.792	-1.58052
970.964	74.29967
971.136	118.57677
971.308	6.8491
971.48	63.75895
971.652	76.40788
971.824	27.92483
971.996	114.35949
972.168	80.62436
972.339	84.84094
972.511	84.84094
972.683	131.22915
972.855	57.4348
973.027	38.46358
973.199	49.00291
973.37	32.14026
973.542	82.73264
973.714	110.14229
973.886	116.46812
974.057	53.21881
974.229	55.32679
974.401	122.79415
974.572	51.11085
974.744	80.62436
974.915	80.62436
975.087	105.92518
975.259	91.16598
975.43	114.35949
975.602	6.8491
975.773	6.8491
975.945	38.46358
976.116	70.08331
976.288	67.97517
976.459	25.81715
976.63	55.32679
976.802	148.10019
976.973	65.86705
977.145	46.895
977.316	34.24801
977.487	84.84094
977.659	76.40788
977.83	13.17157
978.001	63.75895
978.172	70.08331
978.344	91.16598
978.515	86.94927
978.686	42.67924
978.857	23.70949
979.028	99.59967
979.2	57.4348
979.371	17.38667
979.542	143.8823
979.713	27.92483
979.884	86.94927
980.055	74.29967
980.226	116.46812
980.397	114.35949
980.568	93.27437
980.739	38.46358
980.91	84.84094
981.081	23.70949
981.252	67.97517
981.423	63.75895
981.594	40.5714
981.765	51.11085
981.936	34.24801
982.106	162.86346
982.277	63.75895
982.448	42.67924
982.619	38.46358
982.79	30.03253
982.96	30.03253
983.131	110.14229
983.302	23.70949
983.472	21.60186
983.643	89.05761
983.814	40.5714
983.984	91.16598
984.155	-7.90249
984.326	97.49122
984.496	38.46358
984.667	4.74166
984.837	30.03253
985.008	30.03253
985.178	116.46812
985.349	97.49122
985.519	30.03253
985.69	-31.08114
985.86	51.11085
986.031	63.75895
986.201	127.01161
986.371	118.57677
986.542	-10.00976
986.712	40.5714
986.882	19.49425
987.053	93.27437
987.223	-20.54576
987.393	17.38667
987.563	74.29967
987.734	38.46358
987.904	-3.68787
988.074	78.51611
988.244	84.84094
988.414	112.25088
988.585	40.5714
988.755	42.67924
988.925	72.19148
989.095	0.52684
989.265	2.63424
989.435	49.00291
989.605	122.79415
989.775	63.75895
989.945	59.54283
990.115	2.63424
990.285	32.14026
990.455	46.895
990.625	63.75895
990.795	13.17157
990.965	82.73264
991.134	46.895
991.304	-26.86706
991.474	55.32679
991.644	108.03372
991.814	17.38667
991.984	72.19148
992.153	110.14229
992.323	0.52684
992.493	34.24801
992.662	-10.00976
992.832	-52.15005
993.002	72.19148
993.171	101.70815
993.341	76.40788
993.511	51.11085
993.68	40.5714
993.85	65.86705
994.019	36.35578
994.189	108.03372
994.358	25.81715
994.528	32.14026
994.697	93.27437
994.867	80.62436
995.036	46.895
995.206	51.11085
995.375	49.00291
995.544	-3.68787
995.714	8.95656
995.883	23.70949
996.052	72.19148
996.222	38.46358
996.391	25.81715
996.56	8.95656
996.73	46.895
996.899	116.46812
997.068	17.38667
997.237	23.70949
997.406	46.895
997.576	49.00291
997.745	30.03253
997.914	99.59967
998.083	131.22915
998.252	57.4348
998.421	70.08331
998.59	-37.40208
998.759	-12.11701
998.928	32.14026
999.097	32.14026
999.266	97.49122
999.435	82.73264
999.604	63.75895
999.773	30.03253
999.942	15.2791
1000.111	76.40788
1000.28	21.60186
1000.448	11.06405
1000.617	46.895
1000.786	34.24801
1000.955	-3.68787
1001.124	-10.00976
1001.292	42.67924
1001.461	13.17157
1001.63	51.11085
1001.798	97.49122
1001.967	78.51611
1002.136	46.895
1002.304	21.60186
1002.473	49.00291
1002.642	34.24801
1002.81	65.86705
1002.979	34.24801
1003.147	53.21881
1003.316	-16.33143
1003.484	13.17157
1003.653	25.81715
1003.821	2.63424
1003.99	57.4348
1004.158	103.81665
1004.327	19.49425
1004.495	-16.33143
1004.663	97.49122
1004.832	80.62436
1005	49.00291
1005.168	-24.75999
1005.337	15.2791
1005.505	-50.04327
1005.673	30.03253
1005.842	34.24801
1006.01	89.05761
1006.178	23.70949
1006.346	-12.11701
1006.514	44.78711
1006.683	-28.97412
1006.851	122.79415
1007.019	6.8491
1007.187	13.17157
1007.355	76.40788
1007.523	23.70949
1007.691	110.14229
1007.859	-1.58052
1008.027	8.95656
1008.195	13.17157
1008.363	40.5714
1008.531	118.57677
1008.699	15.2791
1008.867	-16.33143
1009.035	-20.54576
1009.203	-3.68787
1009.37	4.74166
1009.538	25.81715
1009.706	34.24801
1009.874	-3.68787
1010.042	30.03253
1010.209	78.51611
1010.377	139.6645
1010.545	38.46358
1010.713	34.24801
1010.88	-5.79519
1011.048	38.46358
1011.216	67.97517
1011.383	-3.68787
1011.551	34.24801
1011.718	30.03253
1011.886	11.06405
1012.054	-20.54576
1012.221	49.00291
1012.389	6.8491
1012.556	-28.97412
1012.724	30.03253
1012.891	59.54283
1013.058	46.895
1013.226	61.65088
1013.393	42.67924
1013.561	25.81715
1013.728	38.46358
1013.895	4.74166
1014.063	91.16598
1014.23	46.895
1014.397	49.00291
1014.565	-69.00336
1014.732	4.74166
1014.899	-33.18815
1015.066	55.32679
1015.233	-18.43861
1015.401	23.70949
1015.568	6.8491
1015.735	59.54283
1015.902	19.49425
1016.069	82.73264
1016.236	15.2791
1016.403	49.00291
1016.57	38.46358
1016.737	59.54283
1016.904	36.35578
1017.071	4.74166
1017.238	21.60186
1017.405	17.38667
1017.572	42.67924
1017.739	40.5714
1017.906	38.46358
1018.073	-1.58052
1018.24	23.70949
1018.407	6.8491
1018.573	38.46358
1018.74	101.70815
1018.907	74.29967
1019.074	57.4348
1019.241	38.46358
1019.407	55.32679
1019.574	19.49425
1019.741	46.895
1019.907	63.75895
1020.074	8.95656
1020.241	23.70949
1020.407	72.19148
1020.574	72.19148
1020.74	63.75895
1020.907	-66.89679
1021.073	30.03253
1021.24	80.62436
1021.406	-52.15005
1021.573	-3.68787
1021.739	4.74166
1021.906	32.14026
1022.072	46.895
1022.239	67.97517
1022.405	-1.58052
1022.571	-41.61591
1022.738	-18.43861
1022.904	30.03253
1023.07	61.65088
1023.237	-12.11701
1023.403	-1.58052
1023.569	-12.11701
1023.735	63.75895
1023.902	72.19148
1024.068	-12.11701
1024.234	30.03253
1024.4	19.49425
1024.566	63.75895
1024.732	2.63424
1024.898	11.06405
1025.065	25.81715
1025.231	-10.00976
1025.397	-28.97412
1025.563	59.54283
1025.729	34.24801
1025.895	57.4348
1026.061	-18.43861
1026.227	0.52684
1026.392	44.78711
1026.558	30.03253
1026.724	-3.68787
1026.89	-50.04327
1027.056	40.5714
1027.222	-43.72279
1027.388	-20.54576
1027.553	19.49425
1027.719	38.46358
1027.885	32.14026
1028.051	80.62436
1028.216	114.35949
1028.382	-12.11701
1028.548	27.92483
1028.713	40.5714
1028.879	44.78711
1029.045	38.46358
1029.21	-24.75999
1029.376	46.895
1029.541	-45.82964
1029.707	59.54283
1029.873	-45.82964
1030.038	44.78711
1030.204	51.11085
1030.369	42.67924
1030.534	78.51611
1030.7	70.08331
1030.865	108.03372
1031.031	21.60186
1031.196	44.78711
1031.361	15.2791
1031.527	6.8491
1031.692	-22.65289
1031.857	4.74166
1032.023	21.60186
1032.188	-50.04327
1032.353	-26.86706
1032.518	-16.33143
1032.684	30.03253
1032.849	-3.68787
1033.014	-41.61591
1033.179	-16.33143
1033.344	46.895
1033.509	38.46358
1033.674	-35.29512
1033.839	4.74166
1034.004	-3.68787
1034.17	32.14026
1034.335	40.5714
1034.5	-20.54576
1034.664	-39.50901
1034.829	-47.93647
1034.994	-3.68787
1035.159	4.74166
1035.324	13.17157
1035.489	23.70949
1035.654	89.05761
1035.819	-5.79519
1035.984	78.51611
1036.148	-31.08114
1036.313	-35.29512
1036.478	6.8491
1036.643	-37.40208
1036.807	49.00291
1036.972	-45.82964
1037.137	46.895
1037.301	-18.43861
1037.466	8.95656
1037.631	-12.11701
1037.795	59.54283
1037.96	23.70949
1038.124	80.62436
1038.289	-16.33143
1038.454	-12.11701
1038.618	6.8491
1038.783	-66.89679
1038.947	63.75895
1039.111	-18.43861
1039.276	34.24801
1039.44	25.81715
1039.605	46.895
1039.769	15.2791
1039.933	-62.68356
1040.098	-12.11701
1040.262	57.4348
1040.426	53.21881
1040.591	-33.18815
1040.755	21.60186
1040.919	8.95656
1041.083	-7.90249
1041.248	46.895
1041.412	6.8491
1041.576	-37.40208
1041.74	72.19148
1041.904	15.2791
1042.068	32.14026
1042.232	30.03253
1042.397	-10.00976
1042.561	0.52684
1042.725	80.62436
1042.889	-10.00976
1043.053	19.49425
1043.217	46.895
1043.381	-14.22423
1043.544	57.4348
1043.708	46.895
1043.872	82.73264
1044.036	6.8491
1044.2	38.46358
1044.364	32.14026
1044.528	55.32679
1044.691	-5.79519
1044.855	32.14026
1045.019	13.17157
1045.183	72.19148
1045.346	4.74166
1045.51	49.00291
1045.674	13.17157
1045.837	13.17157
1046.001	51.11085
1046.165	30.03253
1046.328	13.17157
1046.492	30.03253
1046.655	42.67924
1046.819	-37.40208
1046.983	55.32679
1047.146	21.60186
1047.31	-52.15005
1047.473	42.67924
1047.636	55.32679
1047.8	-3.68787
1047.963	25.81715
1048.127	-16.33143
1048.29	65.86705
