Data from mixed_try1_USB4F045381__18__00040.txt Node

Date: Thu Apr 03 19:33:49 EDT 2025
User: mmckonesweet
Spectrometer: USB4F04538
Trigger mode: 4
Integration Time (sec): 2.700000E-3
Scans to average: 1
Electric dark correction enabled: true
Nonlinearity correction enabled: true
Boxcar width: 0
XAxis mode: Wavelengths
Number of Pixels in Spectrum: 3648
>>>>>Begin Spectral Data<<<<<
345.52	-22.65289
345.736	-22.65289
345.952	-22.65289
346.168	8.95656
346.384	72.19148
346.6	-3.68787
346.816	-37.40208
347.032	6.8491
347.248	61.65088
347.464	11.06405
347.68	-12.11701
347.896	-18.43861
348.112	70.08331
348.328	-20.54576
348.544	-7.90249
348.76	-73.21644
348.975	23.70949
349.191	19.49425
349.407	78.51611
349.623	30.03253
349.839	-18.43861
350.055	-12.11701
350.27	27.92483
350.486	-1.58052
350.702	53.21881
350.918	-52.15005
351.133	-5.79519
351.349	-37.40208
351.565	63.75895
351.781	-39.50901
351.996	11.06405
352.212	67.97517
352.428	78.51611
352.644	74.29967
352.859	-35.29512
353.075	19.49425
353.291	-7.90249
353.506	19.49425
353.722	76.40788
353.938	38.46358
354.153	11.06405
354.369	-39.50901
354.584	13.17157
354.8	44.78711
355.016	-3.68787
355.231	-5.79519
355.447	11.06405
355.662	-1.58052
355.878	40.5714
356.093	2.63424
356.309	-5.79519
356.524	-22.65289
356.74	70.08331
356.955	-54.2568
357.171	2.63424
357.386	25.81715
357.602	-18.43861
357.817	-43.72279
358.033	2.63424
358.248	17.38667
358.464	86.94927
358.679	-14.22423
358.895	-45.82964
359.11	13.17157
359.325	36.35578
359.541	13.17157
359.756	38.46358
359.972	57.4348
360.187	40.5714
360.402	36.35578
360.618	-12.11701
360.833	13.17157
361.048	8.95656
361.264	40.5714
361.479	-31.08114
361.694	17.38667
361.909	38.46358
362.125	38.46358
362.34	-16.33143
362.555	-28.97412
362.77	70.08331
362.986	-20.54576
363.201	-18.43861
363.416	19.49425
363.631	-22.65289
363.847	2.63424
364.062	61.65088
364.277	-14.22423
364.492	-22.65289
364.707	-20.54576
364.922	53.21881
365.138	-24.75999
365.353	-3.68787
365.568	40.5714
365.783	11.06405
365.998	6.8491
366.213	6.8491
366.428	-18.43861
366.643	53.21881
366.858	46.895
367.073	15.2791
367.288	36.35578
367.503	44.78711
367.718	-28.97412
367.933	49.00291
368.148	86.94927
368.363	-31.08114
368.578	-10.00976
368.793	61.65088
369.008	40.5714
369.223	-16.33143
369.438	44.78711
369.653	27.92483
369.868	91.16598
370.083	-60.57691
370.298	-3.68787
370.513	74.29967
370.728	4.74166
370.943	63.75895
371.157	25.81715
371.372	4.74166
371.587	15.2791
371.802	-28.97412
372.017	17.38667
372.232	-5.79519
372.446	-37.40208
372.661	63.75895
372.876	32.14026
373.091	17.38667
373.306	51.11085
373.52	-1.58052
373.735	53.21881
373.95	63.75895
374.165	13.17157
374.379	13.17157
374.594	0.52684
374.809	2.63424
375.023	36.35578
375.238	44.78711
375.453	-22.65289
375.667	42.67924
375.882	15.2791
376.097	89.05761
376.311	72.19148
376.526	-1.58052
376.741	-26.86706
376.955	2.63424
377.17	6.8491
377.384	32.14026
377.599	-20.54576
377.813	-16.33143
378.028	72.19148
378.242	-22.65289
378.457	21.60186
378.672	30.03253
378.886	17.38667
379.101	-24.75999
379.315	-54.2568
379.53	-5.79519
379.744	40.5714
379.958	21.60186
380.173	-28.97412
380.387	30.03253
380.602	11.06405
380.816	-14.22423
381.031	15.2791
381.245	70.08331
381.459	-7.90249
381.674	89.05761
381.888	42.67924
382.103	46.895
382.317	97.49122
382.531	19.49425
382.746	21.60186
382.96	27.92483
383.174	53.21881
383.388	-5.79519
383.603	2.63424
383.817	2.63424
384.031	34.24801
384.246	36.35578
384.46	63.75895
384.674	70.08331
384.888	32.14026
385.103	53.21881
385.317	57.4348
385.531	57.4348
385.745	32.14026
385.959	-35.29512
386.174	-20.54576
386.388	23.70949
386.602	-35.29512
386.816	4.74166
387.03	-16.33143
387.244	-22.65289
387.458	-14.22423
387.672	0.52684
387.887	36.35578
388.101	4.74166
388.315	-10.00976
388.529	-22.65289
388.743	-22.65289
388.957	4.74166
389.171	42.67924
389.385	-14.22423
389.599	-1.58052
389.813	-18.43861
390.027	2.63424
390.241	-81.64228
390.455	27.92483
390.669	23.70949
390.883	13.17157
391.097	36.35578
391.311	76.40788
391.525	36.35578
391.738	-22.65289
391.952	99.59967
392.166	-3.68787
392.38	-14.22423
392.594	51.11085
392.808	61.65088
393.022	44.78711
393.236	-22.65289
393.449	25.81715
393.663	6.8491
393.877	11.06405
394.091	27.92483
394.305	57.4348
394.518	34.24801
394.732	27.92483
394.946	46.895
395.16	70.08331
395.373	36.35578
395.587	-7.90249
395.801	-22.65289
396.015	36.35578
396.228	23.70949
396.442	97.49122
396.656	-20.54576
396.869	-1.58052
397.083	-1.58052
397.297	-39.50901
397.51	-7.90249
397.724	6.8491
397.938	63.75895
398.151	6.8491
398.365	21.60186
398.578	30.03253
398.792	23.70949
399.005	40.5714
399.219	30.03253
399.433	23.70949
399.646	49.00291
399.86	21.60186
400.073	2.63424
400.287	21.60186
400.5	40.5714
400.714	-26.86706
400.927	15.2791
401.141	-31.08114
401.354	-3.68787
401.567	82.73264
401.781	-22.65289
401.994	19.49425
402.208	-18.43861
402.421	-10.00976
402.635	0.52684
402.848	-10.00976
403.061	27.92483
403.275	-60.57691
403.488	19.49425
403.701	-5.79519
403.915	53.21881
404.128	46.895
404.341	4.74166
404.555	27.92483
404.768	38.46358
404.981	-39.50901
405.195	80.62436
405.408	2.63424
405.621	-26.86706
405.834	27.92483
406.048	17.38667
406.261	11.06405
406.474	59.54283
406.687	65.86705
406.9	-12.11701
407.114	44.78711
407.327	44.78711
407.54	19.49425
407.753	55.32679
407.966	32.14026
408.179	44.78711
408.392	0.52684
408.605	105.92518
408.819	108.03372
409.032	44.78711
409.245	36.35578
409.458	8.95656
409.671	42.67924
409.884	-28.97412
410.097	40.5714
410.31	2.63424
410.523	2.63424
410.736	27.92483
410.949	11.06405
411.162	36.35578
411.375	-56.36353
411.588	-52.15005
411.801	-5.79519
412.014	21.60186
412.227	13.17157
412.44	17.38667
412.653	53.21881
412.865	86.94927
413.078	-28.97412
413.291	46.895
413.504	11.06405
413.717	25.81715
413.93	42.67924
414.143	-12.11701
414.356	-41.61591
414.568	-77.42941
414.781	63.75895
414.994	2.63424
415.207	13.17157
415.42	-12.11701
415.632	-35.29512
415.845	19.49425
416.058	-10.00976
416.271	-31.08114
416.483	-1.58052
416.696	-14.22423
416.909	-45.82964
417.121	30.03253
417.334	55.32679
417.547	19.49425
417.759	53.21881
417.972	13.17157
418.185	32.14026
418.397	4.74166
418.61	19.49425
418.823	19.49425
419.035	38.46358
419.248	57.4348
419.46	44.78711
419.673	70.08331
419.885	13.17157
420.098	30.03253
420.311	44.78711
420.523	-14.22423
420.736	8.95656
420.948	15.2791
421.161	-71.10991
421.373	-20.54576
421.586	-12.11701
421.798	61.65088
422.01	103.81665
422.223	17.38667
422.435	38.46358
422.648	95.38278
422.86	11.06405
423.073	11.06405
423.285	38.46358
423.497	-7.90249
423.71	-28.97412
423.922	-28.97412
424.134	11.06405
424.347	55.32679
424.559	74.29967
424.771	32.14026
424.984	19.49425
425.196	19.49425
425.408	-12.11701
425.621	44.78711
425.833	25.81715
426.045	2.63424
426.257	23.70949
426.47	-10.00976
426.682	-7.90249
426.894	51.11085
427.106	44.78711
427.318	-37.40208
427.531	15.2791
427.743	27.92483
427.955	70.08331
428.167	105.92518
428.379	32.14026
428.591	13.17157
428.804	-43.72279
429.016	15.2791
429.228	21.60186
429.44	101.70815
429.652	21.60186
429.864	42.67924
430.076	13.17157
430.288	65.86705
430.5	17.38667
430.712	-39.50901
430.924	11.06405
431.136	82.73264
431.348	-3.68787
431.56	34.24801
431.772	61.65088
431.984	36.35578
432.196	-28.97412
432.408	19.49425
432.62	44.78711
432.832	-16.33143
433.044	74.29967
433.256	53.21881
433.468	23.70949
433.679	57.4348
433.891	46.895
434.103	53.21881
434.315	6.8491
434.527	21.60186
434.739	-3.68787
434.95	-12.11701
435.162	6.8491
435.374	19.49425
435.586	4.74166
435.798	36.35578
436.009	23.70949
436.221	21.60186
436.433	89.05761
436.645	-41.61591
436.856	-3.68787
437.068	13.17157
437.28	6.8491
437.491	78.51611
437.703	15.2791
437.915	-1.58052
438.126	34.24801
438.338	57.4348
438.55	65.86705
438.761	27.92483
438.973	-20.54576
439.184	15.2791
439.396	55.32679
439.608	61.65088
439.819	53.21881
440.031	-12.11701
440.242	57.4348
440.454	86.94927
440.665	-31.08114
440.877	-3.68787
441.088	61.65088
441.3	40.5714
441.511	97.49122
441.723	78.51611
441.934	27.92483
442.146	53.21881
442.357	108.03372
442.569	34.24801
442.78	-12.11701
442.991	51.11085
443.203	89.05761
443.414	95.38278
443.626	63.75895
443.837	6.8491
444.048	103.81665
444.26	-3.68787
444.471	-31.08114
444.682	49.00291
444.894	-10.00976
445.105	4.74166
445.316	2.63424
445.528	27.92483
445.739	65.86705
445.95	70.08331
446.161	51.11085
446.373	-7.90249
446.584	76.40788
446.795	-5.79519
447.006	78.51611
447.217	74.29967
447.429	0.52684
447.64	30.03253
447.851	89.05761
448.062	57.4348
448.273	63.75895
448.484	15.2791
448.695	116.46812
448.907	38.46358
449.118	27.92483
449.329	65.86705
449.54	95.38278
449.751	-5.79519
449.962	23.70949
450.173	120.68545
450.384	78.51611
450.595	4.74166
450.806	-5.79519
451.017	55.32679
451.228	38.46358
451.439	17.38667
451.65	17.38667
451.861	15.2791
452.072	61.65088
452.283	57.4348
452.494	15.2791
452.705	15.2791
452.915	82.73264
453.126	80.62436
453.337	25.81715
453.548	57.4348
453.759	2.63424
453.97	-35.29512
454.181	95.38278
454.391	67.97517
454.602	-3.68787
454.813	105.92518
455.024	97.49122
455.235	21.60186
455.445	23.70949
455.656	120.68545
455.867	72.19148
456.078	-14.22423
456.288	11.06405
456.499	70.08331
456.71	4.74166
456.921	21.60186
457.131	4.74166
457.342	70.08331
457.553	-14.22423
457.763	53.21881
457.974	2.63424
458.184	44.78711
458.395	32.14026
458.606	44.78711
458.816	59.54283
459.027	-1.58052
459.237	11.06405
459.448	-47.93647
459.659	97.49122
459.869	70.08331
460.08	103.81665
460.29	38.46358
460.501	8.95656
460.711	23.70949
460.922	72.19148
461.132	120.68545
461.343	141.77339
461.553	2.63424
461.764	27.92483
461.974	-16.33143
462.184	70.08331
462.395	8.95656
462.605	112.25088
462.816	101.70815
463.026	46.895
463.236	82.73264
463.447	114.35949
463.657	99.59967
463.867	97.49122
464.078	49.00291
464.288	86.94927
464.498	53.21881
464.709	49.00291
464.919	74.29967
465.129	154.42718
465.339	105.92518
465.55	86.94927
465.76	141.77339
465.97	120.68545
466.18	103.81665
466.391	80.62436
466.601	122.79415
466.811	122.79415
467.021	129.12037
467.231	59.54283
467.441	-14.22423
467.651	114.35949
467.862	131.22915
468.072	124.90287
468.282	36.35578
468.492	103.81665
468.702	36.35578
468.912	82.73264
469.122	74.29967
469.332	158.64528
469.542	78.51611
469.752	91.16598
469.962	141.77339
470.172	148.10019
470.382	44.78711
470.592	120.68545
470.802	158.64528
471.012	70.08331
471.222	196.6119
471.432	55.32679
471.642	219.81696
471.852	171.30008
472.062	105.92518
472.272	137.55563
472.482	112.25088
472.691	192.39306
472.901	181.84631
473.111	154.42718
473.321	129.12037
473.531	205.04983
473.741	198.72135
473.95	198.72135
474.16	205.04983
474.37	257.79401
474.58	198.72135
474.79	289.44628
474.999	232.47528
475.209	264.12413
475.419	276.78487
475.628	247.24421
475.838	289.44628
476.048	327.43445
476.258	299.99796
476.467	264.12413
476.677	274.6747
476.886	327.43445
477.096	329.54508
477.306	331.65572
477.515	299.99796
477.725	325.32385
477.935	310.5501
478.144	323.21326
478.354	373.87222
478.563	378.09425
478.773	386.5385
478.982	327.43445
479.192	384.42741
479.401	420.31815
479.611	424.5409
479.82	483.66592
480.03	530.12951
480.239	498.44903
480.449	492.11332
480.658	468.88354
480.868	492.11332
481.077	585.04977
481.287	542.8026
481.496	661.10768
481.705	618.85129
481.915	669.55954
482.124	559.70082
482.333	741.40759
482.543	639.97888
482.752	779.44977
482.961	830.17761
483.171	851.31577
483.38	686.4638
483.589	823.83634
483.799	952.79042
484.008	931.6484
484.217	849.20191
484.426	961.24743
484.636	840.74658
484.845	1094.45868
485.054	855.54351
485.263	1009.87733
485.472	1077.54171
485.682	986.61912
485.891	957.01892
486.1	1079.65631
486.309	1176.93315
486.518	1176.93315
486.727	1060.62508
486.936	1195.9666
487.146	1124.06413
487.355	1329.20745
487.564	1124.06413
487.773	1269.98806
487.982	1119.83472
488.191	1396.8883
488.4	1303.82752
488.609	1396.8883
488.818	1272.10301
489.027	1508.9859
489.236	1557.63163
489.445	1602.04669
489.654	1464.56989
489.863	1633.77123
490.072	1528.02125
490.281	1726.8266
490.49	1489.95049
490.698	1589.35675
490.907	1544.9415
491.116	1743.74511
491.325	1695.10381
491.534	1747.9747
491.743	1712.02272
491.952	1796.61392
492.16	1938.28829
492.369	2115.87231
492.578	1889.65638
492.787	1940.40265
492.996	1970.00311
493.204	2139.12362
493.413	1948.86004
493.622	2149.69209
493.831	2194.07743
494.039	2242.68566
494.248	2079.93663
494.457	2225.77897
494.665	2124.32744
494.874	2145.46473
495.083	2284.94985
495.291	2308.19358
495.5	2219.43882
495.709	2348.33909
495.917	2210.98516
496.126	2466.64135
496.335	2263.81821
496.543	2447.63073
496.752	2508.88397
496.96	2572.23934
497.169	2422.28187
497.377	2717.91523
497.586	2599.69003
497.794	2709.4719
498.003	2568.01597
498.211	2880.40729
498.42	2753.79704
498.628	2903.61368
498.837	2779.12305
499.045	2842.42948
499.254	2791.78533
499.462	2981.65854
499.671	2874.07798
499.879	3034.37993
500.087	2838.20944
500.296	3133.46992
500.504	2852.97933
500.713	3038.59723
500.921	2802.33685
501.129	3179.84037
501.338	2859.30907
501.546	3238.84584
501.754	3082.87512
501.962	3184.05548
502.171	3087.09171
502.379	3481.04927
502.587	3325.22297
502.795	3525.25239
503.004	3165.08699
503.212	3466.31311
503.42	3175.6252
503.628	3468.41833
503.837	3274.6642
504.045	3449.47071
504.253	3457.89206
504.461	3636.77646
504.669	3584.17729
504.877	3712.49849
505.085	3529.46179
505.294	3756.65817
505.502	3575.76033
505.71	3945.81571
505.918	3725.11641
506.126	3853.3588
506.334	3836.5443
506.542	3861.76558
506.75	3794.5025
506.958	3924.80619
507.166	3962.62186
507.374	4172.58765
507.582	3939.51306
507.79	4094.9245
507.998	3886.98399
508.206	4073.92955
508.414	3912.19951
508.622	4193.57275
508.83	4065.53099
509.037	4189.3759
509.245	4004.63154
509.453	4327.82695
509.661	4113.81818
509.869	4384.43901
510.077	4214.55573
510.285	4526.947
510.492	4201.96619
510.7	4388.63187
510.908	4336.21492
511.116	4315.24435
511.324	4222.94832
511.531	4325.7299
511.739	4397.01732
511.947	4466.18395
512.155	4386.53545
512.362	4438.93934
512.57	4399.11363
512.778	4566.74719
512.985	4560.46348
513.193	4658.88516
513.401	4619.10362
513.608	4849.30495
513.816	4497.61543
514.024	4725.86733
514.231	4608.63345
514.439	4797.01053
514.646	4627.47935
514.854	4843.03037
515.061	4591.88001
515.269	4889.03917
515.477	4807.47055
515.684	5018.64061
515.892	4767.71944
516.099	5081.31916
516.307	4805.37859
516.514	5162.77009
516.722	5004.01262
516.929	5127.27018
517.136	4880.67476
517.344	5214.9636
517.551	5020.73023
517.759	5189.91253
517.966	5102.20738
518.173	5196.17562
518.381	5085.49699
518.588	5160.68204
518.796	5212.87614
519.003	5260.88184
519.21	5121.0048
519.418	5552.82301
519.625	5319.30687
519.832	5388.14135
520.039	5371.45655
520.247	5646.56331
520.454	5310.96156
520.661	5661.14084
520.868	5486.13421
521.076	5677.79946
521.283	5519.48162
521.49	5761.06991
521.697	5444.44147
521.904	5808.93332
522.112	5731.92955
522.319	5910.86156
522.526	5517.39759
522.733	5811.01406
522.94	5967.0019
523.147	5827.65908
523.354	5858.86444
523.561	5985.71153
523.768	5717.35763
523.975	6160.24275
524.183	5885.90478
524.39	6284.80643
524.597	5954.52776
524.804	6035.59454
525.011	6110.39362
525.218	6371.95088
525.425	6149.85863
525.632	6116.6255
525.838	6154.01235
526.045	6328.3838
526.252	6330.45866
526.459	6477.71384
526.666	6392.69349
526.873	6537.82661
527.08	6270.27835
527.287	6438.31902
527.494	6081.30871
527.701	6475.64064
527.907	6587.56039
528.114	6575.12819
528.321	6558.55064
528.528	6599.99175
528.735	6361.5787
528.941	6583.41641
529.148	6552.33367
529.355	6651.78016
529.562	6467.3476
529.768	6914.64404
529.975	6400.98988
530.182	6734.61171
530.388	6525.39109
530.595	6980.81961
530.802	6662.13611
531.008	7294.84042
531.215	6807.05925
531.422	7187.47005
531.628	6854.65241
531.835	7282.45458
532.042	7040.77128
532.248	7327.86548
532.455	6976.68431
532.661	7453.72224
532.868	6914.64404
533.074	7395.96198
533.281	7387.70913
533.487	7296.90465
533.694	7199.86199
533.9	7536.20748
534.107	7305.16136
534.313	7437.22104
534.52	7393.8988
534.726	7591.86559
534.933	7527.96051
535.139	7855.51609
535.345	7558.88489
535.552	7762.86569
535.758	7651.62919
535.965	7637.20513
536.171	7641.32639
536.377	7845.22368
536.584	7789.6357
536.79	7659.87104
536.996	7771.103
537.203	7843.16514
537.409	7849.34071
537.615	7834.93075
537.821	7684.59457
538.028	7933.72149
538.234	8094.15579
538.44	7929.60616
538.646	7948.12451
538.853	8264.73994
539.059	7997.49866
539.265	8176.38214
539.471	8161.99484
539.677	8201.04382
539.883	8348.9542
540.09	8264.73994
540.296	8192.82357
540.502	8424.92436
540.708	8252.41314
540.914	8800.28723
541.12	8359.22198
541.326	8426.97724
541.532	8334.57848
541.738	8632.1692
541.944	8500.86819
542.15	8787.99009
542.356	8726.49454
542.562	8865.86098
542.768	8587.04317
542.974	8662.93177
543.18	8753.14463
543.386	8794.13874
543.592	8662.93177
543.798	8900.68954
544.004	8736.74494
544.21	9111.60043
544.415	8746.99488
544.621	8880.20277
544.827	8660.88106
545.033	8986.71452
545.239	8962.13914
545.445	9103.41317
545.651	8939.60947
545.856	9179.13489
546.062	9054.28379
546.268	9015.3826
546.474	8894.5437
546.679	9035.85769
546.885	8865.86098
547.091	9205.73427
547.297	8951.89865
547.502	9414.33904
547.708	9301.87753
547.914	9287.56067
548.119	9408.20606
548.325	9594.1756
548.531	9140.25369
548.736	9481.79227
548.942	9146.39324
549.147	9312.10337
549.353	9430.69296
549.559	9798.38809
549.764	9400.02852
549.97	9359.13688
550.175	9502.22918
550.381	9839.21234
550.586	9426.60458
550.792	9731.01491
550.997	9773.89066
551.203	9534.92492
551.408	9682.00581
551.614	9671.79447
551.819	9906.55935
552.025	10190.06044
552.23	10073.83776
552.435	10206.36879
552.641	9973.89038
552.846	9967.77003
553.052	9892.27497
553.257	10375.51681
553.462	10167.63502
553.668	10330.69138
553.873	10116.66192
554.078	10459.0382
554.283	10014.68938
554.489	10410.15029
554.694	10236.94459
554.899	10210.44574
555.105	10214.52264
555.31	10495.69926
555.515	10422.37297
555.72	10300.1249
555.925	10287.89746
556.131	10520.13767
556.336	10226.753
556.541	10487.55272
556.746	10448.85383
556.951	10621.94487
557.156	10236.94459
557.361	10454.96449
557.567	10556.79187
557.772	10884.46698
557.977	10467.18546
558.182	10829.53678
558.387	10935.32082
558.592	10792.91193
558.797	10876.32971
559.002	10705.40371
559.207	10589.36996
559.412	10756.28327
559.617	10929.21873
559.822	11289.07321
560.027	10849.88229
560.232	11161.02783
560.437	10862.08903
560.642	10919.04836
560.847	10829.53678
561.051	10727.79164
561.256	11095.97292
561.461	11112.23768
561.666	11045.14109
561.871	11183.38794
562.076	10849.88229
562.281	11087.84028
562.485	10866.15785
562.69	11179.32256
562.895	10963.79587
563.1	11140.69935
563.305	11248.42834
563.509	11331.74595
563.714	11278.91238
563.919	11419.10972
564.123	11413.01517
564.328	11575.50707
564.533	11234.20166
564.737	11374.41427
564.942	11366.28731
565.147	11573.47629
565.351	11232.16924
565.556	11581.59934
565.761	11504.42435
565.965	11618.15124
566.17	11291.10535
566.374	11280.94457
566.579	11670.94321
566.784	11752.14983
566.988	11488.17525
567.193	11662.82176
567.397	11467.86302
567.602	12093.07017
567.806	11827.25354
568.011	11991.62971
568.215	11715.6086
568.42	11951.04799
568.624	11575.50707
568.828	11567.38391
569.033	11630.33454
569.237	11977.42647
569.442	12091.04155
569.646	11922.63886
569.85	12174.20872
570.055	12271.55935
570.259	12174.20872
570.463	12279.67115
570.668	12178.26533
570.872	11981.48458
571.076	12052.49633
571.281	12360.783
571.485	11955.10631
571.689	12194.49149
571.893	12437.82908
572.098	12354.7
572.302	12385.11439
572.506	12573.65038
572.71	11967.28106
572.914	12703.36396
573.119	12447.96601
573.323	12579.73126
573.527	12299.95016
573.731	12362.81065
573.935	12429.71943
574.139	12569.59642
574.343	12184.3502
574.547	12565.54245
574.751	12634.45671
574.955	12531.08262
575.159	12743.89446
575.364	12790.5017
575.568	12768.21166
575.772	12727.68254
575.976	12551.35333
576.18	12670.93788
576.383	12914.09801
576.587	12808.7385
576.791	12818.86987
576.995	12727.68254
577.199	12991.08244
577.403	12784.42267
577.607	12987.03081
577.811	13373.87621
578.015	12806.71222
578.219	13108.57102
578.422	12954.61706
578.626	13167.30927
578.83	12968.79823
579.034	12934.35779
579.238	13236.16992
579.442	13381.97599
579.645	13161.23308
579.849	13100.46888
580.053	13098.44334
580.257	12989.05662
580.46	13114.64757
580.664	13286.79951
580.868	13442.72227
581.071	13357.67647
581.275	13284.77438
581.479	13274.64865
581.682	13088.31553
581.886	13568.25378
582.09	13311.10076
582.293	13390.0757
582.497	13584.45039
582.7	13624.94092
582.904	13444.74709
583.107	13722.11276
583.311	13600.64676
583.515	13624.94092
583.718	13697.8205
583.922	14076.32792
584.125	13882.02592
584.329	13659.35681
584.532	13940.72379
584.735	14011.56314
584.939	13612.7939
585.142	13944.77184
585.346	13600.64676
585.549	13722.11276
585.753	14337.38878
585.956	13973.10787
586.159	14035.85021
586.363	14341.43598
586.566	14339.41238
586.769	14199.77943
586.973	13965.01191
587.176	14260.49049
587.379	13997.39551
587.582	14365.71909
587.786	14145.13794
587.989	14402.14332
588.192	14300.96359
588.395	14547.83547
588.599	14513.43657
588.802	14430.47293
589.005	14351.55398
589.208	14381.9077
589.411	14064.1847
589.615	14294.89267
589.818	14450.70818
590.021	14523.55394
590.224	14470.94329
590.427	14535.69473
590.63	14258.46682
590.833	14549.85893
591.036	14733.98858
591.239	14592.35117
591.442	14582.23402
591.645	14626.74928
591.848	14553.90583
592.051	14564.02307
592.254	14630.7961
592.457	14940.3675
592.66	14677.33419
592.863	15201.37026
593.066	14725.89514
593.269	15033.43863
593.472	14978.81001
593.675	15389.53527
593.878	15081.99725
594.081	15260.04517
594.284	14928.22773
594.486	15545.33035
594.689	15557.47038
594.892	15035.46191
595.095	15417.86142
595.298	15359.18591
595.5	15292.41759
595.703	15834.67592
595.906	15211.48662
596.109	15349.06948
596.311	15057.71796
596.514	15199.34699
596.717	15367.27907
596.92	15403.69833
597.122	15300.5107
597.325	15011.18256
597.528	15104.25326
597.73	15332.8832
597.933	15094.13689
598.136	15705.17626
598.338	15193.27718
598.541	15595.91396
598.743	15585.7972
598.946	15385.48868
599.148	15173.04447
599.351	15654.59155
599.554	15391.55856
599.756	15771.94898
599.959	15988.46295
600.161	15792.18336
600.363	15941.92135
600.566	15826.58206
600.768	16182.73188
600.971	15927.75666
601.173	15867.05153
601.376	16004.6515
601.578	15988.46295
601.78	16192.85045
601.983	15996.55722
602.185	16346.65816
602.388	15925.73314
602.59	15842.76979
602.792	16087.61928
602.995	16053.21771
603.197	15840.74632
603.399	15968.22739
603.601	16219.15894
603.804	16087.61928
604.006	15962.15674
604.208	16231.30142
604.41	15865.02805
604.613	16140.23432
604.815	16316.30054
605.017	16360.82519
605.219	16646.21093
605.421	16215.11146
605.623	16077.50113
605.826	16271.77679
606.028	16093.6902
606.23	16101.78477
606.432	16138.21065
606.634	16261.65788
606.836	16204.99279
607.038	16433.68571
607.24	16233.32517
607.442	16306.18143
607.644	16271.77679
607.846	16623.94525
608.048	16502.50083
608.25	16506.54885
608.452	16077.50113
608.654	16652.28343
608.856	16247.49148
609.058	16737.30069
609.26	16433.68571
609.462	16656.33178
609.664	16773.73794
609.866	16694.79155
610.067	16692.76733
610.269	16710.98538
610.471	16429.63784
610.673	16472.14092
610.875	16959.98538
611.077	16921.51946
611.278	16727.17937
611.48	16490.35681
611.682	16492.38081
611.884	16935.691
612.085	16846.61482
612.287	16992.37847
612.489	16530.83716
612.69	16706.93691
612.892	16526.78909
613.094	16739.32496
613.295	16447.85334
613.497	16761.59211
613.699	16322.37203
613.9	16698.83999
614.102	16978.20641
614.304	16798.02988
614.505	16949.86268
614.707	16897.22568
614.908	16591.5593
615.11	16759.56781
615.311	17091.58662
615.513	16998.45225
615.714	17004.52606
615.916	16992.37847
616.117	16658.35596
616.319	16854.71245
616.52	16627.99354
616.722	16678.59786
616.923	16899.25015
617.124	16842.56602
617.326	16534.88524
617.527	16844.59042
617.729	17123.98255
617.93	17032.8708
618.131	17083.48775
618.333	17047.04338
618.534	17057.16672
618.735	17117.90826
618.937	17012.6245
619.138	17049.06804
619.339	16765.64071
619.54	17154.3544
619.742	17093.61135
619.943	16621.92111
620.144	17304.19831
620.345	17196.87605
620.546	17010.59989
620.748	17140.18079
620.949	17413.55417
621.15	17362.92536
621.351	17162.45366
621.552	16988.3293
621.753	17047.04338
621.954	17298.12325
622.155	17063.24076
622.356	17320.39862
622.558	17607.98703
622.759	17452.03336
622.96	17069.31483
623.161	17348.74963
623.362	17150.30478
623.563	17283.9482
623.764	17308.24837
623.965	17227.24944
624.166	17344.69945
624.366	17632.29322
624.567	17217.1249
624.768	17480.38717
624.969	17269.77329
625.17	17407.47861
625.371	17541.14742
625.572	17553.29982
625.773	17502.6656
625.973	17737.62553
626.174	17470.26074
626.375	17569.50319
626.576	17292.04821
626.777	17563.4269
626.977	17105.75975
627.178	17490.51368
627.379	17348.74963
627.58	17338.6242
627.78	17362.92536
627.981	17512.79228
628.182	17166.50331
628.382	17518.86833
628.583	17146.25518
628.784	17332.54898
628.984	17340.64928
629.185	17972.6307
629.386	17417.60456
629.586	17755.85704
629.787	17796.37249
629.987	17883.48533
630.188	17429.7558
630.388	17701.16333
630.589	17593.80864
630.79	17616.08904
630.99	17741.67696
631.191	17867.27781
631.391	17753.83131
631.591	18029.36313
631.792	17729.52273
631.992	17792.32088
632.193	17899.69308
632.393	17865.25189
632.594	17476.33659
632.794	17867.27781
632.994	17366.97559
633.195	17960.47412
633.395	17415.57936
633.595	17705.21463
633.796	17725.47134
633.996	17680.90702
634.196	17358.87513
634.397	18124.59887
634.597	17563.4269
634.797	18051.65163
634.997	17855.12231
635.198	18161.07425
635.398	17958.44803
635.598	18025.31072
635.798	17952.36979
635.998	18094.20362
636.199	17964.5263
636.399	17907.79704
636.599	17636.3443
636.799	17917.92706
636.999	17881.45938
637.199	18201.60384
637.399	18189.44481
637.599	18290.77413
637.799	18007.07506
637.999	18381.97849
638.199	17952.36979
638.399	18234.02857
638.599	18242.1349
638.799	18373.87113
638.999	18505.62332
639.199	18353.60299
639.399	18234.02857
639.599	18394.13965
639.799	18499.54209
639.999	18503.59624
640.199	18396.16652
640.399	18499.54209
640.599	17528.99514
640.799	18696.18605
640.998	18426.57007
641.198	18292.80081
641.398	18144.86282
641.598	18866.5055
641.798	18244.16149
641.997	18655.6379
642.197	18418.46238
642.397	18404.27405
642.597	18487.37975
642.796	18187.41831
642.996	18258.34774
643.196	18507.6504
643.395	18400.22028
643.595	18763.09393
643.795	18627.25513
643.994	18793.50802
644.194	18540.08425
644.394	18842.17243
644.593	18414.40855
644.793	19132.17918
644.992	18665.77479
645.192	18789.45276
645.392	18606.98219
645.591	18663.7474
645.791	18880.70005
645.99	18825.95071
646.19	18726.59819
646.389	18923.2849
646.589	18787.42513
646.788	19036.85315
646.987	18900.97833
647.187	19124.06597
647.386	18732.68072
647.586	19036.85315
647.785	18823.92301
647.984	19085.52915
648.184	18973.98345
648.383	19122.03768
648.582	18736.73576
648.782	19087.55737
648.981	18738.76329
649.18	18823.92301
649.38	18982.09545
649.579	19239.6853
649.778	18986.15147
649.977	19259.97076
650.177	18775.25946
650.376	18874.61665
650.575	18742.81836
650.774	19099.72675
650.973	19022.65643
651.173	19201.14404
651.372	19219.40024
651.571	19276.19943
651.77	19560.24399
651.969	19274.17083
652.168	19180.85977
652.367	19458.79017
652.566	18890.83914
652.765	19381.69221
652.964	19111.89629
653.163	19586.62369
653.362	19270.11365
653.561	19399.95171
653.76	19272.14224
653.959	19227.51421
654.158	19318.80094
654.357	19176.80296
654.556	18900.97833
654.755	18986.15147
654.954	18992.23554
655.153	19024.68452
655.352	19085.52915
655.551	19517.63212
655.749	19333.00185
655.948	19444.58746
656.147	19369.5194
656.346	19748.97586
656.545	19391.83634
656.743	19716.50328
656.942	19379.6634
657.141	19728.68037
657.34	19503.42857
657.538	19454.73223
657.737	19442.55852
657.936	19872.78741
658.135	19294.457
658.333	19943.83388
658.532	19878.8769
658.731	19515.60303
658.929	19738.82806
659.128	19592.71141
659.326	19300.54293
659.525	19757.09417
659.724	19586.62369
659.922	19757.09417
660.121	19278.22803
660.319	19401.98057
660.518	19207.22941
660.716	19974.28394
660.915	19546.03983
661.113	19466.90609
661.312	19647.50262
661.51	19785.50879
661.709	19564.30236
661.907	19584.59446
662.105	19895.11574
662.304	19481.10912
662.502	19316.77226
662.701	19387.77868
662.899	19472.99308
663.097	19740.85761
663.296	19795.65707
663.494	19830.162
663.692	19621.12129
663.891	19893.08587
664.089	19602.8577
664.287	19694.17901
664.485	19649.53198
664.684	19840.31073
664.882	19866.69795
665.08	20159.03462
665.278	19789.56809
665.476	20057.51894
665.675	19878.8769
665.873	19864.66814
666.071	19927.59423
666.269	19748.97586
666.467	19738.82806
666.665	19899.17549
666.863	19828.13226
667.061	19880.90674
667.259	19927.59423
667.457	19915.41467
667.655	19489.22522
667.853	19606.91625
668.051	19787.53844
668.249	19556.18564
668.447	19661.70824
668.645	19647.50262
668.843	19290.39973
669.041	19726.65085
669.239	19428.35605
669.437	19414.15378
669.635	19580.53601
669.833	19592.71141
670.031	19276.19943
670.229	19412.1249
670.426	19493.2833
670.624	19621.12129
670.822	19625.17991
671.02	19477.05109
671.218	19304.60024
671.415	19799.71641
671.613	19629.23854
671.811	19546.03983
672.009	19684.03178
672.206	20207.76587
672.404	19387.77868
672.602	19420.24044
672.799	19868.72776
672.997	20120.45742
673.195	19947.89383
673.392	20108.27547
673.59	19728.68037
673.788	19671.85524
673.985	19686.06121
674.183	19779.41987
674.38	19627.20922
674.578	19789.56809
674.775	19840.31073
674.973	19817.98365
675.17	19868.72776
675.368	19854.51915
675.565	19744.91673
675.763	19740.85761
675.96	19529.80675
676.158	19513.57394
676.355	19343.14548
676.553	19722.59181
676.75	19529.80675
676.947	20049.39815
677.145	19657.64947
677.342	19876.84707
677.539	19546.03983
677.737	19690.1201
677.934	19385.74985
678.131	19891.05601
678.329	19836.25123
678.526	19893.08587
678.723	19744.91673
678.92	19860.60853
679.118	19663.73763
679.315	19988.4943
679.512	20020.97588
679.709	19968.19385
679.906	19694.17901
680.104	19623.15059
680.301	19615.03339
680.498	19639.38521
680.695	19231.57122
680.892	19444.58746
681.089	19270.11365
681.286	19195.05872
681.483	19124.06597
681.68	19264.0279
681.877	19156.51918
682.075	19326.91572
682.272	18836.08926
682.469	19168.6894
682.665	19059.16269
682.862	19284.31386
683.059	19300.54293
683.256	19387.77868
683.453	19326.91572
683.65	19298.51428
683.847	19270.11365
684.044	19274.17083
684.241	19055.10638
684.438	19450.67431
684.635	19172.74617
684.831	19391.83634
685.028	19296.48564
685.225	19318.80094
685.422	19016.57218
685.619	19292.42836
685.815	19124.06597
686.012	19213.3148
686.209	18965.87151
686.405	19282.28525
686.602	18864.47772
686.799	19197.08715
686.996	19558.21481
687.192	19418.21155
687.389	19696.20846
687.586	19491.25426
687.782	19136.2358
687.979	19286.34248
688.175	18969.92747
688.372	18957.75964
688.568	19049.02193
688.765	18799.59095
688.962	18935.45232
689.158	18858.39441
689.355	18783.36989
689.551	18783.36989
689.748	18878.67225
689.944	19028.74071
690.14	18665.77479
690.337	18913.14549
690.533	19251.85653
690.73	19140.29244
690.926	19180.85977
691.123	18854.33889
691.319	19038.88127
691.515	19115.95283
691.712	18969.92747
691.908	18785.39751
692.104	18643.47376
692.301	18540.08425
692.497	18752.95609
692.693	19002.37574
692.889	19006.43184
693.086	19018.60026
693.282	18856.36665
693.478	19091.61381
693.674	18744.8459
693.87	18742.81836
694.067	18556.30155
694.263	18807.70157
694.459	18544.13855
694.655	18827.97841
694.851	18538.05711
695.047	18781.34228
695.243	18771.20426
695.439	18856.36665
695.635	18564.41029
695.831	18673.88437
696.027	18641.44642
696.224	18262.40099
696.42	18136.7572
696.615	18921.25701
696.811	18531.9757
697.007	18706.32333
697.203	18313.06783
697.399	18645.50111
697.595	18554.27437
697.791	18858.39441
697.987	18688.07629
698.183	18740.79082
698.379	18450.89353
698.575	18738.76329
698.77	18556.30155
698.966	18734.70824
699.162	18921.25701
699.358	18884.75568
699.554	18787.42513
699.749	18874.61665
699.945	18430.62395
700.141	18527.92144
700.337	18645.50111
700.532	18840.1447
700.728	18967.89949
700.924	19004.40379
701.119	18288.74745
701.315	18436.70478
701.511	17697.11204
701.706	18256.32112
701.902	18189.44481
702.097	18556.30155
702.293	18219.84263
702.489	18371.8443
702.684	18434.67783
702.88	18552.2472
703.075	18365.76383
703.271	18394.13965
703.466	18345.49584
703.662	18544.13855
703.857	18367.79065
704.053	18126.62525
704.248	18420.4893
704.443	18724.57068
704.639	18629.28245
704.834	18738.76329
705.03	18227.94886
705.225	18075.96686
705.42	18195.52431
705.616	18554.27437
705.811	18003.02273
706.006	18422.51622
706.202	18327.25496
706.397	18446.83958
706.592	18546.16571
706.787	18379.95165
706.983	18481.29862
707.178	18746.87344
707.373	18294.8275
707.568	18232.002
707.763	18130.67802
707.959	18142.83641
708.154	18211.73647
708.349	18242.1349
708.544	18580.62795
708.739	18191.4713
708.934	17966.55239
709.129	17954.39587
709.324	17851.07051
709.519	18315.09455
709.714	17816.63072
709.909	17936.16132
710.104	17539.12203
710.299	17824.73411
710.494	17917.92706
710.689	18339.41551
710.884	18033.41555
711.079	18215.78954
711.274	18005.04889
711.469	18384.00534
711.664	18217.81609
711.859	17940.21342
712.054	18118.51975
712.249	17893.61515
712.443	17713.31728
712.638	18033.41555
712.833	17504.69093
713.028	17553.29982
713.223	17612.03803
713.417	17670.77899
713.612	17928.05717
713.807	18063.80918
714.002	18418.46238
714.196	18471.1635
714.391	18211.73647
714.586	18637.39175
714.78	18096.22994
714.975	17940.21342
715.17	17842.96694
715.364	18059.75665
715.559	18270.50752
715.754	18077.99315
715.948	17672.80459
716.143	17877.40749
716.337	17356.85003
716.532	17905.77104
716.726	18148.91566
716.921	18292.80081
717.115	18071.91428
717.31	18199.57732
717.504	17956.42195
717.699	18329.28171
717.893	18069.888
718.088	17946.29159
718.282	17881.45938
718.476	18092.1773
718.671	17672.80459
718.865	17504.69093
719.059	17480.38717
719.254	17678.8814
719.448	17660.65104
719.642	17472.28602
719.837	17480.38717
720.031	17735.59983
720.225	17656.59988
720.419	17656.59988
720.614	17816.63072
720.808	17472.28602
721.002	17281.9232
721.196	17097.6608
721.39	17077.41363
721.585	17275.84823
721.779	17188.77659
721.973	17518.86833
722.167	16970.10815
722.361	17087.53718
722.555	17174.60264
722.749	17008.57527
722.943	16634.06598
723.137	16751.47064
723.331	16668.47688
723.525	16791.95686
723.719	17283.9482
723.913	17470.26074
724.107	16978.20641
724.301	17320.39862
724.495	16905.32356
724.689	17059.1914
724.883	17126.00732
725.077	17150.30478
725.271	17117.90826
725.465	16929.61747
725.659	17397.35274
725.853	17332.54898
726.046	17383.17665
726.24	16804.10292
726.434	16816.24907
726.628	17239.39898
726.822	17101.71027
727.015	17103.73501
727.209	16870.90783
727.403	17399.37791
727.596	17180.67718
727.79	17119.93302
727.984	17300.14827
728.177	17344.69945
728.371	17138.156
728.565	16955.93629
728.758	17099.68554
728.952	17178.65233
729.146	17456.08387
729.339	17476.33659
729.533	17379.12637
729.726	17429.7558
729.92	17338.6242
730.113	17328.49885
730.307	17083.48775
730.5	17237.37405
730.694	17462.15965
730.887	17437.85669
731.081	17093.61135
731.274	17158.40402
731.468	16789.93253
731.661	16838.51723
731.854	16449.87729
732.048	16702.88845
732.241	16506.54885
732.435	16990.35388
732.628	16848.63923
732.821	17121.95779
733.014	17095.63607
733.208	17156.37921
733.401	17030.84616
733.594	17221.17471
733.788	17030.84616
733.981	17306.22334
734.174	17413.55417
734.367	17170.55297
734.56	17435.83146
734.754	17316.34853
734.947	17150.30478
735.14	17211.05022
735.333	17178.65233
735.526	17083.48775
735.719	16974.15727
735.912	16555.12578
736.105	16407.37467
736.298	16868.8834
736.491	16727.17937
736.684	16751.47064
736.877	16800.05422
737.07	16613.82458
737.263	16648.23509
737.456	16696.81577
737.649	16484.28483
737.842	16387.13564
738.035	16443.80543
738.228	16775.76226
738.421	16923.54396
738.614	16822.32217
738.807	16791.95686
739	16296.06237
739.192	16623.94525
739.385	16848.63923
739.578	16840.54163
739.771	16994.40306
739.964	16957.96083
740.156	16972.13271
740.349	16630.01768
740.542	16810.17598
740.735	16480.23685
740.927	16789.93253
741.12	16492.38081
741.313	16474.1649
741.505	16498.45281
741.698	16352.72973
741.891	16494.40481
742.083	16854.71245
742.276	16698.83999
742.468	16684.67047
742.661	16332.49122
742.854	16470.11695
743.046	16423.56604
743.239	16514.64492
743.431	16565.24613
743.624	16413.44642
743.816	16591.5593
744.009	16435.70965
744.201	16439.75754
744.393	16453.92521
744.586	16364.87293
744.778	16154.40009
744.971	16328.44354
745.163	16516.66894
745.355	16409.39859
745.548	16484.28483
745.74	16490.35681
745.932	16648.23509
746.125	16498.45281
746.317	16093.6902
746.509	16024.88732
746.702	16516.66894
746.894	16427.61391
747.086	16063.33577
747.278	16279.87196
747.471	16881.03003
747.663	16619.89698
747.855	16502.50083
748.047	16532.8612
748.239	16372.96843
748.431	16459.99709
748.623	16415.47034
748.815	16142.258
749.008	16130.11596
749.2	16190.82673
749.392	16445.82938
749.584	16093.6902
749.776	16334.51506
749.968	16306.18143
750.16	16397.25513
750.352	16259.63411
750.544	16304.15761
750.736	16273.80058
750.928	16107.85571
751.12	16012.74581
751.311	15998.58079
751.503	15796.23025
751.695	15727.43371
751.887	15992.51008
752.079	16818.27343
752.271	16065.35939
752.463	15980.36871
752.654	15901.45097
752.846	16018.81656
753.038	15923.70962
753.23	16093.6902
753.421	15786.11304
753.613	15903.47447
753.805	16441.78149
753.997	16198.92161
754.188	15972.27449
754.38	15666.73183
754.572	15638.40456
754.763	15812.41785
754.955	15504.86377
755.146	15947.99196
755.338	15462.37413
755.53	15612.10081
755.721	15725.4103
755.913	15650.5448
756.104	15707.19966
756.296	15903.47447
756.487	15630.31109
756.679	15921.6861
756.87	15567.58709
757.062	15421.90802
757.253	15403.69833
757.445	15391.55856
757.636	15381.4421
757.827	15523.0737
758.019	15442.14105
758.21	15715.29327
758.401	15415.83812
758.593	15023.32224
758.784	14869.55192
758.975	15100.20671
759.167	15393.58186
759.358	15235.76588
759.549	15063.78778
759.74	14835.15554
759.932	14861.45867
760.123	14930.25103
760.314	15260.04517
760.505	15102.22998
760.696	15027.3688
760.888	15207.44007
761.079	14946.43738
761.27	15039.50847
761.461	14885.73839
761.652	15160.90485
761.843	15112.34634
762.034	15015.22912
762.225	14843.24882
762.416	15187.20736
762.607	15144.71868
762.798	15476.53732
762.989	14990.94973
763.18	14992.97301
763.371	15021.29896
763.562	15013.20584
763.753	14899.90153
763.944	15100.20671
764.135	14920.13454
764.326	14986.90316
764.517	14883.71509
764.708	14992.97301
764.899	14553.90583
765.089	14640.91312
765.28	14614.60881
765.471	14564.02307
765.662	14462.84927
765.853	14752.19877
766.043	14483.08429
766.234	14385.95484
766.425	14019.65887
766.615	14657.1003
766.806	14576.16371
766.997	14636.86632
767.187	14649.00672
767.378	14950.48397
767.569	14568.06995
767.759	14499.27221
767.95	14699.59136
768.141	14414.28462
768.331	14130.97138
768.522	14347.50678
768.712	14638.88972
768.903	14602.4683
769.093	14047.99362
769.284	14402.14332
769.474	13993.3476
769.665	14232.15888
769.855	14234.18258
770.046	14434.51999
770.236	13894.17049
770.426	14096.56643
770.617	14070.25632
770.807	13958.93992
770.998	14499.27221
771.188	14305.01086
771.378	14082.39949
771.569	14203.82689
771.759	13685.6742
771.949	13772.72019
772.139	14045.96973
772.33	13608.74487
772.52	14062.16083
772.71	13892.1464
772.9	13908.33904
773.09	13914.41123
773.281	14082.39949
773.471	13967.03591
773.661	13851.66405
773.851	13797.01108
774.041	13649.23459
774.231	13695.79612
774.421	13386.02585
774.611	13616.84292
774.802	13205.79086
774.992	13290.84976
775.182	13272.6235
775.372	13576.35211
775.562	13651.25904
775.752	13772.72019
775.942	13410.32469
776.131	13535.8599
776.321	13264.52282
776.511	13209.84146
776.701	13086.28996
776.891	13106.54549
777.081	13082.23879
777.271	13408.29981
777.461	13284.77438
777.651	13537.88455
777.84	13116.67308
778.03	12940.43562
778.22	12782.39631
778.41	12824.94862
778.599	12968.79823
778.789	13149.08058
778.979	13323.25115
779.169	13266.548
779.358	12857.36779
779.548	13341.47647
779.738	12987.03081
779.927	12912.072
780.117	13041.72609
780.307	13051.85445
780.496	12950.56524
780.686	13064.00832
780.875	12962.72062
781.065	13035.64901
781.254	12908.01997
781.444	12932.33184
781.633	12766.18526
781.823	12794.55436
782.012	12987.03081
782.202	12729.70905
782.391	12764.15885
782.581	12472.29395
782.77	12381.05923
782.96	12573.65038
783.149	12182.32192
783.338	12462.15742
783.528	12522.97416
783.717	12482.43031
783.906	12042.35238
784.096	12401.33478
784.285	12575.67734
784.474	12689.17774
784.663	12729.70905
784.853	12506.75693
785.042	12541.21805
785.231	12620.26906
785.42	12581.75821
785.61	12614.18854
785.799	12441.88387
785.988	12498.64816
786.177	12166.09541
786.366	12275.61527
786.555	12119.44153
786.744	12328.3396
786.933	12147.84001
787.122	12520.94703
787.312	12338.47835
787.501	12356.72767
787.69	12101.18457
787.879	12224.91426
788.068	11831.31287
788.257	11746.05982
788.445	11636.42607
788.634	11884.08105
788.823	11987.57168
789.012	12052.49633
789.201	11760.26972
789.39	11597.845
789.579	11914.52168
789.768	12030.17939
789.957	12001.77464
790.145	12026.12166
790.334	12032.20824
790.523	11938.87285
790.712	11855.66812
790.9	11739.96973
791.089	11719.66888
791.278	11713.57845
791.467	11547.07536
791.655	11727.78932
791.844	11614.09006
792.033	11520.67284
792.221	11471.92554
792.41	11567.38391
792.599	11069.54122
792.787	11348.00107
792.976	11289.07321
793.164	11437.39286
793.353	11719.66888
793.541	11494.26873
793.73	11400.82579
793.918	11303.29796
794.107	11207.77934
794.295	11226.0719
794.484	11272.81576
794.672	11205.74678
794.861	11150.86372
795.049	11191.51858
795.238	11047.17449
795.426	11293.13748
795.614	11095.97292
795.803	11362.22377
795.991	11173.22442
796.179	11112.23768
796.368	11152.89657
796.556	11144.76513
796.744	10935.32082
796.932	11232.16924
797.121	11002.43706
797.309	11189.48594
797.497	11193.55121
797.685	10986.16757
797.874	11156.96222
798.062	11041.07425
798.25	10776.633
798.438	11203.71421
798.626	11053.27464
798.814	10953.62646
799.002	10971.93119
799.19	10884.46698
799.378	10831.57139
799.566	10841.74422
799.755	10953.62646
799.943	11175.25714
800.131	11069.54122
800.318	10817.32892
800.506	10744.07286
800.694	10825.46754
800.882	10796.98155
801.07	10939.38882
801.258	10939.38882
801.446	11254.52533
801.634	10833.60598
801.822	10941.4228
802.01	10719.65074
802.197	11098.00605
802.385	10845.81328
802.573	10939.38882
802.761	10927.18468
802.949	10973.96499
803.136	10772.56315
803.324	11179.32256
803.512	10931.25277
803.699	11032.94043
803.887	11337.8417
804.075	11258.58994
804.262	10986.16757
804.45	10872.261
804.638	10870.22663
804.825	11252.49301
805.013	10931.25277
805.201	11061.40802
805.388	10843.77876
805.576	11041.07425
805.763	10705.40371
805.951	10853.95125
806.138	10638.23114
806.326	10890.56982
806.513	10963.79587
806.701	10894.63832
806.888	10756.28327
807.075	11130.53471
807.263	10707.43904
807.45	10923.11655
807.638	10605.65781
807.825	10982.10009
808.012	10884.46698
808.2	10967.86355
808.387	10931.25277
808.574	11199.64904
808.761	11018.70584
808.949	10894.63832
809.136	10929.21873
809.323	10949.55862
809.51	10963.79587
809.698	10809.19011
809.885	11014.63871
810.072	11240.29887
810.259	11059.37469
810.446	11199.64904
810.633	10691.15609
810.82	10984.13384
811.008	10874.29536
811.195	11248.42834
811.382	10825.46754
811.569	11118.33678
811.756	10935.32082
811.943	11181.35526
812.13	11087.84028
812.317	11037.00736
812.504	11039.04081
812.691	11280.94457
812.878	11000.40341
813.064	11106.13847
813.251	11000.40341
813.438	11400.82579
813.625	10737.96749
813.812	11016.67228
813.999	10874.29536
814.186	11205.74678
814.372	11026.83996
814.559	11177.28986
814.746	11126.46877
814.933	10908.87771
815.12	10630.0881
815.306	10687.08523
815.493	10463.11186
815.68	10870.22663
815.866	10475.33252
816.053	10742.03775
816.24	10792.91193
816.426	11024.80644
816.613	10827.50217
816.799	11022.77292
816.986	10835.64056
817.173	10782.73769
817.359	10693.1915
817.546	10955.66036
817.732	10703.36837
817.919	11089.87346
818.105	10904.80937
818.292	10914.98014
818.478	11234.20166
818.665	11079.70747
818.851	10996.33609
819.037	10992.26871
819.224	10742.03775
819.41	10676.90787
819.597	10697.26229
819.783	10593.442
819.969	10544.57426
820.156	10638.23114
820.342	10843.77876
820.528	10752.21318
820.714	10630.0881
820.901	10923.11655
821.087	10646.37397
821.273	10990.23501
821.459	10890.56982
821.646	11041.07425
821.832	10996.33609
822.018	10996.33609
822.204	10491.62602
822.39	10351.06737
822.576	10010.60974
822.762	10650.44532
822.948	10071.79836
823.134	10330.69138
823.32	10008.56989
823.507	10353.1049
823.693	10560.86431
823.879	10418.29879
824.065	10518.10121
824.25	10351.06737
824.436	10463.11186
824.622	10328.65371
824.808	10538.46528
824.994	10491.62602
825.18	10255.2886
825.366	10420.33589
825.552	10281.78356
825.738	10269.5554
825.923	10361.25487
826.109	10399.96436
826.295	10122.77916
826.481	10393.85265
826.667	10188.02184
826.852	10271.59346
827.038	9955.52894
827.224	9998.37047
827.409	10053.44312
827.595	10173.75121
827.781	9943.28733
827.966	10234.9063
828.152	9624.81731
828.338	9961.64955
828.523	9700.38526
828.709	10075.87715
828.894	9775.93219
829.08	9820.84217
829.266	9645.24317
829.451	9528.79478
829.637	9471.57321
829.822	10079.95588
830.008	9643.20066
830.193	9753.47447
830.378	9645.24317
830.564	9908.59992
830.749	9871.86745
830.935	10084.03456
831.12	9726.93115
831.305	10002.45028
831.491	9810.636
831.676	9792.26394
831.861	9841.2534
832.047	9594.1756
832.232	9414.33904
832.417	9612.56105
832.602	9567.61659
832.788	9796.34672
832.973	9669.75216
833.158	9880.03063
833.343	9594.1756
833.528	9716.7215
833.714	9510.4035
833.899	9565.57348
834.084	9177.08866
834.269	9432.73713
834.454	9316.19359
834.639	9391.85071
834.824	9285.51533
835.009	9598.26136
835.194	9471.57321
835.379	9438.86953
835.564	9054.28379
835.749	9138.20714
835.934	9203.68827
836.119	9344.82326
836.304	8988.76236
836.489	9170.94988
836.674	9123.88081
836.859	8951.89865
837.044	9308.01308
837.228	9453.1779
837.413	9113.64721
837.598	9381.62809
837.783	8943.70594
837.968	8800.28723
838.152	8580.88892
838.337	8714.19345
838.522	8726.49454
838.707	8939.60947
838.891	8939.60947
839.076	9209.82623
839.261	9078.84973
839.445	9236.42232
839.63	8931.41634
839.815	8996.95351
839.999	9029.71535
840.184	9324.37382
840.368	9029.71535
840.553	9220.05583
840.737	8960.09108
840.922	9058.37829
841.106	8605.50491
841.291	8906.83522
841.475	8587.04317
841.66	8705.99235
841.844	8554.21853
842.029	8695.74057
842.213	8603.45368
842.397	8972.37919
842.582	8640.37296
842.766	8363.32896
842.951	8155.82855
843.135	8275.01174
843.319	8178.43739
843.504	8320.2018
843.688	8383.86269
843.872	8623.96514
844.056	8816.6824
844.241	8484.45012
844.425	8279.12032
844.609	8318.14792
844.793	8507.02465
844.977	8494.71156
845.161	8258.57663
845.346	8447.50499
845.53	8180.49262
845.714	8455.71556
845.898	8332.52473
846.082	8275.01174
846.266	8227.75741
846.45	8361.27548
846.634	8087.98752
846.818	8351.00779
847.002	8110.60363
847.186	8449.55766
847.37	8194.87866
847.554	8348.9542
847.738	8215.42847
847.922	8482.39778
848.106	8275.01174
848.29	8266.79434
848.473	8044.80455
848.657	8007.78347
848.841	7659.87104
849.025	7797.87192
849.209	7783.45832
849.392	7812.28449
849.576	7764.92505
849.76	7871.98286
849.944	7818.46099
850.127	7748.44961
850.311	7985.15623
850.495	8178.43739
850.678	7764.92505
850.862	8083.87524
851.046	7736.09215
851.229	7769.0437
851.413	7655.75016
851.596	7674.29347
851.78	7861.69128
851.964	7904.91244
852.147	7688.71486
852.331	7694.89514
852.514	7600.10991
852.698	7637.20513
852.881	7139.96022
853.065	7352.6306
853.248	7092.43861
853.431	7344.37591
853.615	7263.87432
853.798	7142.02611
853.982	7046.9721
854.165	7212.25313
854.348	6947.73472
854.532	7451.65967
854.715	7321.67371
854.898	7422.78136
855.081	7032.50321
855.265	7387.70913
855.448	6935.32639
855.631	7270.06794
855.814	7230.83835
855.997	7201.92724
856.181	6891.89084
856.364	7092.43861
856.547	6947.73472
856.73	7104.83669
856.913	6784.29304
857.096	7170.94623
857.279	7065.57335
857.462	7331.99322
857.645	6999.42733
857.828	7162.68378
858.011	7015.96599
858.194	7088.30574
858.377	6589.63234
858.56	6935.32639
858.743	6742.89285
858.926	6908.4389
859.109	6616.56561
859.292	6612.42228
859.475	6595.84805
859.658	6815.33719
859.841	6616.56561
860.023	6742.89285
860.206	6490.15256
860.389	6672.49149
860.572	6367.80207
860.755	6655.92261
860.937	6575.12819
861.12	6459.05418
861.303	6624.85198
861.486	6612.42228
861.668	6338.75785
861.851	6342.90731
862.034	6280.65567
862.216	6374.02524
862.399	6124.93435
862.581	6371.95088
862.764	6203.84964
862.947	6508.80909
863.129	6525.39109
863.312	6525.39109
863.494	6442.46624
863.677	6490.15256
863.859	6384.39672
864.042	6293.10768
864.224	6106.23892
864.406	6203.84964
864.589	5879.66506
864.771	6129.08863
864.954	5877.5851
865.136	6035.59454
865.318	6035.59454
865.501	6054.29717
865.683	5912.94114
865.865	6031.43814
866.048	6048.06317
866.23	6077.15335
866.412	5987.79026
866.594	5863.02475
866.777	5854.70403
866.959	5919.17974
867.141	5663.22325
867.323	5875.50512
867.505	5521.56564
867.687	5840.14186
867.869	5902.54301
868.052	6068.84234
868.234	5817.25612
868.416	6050.14119
868.598	5748.58175
868.78	5756.90729
868.962	5671.55265
869.144	5979.4752
869.326	5869.26504
869.508	5894.22409
869.69	5617.40478
869.872	5769.39488
870.054	5738.1743
870.236	6002.34071
870.417	5813.09477
870.599	5777.71947
870.781	5704.8665
870.963	5725.68458
871.145	5579.90844
871.327	5659.05841
871.508	5408.99525
871.69	5688.21033
871.872	5552.82301
872.054	5694.45657
872.235	5627.81907
872.417	5794.36752
872.599	5586.15836
872.78	5738.1743
872.962	5296.35637
873.144	5619.48768
873.325	5490.30296
873.507	5650.72843
873.689	5452.78077
873.87	5471.54282
874.052	5406.90996
874.233	5677.79946
874.415	5471.54282
874.596	5581.99177
874.778	5329.73798
874.959	5348.5125
875.141	5402.73933
875.322	5511.14533
875.503	5271.31623
875.685	5519.48162
875.866	5285.92338
876.048	5504.89287
876.229	5390.22685
876.41	5521.56564
876.592	5294.26982
876.773	5402.73933
876.954	5292.18324
877.136	5519.48162
877.317	5321.39314
877.498	5490.30296
877.679	5408.99525
877.86	5490.30296
878.042	5471.54282
878.223	5579.90844
878.404	5323.47938
878.585	5540.3207
878.766	5361.02779
878.947	5490.30296
879.128	5300.52939
879.309	5323.47938
879.49	5192.00025
879.672	5438.18675
879.853	5221.22585
880.034	5450.69598
880.215	5235.83693
880.396	5473.62737
880.576	5269.2294
880.757	5650.72843
880.938	5221.22585
881.119	5538.23689
881.3	5340.1685
881.481	5594.49126
881.662	5536.15307
881.843	5698.62061
882.023	5756.90729
882.204	5477.79641
882.385	5256.70792
882.566	5358.94196
882.747	5427.76174
882.927	5538.23689
883.108	5256.70792
883.289	5448.61117
883.469	5298.44289
883.65	5734.01116
883.831	5427.76174
884.011	5677.79946
884.192	5554.90664
884.373	5594.49126
884.553	5494.47163
884.734	5519.48162
884.914	5413.16574
885.095	5821.41737
885.275	5525.73359
885.456	5752.74457
885.636	5486.13421
885.817	5659.05841
885.997	5611.15592
886.178	5694.45657
886.358	5529.90145
886.538	5825.57854
886.719	5398.56859
886.899	5844.3026
887.08	5636.15008
887.26	5910.86156
887.44	5540.3207
887.621	5636.15008
887.801	5177.38574
887.981	5656.97595
888.161	5406.90996
888.342	5588.24162
888.522	5262.96876
888.702	5571.57489
888.882	5354.77025
889.062	5673.63495
889.242	5477.79641
889.423	5554.90664
889.603	5398.56859
889.783	5448.61117
889.963	5417.33614
890.143	5594.49126
890.323	5327.6518
890.503	5752.74457
890.683	5477.79641
890.863	5661.14084
891.043	5775.63836
891.223	5761.06991
891.403	5654.89347
891.583	5871.34509
891.763	5310.96156
891.943	5538.23689
892.122	5496.55592
892.302	5544.48823
892.482	5421.50645
892.662	5527.81753
892.842	5294.26982
893.022	5504.89287
893.201	5083.40809
893.381	5521.56564
893.561	5371.45655
893.741	5721.52116
893.92	5379.79914
894.1	5290.09665
894.28	5248.35981
894.459	5296.35637
894.639	5154.41777
894.819	5262.96876
894.998	5365.19936
895.178	5377.71353
895.357	5160.68204
895.537	5440.27168
895.716	5265.05566
895.896	5419.42131
896.075	5037.44636
896.255	5448.61117
896.434	5221.22585
896.614	5488.2186
896.793	5135.6237
896.973	5162.77009
897.152	5173.20995
897.331	5523.64963
897.511	5281.75003
897.69	5327.6518
897.87	4891.13022
898.049	5033.26747
898.228	4736.3312
898.407	4916.22099
898.587	4750.97968
898.766	5041.62517
898.945	4966.39261
899.124	4880.67476
899.304	4535.32666
899.483	4654.69801
899.662	4516.47194
899.841	4558.36887
900.02	4524.85203
900.199	4725.86733
900.378	4537.42151
900.557	4587.69143
900.737	4453.60998
900.916	4436.84344
901.095	4323.63283
901.274	4684.00618
901.453	4235.53658
901.632	4411.69102
901.811	4281.68696
901.989	4382.34255
902.168	4283.78445
902.347	4306.85552
902.526	4103.3219
902.705	4292.17423
902.884	4206.16279
903.063	4344.60254
903.242	4122.21482
903.42	4298.46634
903.599	4050.83271
903.778	4157.89683
903.957	3981.52722
904.135	4101.22258
904.314	3765.06857
904.493	4090.72568
904.672	3643.08757
904.85	4023.53322
905.029	3771.37617
905.207	3861.76558
905.386	3525.25239
905.565	3924.80619
905.743	3819.72853
905.922	3645.19124
906.1	3468.41833
906.279	3441.04908
906.457	3331.54212
906.636	3737.73364
906.814	3436.83816
906.993	3382.0897
907.171	3264.1299
907.35	3413.67681
907.528	3118.71405
907.707	3451.57608
907.885	3240.95293
908.063	3333.64847
908.242	3207.23738
908.42	3165.08699
908.598	3097.63288
908.777	3466.31311
908.955	2924.70887
909.133	3169.30232
909.311	2945.8026
909.49	2981.65854
909.668	2935.25592
909.846	3310.47768
910.024	3028.05387
910.202	3287.30482
910.38	2914.16146
910.559	3316.79719
910.737	3087.09171
910.915	3219.88121
911.093	3171.40997
911.271	3316.79719
911.449	2969.00399
911.627	3146.11719
911.805	2979.54948
911.983	3030.16257
912.161	3006.96599
912.339	3255.70214
912.517	3209.34472
912.695	3335.7548
912.872	3217.77395
913.05	3615.7382
913.228	3268.34367
913.406	3512.62374
913.584	3192.48549
913.762	3276.77102
913.939	3175.6252
914.117	3499.99444
914.295	3025.94515
914.473	3146.11719
914.65	3217.77395
914.828	3369.45375
915.006	3162.9793
915.184	3272.55738
915.361	2926.81831
915.539	3179.84037
915.716	2888.84618
915.894	3017.51012
916.072	2931.03714
916.249	3049.14021
916.427	2937.36528
916.604	3274.6642
916.782	3103.9574
916.959	3148.22501
917.137	3004.85712
917.314	3283.09135
917.492	2924.70887
917.669	3103.9574
917.847	2888.84618
918.024	2924.70887
918.201	2713.69359
918.379	2943.69329
918.556	2690.47365
918.733	2861.41896
918.911	2574.351
919.088	2772.79173
919.265	2622.91594
919.442	2861.41896
919.62	2694.69557
919.797	2956.34891
919.974	2791.78533
920.151	2808.6676
920.328	2620.80455
920.506	2783.34387
920.683	2622.91594
920.86	2498.32374
921.037	2405.38178
921.214	2303.96753
921.391	2411.71939
921.568	2732.69056
921.745	2549.01026
921.922	2627.13867
922.099	2430.73166
922.276	2755.90761
922.453	2348.33909
922.63	2557.45736
922.807	2202.53136
922.984	2415.94441
923.161	2183.50982
923.338	2542.67481
923.514	2354.67753
923.691	2242.68566
923.868	2149.69209
924.045	2185.62336
924.222	2166.60122
924.399	2263.81821
924.575	1989.03134
924.752	2276.49731
924.929	2227.89234
925.105	2352.56473
925.282	2024.97215
925.459	2103.18938
925.635	2098.96167
925.812	2143.35103
925.989	2065.13897
926.165	2124.32744
926.342	1921.37318
926.518	2111.64469
926.695	2075.70877
926.871	2107.41705
927.048	1879.08385
927.224	1927.71639
927.401	1777.58143
927.577	2029.20035
927.754	1684.52939
927.93	1919.25876
928.107	1805.07269
928.283	1737.40069
928.459	1676.06981
928.636	1904.45771
928.812	1718.36726
928.988	1915.02992
929.165	1553.40159
929.341	1745.85991
929.517	1614.73656
929.693	1703.56329
929.87	1506.87086
930.046	1631.65628
930.222	1458.22473
930.398	1678.18471
930.574	1599.9317
930.751	1811.41673
930.927	1449.76452
931.103	1686.64428
931.279	1375.73791
931.455	1502.64077
931.631	1430.72906
931.807	1557.63163
931.983	1333.43747
932.159	1371.50784
932.335	1212.88546
932.511	1282.67779
932.687	1179.04797
932.863	1415.92371
933.039	1255.18349
933.215	1434.95916
933.391	1297.48258
933.566	1329.20745
933.742	1160.01479
933.918	1231.91943
934.094	910.50712
934.27	1149.44094
934.445	1003.53411
934.621	1151.5557
934.797	916.84943
934.973	1024.67841
935.148	906.27896
935.324	950.67619
935.5	836.51897
935.675	893.59466
935.851	762.54173
936.027	868.22692
936.202	665.33358
936.378	688.57688
936.553	711.82155
936.729	705.48196
936.904	658.99475
937.08	530.12951
937.255	513.23285
937.431	521.68107
937.606	475.21875
937.782	519.56899
937.957	437.20952
938.133	490.00145
938.308	340.09847
938.483	443.54405
938.659	342.2092
938.834	390.76073
939.009	361.20655
939.185	413.98415
939.36	424.5409
939.535	333.76638
939.71	344.31995
939.886	340.09847
940.061	323.21326
940.236	327.43445
940.411	209.26891
940.586	348.54149
940.761	316.8816
940.937	259.90403
941.112	236.69488
941.287	238.8047
941.462	224.03632
941.637	243.02442
941.812	179.73703
941.987	217.70731
942.162	236.69488
942.337	217.70731
942.512	177.62776
942.687	234.58507
942.862	171.30008
943.037	183.95562
943.212	156.53622
943.386	232.47528
943.561	188.1743
943.736	46.895
943.911	207.15936
944.086	129.12037
944.26	167.08173
944.435	152.31817
944.61	190.28367
944.785	133.33796
944.959	240.91455
945.134	179.73703
945.309	145.99124
945.483	120.68545
945.658	173.40929
945.833	120.68545
946.007	164.97259
946.182	238.8047
946.357	217.70731
946.531	194.50247
946.706	139.6645
946.88	120.68545
947.055	162.86346
947.229	141.77339
947.404	205.04983
947.578	124.90287
947.752	196.6119
947.927	255.68401
948.101	177.62776
948.276	247.24421
948.45	221.92663
948.624	211.37848
948.799	167.08173
948.973	198.72135
949.147	86.94927
949.321	200.83082
949.496	89.05761
949.67	112.25088
949.844	240.91455
950.018	162.86346
950.193	194.50247
950.367	215.59768
950.541	200.83082
950.715	219.81696
950.889	175.51851
951.063	230.36551
951.237	145.99124
951.411	217.70731
951.585	217.70731
951.759	270.45441
951.933	213.48807
952.107	190.28367
952.281	238.8047
952.455	289.44628
952.629	200.83082
952.803	255.68401
952.977	234.58507
953.151	245.1343
953.325	272.56455
953.499	224.03632
953.672	196.6119
953.846	247.24421
954.02	213.48807
954.194	150.20917
954.368	207.15936
954.541	230.36551
954.715	167.08173
954.889	209.26891
955.062	150.20917
955.236	188.1743
955.41	257.79401
955.583	247.24421
955.757	215.59768
955.93	183.95562
956.104	266.2342
956.278	120.68545
956.451	74.29967
956.625	243.02442
956.798	139.6645
956.972	205.04983
957.145	167.08173
957.319	259.90403
957.492	154.42718
957.665	255.68401
957.839	194.50247
958.012	131.22915
958.185	156.53622
958.359	219.81696
958.532	247.24421
958.705	297.88759
958.879	209.26891
959.052	213.48807
959.225	148.10019
959.398	154.42718
959.572	213.48807
959.745	247.24421
959.918	198.72135
960.091	186.06495
960.264	86.94927
960.438	259.90403
960.611	234.58507
960.784	217.70731
960.957	209.26891
961.13	274.6747
961.303	192.39306
961.476	190.28367
961.649	171.30008
961.822	196.6119
961.995	61.65088
962.168	249.35413
962.341	173.40929
962.514	207.15936
962.686	173.40929
962.859	148.10019
963.032	148.10019
963.205	230.36551
963.378	89.05761
963.551	255.68401
963.723	171.30008
963.896	236.69488
964.069	78.51611
964.242	145.99124
964.414	103.81665
964.587	164.97259
964.76	190.28367
964.932	198.72135
965.105	133.33796
965.278	188.1743
965.45	164.97259
965.623	103.81665
965.795	145.99124
965.968	139.6645
966.14	232.47528
966.313	249.35413
966.485	145.99124
966.658	192.39306
966.83	217.70731
967.003	135.44678
967.175	202.94032
967.348	230.36551
967.52	152.31817
967.692	108.03372
967.865	160.75436
968.037	78.51611
968.209	164.97259
968.382	234.58507
968.554	224.03632
968.726	148.10019
968.898	91.16598
969.071	137.55563
969.243	158.64528
969.415	124.90287
969.587	183.95562
969.759	169.1909
969.932	137.55563
970.104	190.28367
970.276	167.08173
970.448	154.42718
970.62	181.84631
970.792	49.00291
970.964	158.64528
971.136	129.12037
971.308	105.92518
971.48	143.8823
971.652	186.06495
971.824	150.20917
971.996	139.6645
972.168	190.28367
972.339	152.31817
972.511	105.92518
972.683	129.12037
972.855	133.33796
973.027	175.51851
973.199	112.25088
973.37	116.46812
973.542	186.06495
973.714	105.92518
973.886	164.97259
974.057	27.92483
974.229	120.68545
974.401	160.75436
974.572	116.46812
974.744	103.81665
974.915	145.99124
975.087	19.49425
975.259	129.12037
975.43	110.14229
975.602	65.86705
975.773	112.25088
975.945	99.59967
976.116	124.90287
976.288	63.75895
976.459	127.01161
976.63	27.92483
976.802	141.77339
976.973	122.79415
977.145	114.35949
977.316	42.67924
977.487	97.49122
977.659	150.20917
977.83	108.03372
978.001	101.70815
978.172	154.42718
978.344	74.29967
978.515	15.2791
978.686	135.44678
978.857	133.33796
979.028	61.65088
979.2	131.22915
979.371	70.08331
979.542	120.68545
979.713	44.78711
979.884	95.38278
980.055	86.94927
980.226	49.00291
980.397	114.35949
980.568	49.00291
980.739	114.35949
980.91	27.92483
981.081	112.25088
981.252	105.92518
981.423	15.2791
981.594	70.08331
981.765	78.51611
981.936	27.92483
982.106	86.94927
982.277	89.05761
982.448	55.32679
982.619	154.42718
982.79	76.40788
982.96	82.73264
983.131	116.46812
983.302	162.86346
983.472	141.77339
983.643	80.62436
983.814	86.94927
983.984	49.00291
984.155	82.73264
984.326	61.65088
984.496	36.35578
984.667	124.90287
984.837	97.49122
985.008	95.38278
985.178	86.94927
985.349	74.29967
985.519	70.08331
985.69	55.32679
985.86	53.21881
986.031	11.06405
986.201	99.59967
986.371	145.99124
986.542	63.75895
986.712	72.19148
986.882	95.38278
987.053	38.46358
987.223	8.95656
987.393	57.4348
987.563	53.21881
987.734	63.75895
987.904	120.68545
988.074	57.4348
988.244	103.81665
988.414	114.35949
988.585	57.4348
988.755	65.86705
988.925	-22.65289
989.095	116.46812
989.265	120.68545
989.435	72.19148
989.605	82.73264
989.775	137.55563
989.945	15.2791
990.115	53.21881
990.285	70.08331
990.455	78.51611
990.625	57.4348
990.795	44.78711
990.965	38.46358
991.134	61.65088
991.304	86.94927
991.474	30.03253
991.644	86.94927
991.814	118.57677
991.984	110.14229
992.153	4.74166
992.323	44.78711
992.493	-22.65289
992.662	76.40788
992.832	82.73264
993.002	44.78711
993.171	74.29967
993.341	67.97517
993.511	55.32679
993.68	27.92483
993.85	72.19148
994.019	46.895
994.189	70.08331
994.358	27.92483
994.528	70.08331
994.697	-1.58052
994.867	46.895
995.036	95.38278
995.206	21.60186
995.375	2.63424
995.544	-3.68787
995.714	44.78711
995.883	44.78711
996.052	38.46358
996.222	103.81665
996.391	78.51611
996.56	82.73264
996.73	2.63424
996.899	49.00291
997.068	6.8491
997.237	4.74166
997.406	67.97517
997.576	44.78711
997.745	44.78711
997.914	34.24801
998.083	131.22915
998.252	42.67924
998.421	-5.79519
998.59	67.97517
998.759	122.79415
998.928	8.95656
999.097	8.95656
999.266	61.65088
999.435	44.78711
999.604	36.35578
999.773	-79.53586
999.942	116.46812
1000.111	34.24801
1000.28	78.51611
1000.448	89.05761
1000.617	23.70949
1000.786	27.92483
1000.955	97.49122
1001.124	89.05761
1001.292	4.74166
1001.461	19.49425
1001.63	53.21881
1001.798	36.35578
1001.967	15.2791
1002.136	76.40788
1002.304	-14.22423
1002.473	30.03253
1002.642	46.895
1002.81	36.35578
1002.979	93.27437
1003.147	40.5714
1003.316	118.57677
1003.484	32.14026
1003.653	95.38278
1003.821	-54.2568
1003.99	25.81715
1004.158	27.92483
1004.327	76.40788
1004.495	36.35578
1004.663	-31.08114
1004.832	72.19148
1005	44.78711
1005.168	59.54283
1005.337	99.59967
1005.505	74.29967
1005.673	38.46358
1005.842	4.74166
1006.01	-14.22423
1006.178	19.49425
1006.346	42.67924
1006.514	108.03372
1006.683	19.49425
1006.851	13.17157
1007.019	103.81665
1007.187	38.46358
1007.355	46.895
1007.523	32.14026
1007.691	65.86705
1007.859	78.51611
1008.027	89.05761
1008.195	36.35578
1008.363	61.65088
1008.531	23.70949
1008.699	63.75895
1008.867	21.60186
1009.035	19.49425
1009.203	6.8491
1009.37	72.19148
1009.538	91.16598
1009.706	32.14026
1009.874	55.32679
1010.042	27.92483
1010.209	40.5714
1010.377	53.21881
1010.545	61.65088
1010.713	44.78711
1010.88	59.54283
1011.048	59.54283
1011.216	32.14026
1011.383	-26.86706
1011.551	-18.43861
1011.718	6.8491
1011.886	11.06405
1012.054	11.06405
1012.221	-12.11701
1012.389	-18.43861
1012.556	34.24801
1012.724	19.49425
1012.891	-37.40208
1013.058	105.92518
1013.226	-79.53586
1013.393	-28.97412
1013.561	-1.58052
1013.728	86.94927
1013.895	65.86705
1014.063	13.17157
1014.23	27.92483
1014.397	21.60186
1014.565	-22.65289
1014.732	65.86705
1014.899	84.84094
1015.066	-28.97412
1015.233	-10.00976
1015.401	-1.58052
1015.568	-26.86706
1015.735	38.46358
1015.902	53.21881
1016.069	11.06405
1016.236	6.8491
1016.403	-69.00336
1016.57	36.35578
1016.737	-33.18815
1016.904	2.63424
1017.071	46.895
1017.238	40.5714
1017.405	53.21881
1017.572	67.97517
1017.739	-10.00976
1017.906	15.2791
1018.073	13.17157
1018.24	67.97517
1018.407	34.24801
1018.573	32.14026
1018.74	57.4348
1018.907	13.17157
1019.074	-1.58052
1019.241	78.51611
1019.407	2.63424
1019.574	-28.97412
1019.741	61.65088
1019.907	-50.04327
1020.074	32.14026
1020.241	-22.65289
1020.407	30.03253
1020.574	-47.93647
1020.74	-45.82964
1020.907	30.03253
1021.073	-14.22423
1021.24	-18.43861
1021.406	-12.11701
1021.573	30.03253
1021.739	46.895
1021.906	27.92483
1022.072	27.92483
1022.239	114.35949
1022.405	11.06405
1022.571	70.08331
1022.738	11.06405
1022.904	49.00291
1023.07	19.49425
1023.237	-56.36353
1023.403	-16.33143
1023.569	8.95656
1023.735	38.46358
1023.902	44.78711
1024.068	61.65088
1024.234	-5.79519
1024.4	70.08331
1024.566	27.92483
1024.732	-22.65289
1024.898	15.2791
1025.065	63.75895
1025.231	44.78711
1025.397	86.94927
1025.563	82.73264
1025.729	-16.33143
1025.895	44.78711
1026.061	40.5714
1026.227	32.14026
1026.392	82.73264
1026.558	-20.54576
1026.724	53.21881
1026.89	46.895
1027.056	65.86705
1027.222	2.63424
1027.388	46.895
1027.553	11.06405
1027.719	-20.54576
1027.885	86.94927
1028.051	8.95656
1028.216	55.32679
1028.382	19.49425
1028.548	40.5714
1028.713	30.03253
1028.879	11.06405
1029.045	13.17157
1029.21	-54.2568
1029.376	-47.93647
1029.541	-31.08114
1029.707	-22.65289
1029.873	46.895
1030.038	72.19148
1030.204	40.5714
1030.369	27.92483
1030.534	-37.40208
1030.7	25.81715
1030.865	-14.22423
1031.031	80.62436
1031.196	91.16598
1031.361	-22.65289
1031.527	74.29967
1031.692	61.65088
1031.857	-71.10991
1032.023	4.74166
1032.188	78.51611
1032.353	30.03253
1032.518	-39.50901
1032.684	-3.68787
1032.849	55.32679
1033.014	2.63424
1033.179	25.81715
1033.344	-22.65289
1033.509	-1.58052
1033.674	55.32679
1033.839	23.70949
1034.004	19.49425
1034.17	89.05761
1034.335	-3.68787
1034.5	23.70949
1034.664	97.49122
1034.829	-5.79519
1034.994	27.92483
1035.159	-3.68787
1035.324	63.75895
1035.489	19.49425
1035.654	40.5714
1035.819	65.86705
1035.984	46.895
1036.148	4.74166
1036.313	46.895
1036.478	27.92483
1036.643	4.74166
1036.807	15.2791
1036.972	51.11085
1037.137	17.38667
1037.301	46.895
1037.466	49.00291
1037.631	11.06405
1037.795	44.78711
1037.96	86.94927
1038.124	-22.65289
1038.289	11.06405
1038.454	40.5714
1038.618	-7.90249
1038.783	8.95656
1038.947	63.75895
1039.111	32.14026
1039.276	-5.79519
1039.44	42.67924
1039.605	2.63424
1039.769	36.35578
1039.933	-47.93647
1040.098	46.895
1040.262	-28.97412
1040.426	32.14026
1040.591	-18.43861
1040.755	57.4348
1040.919	59.54283
1041.083	13.17157
1041.248	23.70949
1041.412	11.06405
1041.576	6.8491
1041.74	36.35578
1041.904	-10.00976
1042.068	2.63424
1042.232	-45.82964
1042.397	-5.79519
1042.561	25.81715
1042.725	19.49425
1042.889	-3.68787
1043.053	44.78711
1043.217	65.86705
1043.381	-69.00336
1043.544	-18.43861
1043.708	46.895
1043.872	-5.79519
1044.036	70.08331
1044.2	11.06405
1044.364	19.49425
1044.528	-20.54576
1044.691	-39.50901
1044.855	11.06405
1045.019	-41.61591
1045.183	-47.93647
1045.346	27.92483
1045.51	-22.65289
1045.674	-24.75999
1045.837	46.895
1046.001	27.92483
1046.165	30.03253
1046.328	74.29967
1046.492	6.8491
1046.655	-12.11701
1046.819	36.35578
1046.983	63.75895
1047.146	-16.33143
1047.31	4.74166
1047.473	32.14026
1047.636	-90.0677
1047.8	0.52684
1047.963	6.8491
1048.127	-31.08114
1048.29	53.21881
