Data from mixed_try1_USB4F045381__14__00079.txt Node

Date: Thu Apr 03 19:52:13 EDT 2025
User: mmckonesweet
Spectrometer: USB4F04538
Trigger mode: 4
Integration Time (sec): 2.700000E-3
Scans to average: 1
Electric dark correction enabled: true
Nonlinearity correction enabled: true
Boxcar width: 0
XAxis mode: Wavelengths
Number of Pixels in Spectrum: 3648
>>>>>Begin Spectral Data<<<<<
345.52	-12.99502
345.736	-12.99502
345.952	-12.99502
346.168	-27.74501
346.384	3.86356
346.6	-31.95906
346.816	27.04663
347.032	50.23254
347.248	-6.67324
347.464	3.86356
347.68	-6.67324
347.896	-23.53085
348.112	-19.31659
348.328	29.15432
348.544	-38.27997
348.76	-27.74501
348.975	43.90883
349.191	48.12461
349.407	-31.95906
349.623	-15.10224
349.839	5.97099
350.055	3.86356
350.27	-25.63794
350.486	-2.45859
350.702	18.61609
350.918	-12.99502
351.133	-2.45859
351.349	43.90883
351.565	18.61609
351.781	54.44846
351.996	-48.81431
352.212	24.93896
352.428	12.29343
352.644	27.04663
352.859	-40.38689
353.075	71.31307
353.291	67.09678
353.506	-15.10224
353.722	41.80097
353.938	27.04663
354.153	-10.88778
354.369	-12.99502
354.584	-15.10224
354.8	10.18593
355.016	48.12461
355.231	-19.31659
355.447	64.98867
355.662	56.55646
355.878	-17.20943
356.093	-21.42373
356.309	50.23254
356.524	60.77252
356.74	60.77252
356.955	-53.02787
357.171	-23.53085
357.386	10.18593
357.602	52.34049
357.817	-21.42373
358.033	-2.45859
358.248	37.58533
358.464	-40.38689
358.679	-44.60065
358.895	-25.63794
359.11	43.90883
359.325	39.69314
359.541	-31.95906
359.756	43.90883
359.972	-10.88778
360.187	3.86356
360.402	22.83131
360.618	-34.06606
360.833	-23.53085
361.048	43.90883
361.264	37.58533
361.479	5.97099
361.694	-44.60065
361.909	-31.95906
362.125	50.23254
362.34	48.12461
362.555	35.47754
362.77	-21.42373
362.986	10.18593
363.201	31.26204
363.416	-82.51994
363.631	-57.24133
363.847	64.98867
364.062	8.07845
364.277	-23.53085
364.492	10.18593
364.707	43.90883
364.922	-19.31659
365.138	58.66448
365.353	-17.20943
365.568	-23.53085
365.783	-15.10224
365.998	-6.67324
366.213	20.72369
366.428	-21.42373
366.643	14.40096
366.858	-57.24133
367.073	43.90883
367.288	5.97099
367.503	-86.73269
367.718	8.07845
367.933	3.86356
368.148	-38.27997
368.363	-2.45859
368.578	-2.45859
368.793	37.58533
369.008	14.40096
369.223	62.88058
369.438	54.44846
369.653	62.88058
369.868	-38.27997
370.083	35.47754
370.298	18.61609
370.513	-38.27997
370.728	37.58533
370.943	-25.63794
371.157	60.77252
371.372	10.18593
371.587	41.80097
371.802	62.88058
372.017	-19.31659
372.232	35.47754
372.446	-31.95906
372.661	-19.31659
372.876	-10.88778
373.091	-6.67324
373.306	33.36978
373.52	41.80097
373.735	-34.06606
373.95	-6.67324
374.165	54.44846
374.379	73.42125
374.594	3.86356
374.809	-0.35123
375.023	29.15432
375.238	105.04662
375.453	37.58533
375.667	-29.85205
375.882	-38.27997
376.097	-12.99502
376.311	96.6127
376.526	73.42125
376.741	69.20492
376.955	98.72115
377.17	37.58533
377.384	24.93896
377.599	18.61609
377.813	20.72369
378.028	-0.35123
378.242	35.47754
378.457	18.61609
378.672	-6.67324
378.886	-31.95906
379.101	33.36978
379.315	29.15432
379.53	14.40096
379.744	69.20492
379.958	46.01671
380.173	48.12461
380.387	-21.42373
380.602	27.04663
380.816	-21.42373
381.031	46.01671
381.245	5.97099
381.459	14.40096
381.674	69.20492
381.888	-46.70749
382.103	1.75615
382.317	-8.78052
382.531	43.90883
382.746	-15.10224
382.96	-29.85205
383.174	-19.31659
383.388	43.90883
383.603	16.50851
383.817	27.04663
384.031	-10.88778
384.246	-10.88778
384.46	22.83131
384.674	-53.02787
384.888	39.69314
385.103	-53.02787
385.317	48.12461
385.531	18.61609
385.745	18.61609
385.959	18.61609
386.174	-15.10224
386.388	43.90883
386.602	-6.67324
386.816	73.42125
387.03	130.35049
387.244	-23.53085
387.458	-12.99502
387.672	10.18593
387.887	10.18593
388.101	-55.13461
388.315	-23.53085
388.529	62.88058
388.743	102.93811
388.957	-6.67324
389.171	14.40096
389.385	14.40096
389.599	27.04663
389.813	29.15432
390.027	-15.10224
390.241	48.12461
390.455	10.18593
390.669	-21.42373
390.883	-69.8811
391.097	-48.81431
391.311	-17.20943
391.525	35.47754
391.738	18.61609
391.952	-19.31659
392.166	-21.42373
392.38	5.97099
392.594	14.40096
392.808	60.77252
393.022	69.20492
393.236	18.61609
393.449	-12.99502
393.663	92.39587
393.877	31.26204
394.091	29.15432
394.305	12.29343
394.518	102.93811
394.732	60.77252
394.946	41.80097
395.16	-8.78052
395.373	54.44846
395.587	27.04663
395.801	-6.67324
396.015	43.90883
396.228	22.83131
396.442	60.77252
396.656	-15.10224
396.869	-36.17303
397.083	3.86356
397.297	-90.94533
397.51	46.01671
397.724	-15.10224
397.938	50.23254
398.151	64.98867
398.365	3.86356
398.578	39.69314
398.792	86.0708
399.005	-19.31659
399.219	18.61609
399.433	3.86356
399.646	27.04663
399.86	-25.63794
400.073	-27.74501
400.287	-15.10224
400.5	-38.27997
400.714	83.96248
400.927	90.28749
401.141	10.18593
401.354	-6.67324
401.567	-48.81431
401.781	-2.45859
401.994	31.26204
402.208	5.97099
402.421	29.15432
402.635	-23.53085
402.848	-15.10224
403.061	-2.45859
403.275	-0.35123
403.488	86.0708
403.701	64.98867
403.915	-12.99502
404.128	12.29343
404.341	-10.88778
404.555	-27.74501
404.768	14.40096
404.981	18.61609
405.195	62.88058
405.408	-6.67324
405.621	111.37229
405.834	-17.20943
406.048	-23.53085
406.261	5.97099
406.474	43.90883
406.687	16.50851
406.9	-6.67324
407.114	16.50851
407.327	62.88058
407.54	52.34049
407.753	-23.53085
407.966	-19.31659
408.179	1.75615
408.392	39.69314
408.605	27.04663
408.819	79.74592
409.032	50.23254
409.245	79.74592
409.458	12.29343
409.671	16.50851
409.884	-23.53085
410.097	-15.10224
410.31	71.31307
410.523	43.90883
410.736	-15.10224
410.949	52.34049
411.162	5.97099
411.375	5.97099
411.588	10.18593
411.801	35.47754
412.014	-40.38689
412.227	20.72369
412.44	75.52945
412.653	27.04663
412.865	77.63768
413.078	56.55646
413.291	-55.13461
413.504	-40.38689
413.717	-4.56592
413.93	3.86356
414.143	33.36978
414.356	-53.02787
414.568	18.61609
414.781	39.69314
414.994	-40.38689
415.207	-19.31659
415.42	102.93811
415.632	56.55646
415.845	-12.99502
416.058	62.88058
416.271	43.90883
416.483	-27.74501
416.696	-12.99502
416.909	-4.56592
417.121	14.40096
417.334	10.18593
417.547	24.93896
417.759	27.04663
417.972	-29.85205
418.185	64.98867
418.397	20.72369
418.61	-67.77453
418.823	-6.67324
419.035	20.72369
419.248	-19.31659
419.46	10.18593
419.673	-6.67324
419.885	-12.99502
420.098	16.50851
420.311	3.86356
420.523	22.83131
420.736	-2.45859
420.948	33.36978
421.161	22.83131
421.373	113.4809
421.586	-10.88778
421.798	1.75615
422.01	10.18593
422.223	35.47754
422.435	22.83131
422.648	-0.35123
422.86	-27.74501
423.073	27.04663
423.285	35.47754
423.497	46.01671
423.71	46.01671
423.922	3.86356
424.134	56.55646
424.347	-6.67324
424.559	37.58533
424.771	-6.67324
424.984	22.83131
425.196	60.77252
425.408	94.50427
425.621	-15.10224
425.833	3.86356
426.045	1.75615
426.257	-6.67324
426.47	12.29343
426.682	-34.06606
426.894	-6.67324
427.106	10.18593
427.318	-2.45859
427.531	-0.35123
427.743	12.29343
427.955	-2.45859
428.167	5.97099
428.379	46.01671
428.591	105.04662
428.804	22.83131
429.016	33.36978
429.228	35.47754
429.44	48.12461
429.652	-6.67324
429.864	3.86356
430.076	3.86356
430.288	18.61609
430.5	-46.70749
430.712	-10.88778
430.924	-15.10224
431.136	60.77252
431.348	18.61609
431.56	52.34049
431.772	56.55646
431.984	10.18593
432.196	-44.60065
432.408	12.29343
432.62	-40.38689
432.832	33.36978
433.044	29.15432
433.256	83.96248
433.468	18.61609
433.679	14.40096
433.891	10.18593
434.103	18.61609
434.315	37.58533
434.527	29.15432
434.739	-57.24133
434.95	71.31307
435.162	18.61609
435.374	35.47754
435.586	46.01671
435.798	14.40096
436.009	37.58533
436.221	52.34049
436.433	46.01671
436.645	18.61609
436.856	31.26204
437.068	18.61609
437.28	56.55646
437.491	39.69314
437.703	-8.78052
437.915	18.61609
438.126	33.36978
438.338	41.80097
438.55	-19.31659
438.761	39.69314
438.973	48.12461
439.184	3.86356
439.396	52.34049
439.608	14.40096
439.819	-31.95906
440.031	-4.56592
440.242	52.34049
440.454	46.01671
440.665	18.61609
440.877	-31.95906
441.088	14.40096
441.3	24.93896
441.511	14.40096
441.723	69.20492
441.934	14.40096
442.146	56.55646
442.357	-23.53085
442.569	138.7858
442.78	-0.35123
442.991	-57.24133
443.203	18.61609
443.414	71.31307
443.626	39.69314
443.837	1.75615
444.048	-38.27997
444.26	18.61609
444.471	43.90883
444.682	-48.81431
444.894	52.34049
445.105	10.18593
445.316	27.04663
445.528	-4.56592
445.739	50.23254
445.95	10.18593
446.161	77.63768
446.373	16.50851
446.584	18.61609
446.795	-31.95906
447.006	22.83131
447.217	-53.02787
447.429	3.86356
447.64	35.47754
447.851	71.31307
448.062	-57.24133
448.273	-2.45859
448.484	12.29343
448.695	-31.95906
448.907	12.29343
449.118	14.40096
449.329	-27.74501
449.54	22.83131
449.751	50.23254
449.962	-36.17303
450.173	54.44846
450.384	1.75615
450.595	43.90883
450.806	-40.38689
451.017	43.90883
451.228	48.12461
451.439	-12.99502
451.65	83.96248
451.861	-10.88778
452.072	69.20492
452.283	75.52945
452.494	67.09678
452.705	29.15432
452.915	-23.53085
453.126	43.90883
453.337	-6.67324
453.548	-23.53085
453.759	18.61609
453.97	37.58533
454.181	10.18593
454.391	60.77252
454.602	-10.88778
454.813	79.74592
455.024	-6.67324
455.235	52.34049
455.445	35.47754
455.656	18.61609
455.867	-2.45859
456.078	56.55646
456.288	96.6127
456.499	43.90883
456.71	10.18593
456.921	5.97099
457.131	1.75615
457.342	35.47754
457.553	29.15432
457.763	-31.95906
457.974	64.98867
458.184	1.75615
458.395	50.23254
458.606	1.75615
458.816	16.50851
459.027	88.17913
459.237	37.58533
459.448	10.18593
459.659	94.50427
459.869	-25.63794
460.08	50.23254
460.29	43.90883
460.501	-10.88778
460.711	50.23254
460.922	-48.81431
461.132	77.63768
461.343	5.97099
461.553	60.77252
461.764	-10.88778
461.974	35.47754
462.184	-8.78052
462.395	-40.38689
462.605	-42.49378
462.816	-46.70749
463.026	12.29343
463.236	52.34049
463.447	-40.38689
463.657	39.69314
463.867	52.34049
464.078	-40.38689
464.288	-23.53085
464.498	41.80097
464.709	54.44846
464.919	-23.53085
465.129	35.47754
465.339	64.98867
465.55	3.86356
465.76	-6.67324
465.97	14.40096
466.18	14.40096
466.391	35.47754
466.601	-31.95906
466.811	69.20492
467.021	27.04663
467.231	5.97099
467.441	3.86356
467.651	35.47754
467.862	-31.95906
468.072	37.58533
468.282	-23.53085
468.492	20.72369
468.702	1.75615
468.912	52.34049
469.122	52.34049
469.332	12.29343
469.542	48.12461
469.752	-63.56133
469.962	-10.88778
470.172	-97.26409
470.382	60.77252
470.592	121.91552
470.802	29.15432
471.012	5.97099
471.222	10.18593
471.432	22.83131
471.642	29.15432
471.852	50.23254
472.062	10.18593
472.272	92.39587
472.482	-40.38689
472.691	-12.99502
472.901	27.04663
473.111	-6.67324
473.321	115.58952
473.531	41.80097
473.741	52.34049
473.95	5.97099
474.16	35.47754
474.37	119.80683
474.58	35.47754
474.79	1.75615
474.999	52.34049
475.209	41.80097
475.419	77.63768
475.628	22.83131
475.838	3.86356
476.048	18.61609
476.258	20.72369
476.467	-40.38689
476.677	88.17913
476.886	83.96248
477.096	-2.45859
477.306	35.47754
477.515	54.44846
477.725	62.88058
477.935	-40.38689
478.144	69.20492
478.354	62.88058
478.563	35.47754
478.773	-23.53085
478.982	43.90883
479.192	69.20492
479.401	18.61609
479.611	-2.45859
479.82	1.75615
480.03	54.44846
480.239	39.69314
480.449	43.90883
480.658	35.47754
480.868	52.34049
481.077	79.74592
481.287	43.90883
481.496	56.55646
481.705	60.77252
481.915	96.6127
482.124	5.97099
482.333	111.37229
482.543	22.83131
482.752	-15.10224
482.961	56.55646
483.171	39.69314
483.38	5.97099
483.589	90.28749
483.799	71.31307
484.008	81.85419
484.217	-40.38689
484.426	60.77252
484.636	-15.10224
484.845	27.04663
485.054	10.18593
485.263	54.44846
485.472	60.77252
485.682	71.31307
485.891	22.83131
486.1	77.63768
486.309	60.77252
486.518	-2.45859
486.727	27.04663
486.936	22.83131
487.146	96.6127
487.355	-6.67324
487.564	52.34049
487.773	52.34049
487.982	75.52945
488.191	62.88058
488.4	-0.35123
488.609	67.09678
488.818	48.12461
489.027	77.63768
489.236	54.44846
489.445	62.88058
489.654	100.82962
489.863	132.45929
490.072	12.29343
490.281	86.0708
490.49	-15.10224
490.698	102.93811
490.907	128.24171
491.116	113.4809
491.325	22.83131
491.534	-6.67324
491.743	98.72115
491.952	46.01671
492.16	197.84241
492.369	31.26204
492.578	136.67694
492.787	60.77252
492.996	54.44846
493.204	98.72115
493.413	94.50427
493.622	117.69816
493.831	111.37229
494.039	130.35049
494.248	39.69314
494.457	64.98867
494.665	105.04662
494.874	117.69816
495.083	115.58952
495.291	124.02423
495.5	81.85419
495.709	157.7665
495.917	157.7665
496.126	77.63768
496.335	88.17913
496.543	166.20292
496.752	102.93811
496.96	143.00359
497.169	136.67694
497.377	86.0708
497.586	187.2954
497.794	153.54842
498.003	147.22146
498.211	166.20292
498.42	199.95188
498.628	147.22146
498.837	140.89469
499.045	140.89469
499.254	172.53045
499.462	145.11251
499.671	124.02423
499.879	191.51415
500.087	153.54842
500.296	174.63967
500.504	113.4809
500.713	174.63967
500.921	145.11251
501.129	113.4809
501.338	161.98467
501.546	130.35049
501.754	149.33043
501.962	187.2954
502.171	161.98467
502.379	170.42125
502.587	210.49949
502.795	280.12601
503.004	183.07674
503.212	229.48645
503.42	187.2954
503.628	155.65745
503.837	155.65745
504.045	153.54842
504.253	218.93794
504.461	208.38993
504.669	187.2954
504.877	195.73297
505.085	204.17086
505.294	212.60907
505.502	168.31207
505.71	252.69488
505.918	343.44047
506.126	212.60907
506.334	212.60907
506.542	263.24494
506.75	183.07674
506.958	233.70599
507.166	191.51415
507.374	216.8283
507.582	248.47499
507.79	288.56699
507.998	212.60907
508.206	286.45672
508.414	178.85816
508.622	290.67728
508.83	275.90563
509.037	288.56699
509.245	267.46509
509.453	208.38993
509.661	297.00827
509.869	349.77279
510.077	240.03545
510.285	280.12601
510.492	250.58493
510.7	256.91485
510.908	309.67074
511.116	311.78121
511.324	290.67728
511.531	303.33942
511.739	301.22902
511.947	250.58493
512.155	284.34646
512.362	271.68532
512.57	273.79547
512.778	389.88109
512.985	358.21613
513.193	339.219
513.401	280.12601
513.608	349.77279
513.816	322.33385
514.024	326.55503
514.231	221.0476
514.439	334.99761
514.646	457.4453
514.854	419.43842
515.061	372.99264
515.269	349.77279
515.477	316.00221
515.684	440.55273
515.892	375.10364
516.099	406.7706
516.307	366.65975
516.514	381.43673
516.722	410.99314
516.929	419.43842
517.136	356.10527
517.344	453.22206
517.551	332.88694
517.759	451.11047
517.966	370.88166
518.173	434.21827
518.381	461.6686
518.588	499.68099
518.796	408.88187
519.003	525.02522
519.21	535.58592
519.418	484.89782
519.625	470.11538
519.832	506.01685
520.039	510.24083
520.247	468.00366
520.454	434.21827
520.661	571.49488
520.868	476.45062
521.076	558.82068
521.283	391.99222
521.49	575.71972
521.697	537.6981
521.904	541.92251
522.112	491.23337
522.319	641.21136
522.526	491.23337
522.733	592.61962
522.94	584.16957
523.147	501.79293
523.354	533.47375
523.561	541.92251
523.768	660.22729
523.975	617.971
524.183	525.02522
524.39	702.4883
524.597	672.90511
524.804	584.16957
525.011	609.52034
525.218	736.30033
525.425	702.4883
525.632	725.73377
525.838	615.85832
526.045	715.16749
526.252	679.24418
526.459	795.47777
526.666	748.98054
526.873	846.2073
527.08	721.50723
527.287	662.34023
527.494	677.13115
527.701	829.29687
527.907	791.25055
528.114	829.29687
528.321	719.39397
528.528	761.66112
528.735	742.64038
528.941	772.22855
529.148	744.75376
529.355	784.9098
529.562	780.68268
529.768	896.94188
529.975	803.93232
530.182	890.59979
530.388	833.52443
530.595	789.13696
530.802	822.95561
531.008	841.97964
531.215	867.34612
531.422	1017.45403
531.628	816.61443
531.835	915.96855
532.042	871.57399
532.248	977.28082
532.455	979.39514
532.661	966.70931
532.868	956.13798
533.074	1044.94226
533.281	947.68104
533.487	1057.62946
533.694	1125.29771
533.9	1023.79738
534.107	1042.82774
534.313	1178.16679
534.52	1057.62946
534.726	1002.65311
534.933	1006.88191
535.139	1154.90408
535.345	998.42433
535.552	1159.13363
535.758	928.65334
535.965	1192.97058
536.171	1104.15084
536.377	1256.4172
536.584	1091.46294
536.79	1184.51125
536.996	1121.0683
537.203	1159.13363
537.409	1152.78931
537.615	1277.56664
537.821	1123.183
538.028	1315.63621
538.234	1226.80843
538.44	1224.69354
538.646	1099.92152
538.853	1404.4672
539.059	1302.94628
539.265	1457.34346
539.471	1412.92739
539.677	1353.70636
539.883	1309.29123
540.09	1347.3613
540.296	1429.84778
540.502	1560.98041
540.708	1372.74161
540.914	1501.7595
541.12	1237.38293
541.326	1537.71515
541.532	1463.68862
541.738	1556.75038
541.944	1482.72408
542.15	1480.60903
542.356	1417.15749
542.562	1429.84778
542.768	1491.18427
542.974	1730.17507
543.18	1446.7682
543.386	1677.3035
543.592	1366.39652
543.798	1510.21968
544.004	1582.1305
544.21	1643.46474
544.415	1522.90992
544.621	1736.51952
544.827	1544.06024
545.033	1687.87797
545.239	1569.44047
545.445	1886.66085
545.651	1618.08527
545.856	1831.68213
546.062	1802.07688
546.268	1709.02668
546.474	1715.37123
546.679	1738.63433
546.885	1692.10773
547.091	1886.66085
547.297	1704.79696
547.502	1768.24129
547.708	1854.94276
547.914	1973.35071
548.119	1738.63433
548.325	1812.65028
548.531	1742.86394
548.736	1912.03447
548.942	1747.09354
549.147	1871.85921
549.353	1890.88984
549.559	1988.15042
549.764	1893.00432
549.97	1912.03447
550.175	1882.43183
550.381	2129.78798
550.586	1933.17855
550.792	2083.28367
550.997	1914.1489
551.203	2140.35662
551.408	1981.80772
551.614	2053.68816
551.819	2108.65012
552.025	2343.23306
552.23	2102.30861
552.435	2165.72055
552.641	2060.03017
552.846	2229.12513
553.052	2148.81139
553.257	2334.78157
553.462	2212.21799
553.668	2355.90999
553.873	2319.99109
554.078	2227.01177
554.283	2148.81139
554.489	2355.90999
554.694	2258.71126
554.899	2290.40871
555.105	2284.06939
555.31	2368.58657
555.515	2328.44285
555.72	2469.98572
555.925	2184.74272
556.131	2482.65887
556.336	2364.36109
556.541	2651.59435
556.746	2201.65075
556.951	2522.78785
557.156	2423.51414
557.361	2463.649
557.567	2541.79487
557.772	2482.65887
557.977	2467.87349
558.182	2541.79487
558.387	2573.47114
558.592	2630.48163
558.797	2554.4657
559.002	2472.09794
559.207	2676.92796
559.412	2740.25387
559.617	2484.77103
559.822	2666.37251
560.027	2503.7799
560.232	2647.37191
560.437	2546.01853
560.642	2727.58963
560.847	2622.03619
561.051	2807.78833
561.256	2643.14941
561.461	2849.99024
561.666	2579.80608
561.871	2885.85743
562.076	2875.30869
562.281	3022.95777
562.485	2742.36453
562.69	2814.11897
562.895	2727.58963
563.1	2995.54276
563.305	2902.73468
563.509	3031.39264
563.714	2767.69141
563.919	2932.26763
564.123	2765.58091
564.328	2951.25157
564.533	2740.25387
564.737	3010.30501
564.942	2894.29617
565.147	3174.74703
565.351	2928.04881
565.556	2894.29617
565.761	2989.21585
565.965	2959.6885
566.17	2925.93938
566.374	3130.48368
566.579	2883.74771
566.784	3119.94374
566.988	3202.14455
567.193	3145.23892
567.397	2953.36083
567.602	3094.64626
567.806	2852.10019
568.011	3271.67953
568.215	3136.80745
568.42	3242.18207
568.624	2987.10685
568.828	3307.49341
569.033	3242.18207
569.237	3216.89591
569.442	3149.45456
569.646	3197.92973
569.85	3141.02322
570.055	3351.72725
570.259	3263.25202
570.463	3259.03816
570.668	3265.35892
570.872	3465.43593
571.076	3187.39239
571.281	3528.58484
571.485	3358.04575
571.689	3457.01485
571.893	3351.72725
572.098	3450.69884
572.302	3237.96787
572.506	3600.13361
572.71	3343.30235
572.914	3593.82135
573.119	3395.95342
573.323	3311.70649
573.527	3501.22232
573.731	3486.48738
573.935	3511.74673
574.139	3593.82135
574.343	3385.42408
574.547	3659.0399
574.751	3591.71722
574.955	3583.30053
575.159	3602.23766
575.364	3820.95472
575.568	3587.50891
575.772	3703.20985
575.976	3738.96028
576.18	3720.03428
576.383	3770.50012
576.587	3787.31958
576.791	3688.48747
576.995	3812.54641
577.199	3736.85747
577.403	3793.62655
577.607	3854.58481
577.811	4033.15844
578.015	3696.90037
578.219	4041.55827
578.422	3835.66851
578.626	3911.32402
578.83	3871.39795
579.034	4058.35696
579.238	3772.60262
579.442	3972.2498
579.645	3831.46467
579.849	4146.52822
580.053	4125.5384
580.257	4247.24997
580.46	3818.85267
580.664	4096.14914
580.868	4007.95695
581.071	4173.81184
581.275	4289.20289
581.479	4148.62709
581.682	4180.10755
581.886	4350.01936
582.09	4127.63748
582.293	4182.20608
582.497	4016.35778
582.7	4175.91043
582.904	4117.14189
583.107	4075.15432
583.311	4171.71323
583.515	4259.83674
583.718	4014.2576
583.922	4301.7871
584.125	4331.14723
584.329	4389.85477
584.532	4331.14723
584.735	4398.24017
584.939	4222.07411
585.142	4632.88849
585.346	4245.1521
585.549	4415.00992
585.753	4259.83674
585.956	4542.83313
586.159	4347.92254
586.363	4576.34691
586.566	4444.35363
586.769	4595.19591
586.973	4314.37053
587.176	4475.78854
587.379	4446.44944
587.582	4616.13713
587.786	4536.54866
587.989	4511.4088
588.192	4574.25247
588.395	4607.76091
588.599	4580.53573
588.802	4620.3251
589.005	4660.1064
589.208	4850.52498
589.411	4704.06577
589.615	4777.30927
589.818	4628.70078
590.021	4777.30927
590.224	4549.11739
590.427	4840.0673
590.63	4567.969
590.833	4771.03235
591.036	4699.87959
591.239	5170.25205
591.442	4766.84761
591.645	5067.91467
591.848	4674.76063
592.051	5009.41118
592.254	4883.98572
592.457	4825.4256
592.66	4823.33383
592.863	5163.9881
593.066	4917.44059
593.269	5084.62662
593.472	4900.71389
593.675	5326.78255
593.878	5118.04607
594.081	5038.66519
594.284	5082.53771
594.486	5061.64731
594.689	5042.84397
594.892	5084.62662
595.095	5097.15961
595.298	5174.4279
595.5	4992.69257
595.703	5061.64731
595.906	5007.32143
596.109	5422.72278
596.311	5026.12831
596.514	5353.90113
596.717	5193.21807
596.92	5347.64335
597.122	5180.6915
597.325	5270.44672
597.528	5268.35988
597.73	5508.19281
597.933	5201.56866
598.136	5639.44766
598.338	5247.49019
598.541	5312.17861
598.743	5328.86874
598.946	5460.25107
599.148	5414.38212
599.351	5462.33576
599.554	5449.82731
599.756	5572.79022
599.959	5351.81522
600.161	5658.19072
600.363	5376.84452
600.566	5762.28399
600.768	5679.01409
600.971	5772.69008
601.173	5476.92787
601.376	5753.9587
601.578	5606.12196
601.78	5882.95827
601.983	5685.26064
602.185	5504.02446
602.388	5560.28926
602.59	5676.93186
602.792	5622.78557
602.995	5901.67648
603.197	5778.93344
603.399	5885.03817
603.601	5451.91211
603.804	5781.01452
604.006	5731.06221
604.208	5918.31328
604.41	5604.0389
604.613	5768.52771
604.815	5789.33858
605.017	5872.55844
605.219	5830.95323
605.421	6092.9086
605.623	5689.42489
605.826	6067.97659
606.028	6013.94559
606.23	5893.35751
606.432	5693.58905
606.634	6124.06886
606.836	5562.37281
607.038	5893.35751
607.24	5926.63111
607.442	5949.50321
607.644	6151.07014
607.846	6159.37743
608.048	6086.67592
608.25	6018.10239
608.452	6032.65043
608.654	6321.29454
608.856	6180.144
609.058	6103.29595
609.26	5984.84538
609.462	6151.07014
609.664	6051.35336
609.866	6155.22383
610.067	6082.52068
610.269	6217.51792
610.471	5839.27503
610.673	6219.59403
610.875	6229.97421
611.077	6140.6855
611.278	6238.27793
611.48	6256.95993
611.682	5995.23885
611.884	6306.76933
612.085	5924.55169
612.287	6130.30028
612.489	6024.3374
612.69	6306.76933
612.892	6211.28946
613.094	6435.38136
613.295	6209.21326
613.497	6360.71432
613.699	6034.72863
613.9	6155.22383
614.102	6269.41354
614.304	6449.89644
614.505	6354.49071
614.707	6458.19026
614.908	6244.50547
615.11	6443.67583
615.311	6300.54389
615.513	6242.42965
615.714	6259.03559
615.916	6348.26688
616.117	6227.89822
616.319	6288.09239
616.52	6335.8186
616.722	6400.12569
616.923	6202.98452
617.124	6358.63981
617.326	6364.86328
617.527	6520.3821
617.729	6400.12569
617.93	6458.19026
618.131	6429.16026
618.333	6559.75947
618.534	6458.19026
618.735	6615.70242
618.937	6360.71432
619.138	6764.80159
619.339	6321.29454
619.54	6692.3377
619.742	6497.58085
619.943	6773.08139
620.144	6242.42965
620.345	6505.87254
620.546	6437.45501
620.748	6493.43487
620.949	6433.30768
621.15	6686.1252
621.351	6565.97618
621.552	6702.6914
621.753	6449.89644
621.954	6708.90335
622.155	6325.44439
622.356	6822.75253
622.558	6686.1252
622.759	6831.02977
622.96	6534.89052
623.161	6667.48647
623.362	6375.23528
623.563	6717.18562
623.764	6630.20341
623.965	6756.52142
624.166	6628.13191
624.366	6532.81796
624.567	6632.27488
624.768	6818.61377
624.969	6524.52748
625.17	6812.40546
625.371	6690.26689
625.572	6810.33598
625.773	6816.54435
625.973	6973.75509
626.174	6731.67872
626.375	7048.17779
626.576	6853.79032
626.777	6990.29599
626.977	6735.8194
627.178	7157.69171
627.379	6679.91249
627.58	6818.61377
627.78	6669.55753
627.981	6979.9581
628.182	7048.17779
628.382	7075.04551
628.583	6754.45132
628.784	7075.04551
628.984	6903.44016
629.185	7075.04551
629.386	6729.60835
629.586	7077.1121
629.787	6979.9581
629.987	7066.77892
630.188	6938.60089
630.388	7095.71041
630.589	6893.09752
630.79	7201.06672
630.99	7031.64193
631.191	7103.97574
631.391	7099.84312
631.591	7265.07865
631.792	7085.37824
631.992	7494.10995
632.193	7114.3069
632.393	7064.71222
632.594	7112.24072
632.794	7089.51117
632.994	7137.03351
633.195	7155.62599
633.395	7149.4287
633.595	6959.28062
633.796	7190.74022
633.996	7186.60947
634.196	7070.91226
634.397	7355.89798
634.597	7178.3477
634.797	7426.04757
634.997	7194.87089
635.198	7184.54406
635.398	7168.01998
635.598	7302.23715
635.798	7196.93619
635.998	7475.54982
636.199	7360.02513
636.399	7597.19008
636.599	7271.27223
636.799	7337.32475
636.999	7304.3013
637.199	7277.46561
637.399	7263.01408
637.599	7386.84943
637.799	7246.49673
637.999	7364.15218
638.199	7302.23715
638.399	7421.92182
638.599	7339.38853
638.799	7543.5951
638.999	7409.54405
639.199	7539.47181
639.399	7234.10779
639.599	7518.85407
639.799	7089.51117
639.999	7485.86122
640.199	7442.54971
640.399	7753.76995
640.599	7108.10827
640.799	7823.7795
640.998	7399.22864
641.198	7821.72074
641.398	7603.37319
641.598	7593.0679
641.798	7541.53347
641.997	7648.71012
642.197	7533.28672
642.397	7782.60034
642.597	7679.61577
642.796	7885.53265
642.996	7496.17208
643.196	7764.06699
643.395	7541.53347
643.595	7887.59077
643.795	7718.7561
643.994	7733.1743
644.194	7640.4678
644.394	7864.95034
644.593	7545.65672
644.793	7980.18476
644.992	7683.73616
645.192	7860.83363
645.392	7945.20969
645.591	7757.88883
645.791	7623.98216
645.99	8089.18692
646.19	7487.92343
646.389	7714.63642
646.589	7673.43502
646.788	7906.1129
646.987	7708.45675
647.187	8167.30455
647.386	7731.11462
647.586	8076.84991
647.785	7698.15687
647.984	8085.07467
648.184	7862.89199
648.383	8113.85878
648.582	7920.51784
648.782	8083.01851
648.981	7739.35322
649.18	8091.24302
649.38	7982.24194
649.579	8177.58104
649.778	7988.41333
649.977	8085.07467
650.177	7875.24175
650.376	8196.07746
650.575	7850.54149
650.774	7994.58454
650.973	8017.21076
651.173	8196.07746
651.372	7867.00866
651.571	8046.0042
651.77	8115.91463
651.969	8011.04022
652.168	8167.30455
652.367	8265.93834
652.566	8185.80187
652.765	8360.41986
652.964	8078.90613
653.163	8298.80617
653.362	8117.97047
653.561	8311.13032
653.76	8103.57919
653.959	8298.80617
654.158	8362.47335
654.357	8066.56851
654.556	7957.55451
654.755	8397.37968
654.954	8194.02238
655.153	8187.85703
655.352	8307.02235
655.551	8323.45375
655.749	8370.68711
655.948	8391.22014
656.147	8454.8603
656.346	8497.96091
656.545	8325.50759
656.743	8424.06899
656.942	8144.69453
657.141	8497.96091
657.34	8415.85724
657.538	8534.89761
657.737	8446.64971
657.936	8602.599
658.135	8426.12188
658.333	8366.58027
658.532	8588.23981
658.731	8766.63933
658.929	8360.41986
659.128	8526.68999
659.326	8397.37968
659.525	8582.08559
659.724	8253.61161
659.922	8387.11369
660.121	8422.01608
660.319	8504.11746
660.518	8323.45375
660.716	8660.02659
660.915	8660.02659
661.113	8660.02659
661.312	8465.12312
661.51	8590.29118
661.709	8629.26363
661.907	8637.46749
662.105	8619.00837
662.304	8614.90614
662.502	8596.44517
662.701	8752.29051
662.899	8534.89761
663.097	8432.28043
663.296	8536.94947
663.494	8811.72981
663.692	8483.59498
663.891	8719.48983
664.089	8614.90614
664.287	8889.59276
664.485	8432.28043
664.684	8850.66454
664.882	8610.80383
665.08	8795.33429
665.278	8397.37968
665.476	8846.56645
665.675	8356.31283
665.873	8602.599
666.071	8526.68999
666.269	8582.08559
666.467	8717.43963
666.665	8828.12418
666.863	8586.18842
667.061	8762.53976
667.259	8358.36635
667.457	8647.72191
667.655	8471.28058
667.853	8705.13806
668.051	8692.83582
668.249	8653.87433
668.447	8686.68445
668.645	8760.48994
668.843	8785.0865
669.041	8758.44011
669.239	8522.58606
669.437	8688.73492
669.635	8461.01805
669.833	8705.13806
670.031	8325.50759
670.229	8701.03738
670.426	8795.33429
670.624	8686.68445
670.822	8536.94947
671.02	8684.63395
671.218	8705.13806
671.415	8729.74055
671.613	8571.82818
671.811	8774.83825
672.009	8621.05946
672.206	9104.60716
672.404	8824.02569
672.602	8742.0408
672.799	8635.41655
672.997	8885.49536
673.195	8643.6202
673.392	9110.74761
673.59	8828.12418
673.788	8869.10503
673.985	8795.33429
674.183	8850.66454
674.38	8850.66454
674.578	9008.38654
674.775	8588.23981
674.973	8826.07494
675.17	8758.44011
675.368	8799.43328
675.565	8899.83596
675.763	8998.14804
675.96	8670.27998
676.158	8748.19068
676.355	8774.83825
676.553	8914.17568
676.75	8883.44663
676.947	9043.19418
677.145	8692.83582
677.342	9030.90971
677.539	8824.02569
677.737	9102.56032
677.934	8463.07059
678.131	8992.00472
678.329	8985.86125
678.526	9028.86223
678.723	9004.29119
678.92	8967.42989
679.118	8959.23771
679.315	8897.78735
679.512	8668.22934
679.709	9053.43076
679.906	8536.94947
680.104	8987.90909
680.301	8795.33429
680.498	8621.05946
680.695	8582.08559
680.892	8850.66454
681.089	8826.07494
681.286	8764.58955
681.483	8614.90614
681.68	8606.70145
681.877	8680.53291
682.075	8983.81339
682.272	8690.78538
682.469	8840.41919
682.665	8953.0934
682.862	8926.46618
683.059	8819.92714
683.256	9082.09088
683.453	8606.70145
683.65	8801.48275
683.847	8821.97643
684.044	9014.52943
684.241	8651.82354
684.438	9008.38654
684.635	8826.07494
684.831	8948.9971
685.028	8696.93664
685.225	8871.15388
685.422	8549.26023
685.619	8692.83582
685.815	8528.74192
686.012	8922.36942
686.209	8678.48236
686.405	8967.42989
686.602	8670.27998
686.799	8760.48994
686.996	8766.63933
687.192	8965.38187
687.389	8643.6202
687.586	8514.37798
687.782	8627.21261
687.979	8813.77917
688.175	8343.99126
688.372	8783.03689
688.568	8452.80768
688.765	8764.58955
688.962	8707.18837
689.158	8686.68445
689.355	8582.08559
689.551	8944.90072
689.748	8688.73492
689.944	8744.09078
690.14	8744.09078
690.337	8824.02569
690.533	8343.99126
690.73	8793.28477
690.926	8432.28043
691.123	8614.90614
691.319	8481.54263
691.515	8922.36942
691.712	8335.77649
691.908	8619.00837
692.104	8448.70239
692.301	8762.53976
692.497	8662.07731
692.693	8520.53407
692.889	8580.03414
693.086	8602.599
693.282	8514.37798
693.478	8619.00837
693.674	8288.53552
693.87	8500.01311
694.067	8545.15672
694.263	8930.56287
694.459	8848.6155
694.655	8881.39788
694.851	8739.9908
695.047	8973.57383
695.243	8530.79384
695.439	8430.2276
695.635	8257.7206
695.831	8577.98268
696.027	8489.75192
696.224	8350.15213
696.42	8547.20848
696.615	8430.2276
696.811	8686.68445
697.007	8500.01311
697.203	8545.15672
697.399	8442.54429
697.595	8660.02659
697.791	8633.3656
697.987	8631.31462
698.183	8723.59017
698.379	8526.68999
698.575	9004.29119
698.77	8766.63933
698.966	8733.8407
699.162	8465.12312
699.358	8785.0865
699.554	8674.38121
699.749	8795.33429
699.945	8516.43003
700.141	8676.4318
700.337	8727.69044
700.532	8623.11053
700.728	8569.77664
700.924	8465.12312
701.119	8703.08773
701.315	8467.17562
701.511	8487.69963
701.706	8719.48983
701.902	8362.47335
702.097	8662.07731
702.293	8545.15672
702.489	8559.51867
702.684	8651.82354
702.88	8760.48994
703.075	8401.48594
703.271	8473.33302
703.466	8543.10493
703.662	8733.8407
703.857	8561.5703
704.053	8824.02569
704.248	8643.6202
704.443	8731.79064
704.639	8627.21261
704.834	8694.88624
705.03	8553.36366
705.225	8791.23523
705.42	8448.70239
705.616	8530.79384
705.811	8422.01608
706.006	8473.33302
706.202	8323.45375
706.397	8584.13701
706.592	8471.28058
706.787	8703.08773
706.983	8582.08559
707.178	8946.94892
707.373	8452.80768
707.568	8516.43003
707.763	8621.05946
707.959	8758.44011
708.154	8575.9312
708.349	8602.599
708.544	8288.53552
708.739	8485.64731
708.934	8520.53407
709.129	8364.52682
709.324	8489.75192
709.519	8424.06899
709.714	8241.28417
709.909	8627.21261
710.104	8358.36635
710.299	8522.58606
710.494	8374.79387
710.689	8471.28058
710.884	8372.7405
711.079	8612.855
711.274	8307.02235
711.469	8664.128
711.664	8643.6202
711.859	8514.37798
712.054	8325.50759
712.249	8526.68999
712.443	8280.31864
712.638	8440.49156
712.833	8432.28043
713.028	8516.43003
713.223	8368.6337
713.417	8516.43003
713.612	8541.05313
713.807	8545.15672
714.002	8454.8603
714.196	8762.53976
714.391	8093.2991
714.586	8512.32592
714.78	8495.90869
714.975	8660.02659
715.17	8161.13842
715.364	8391.22014
715.559	8571.82818
715.754	8510.27383
715.948	8177.58104
716.143	8354.25928
716.337	8456.9129
716.532	8536.94947
716.726	8323.45375
716.921	8208.40751
717.115	8237.17486
717.31	8428.17474
717.504	8161.13842
717.699	8561.5703
717.893	8302.9143
718.088	8526.68999
718.282	8175.52578
718.476	8292.64384
718.671	8064.51217
718.865	8307.02235
719.059	8300.86025
719.254	8286.48133
719.448	8064.51217
719.642	8374.79387
719.837	8076.84991
720.031	8448.70239
720.225	8216.62715
720.419	8253.61161
720.614	8109.747
720.808	8294.69797
721.002	8015.15393
721.196	8276.21008
721.39	8376.84722
721.585	8341.9376
721.779	8276.21008
721.973	8422.01608
722.167	8150.86114
722.361	8397.37968
722.555	8270.0471
722.749	8159.083
722.943	8000.75557
723.137	8126.19362
723.331	8019.26756
723.525	8368.6337
723.719	8257.7206
723.913	8493.85646
724.107	8023.38111
724.301	8280.31864
724.495	7906.1129
724.689	8185.80187
724.883	7928.74879
725.077	8422.01608
725.271	8132.36077
725.465	7978.12757
725.659	8083.01851
725.853	8352.20572
726.046	8054.23017
726.24	8124.13786
726.434	7869.06697
726.628	8241.28417
726.822	7945.20969
727.015	8356.31283
727.209	8056.28661
727.403	8241.28417
727.596	8002.81254
727.79	8210.46245
727.984	8169.35989
728.177	8524.63803
728.371	8341.9376
728.565	8095.35516
728.758	7912.28657
728.952	8272.10144
729.146	8257.7206
729.339	8551.31195
729.533	7990.47042
729.726	8191.96728
729.92	8027.49459
730.113	8171.41521
730.307	8358.36635
730.5	8210.46245
730.694	8083.01851
730.887	8220.73685
731.081	7998.69858
731.274	8134.41644
731.468	7854.65841
731.661	8245.39339
731.854	8056.28661
732.048	8161.13842
732.241	7955.49709
732.435	8298.80617
732.628	8025.43786
732.821	8091.24302
733.014	8017.21076
733.208	8233.06548
733.401	8547.20848
733.594	8323.45375
733.788	8311.13032
733.981	8362.47335
734.174	8364.52682
734.367	8448.70239
734.56	8233.06548
734.754	8208.40751
734.947	8152.91663
735.14	8080.96233
735.333	8056.28661
735.526	8126.19362
735.719	7910.2287
735.912	8008.98333
736.105	8142.63895
736.298	7904.05497
736.491	7901.99701
736.684	8157.02757
736.877	8048.06072
737.07	8043.94766
737.263	8043.94766
737.456	8076.84991
737.649	8035.72128
737.842	8062.45581
738.035	7957.55451
738.228	7864.95034
738.421	8060.39943
738.614	8329.61521
738.807	8251.55709
739	8208.40751
739.192	7971.95587
739.385	8331.66899
739.578	8218.68201
739.771	8175.52578
739.964	8352.20572
740.156	8237.17486
740.349	8068.62483
740.542	8117.97047
740.735	8095.35516
740.927	8356.31283
741.12	8089.18692
741.313	8140.58335
741.505	8109.747
741.698	8204.29757
741.891	8037.77791
742.083	8175.52578
742.276	8085.07467
742.468	8019.26756
742.661	7920.51784
742.854	8091.24302
743.046	7920.51784
743.239	7778.48196
743.431	8181.69149
743.624	8083.01851
743.816	8152.91663
744.009	8130.30507
744.201	7879.35817
744.393	7932.86414
744.586	7969.89859
744.778	8060.39943
744.971	7877.29997
745.163	7558.02594
745.355	7813.48549
745.548	7906.1129
745.74	7904.05497
745.932	7782.60034
746.125	7829.95565
746.317	8043.94766
746.509	7974.01312
746.702	7965.78398
746.894	7745.53194
747.086	7619.86054
747.278	8037.77791
747.471	7850.54149
747.663	8039.83451
747.855	8052.1737
748.047	7846.42449
748.239	7930.80647
748.431	8130.30507
748.623	8296.75208
748.815	7914.34442
749.008	7883.47451
749.2	7815.54433
749.392	7947.26721
749.584	7829.95565
749.776	8265.93834
749.968	7780.54116
750.16	8165.24919
750.352	8019.26756
750.544	8017.21076
750.736	7986.35622
750.928	8130.30507
751.12	7914.34442
751.311	8021.32435
751.503	7984.29909
751.695	8052.1737
751.887	7782.60034
752.079	7605.43418
752.271	7601.31218
752.463	7762.00762
752.654	7683.73616
752.846	7881.41635
753.038	7659.01253
753.23	7928.74879
753.421	7626.04294
753.613	7994.58454
753.805	7834.07299
753.997	8037.77791
754.188	7889.64886
754.38	7636.34652
754.572	7613.67794
754.763	7586.88448
754.955	7494.10995
755.146	7500.29627
755.338	7362.08867
755.53	7452.86284
755.721	7351.77075
755.913	7640.4678
756.104	7496.17208
756.296	7603.37319
756.487	7582.76209
756.679	7611.61703
756.87	7227.91302
757.062	7595.129
757.253	7393.03914
757.445	7512.66833
757.636	7580.70086
757.827	7459.05045
758.019	7504.42038
758.21	7691.9767
758.401	7768.18566
758.593	7518.85407
758.784	7310.49363
758.975	7196.93619
759.167	7277.46561
759.358	7714.63642
759.549	7685.79633
759.74	7617.79969
759.932	7271.27223
760.123	7335.26095
760.314	7477.61214
760.505	7263.01408
760.696	7229.97796
760.888	7477.61214
761.079	7430.17324
761.27	7492.0478
761.461	7525.03962
761.652	7419.85892
761.843	7417.79599
762.034	7285.72314
762.225	7213.45778
762.416	7318.74975
762.607	7124.63751
762.798	7314.62173
762.989	7386.84943
763.18	7483.79898
763.371	7360.02513
763.562	7097.77677
763.753	7236.17266
763.944	7248.56147
764.135	7219.65302
764.326	7393.03914
764.517	6988.22846
764.708	7223.78306
764.899	7199.00146
765.089	7153.56025
765.28	7165.95437
765.471	7145.29706
765.662	6963.4163
765.853	7035.77603
766.043	6847.58317
766.234	7145.29706
766.425	7004.76809
766.615	7079.17867
766.806	7116.37307
766.997	7091.5776
767.187	7153.56025
767.378	7289.85177
767.569	6866.20401
767.759	6868.27287
767.95	6922.05548
768.141	6944.80505
768.331	6843.44496
768.522	7165.95437
768.712	7072.97889
768.903	7041.97701
769.093	7002.70072
769.284	6971.68738
769.474	6773.08139
769.665	6758.5915
769.855	6764.80159
770.046	7041.97701
770.236	6748.24089
770.426	6671.62857
770.617	6855.85933
770.807	6992.3635
770.998	6913.78223
771.188	6831.02977
771.378	6648.84587
771.569	6849.65225
771.759	6557.68718
771.949	6640.56056
772.139	6742.03025
772.33	6715.11509
772.52	6551.47019
772.71	6824.82187
772.9	6549.39781
773.09	6710.97395
773.281	6657.13081
773.471	6665.41538
773.661	6638.48917
773.851	6715.11509
774.041	6470.6303
774.231	6766.87157
774.421	6609.48737
774.611	6597.05664
774.802	6445.74939
774.992	6532.81796
775.182	6333.7438
775.372	6317.1446
775.562	6246.58127
775.752	6217.51792
775.942	6229.97421
776.131	6522.4548
776.321	6159.37743
776.511	6462.33704
776.701	6445.74939
776.891	6679.91249
777.081	6395.97752
777.271	6362.78882
777.461	6383.53245
777.651	6445.74939
777.84	6414.64354
778.03	6418.79129
778.22	6225.82221
778.41	6279.79091
778.599	6252.80854
778.789	6335.8186
778.979	6383.53245
779.169	6339.96812
779.358	6026.4157
779.548	6549.39781
779.738	6296.39349
779.927	6283.9417
780.117	6252.80854
780.307	6259.03559
780.496	6259.03559
780.686	6200.90823
780.875	6209.21326
781.065	6236.20203
781.254	5955.74056
781.444	6406.34776
781.633	6267.338
781.823	6292.24298
782.012	6234.12612
782.202	6306.76933
782.391	6117.83723
782.581	6435.38136
782.77	5945.34486
782.96	6128.22316
783.149	6001.47464
783.338	6213.36564
783.528	6126.14603
783.717	6020.18075
783.906	6020.18075
784.096	5837.19462
784.285	5872.55844
784.474	6038.88495
784.663	5926.63111
784.853	5878.79841
785.042	5787.2576
785.231	6018.10239
785.42	5751.87732
785.61	5984.84538
785.799	5868.39835
785.988	6059.66516
786.177	5803.90478
786.366	5851.75702
786.555	5620.7027
786.744	5810.14709
786.933	5920.39277
787.122	5843.43579
787.312	5984.84538
787.501	6038.88495
787.69	5843.43579
787.879	5934.94857
788.068	5351.81522
788.257	5820.55045
788.445	5504.02446
788.634	5880.87835
788.823	5618.61981
789.012	5864.23816
789.201	5412.2969
789.39	5597.78959
789.579	5610.288
789.768	5803.90478
789.957	5362.24451
790.145	5714.40841
790.334	5597.78959
790.523	5691.50698
790.712	5647.77815
790.9	5595.70644
791.089	5339.29931
791.278	5670.68503
791.467	5376.84452
791.655	5626.95123
791.844	5585.29033
792.033	5453.99689
792.221	5337.21324
792.41	5543.62
792.599	5230.79276
792.787	5493.60316
792.976	5406.04109
793.164	5560.28926
793.353	5374.75887
793.541	5472.75881
793.73	5176.51579
793.918	5568.62333
794.107	5305.91942
794.295	5443.57277
794.484	5445.65764
794.672	5426.89296
794.861	5491.51883
795.049	5629.03403
795.238	5330.9549
795.426	5635.28228
795.614	5358.07286
795.803	5458.16637
795.991	5270.44672
796.179	5418.55249
796.368	5316.35128
796.556	5226.61817
796.744	5264.18613
796.932	5445.65764
797.121	5153.54772
797.309	5556.12209
797.497	5245.40309
797.685	5333.04104
797.874	5362.24451
798.062	5374.75887
798.25	5201.56866
798.438	5562.37281
798.626	5389.3579
798.814	5481.09684
799.002	5335.12715
799.19	5364.33029
799.378	5287.14059
799.566	5209.91887
799.755	5030.30736
799.943	5115.95753
800.131	5180.6915
800.318	5285.05394
800.506	5015.68028
800.694	5001.05206
800.882	4950.8896
801.07	5036.57577
801.258	5118.04607
801.446	5170.25205
801.634	5109.69176
801.822	5205.74381
802.01	5011.5009
802.197	5255.83834
802.385	5132.66521
802.573	5209.91887
802.761	5067.91467
802.949	5243.31597
803.136	4946.70879
803.324	5136.8419
803.512	5134.75356
803.699	5410.21165
803.887	5047.02265
804.075	5266.27301
804.262	5034.48632
804.45	4971.79223
804.638	5034.48632
804.825	5397.69968
805.013	5067.91467
805.201	5201.56866
805.388	4963.43146
805.576	5105.51447
805.763	5109.69176
805.951	4992.69257
806.138	5289.22722
806.326	5109.69176
806.513	5026.12831
806.701	4965.52168
806.888	5063.73645
807.075	5176.51579
807.263	4909.07742
807.45	5295.48697
807.638	5044.93332
807.825	5141.01849
808.012	5001.05206
808.2	5101.33709
808.387	5109.69176
808.574	5134.75356
808.761	5170.25205
808.949	5276.7071
809.136	5132.66521
809.323	5272.53353
809.51	5234.96726
809.698	5280.88057
809.885	5189.04264
810.072	5255.83834
810.259	5345.55737
810.446	5378.93014
810.633	5347.64335
810.82	5320.52386
811.008	5182.77932
811.195	5145.19499
811.382	4975.97249
811.569	5174.4279
811.756	5101.33709
811.943	5124.31155
812.13	5280.88057
812.317	5243.31597
812.504	5059.55814
812.691	5276.7071
812.878	5224.53084
813.064	5489.43448
813.251	5316.35128
813.438	5385.18686
813.625	5065.82557
813.812	5224.53084
813.999	5276.7071
814.186	5462.33576
814.372	5282.96727
814.559	5314.26495
814.746	5118.04607
814.933	5141.01849
815.12	5067.91467
815.306	5201.56866
815.493	5216.18128
815.68	5293.40041
815.866	5051.20124
816.053	5184.86712
816.24	5084.62662
816.426	5260.01228
816.613	5038.66519
816.799	5197.39341
816.986	5163.9881
817.173	5228.70547
817.359	4940.43741
817.546	4988.51269
817.732	4886.07682
817.919	4911.16825
818.105	5024.03875
818.292	5134.75356
818.478	4925.80339
818.665	4900.71389
818.851	4863.07344
819.037	5126.4
819.224	5161.90007
819.41	5230.79276
819.597	4992.69257
819.783	5339.29931
819.969	5097.15961
820.156	5251.66431
820.342	5105.51447
820.528	5209.91887
820.714	5178.60366
820.901	5410.21165
821.087	5128.48843
821.273	5241.22883
821.459	5028.21785
821.646	5362.24451
821.832	5120.13459
822.018	5230.79276
822.204	4835.88407
822.39	5151.45957
822.576	4936.25638
822.762	5103.42579
822.948	4812.87467
823.134	4888.1679
823.32	4781.49378
823.507	5019.85956
823.693	4766.84761
823.879	4904.8957
824.065	4775.21699
824.25	4896.53198
824.436	4856.79932
824.622	4808.69085
824.808	4833.79242
824.994	4800.32293
825.18	4565.87446
825.366	5028.21785
825.552	4896.53198
825.738	5034.48632
825.923	4921.62204
826.109	4904.8957
826.295	4927.89404
826.481	5099.24836
826.667	4952.97996
826.852	4900.71389
827.038	4946.70879
827.224	5212.00636
827.409	4804.50693
827.595	4975.97249
827.781	4917.44059
827.966	5092.98204
828.152	4618.23113
828.338	5028.21785
828.523	4563.77991
828.709	4693.60015
828.894	4448.54524
829.08	4724.99531
829.266	4375.17948
829.451	4691.50696
829.637	4591.0074
829.822	4620.3251
830.008	4507.21851
830.193	4591.0074
830.378	4410.81761
830.564	4653.82568
830.749	4364.69647
830.935	4461.11953
831.12	4280.81299
831.305	4526.0741
831.491	4448.54524
831.676	4618.23113
831.861	4706.15883
832.047	4693.60015
832.232	4408.72143
832.417	4731.27373
832.602	4435.97015
832.788	4624.51299
832.973	4427.58632
833.158	4687.32051
833.343	4408.72143
833.528	4722.90246
833.714	4549.11739
833.899	4735.45924
834.084	4444.35363
834.269	4601.47851
834.454	4364.69647
834.639	4618.23113
834.824	4473.69304
835.009	4739.64465
835.194	4507.21851
835.379	4716.62377
835.564	4266.12984
835.749	4555.40146
835.934	4272.42275
836.119	4406.62522
836.304	4282.9105
836.489	4356.30968
836.674	4129.73653
836.859	4326.95318
837.044	4089.85091
837.228	4381.46902
837.413	4205.28851
837.598	4167.51593
837.783	4091.95034
837.968	4324.85613
838.152	4098.24851
838.337	4444.35363
838.522	3944.94035
838.707	4444.35363
838.891	4094.04975
839.076	4148.62709
839.261	3961.74657
839.445	4322.75905
839.63	4211.58327
839.815	4272.42275
839.999	4112.94351
840.184	4322.75905
840.368	4007.95695
840.553	4362.59981
840.737	3884.00696
840.922	4018.45793
841.106	3871.39795
841.291	4112.94351
841.475	3785.21721
841.66	4163.31856
841.844	3879.80404
842.029	3995.3551
842.213	3810.44428
842.397	4127.63748
842.582	3953.34362
842.766	4039.45835
842.951	3631.69239
843.135	3970.14919
843.319	3810.44428
843.504	3717.93129
843.688	3749.47404
843.872	3743.16584
844.056	3829.36272
844.241	3812.54641
844.425	3608.5497
844.609	3900.81786
844.793	3720.03428
844.977	3911.32402
845.161	3795.72883
845.346	4020.55807
845.53	3650.62562
845.714	3869.29638
845.898	3673.76415
846.082	3907.12162
846.266	3667.45387
846.45	3978.55149
846.634	3680.07426
846.818	3675.86754
847.002	3602.23766
847.186	3720.03428
847.37	3543.31721
847.554	3667.45387
847.738	3490.69746
847.922	3747.37133
848.106	3566.46627
848.29	3585.40473
848.473	3583.30053
848.657	3621.17327
848.841	3524.37542
849.025	3619.06938
849.209	3549.63081
849.392	3831.46467
849.576	3339.08979
849.76	3644.31471
849.944	3282.21353
850.127	3547.5263
850.311	3372.7883
850.495	3686.3842
850.678	3355.9396
850.862	3680.07426
851.046	3469.64637
851.229	3452.8042
851.413	3259.03816
851.596	3608.5497
851.78	3248.50323
851.964	3393.84759
852.147	3288.53373
852.331	3385.42408
852.514	3090.42979
852.698	3231.64646
852.881	3010.30501
853.065	3343.30235
853.248	3122.05176
853.431	3406.48232
853.615	3157.88565
853.798	3334.87716
853.982	3248.50323
854.165	3353.83343
854.348	3035.60999
854.532	3343.30235
854.715	3159.99338
854.898	3292.74711
855.081	2955.47006
855.265	3326.4517
855.448	3178.96222
855.631	3212.68132
855.814	3063.02121
855.997	3153.67014
856.181	2976.56163
856.364	3265.35892
856.547	3105.18715
856.73	3223.21768
856.913	3063.02121
857.096	3204.25194
857.279	2961.79769
857.462	3069.3465
857.645	2925.93938
857.828	2917.50151
858.011	2833.11015
858.194	3151.56236
858.377	2814.11897
858.56	2949.1423
858.743	2944.92372
858.926	3029.28395
859.109	2774.02283
859.292	2976.56163
859.475	2691.70505
859.658	2963.90687
859.841	2740.25387
860.023	2860.53984
860.206	2651.59435
860.389	2997.6517
860.572	2630.48163
860.755	2719.14653
860.937	2622.03619
861.12	2725.47887
861.303	2584.02931
861.486	2727.58963
861.668	2607.25621
861.851	2704.37062
862.034	2478.43453
862.216	2750.80704
862.399	2484.77103
862.581	2552.35392
862.764	2315.76515
862.947	2584.02931
863.129	2588.25249
863.312	2714.92491
863.494	2573.47114
863.677	2843.66031
863.859	2548.13034
864.042	2702.25972
864.224	2387.60075
864.406	2537.57117
864.589	2495.33162
864.771	2740.25387
864.954	2377.03742
865.136	2641.03815
865.318	2482.65887
865.501	2592.47562
865.683	2529.12363
865.865	2729.70037
866.048	2588.25249
866.23	2446.75059
866.412	2495.33162
866.594	2503.7799
866.777	2294.63488
866.959	2444.63824
867.141	2364.36109
867.323	2423.51414
867.505	2341.1202
867.687	2558.68921
867.869	2311.53917
868.052	2541.79487
868.234	2214.33142
868.416	2444.63824
868.598	2328.44285
868.78	2584.02931
868.962	2410.83917
869.144	2381.26278
869.326	2284.06939
869.508	2419.28919
869.69	2258.71126
869.872	2438.30112
870.054	2313.65216
870.236	2406.6141
870.417	2341.1202
870.599	2372.81202
870.781	2216.44483
870.963	2256.59802
871.145	1971.23644
871.327	2313.65216
871.508	2030.43357
871.69	2277.72998
871.872	2224.8984
872.054	2419.28919
872.235	2060.03017
872.417	2292.5218
872.599	2134.01546
872.78	2195.3103
872.962	2246.03171
873.144	2262.93771
873.325	2038.88988
873.507	2260.82449
873.689	2083.28367
873.87	2303.0871
874.052	2047.34608
874.233	2332.66867
874.415	2068.48609
874.596	2478.43453
874.778	2076.9419
874.959	2250.25826
875.141	1895.11881
875.322	2195.3103
875.503	2081.16976
875.685	2184.74272
875.866	2021.97715
876.048	2193.1968
876.229	2047.34608
876.41	2045.23204
876.592	2091.73927
876.773	2212.21799
876.954	1933.17855
877.136	2279.84312
877.317	1983.92196
877.498	2313.65216
877.679	2021.97715
877.86	2218.55824
878.042	2055.80217
878.223	2186.85625
878.404	2072.71401
878.585	2087.51149
878.766	1983.92196
878.947	2098.0809
879.128	2021.97715
879.309	2140.35662
879.49	2199.53728
879.672	2324.21699
879.853	2224.8984
880.034	2431.96391
880.215	2182.62918
880.396	2374.92472
880.576	2250.25826
880.757	2385.48811
880.938	2034.66174
881.119	2412.95169
881.3	2218.55824
881.481	2336.89446
881.662	2212.21799
881.843	2313.65216
882.023	2269.27731
882.204	2290.40871
882.385	2239.69181
882.566	2345.34591
882.747	2013.52063
882.927	2455.19988
883.108	2015.63477
883.289	2275.61682
883.469	1941.63603
883.65	2199.53728
883.831	1979.69348
884.011	2353.7972
884.192	2089.62539
884.373	2294.63488
884.553	2250.25826
884.734	2330.55577
884.914	2055.80217
885.095	2360.13556
885.275	2051.57414
885.456	2309.42617
885.636	2098.0809
885.817	2364.36109
885.997	2134.01546
886.178	2326.32992
886.358	2210.10456
886.538	2218.55824
886.719	2176.2885
886.899	2271.39049
887.08	2131.90172
887.26	2377.03742
887.44	2100.19475
887.621	2292.5218
887.801	2091.73927
887.981	2275.61682
888.161	2205.87767
888.342	2269.27731
888.522	2233.35183
888.702	2393.93863
888.882	2305.20013
889.062	2372.81202
889.242	2303.0871
889.423	2478.43453
889.603	2121.33293
889.783	2267.16412
889.963	2134.01546
890.143	2296.74795
890.323	2108.65012
890.503	2275.61682
890.683	1977.57923
890.863	2343.23306
891.043	2089.62539
891.223	2224.8984
891.403	2089.62539
891.583	2351.68439
891.763	2233.35183
891.943	2300.97406
892.122	2049.46012
892.302	2258.71126
892.482	1920.49217
892.662	2355.90999
892.842	2199.53728
893.022	2360.13556
893.201	2064.25815
893.381	2292.5218
893.561	2083.28367
893.741	2199.53728
893.92	1996.60726
894.1	2112.87775
894.28	1880.31732
894.459	2131.90172
894.639	2047.34608
894.819	2043.118
894.998	2134.01546
895.178	2239.69181
895.357	2030.43357
895.537	2161.49331
895.716	2108.65012
895.896	2169.94776
896.075	1835.91138
896.255	1852.82818
896.434	2005.06399
896.614	1964.89359
896.793	1829.5675
896.973	2150.92507
897.152	1734.40471
897.331	2134.01546
897.511	1852.82818
897.69	2005.06399
897.87	1848.59901
898.049	1947.97907
898.228	1654.03943
898.407	2121.33293
898.587	1780.92976
898.766	1850.7136
898.945	1732.28989
899.124	1804.19157
899.304	1649.80956
899.483	1717.48608
899.662	1753.43791
899.841	1878.2028
900.02	1888.77534
900.199	1759.78224
900.378	1632.89
900.557	1844.36982
900.737	1666.72896
900.916	1827.45286
901.095	1675.1886
901.274	1700.56723
901.453	1493.29932
901.632	1607.51039
901.811	1505.98959
901.989	1497.52941
902.168	1402.35216
902.347	1632.89
902.526	1448.88325
902.705	1478.49398
902.884	1400.23711
903.063	1556.75038
903.242	1415.04244
903.42	1567.32546
903.599	1383.31679
903.778	1535.60012
903.957	1357.93641
904.135	1516.5648
904.314	1256.4172
904.493	1400.23711
904.672	1324.09619
904.85	1457.34346
905.029	1144.33028
905.207	1294.48636
905.386	1256.4172
905.565	1484.83912
905.743	1154.90408
905.922	1252.18734
906.1	1205.65967
906.279	1254.30227
906.457	1106.2655
906.636	1296.60134
906.814	1125.29771
906.993	1222.57865
907.171	1063.97313
907.35	1214.11914
907.528	1074.54603
907.707	954.02373
907.885	998.42433
908.063	1034.36975
908.242	901.16997
908.42	1091.46294
908.598	894.82784
908.777	1093.57758
908.955	896.94188
909.133	1091.46294
909.311	1006.88191
909.49	920.19678
909.668	856.7766
909.846	998.42433
910.024	858.89049
910.202	869.46005
910.38	877.91585
910.559	930.7675
910.737	812.38703
910.915	979.39514
911.093	956.13798
911.271	911.74035
911.449	915.96855
911.627	1008.99632
911.805	812.38703
911.983	888.48578
912.161	806.04598
912.339	1044.94226
912.517	850.435
912.695	1051.28583
912.872	924.42505
913.05	1057.62946
913.228	951.90949
913.406	1061.85857
913.584	975.1665
913.762	1125.29771
913.939	979.39514
914.117	1135.87131
914.295	989.96684
914.473	1116.8389
914.65	1051.28583
914.828	1066.0877
915.006	1017.45403
915.184	1051.28583
915.361	911.74035
915.539	1108.38017
915.716	1015.3396
915.894	1066.0877
916.072	856.7766
916.249	998.42433
916.427	1008.99632
916.604	996.30995
916.782	896.94188
916.959	1034.36975
917.137	924.42505
917.314	909.62625
917.492	930.7675
917.669	981.50947
917.847	922.31091
918.024	1008.99632
918.201	930.7675
918.379	947.68104
918.556	837.75202
918.733	890.59979
918.911	763.77459
919.088	994.19557
919.265	761.66112
919.442	890.59979
919.62	679.24418
919.797	875.80189
919.974	808.15966
920.151	915.96855
920.328	863.11829
920.506	863.11829
920.683	795.47777
920.86	763.77459
921.037	656.00144
921.214	780.68268
921.391	746.86714
921.568	926.53919
921.745	865.2322
921.922	926.53919
922.099	742.64038
922.276	748.98054
922.453	708.82785
922.63	808.15966
922.807	645.43704
922.984	685.58335
923.161	694.03574
923.338	765.88806
923.514	694.03574
923.691	736.30033
923.868	590.50708
924.045	765.88806
924.222	668.67912
924.399	626.42187
924.575	571.49488
924.752	658.11436
924.929	584.16957
925.105	622.19641
925.282	590.50708
925.459	685.58335
925.635	565.15772
925.812	704.60147
925.989	563.04536
926.165	586.28206
926.342	541.92251
926.518	613.74564
926.695	554.59606
926.871	550.37148
927.048	508.12883
927.224	617.971
927.401	480.67419
927.577	423.66115
927.754	360.32701
927.93	525.02522
928.107	468.00366
928.283	548.25922
928.459	491.23337
928.636	508.12883
928.812	425.77255
928.988	535.58592
929.165	478.56239
929.341	457.4453
929.517	510.24083
929.693	419.43842
929.87	389.88109
930.046	482.78599
930.222	337.1083
930.398	482.78599
930.574	381.43673
930.751	436.32974
930.927	448.99889
931.103	415.21575
931.279	345.55122
931.455	375.10364
931.631	391.99222
931.807	394.10337
931.983	305.44984
932.159	381.43673
932.335	316.00221
932.511	353.99443
932.687	347.662
932.863	309.67074
933.039	280.12601
933.215	347.662
933.391	261.13489
933.566	372.99264
933.742	381.43673
933.918	332.88694
934.094	242.1453
934.27	400.43691
934.445	227.37671
934.621	240.03545
934.797	246.36508
934.973	318.11274
935.148	229.48645
935.324	216.8283
935.5	223.15728
935.675	301.22902
935.851	214.71868
936.027	206.28038
936.202	172.53045
936.378	235.81579
936.553	119.80683
936.729	202.06136
936.904	191.51415
937.08	113.4809
937.255	138.7858
937.431	210.49949
937.606	138.7858
937.782	105.04662
937.957	140.89469
938.133	124.02423
938.308	199.95188
938.483	94.50427
938.659	14.40096
938.834	119.80683
939.009	81.85419
939.185	143.00359
939.36	96.6127
939.535	117.69816
939.71	124.02423
939.886	145.11251
940.061	136.67694
940.236	102.93811
940.411	119.80683
940.586	46.01671
940.761	115.58952
940.937	94.50427
941.112	71.31307
941.287	111.37229
941.462	115.58952
941.637	43.90883
941.812	77.63768
941.987	64.98867
942.162	79.74592
942.337	107.15516
942.512	83.96248
942.687	33.36978
942.862	69.20492
943.037	75.52945
943.212	69.20492
943.386	46.01671
943.561	48.12461
943.736	39.69314
943.911	27.04663
944.086	77.63768
944.26	39.69314
944.435	46.01671
944.61	14.40096
944.785	90.28749
944.959	18.61609
945.134	20.72369
945.309	35.47754
945.483	27.04663
945.658	113.4809
945.833	86.0708
946.007	8.07845
946.182	105.04662
946.357	62.88058
946.531	102.93811
946.706	46.01671
946.88	115.58952
947.055	86.0708
947.229	-4.56592
947.404	86.0708
947.578	14.40096
947.752	52.34049
947.927	52.34049
948.101	56.55646
948.276	105.04662
948.45	-44.60065
948.624	27.04663
948.799	29.15432
948.973	145.11251
949.147	98.72115
949.321	102.93811
949.496	48.12461
949.67	43.90883
949.844	102.93811
950.018	157.7665
950.193	39.69314
950.367	111.37229
950.541	27.04663
950.715	29.15432
950.889	18.61609
951.063	140.89469
951.237	128.24171
951.411	73.42125
951.585	79.74592
951.759	119.80683
951.933	128.24171
952.107	-4.56592
952.281	174.63967
952.455	20.72369
952.629	16.50851
952.803	107.15516
952.977	60.77252
953.151	105.04662
953.325	115.58952
953.499	119.80683
953.672	56.55646
953.846	52.34049
954.02	-2.45859
954.194	52.34049
954.368	107.15516
954.541	117.69816
954.715	121.91552
954.889	145.11251
955.062	77.63768
955.236	81.85419
955.41	153.54842
955.583	126.13296
955.757	22.83131
955.93	48.12461
956.104	56.55646
956.278	105.04662
956.451	52.34049
956.625	113.4809
956.798	54.44846
956.972	58.66448
957.145	94.50427
957.319	94.50427
957.492	60.77252
957.665	79.74592
957.839	69.20492
958.012	128.24171
958.185	98.72115
958.359	35.47754
958.532	39.69314
958.705	56.55646
958.879	98.72115
959.052	174.63967
959.225	52.34049
959.398	119.80683
959.572	52.34049
959.745	69.20492
959.918	79.74592
960.091	73.42125
960.264	81.85419
960.438	86.0708
960.611	94.50427
960.784	88.17913
960.957	132.45929
961.13	111.37229
961.303	77.63768
961.476	27.04663
961.649	1.75615
961.822	77.63768
961.995	60.77252
962.168	132.45929
962.341	18.61609
962.514	39.69314
962.686	14.40096
962.859	71.31307
963.032	52.34049
963.205	117.69816
963.378	73.42125
963.551	79.74592
963.723	33.36978
963.896	94.50427
964.069	92.39587
964.242	73.42125
964.414	119.80683
964.587	56.55646
964.76	90.28749
964.932	31.26204
965.105	60.77252
965.278	94.50427
965.45	86.0708
965.623	56.55646
965.795	71.31307
965.968	67.09678
966.14	90.28749
966.313	43.90883
966.485	12.29343
966.658	33.36978
966.83	88.17913
967.003	71.31307
967.175	27.04663
967.348	39.69314
967.52	12.29343
967.692	121.91552
967.865	92.39587
968.037	96.6127
968.209	107.15516
968.382	115.58952
968.554	3.86356
968.726	86.0708
968.898	86.0708
969.071	71.31307
969.243	52.34049
969.415	86.0708
969.587	96.6127
969.759	62.88058
969.932	35.47754
970.104	-8.78052
970.276	98.72115
970.448	67.09678
970.62	41.80097
970.792	29.15432
970.964	56.55646
971.136	88.17913
971.308	60.77252
971.48	77.63768
971.652	58.66448
971.824	94.50427
971.996	18.61609
972.168	39.69314
972.339	52.34049
972.511	18.61609
972.683	20.72369
972.855	64.98867
973.027	43.90883
973.199	86.0708
973.37	60.77252
973.542	71.31307
973.714	105.04662
973.886	60.77252
974.057	22.83131
974.229	124.02423
974.401	-6.67324
974.572	92.39587
974.744	43.90883
974.915	56.55646
975.087	31.26204
975.259	46.01671
975.43	107.15516
975.602	-31.95906
975.773	10.18593
975.945	14.40096
976.116	52.34049
976.288	37.58533
976.459	39.69314
976.63	14.40096
976.802	113.4809
976.973	43.90883
977.145	46.01671
977.316	124.02423
977.487	58.66448
977.659	37.58533
977.83	54.44846
978.001	-15.10224
978.172	48.12461
978.344	54.44846
978.515	60.77252
978.686	14.40096
978.857	71.31307
979.028	-38.27997
979.2	69.20492
979.371	-2.45859
979.542	52.34049
979.713	-23.53085
979.884	73.42125
980.055	18.61609
980.226	52.34049
980.397	62.88058
980.568	119.80683
980.739	37.58533
980.91	35.47754
981.081	115.58952
981.252	35.47754
981.423	-10.88778
981.594	52.34049
981.765	10.18593
981.936	69.20492
982.106	-17.20943
982.277	39.69314
982.448	58.66448
982.619	37.58533
982.79	24.93896
982.96	20.72369
983.131	20.72369
983.302	18.61609
983.472	37.58533
983.643	5.97099
983.814	50.23254
983.984	46.01671
984.155	10.18593
984.326	81.85419
984.496	86.0708
984.667	58.66448
984.837	94.50427
985.008	10.18593
985.178	60.77252
985.349	-29.85205
985.519	-6.67324
985.69	-6.67324
985.86	86.0708
986.031	77.63768
986.201	35.47754
986.371	1.75615
986.542	18.61609
986.712	1.75615
986.882	67.09678
987.053	35.47754
987.223	16.50851
987.393	43.90883
987.563	-84.62633
987.734	79.74592
987.904	111.37229
988.074	43.90883
988.244	-6.67324
988.414	71.31307
988.585	-4.56592
988.755	1.75615
988.925	8.07845
989.095	31.26204
989.265	52.34049
989.435	102.93811
989.605	46.01671
989.775	73.42125
989.945	115.58952
990.115	-19.31659
990.285	69.20492
990.455	62.88058
990.625	-10.88778
990.795	39.69314
990.965	27.04663
991.134	10.18593
991.304	10.18593
991.474	46.01671
991.644	-4.56592
991.814	39.69314
991.984	48.12461
992.153	-59.34802
992.323	14.40096
992.493	-6.67324
992.662	20.72369
992.832	14.40096
993.002	64.98867
993.171	52.34049
993.341	-21.42373
993.511	14.40096
993.68	-6.67324
993.85	29.15432
994.019	50.23254
994.189	113.4809
994.358	52.34049
994.528	60.77252
994.697	75.52945
994.867	18.61609
995.036	8.07845
995.206	12.29343
995.375	-21.42373
995.544	12.29343
995.714	1.75615
995.883	33.36978
996.052	5.97099
996.222	-21.42373
996.391	48.12461
996.56	12.29343
996.73	79.74592
996.899	83.96248
997.068	107.15516
997.237	43.90883
997.406	29.15432
997.576	-12.99502
997.745	-19.31659
997.914	29.15432
998.083	-29.85205
998.252	10.18593
998.421	29.15432
998.59	86.0708
998.759	-23.53085
998.928	1.75615
999.097	5.97099
999.266	35.47754
999.435	35.47754
999.604	64.98867
999.773	79.74592
999.942	-23.53085
1000.111	39.69314
1000.28	-23.53085
1000.448	18.61609
1000.617	27.04663
1000.786	58.66448
1000.955	1.75615
1001.124	1.75615
1001.292	27.04663
1001.461	20.72369
1001.63	52.34049
1001.798	50.23254
1001.967	81.85419
1002.136	-40.38689
1002.304	46.01671
1002.473	-6.67324
1002.642	5.97099
1002.81	-25.63794
1002.979	31.26204
1003.147	-6.67324
1003.316	130.35049
1003.484	35.47754
1003.653	-50.9211
1003.821	14.40096
1003.99	60.77252
1004.158	43.90883
1004.327	27.04663
1004.495	86.0708
1004.663	-15.10224
1004.832	1.75615
1005	-10.88778
1005.168	-27.74501
1005.337	50.23254
1005.505	-0.35123
1005.673	12.29343
1005.842	18.61609
1006.01	-29.85205
1006.178	43.90883
1006.346	46.01671
1006.514	-21.42373
1006.683	-25.63794
1006.851	20.72369
1007.019	22.83131
1007.187	-36.17303
1007.355	3.86356
1007.523	-34.06606
1007.691	-2.45859
1007.859	-12.99502
1008.027	20.72369
1008.195	8.07845
1008.363	22.83131
1008.531	-15.10224
1008.699	-23.53085
1008.867	-15.10224
1009.035	60.77252
1009.203	88.17913
1009.37	-23.53085
1009.538	20.72369
1009.706	16.50851
1009.874	77.63768
1010.042	41.80097
1010.209	10.18593
1010.377	43.90883
1010.545	20.72369
1010.713	10.18593
1010.88	10.18593
1011.048	46.01671
1011.216	-107.79484
1011.383	16.50851
1011.551	60.77252
1011.718	-31.95906
1011.886	90.28749
1012.054	94.50427
1012.221	18.61609
1012.389	18.61609
1012.556	29.15432
1012.724	48.12461
1012.891	69.20492
1013.058	18.61609
1013.226	43.90883
1013.393	62.88058
1013.561	73.42125
1013.728	81.85419
1013.895	39.69314
1014.063	69.20492
1014.23	-8.78052
1014.397	-36.17303
1014.565	10.18593
1014.732	3.86356
1014.899	37.58533
1015.066	10.18593
1015.233	24.93896
1015.401	43.90883
1015.568	43.90883
1015.735	50.23254
1015.902	83.96248
1016.069	-4.56592
1016.236	50.23254
1016.403	1.75615
1016.57	77.63768
1016.737	48.12461
1016.904	71.31307
1017.071	20.72369
1017.238	18.61609
1017.405	56.55646
1017.572	27.04663
1017.739	27.04663
1017.906	-15.10224
1018.073	-23.53085
1018.24	43.90883
1018.407	52.34049
1018.573	43.90883
1018.74	-23.53085
1018.907	31.26204
1019.074	-0.35123
1019.241	-42.49378
1019.407	-25.63794
1019.574	88.17913
1019.741	-63.56133
1019.907	62.88058
1020.074	12.29343
1020.241	43.90883
1020.407	71.31307
1020.574	18.61609
1020.74	-21.42373
1020.907	39.69314
1021.073	-36.17303
1021.24	-48.81431
1021.406	-15.10224
1021.573	-55.13461
1021.739	35.47754
1021.906	18.61609
1022.072	39.69314
1022.239	37.58533
1022.405	-19.31659
1022.571	18.61609
1022.738	12.29343
1022.904	35.47754
1023.07	111.37229
1023.237	22.83131
1023.403	31.26204
1023.569	54.44846
1023.735	-48.81431
1023.902	1.75615
1024.068	18.61609
1024.234	14.40096
1024.4	-8.78052
1024.566	1.75615
1024.732	10.18593
1024.898	-6.67324
1025.065	113.4809
1025.231	22.83131
1025.397	18.61609
1025.563	39.69314
1025.729	39.69314
1025.895	-19.31659
1026.061	-46.70749
1026.227	-15.10224
1026.392	18.61609
1026.558	29.15432
1026.724	-12.99502
1026.89	52.34049
1027.056	48.12461
1027.222	16.50851
1027.388	-46.70749
1027.553	14.40096
1027.719	-0.35123
1027.885	10.18593
1028.051	-15.10224
1028.216	-8.78052
1028.382	35.47754
1028.548	75.52945
1028.713	48.12461
1028.879	-2.45859
1029.045	54.44846
1029.21	90.28749
1029.376	3.86356
1029.541	10.18593
1029.707	-23.53085
1029.873	-6.67324
1030.038	43.90883
1030.204	-6.67324
1030.369	-15.10224
1030.534	-23.53085
1030.7	29.15432
1030.865	10.18593
1031.031	12.29343
1031.196	-65.66794
1031.361	8.07845
1031.527	90.28749
1031.692	-38.27997
1031.857	10.18593
1032.023	10.18593
1032.188	-19.31659
1032.353	-23.53085
1032.518	29.15432
1032.684	62.88058
1032.849	20.72369
1033.014	128.24171
1033.179	1.75615
1033.344	-19.31659
1033.509	43.90883
1033.674	-19.31659
1033.839	48.12461
1034.004	12.29343
1034.17	56.55646
1034.335	115.58952
1034.5	20.72369
1034.664	39.69314
1034.829	-2.45859
1034.994	-55.13461
1035.159	56.55646
1035.324	-2.45859
1035.489	-55.13461
1035.654	18.61609
1035.819	35.47754
1035.984	43.90883
1036.148	18.61609
1036.313	-6.67324
1036.478	-46.70749
1036.643	18.61609
1036.807	10.18593
1036.972	27.04663
1037.137	48.12461
1037.301	14.40096
1037.466	-6.67324
1037.631	3.86356
1037.795	-10.88778
1037.96	-44.60065
1038.124	-19.31659
1038.289	-17.20943
1038.454	35.47754
1038.618	-6.67324
1038.783	10.18593
1038.947	-4.56592
1039.111	60.77252
1039.276	69.20492
1039.44	43.90883
1039.605	-36.17303
1039.769	27.04663
1039.933	-12.99502
1040.098	-36.17303
1040.262	-19.31659
1040.426	-40.38689
1040.591	-42.49378
1040.755	73.42125
1040.919	-57.24133
1041.083	48.12461
1041.248	18.61609
1041.412	14.40096
1041.576	94.50427
1041.74	29.15432
1041.904	29.15432
1042.068	22.83131
1042.232	-15.10224
1042.397	31.26204
1042.561	-4.56592
1042.725	-12.99502
1042.889	-27.74501
1043.053	-46.70749
1043.217	-27.74501
1043.381	20.72369
1043.544	-34.06606
1043.708	18.61609
1043.872	-40.38689
1044.036	1.75615
1044.2	-29.85205
1044.364	29.15432
1044.528	-124.64267
1044.691	18.61609
1044.855	5.97099
1045.019	-4.56592
1045.183	-71.98763
1045.346	37.58533
1045.51	71.31307
1045.674	27.04663
1045.837	54.44846
1046.001	12.29343
1046.165	69.20492
1046.328	-2.45859
1046.492	27.04663
1046.655	48.12461
1046.819	-40.38689
1046.983	-23.53085
1047.146	60.77252
1047.31	-23.53085
1047.473	56.55646
1047.636	75.52945
1047.8	33.36978
1047.963	20.72369
1048.127	31.26204
1048.29	43.90883
