Data from mixed_try1_USB4F045381__29__00094.txt Node

Date: Thu Apr 03 19:53:50 EDT 2025
User: mmckonesweet
Spectrometer: USB4F04538
Trigger mode: 4
Integration Time (sec): 2.700000E-3
Scans to average: 1
Electric dark correction enabled: true
Nonlinearity correction enabled: true
Boxcar width: 0
XAxis mode: Wavelengths
Number of Pixels in Spectrum: 3648
>>>>>Begin Spectral Data<<<<<
345.52	-50.74553
345.736	-50.74553
345.952	-50.74553
346.168	-97.08857
346.384	23.00695
346.6	-38.10439
346.816	-25.46235
347.032	-40.21131
347.248	31.43768
347.464	1.93177
347.68	-19.141
347.896	-31.78348
348.112	-0.17561
348.328	41.97663
348.544	10.36155
348.76	8.25407
348.975	60.94819
349.191	-71.81209
349.407	-90.7698
349.623	-4.39031
349.839	-27.56942
350.055	4.03918
350.27	-29.67646
350.486	-92.87609
350.702	-14.92664
350.918	-27.56942
351.133	-17.03383
351.349	-17.03383
351.565	14.57659
351.781	-52.8523
351.996	-17.03383
352.212	-59.17246
352.428	-40.21131
352.644	-54.95905
352.859	-126.57304
353.075	48.30027
353.291	-48.63874
353.506	1.93177
353.722	-59.17246
353.938	-21.24814
354.153	10.36155
354.369	-126.57304
354.584	-25.46235
354.8	-33.89048
355.016	-0.17561
355.231	-50.74553
355.447	50.4082
355.662	-4.39031
355.878	-31.78348
356.093	-33.89048
356.309	-48.63874
356.524	-50.74553
356.74	-57.06577
356.955	-38.10439
357.171	-6.49763
357.386	41.97663
357.602	-17.03383
357.817	-42.31821
358.033	16.68414
358.248	-33.89048
358.464	27.22227
358.679	-2.28298
358.895	-17.03383
359.11	-0.17561
359.325	31.43768
359.541	10.36155
359.756	-50.74553
359.972	-21.24814
360.187	-42.31821
360.402	-25.46235
360.618	-12.81942
360.833	-82.34441
361.048	-17.03383
361.264	-139.20765
361.479	-84.4508
361.694	-65.49239
361.909	-76.0251
362.125	25.11459
362.34	-33.89048
362.555	-29.67646
362.77	-8.60492
362.986	-27.56942
363.201	20.89932
363.416	-25.46235
363.631	-25.46235
363.847	-46.53192
364.062	-29.67646
364.277	-0.17561
364.492	-33.89048
364.707	-4.39031
364.922	-42.31821
365.138	-8.60492
365.353	1.93177
365.568	-52.8523
365.783	65.16435
365.998	-67.59898
366.213	-6.49763
366.428	8.25407
366.643	-80.238
366.858	37.76098
367.073	1.93177
367.288	-82.34441
367.503	25.11459
367.718	-29.67646
367.933	-63.38577
368.148	-29.67646
368.363	-8.60492
368.578	-17.03383
368.793	-2.28298
369.008	-50.74553
369.223	-40.21131
369.438	-50.74553
369.653	4.03918
369.868	-4.39031
370.083	-46.53192
370.298	-42.31821
370.513	-29.67646
370.728	-90.7698
370.943	-25.46235
371.157	25.11459
371.372	10.36155
371.587	-4.39031
371.802	-38.10439
372.017	-80.238
372.232	-0.17561
372.446	-29.67646
372.661	27.22227
372.876	-71.81209
373.091	-101.30096
373.306	23.00695
373.52	60.94819
373.735	-40.21131
373.95	-50.74553
374.165	-17.03383
374.379	-48.63874
374.594	6.14661
374.809	-17.03383
375.023	-8.60492
375.238	16.68414
375.453	-33.89048
375.667	16.68414
375.882	12.46906
376.097	-76.0251
376.311	-158.15772
376.526	10.36155
376.741	-67.59898
376.955	-33.89048
377.17	63.05626
377.384	27.22227
377.599	-17.03383
377.813	33.54542
378.028	18.79172
378.242	-52.8523
378.457	-31.78348
378.672	-0.17561
378.886	-17.03383
379.101	-63.38577
379.315	-46.53192
379.53	54.62413
379.744	12.46906
379.958	-76.0251
380.173	12.46906
380.387	-80.238
380.602	-19.141
380.816	-82.34441
381.031	-8.60492
381.245	-21.24814
381.459	-17.03383
381.674	-33.89048
381.888	-57.06577
382.103	-21.24814
382.317	-21.24814
382.531	-33.89048
382.746	-12.81942
382.96	-38.10439
383.174	-17.03383
383.388	-38.10439
383.603	-42.31821
383.817	33.54542
384.031	41.97663
384.246	-8.60492
384.46	18.79172
384.674	14.57659
384.888	-76.0251
385.103	-109.72541
385.317	-57.06577
385.531	-25.46235
385.745	10.36155
385.959	-105.51324
386.174	-0.17561
386.388	-6.49763
386.602	-61.27913
386.816	-25.46235
387.03	75.70514
387.244	-67.59898
387.458	25.11459
387.672	-44.42508
387.887	10.36155
388.101	-48.63874
388.315	-42.31821
388.529	-25.46235
388.743	-17.03383
388.957	-44.42508
389.171	-76.0251
389.385	16.68414
389.599	-25.46235
389.813	-101.30096
390.027	-10.71218
390.241	-23.35526
390.455	-40.21131
390.669	-29.67646
390.883	1.93177
391.097	-25.46235
391.311	-44.42508
391.525	31.43768
391.738	33.54542
391.952	-23.35526
392.166	-29.67646
392.38	69.38059
392.594	60.94819
392.808	-42.31821
393.022	54.62413
393.236	12.46906
393.449	8.25407
393.663	-10.71218
393.877	-8.60492
394.091	-42.31821
394.305	-94.98234
394.518	-33.89048
394.732	-21.24814
394.946	-0.17561
395.16	-0.17561
395.373	-14.92664
395.587	-31.78348
395.801	84.13817
396.015	-48.63874
396.228	8.25407
396.442	-38.10439
396.656	-42.31821
396.869	-42.31821
397.083	12.46906
397.297	-4.39031
397.51	-4.39031
397.724	-6.49763
397.938	-2.28298
398.151	8.25407
398.365	-17.03383
398.578	88.35483
398.792	37.76098
399.005	-86.55716
399.219	-65.49239
399.433	-33.89048
399.646	-38.10439
399.86	-33.89048
400.073	-25.46235
400.287	8.25407
400.5	16.68414
400.714	-31.78348
400.927	-23.35526
401.141	-124.46718
401.354	46.19237
401.567	-17.03383
401.781	67.27246
401.994	10.36155
402.208	10.36155
402.421	25.11459
402.635	-50.74553
402.848	-38.10439
403.061	-0.17561
403.275	14.57659
403.488	-33.89048
403.701	-17.03383
403.915	-17.03383
404.128	37.76098
404.341	-59.17246
404.555	-42.31821
404.768	-48.63874
404.981	-31.78348
405.195	1.93177
405.408	-12.81942
405.621	-33.89048
405.834	-21.24814
406.048	1.93177
406.261	12.46906
406.474	-33.89048
406.687	-19.141
406.9	-46.53192
407.114	-63.38577
407.327	-4.39031
407.54	-17.03383
407.753	12.46906
407.966	-84.4508
408.179	-10.71218
408.392	16.68414
408.605	-65.49239
408.819	-19.141
409.032	-76.0251
409.245	-31.78348
409.458	20.89932
409.671	-8.60492
409.884	-42.31821
410.097	-59.17246
410.31	10.36155
410.523	41.97663
410.736	25.11459
410.949	-42.31821
411.162	56.73213
411.375	-78.13156
411.588	4.03918
411.801	-46.53192
412.014	-17.03383
412.227	12.46906
412.44	-23.35526
412.653	-6.49763
412.865	-19.141
413.078	-14.92664
413.291	-21.24814
413.504	109.43943
413.717	41.97663
413.93	-59.17246
414.143	-59.17246
414.356	-17.03383
414.568	14.57659
414.781	-105.51324
414.994	-73.91861
415.207	-40.21131
415.42	8.25407
415.632	-101.30096
415.845	-59.17246
416.058	-76.0251
416.271	23.00695
416.483	-4.39031
416.696	-82.34441
416.909	8.25407
417.121	-6.49763
417.334	-67.59898
417.547	-25.46235
417.759	-44.42508
417.972	-35.99745
418.185	33.54542
418.397	-44.42508
418.61	-12.81942
418.823	-12.81942
419.035	-50.74553
419.248	-6.49763
419.46	-0.17561
419.673	-23.35526
419.885	-33.89048
420.098	-14.92664
420.311	-17.03383
420.523	-0.17561
420.736	20.89932
420.948	-46.53192
421.161	18.79172
421.373	-59.17246
421.586	-84.4508
421.798	-38.10439
422.01	-23.35526
422.223	8.25407
422.435	1.93177
422.648	-29.67646
422.86	1.93177
423.073	-0.17561
423.285	-76.0251
423.497	-6.49763
423.71	-8.60492
423.922	-33.89048
424.134	50.4082
424.347	6.14661
424.559	-4.39031
424.771	-4.39031
424.984	-33.89048
425.196	-61.27913
425.408	-57.06577
425.621	-54.95905
425.833	-23.35526
426.045	4.03918
426.257	-31.78348
426.47	12.46906
426.682	27.22227
426.894	-10.71218
427.106	27.22227
427.318	-48.63874
427.531	12.46906
427.743	-25.46235
427.955	-42.31821
428.167	-8.60492
428.379	-21.24814
428.591	-71.81209
428.804	-54.95905
429.016	29.32996
429.228	67.27246
429.44	-118.14944
429.652	-63.38577
429.864	-59.17246
430.076	-25.46235
430.288	-8.60492
430.5	12.46906
430.712	-33.89048
430.924	10.36155
431.136	-17.03383
431.348	-17.03383
431.56	75.70514
431.772	-65.49239
431.984	-17.03383
432.196	-17.03383
432.408	4.03918
432.62	-84.4508
432.832	-42.31821
433.044	46.19237
433.256	-31.78348
433.468	-14.92664
433.679	-38.10439
433.891	-25.46235
434.103	1.93177
434.315	10.36155
434.527	-33.89048
434.739	-8.60492
434.95	25.11459
435.162	16.68414
435.374	35.65319
435.586	-0.17561
435.798	10.36155
436.009	-76.0251
436.221	63.05626
436.433	29.32996
436.645	29.32996
436.856	-25.46235
437.068	-12.81942
437.28	35.65319
437.491	8.25407
437.703	37.76098
437.915	101.00532
438.126	-17.03383
438.338	25.11459
438.55	16.68414
438.761	-8.60492
438.973	-17.03383
439.184	-4.39031
439.396	25.11459
439.608	27.22227
439.819	-57.06577
440.031	-42.31821
440.242	-6.49763
440.454	-17.03383
440.665	20.89932
440.877	29.32996
441.088	-71.81209
441.3	29.32996
441.511	29.32996
441.723	128.41744
441.934	-14.92664
442.146	-4.39031
442.357	-2.28298
442.569	-42.31821
442.78	-25.46235
442.991	25.11459
443.203	1.93177
443.414	8.25407
443.626	-10.71218
443.837	54.62413
444.048	-12.81942
444.26	16.68414
444.471	33.54542
444.682	48.30027
444.894	-35.99745
445.105	-78.13156
445.316	-54.95905
445.528	79.92161
445.739	33.54542
445.95	-33.89048
446.161	18.79172
446.373	-19.141
446.584	29.32996
446.795	14.57659
447.006	-38.10439
447.217	18.79172
447.429	-33.89048
447.64	-8.60492
447.851	58.84015
448.062	16.68414
448.273	58.84015
448.484	-42.31821
448.695	41.97663
448.907	18.79172
449.118	50.4082
449.329	-8.60492
449.54	-42.31821
449.751	46.19237
449.962	-0.17561
450.173	20.89932
450.384	-0.17561
450.595	29.32996
450.806	90.46319
451.017	25.11459
451.228	18.79172
451.439	16.68414
451.65	-14.92664
451.861	-21.24814
452.072	-17.03383
452.283	16.68414
452.494	-8.60492
452.705	75.70514
452.915	-0.17561
453.126	73.59693
453.337	1.93177
453.548	41.97663
453.759	67.27246
453.97	-33.89048
454.181	20.89932
454.391	16.68414
454.602	35.65319
454.813	29.32996
455.024	12.46906
455.235	14.57659
455.445	-6.49763
455.656	60.94819
455.867	69.38059
456.078	20.89932
456.288	50.4082
456.499	67.27246
456.71	29.32996
456.921	84.13817
457.131	52.51615
457.342	88.35483
457.553	37.76098
457.763	-12.81942
457.974	35.65319
458.184	29.32996
458.395	71.48875
458.606	-25.46235
458.816	63.05626
459.027	1.93177
459.237	84.13817
459.448	-59.17246
459.659	58.84015
459.869	92.57157
460.08	92.57157
460.29	33.54542
460.501	117.87389
460.711	35.65319
460.922	27.22227
461.132	46.19237
461.343	67.27246
461.553	92.57157
461.764	73.59693
461.974	27.22227
462.184	63.05626
462.395	27.22227
462.605	58.84015
462.816	88.35483
463.026	75.70514
463.236	71.48875
463.447	145.28826
463.657	39.86879
463.867	58.84015
464.078	10.36155
464.288	6.14661
464.498	67.27246
464.709	160.05133
464.919	119.98255
465.129	101.00532
465.339	29.32996
465.55	39.86879
465.76	111.54801
465.97	147.39721
466.18	52.51615
466.391	86.24649
466.601	168.48784
466.811	145.28826
467.021	8.25407
467.231	84.13817
467.441	109.43943
467.651	101.00532
467.862	162.16043
468.072	181.14322
468.282	143.17933
468.492	202.23715
468.702	227.55252
468.912	244.431
469.122	183.25252
469.332	235.99161
469.542	151.61516
469.752	210.67529
469.962	246.5409
470.172	271.86117
470.382	160.05133
470.592	195.90876
470.802	212.78487
471.012	307.73615
471.222	288.74285
471.432	244.431
471.642	299.2945
471.852	311.95708
472.062	269.75104
472.272	337.28419
472.482	345.72712
472.691	320.39917
472.901	311.95708
473.111	383.72372
473.321	295.07378
473.531	440.72869
473.741	366.83566
473.95	447.06329
474.16	322.50973
474.37	463.95624
474.58	495.63314
474.79	463.95624
474.999	489.29749
475.209	480.85017
475.419	463.95624
475.628	544.21075
475.838	480.85017
476.048	542.09852
476.258	548.43524
476.467	616.03437
476.677	641.38743
476.886	677.30723
477.096	700.55124
477.306	586.4581
477.515	641.38743
477.725	736.47644
477.935	759.72379
478.144	833.70058
478.354	681.53331
478.563	821.01802
478.773	732.24978
478.982	871.75015
479.192	1034.54595
479.401	903.4602
479.611	928.82952
479.82	903.4602
480.03	928.82952
480.239	1000.71491
480.449	990.14304
480.658	1106.44172
480.868	1199.49135
481.077	1262.93825
481.287	1265.05319
481.496	1186.80231
481.705	1396.18328
481.915	1286.20273
482.124	1394.06824
482.333	1398.29832
482.543	1353.88261
482.752	1404.64346
482.961	1531.54631
483.171	1567.50171
483.38	1432.13909
483.589	1590.76675
483.799	1529.43128
484.008	1793.79431
484.217	1607.68664
484.426	1793.79431
484.636	1768.41752
484.845	1962.95549
485.054	1802.25311
485.263	1918.55396
485.472	1910.09624
485.682	1992.55503
485.891	1939.69786
486.1	2011.58266
486.309	2087.68765
486.518	2182.80531
486.727	2123.62285
486.936	2174.35106
487.146	2129.96413
487.355	2379.32616
487.564	2125.73662
487.773	2303.26319
487.982	2280.01922
488.191	2459.60048
488.4	2442.70191
488.609	2396.22728
488.818	2501.84385
489.027	2563.08866
489.236	2664.43731
489.445	2835.39605
489.654	2579.98204
489.863	2748.87231
490.072	2497.61971
490.281	2924.00572
490.49	2679.21493
490.698	2932.44341
490.907	2997.82744
491.116	2966.1918
491.325	2877.59428
491.534	3151.73801
491.743	3018.91598
491.952	3071.6306
492.16	3223.39328
492.369	3482.45266
492.578	3257.10679
492.787	3423.5031
492.996	3221.28604
493.204	3328.73363
493.413	3495.08287
493.622	3442.45271
493.831	3278.17555
494.039	3440.34727
494.248	3345.58412
494.457	3547.70168
494.665	3545.59714
494.874	3726.51836
495.083	3615.03689
495.291	3751.75196
495.5	3850.55647
495.709	3976.62599
495.917	3612.93296
496.126	3894.68904
496.335	3835.84367
496.543	4182.38096
496.752	4010.23221
496.96	3808.51731
497.169	3928.30792
497.377	4132.01049
497.586	4085.82695
497.794	4362.77453
498.003	4052.23259
498.211	4173.98672
498.42	4180.28243
498.628	4379.54723
498.837	4312.44811
499.045	4310.3509
499.254	4253.71827
499.462	4297.76723
499.671	4427.76099
499.879	4593.27619
500.087	4482.24955
500.296	4643.53184
500.504	4499.01227
500.713	4697.9609
500.921	4739.81904
501.129	4764.92958
501.338	4513.6785
501.546	4775.39135
501.754	4633.06298
501.962	4982.41686
502.171	4879.97771
502.379	5047.19676
502.587	4928.06826
502.795	4902.97905
503.004	4915.52407
503.212	4976.14666
503.42	5045.10743
503.628	5132.83924
503.837	5017.94407
504.045	5049.28606
504.253	5078.53389
504.461	5404.12955
504.669	5268.53378
504.877	5205.91777
505.085	5420.81141
505.294	5387.44618
505.502	5149.54542
505.71	5472.93253
505.918	5351.98905
506.126	5487.5238
506.334	4967.78607
506.542	5585.46394
506.75	5360.33252
506.958	5668.77623
507.166	5456.25537
507.374	5706.25444
507.582	5666.69388
507.79	6066.07192
507.998	5720.82724
508.206	5820.72384
508.414	5587.5472
508.622	5933.04252
508.83	5691.68049
509.037	5993.33342
509.245	5818.64321
509.453	5943.43892
509.661	5918.48657
509.869	5885.21149
510.077	5906.00912
510.285	6184.47008
510.492	5980.86107
510.7	6043.21436
510.908	5920.56606
511.116	6221.84312
511.324	5937.20115
511.531	6236.37503
511.739	6203.15755
511.947	6392.0021
512.155	6225.99521
512.362	6190.69944
512.57	6176.16392
512.778	6327.69218
512.985	6408.59457
513.193	6331.84188
513.401	6408.59457
513.608	6530.91809
513.816	6406.5206
514.024	6532.99067
514.231	6354.66359
514.439	6514.33658
514.646	6481.16912
514.854	6572.36537
515.061	6412.74246
515.269	6694.58105
515.477	6535.06323
515.684	6441.77505
515.892	6827.06364
516.099	6748.4134
516.307	6622.0899
516.514	6853.96274
516.722	6576.50959
516.929	7019.41136
517.136	6812.57791
517.344	7077.28431
517.551	6820.85561
517.759	6982.19802
517.966	6963.58862
518.173	6994.60328
518.381	6841.54825
518.588	7066.95115
518.796	7161.99523
519.003	7292.08808
519.21	6864.30752
519.418	7304.47331
519.625	6949.11337
519.832	7325.11361
520.039	7362.26063
520.247	7420.03082
520.454	7391.14786
520.661	7434.47071
520.868	7343.688
521.076	7729.22656
521.283	7374.64139
521.49	7490.15747
521.697	7453.03472
521.904	7690.08827
522.112	7325.11361
522.319	7762.17924
522.526	7475.72168
522.733	7994.75596
522.94	7632.39688
523.147	7663.30505
523.354	7815.7159
523.561	7877.47149
523.768	7770.41657
523.975	7980.35619
524.183	7733.34594
524.39	7939.20847
524.597	7879.52969
524.804	7918.63154
525.011	7861.00516
525.218	8085.24601
525.425	7846.59603
525.632	8118.14179
525.838	7961.84073
526.045	8124.30917
526.252	8052.34508
526.459	8155.1434
526.666	8422.18715
526.873	8416.02832
527.08	8220.90809
527.287	8383.17827
527.494	8264.05514
527.701	8537.12046
527.907	8346.21604
528.114	8596.61611
528.321	8448.87344
528.528	8461.1891
528.735	8405.76321
528.941	8785.2573
529.148	8448.87344
529.355	8707.35922
529.562	8641.74022
529.768	8797.55459
529.975	8485.81834
530.182	8943.0232
530.388	8701.20825
530.595	8787.30689
530.802	8879.51985
531.008	9282.7882
531.215	8955.3122
531.422	8977.84037
531.628	8848.78626
531.835	9282.7882
532.042	9209.14424
532.248	9288.92421
532.455	9170.26779
532.661	9205.05227
532.868	9348.23134
533.074	9350.27616
533.281	9272.56117
533.487	9521.98334
533.694	9174.36033
533.9	9485.19853
534.107	9231.64887
534.313	9497.46071
534.52	9409.56896
534.726	9464.76029
534.933	9321.64711
535.139	9734.41799
535.345	9513.80939
535.552	9501.54798
535.758	9699.70456
535.965	9787.50061
536.171	9642.51981
536.377	10107.8257
536.584	9675.19829
536.79	9897.71672
536.996	9842.61409
537.203	9771.16859
537.409	9669.07138
537.615	9705.83078
537.821	9844.65513
538.028	9891.59474
538.234	9756.87727
538.44	9901.79797
538.646	9793.62487
538.853	9936.48621
539.059	10032.36716
539.265	10319.82364
539.471	10232.18856
539.677	10024.20832
539.883	10203.6508
540.09	10309.63479
540.296	10458.35925
540.502	10637.55256
540.708	10482.80047
540.914	10480.76378
541.12	10311.67259
541.326	10517.42238
541.532	10442.06408
541.738	10619.23042
541.944	10515.3859
542.15	10757.63995
542.356	10627.37371
542.562	10834.96236
542.768	10611.08692
542.974	10668.08725
543.18	10718.97233
543.386	10926.50666
543.592	10792.23366
543.798	11058.69691
544.004	10961.08405
544.21	11404.21177
544.415	11038.363
544.621	11144.0875
544.827	11058.69691
545.033	11357.48292
545.239	11182.71038
545.445	11300.58852
545.651	11022.09507
545.856	11009.89367
546.062	11375.76874
546.268	11394.05377
546.474	11276.20278
546.679	11101.39458
546.885	11123.75813
547.091	11239.62141
547.297	11028.19563
547.502	11205.06926
547.708	11101.39458
547.914	11333.10057
548.119	11345.29193
548.325	11509.84058
548.531	11225.39442
548.736	11459.06075
548.942	11255.88021
549.147	11536.24375
549.353	11702.75082
549.559	11852.96204
549.764	11599.19877
549.97	11917.90385
550.175	11721.02229
550.381	11824.5473
550.586	11524.05787
550.792	11716.96203
550.997	11923.99172
551.203	11966.6047
551.408	11826.57698
551.614	12092.39397
551.819	11938.19644
552.025	12187.73065
552.23	12082.25078
552.435	12128.90785
552.641	12072.10741
552.846	12179.61753
553.052	12116.73683
553.257	12536.4882
553.462	12540.54236
553.668	12469.59089
553.873	12197.87188
554.078	12368.2177
554.283	12272.91133
554.489	12422.9613
554.694	12388.49368
554.899	12520.27131
555.105	12455.39964
555.31	12617.56661
555.515	12495.94521
555.72	12641.88821
555.925	12418.90638
556.131	12457.42698
556.336	12489.86355
556.541	12917.47467
556.746	12694.58205
556.951	12974.20052
557.156	12812.11564
557.361	12846.56155
557.567	12935.70842
557.772	13188.91317
557.977	12822.24696
558.182	12804.01049
558.387	12824.2732
558.592	12949.88994
558.797	12907.34463
559.002	12919.50067
559.207	13207.14107
559.412	12935.70842
559.617	13132.20182
559.822	13201.06514
560.027	12822.24696
560.232	13128.15087
560.437	12925.57861
560.642	13162.58335
560.847	12909.37065
561.051	13055.23054
561.256	13077.51241
561.461	13282.07419
561.666	13237.52008
561.871	13409.64973
562.076	13391.42564
562.281	13371.17628
562.485	13111.94689
562.69	13186.88783
562.895	13061.30747
563.1	13267.89811
563.305	13041.05086
563.509	13551.38208
563.714	13201.06514
563.919	13628.31507
564.123	13508.8643
564.328	13433.94803
564.533	13399.52528
564.737	13749.77839
564.942	13652.60867
565.147	14059.46232
565.351	13948.1452
565.556	13470.39442
565.761	13346.8765
565.965	13816.57844
566.17	13689.04818
566.374	13567.57892
566.579	13818.60263
566.784	13913.73654
566.988	14047.31899
567.193	14233.50801
567.397	13788.23942
567.602	14031.12775
567.806	13727.51098
568.011	13962.31325
568.215	14255.76858
568.42	14014.93636
568.624	14156.60603
568.828	14160.65358
569.033	14059.46232
569.237	14180.89118
569.442	13942.07314
569.646	14095.89181
569.85	14122.20155
570.055	14209.22349
570.259	13954.21724
570.463	14490.50377
570.668	14188.98617
570.872	13956.24124
571.076	14045.29509
571.281	14401.4688
571.485	14557.27825
571.689	14528.94985
571.893	14468.24529
572.098	14704.98702
572.302	14138.39197
572.506	14684.75326
572.71	14346.83225
572.914	14826.38781
573.119	14638.21525
573.323	14777.82782
573.527	14478.3628
573.731	14794.01453
573.935	14824.36448
574.139	14844.5977
574.343	14541.09062
574.547	14634.16844
574.751	14913.39021
574.955	15038.83404
575.159	14528.94985
575.364	14696.89352
575.568	15028.71765
575.772	14986.22873
575.976	14972.06572
576.18	14990.2753
576.383	15139.99772
576.587	15123.81155
576.791	14682.72988
576.995	14935.64648
577.199	14968.01915
577.403	15055.02026
577.607	15103.57883
577.811	15222.95182
578.015	14846.62102
578.219	14917.43681
578.422	14903.2737
578.626	15461.69969
578.83	15273.53367
579.034	15409.09379
579.238	15103.57883
579.442	15451.58315
579.645	15340.30191
579.849	15659.98723
580.053	15411.11709
580.257	15291.74316
580.46	15848.16572
580.664	15564.8893
580.868	15577.02936
581.071	15479.90951
581.275	15744.96997
581.479	15690.33802
581.682	15403.0239
581.886	15686.29123
582.09	15672.12752
582.293	15649.87034
582.497	15718.66561
582.7	15411.11709
582.904	15844.11877
583.107	15653.91709
583.311	15807.69646
583.515	15793.53232
583.718	15348.39505
583.922	15878.51797
584.125	15751.04023
584.329	15975.64708
584.532	16129.44141
584.735	16184.08102
584.939	16352.05511
585.142	16149.67816
585.346	15898.75296
585.549	15874.47099
585.753	15975.64708
585.956	16105.15751
586.159	16325.74509
586.363	16093.01565
586.566	16388.4849
586.769	16536.23461
586.973	16165.86768
587.176	16518.01829
587.379	16325.74509
587.582	16378.36545
587.786	16481.58618
587.989	16566.59552
588.192	16159.7966
588.395	16625.29468
588.599	16522.06635
588.802	16212.41315
589.005	16372.29381
589.208	16641.48788
589.411	16603.02926
589.615	16799.37944
589.818	16404.67612
590.021	17040.29451
590.224	16596.95692
590.427	16706.26217
590.63	16637.43957
590.833	16991.70361
591.036	16617.19813
591.239	16852.01324
591.442	16441.10684
591.645	16781.16044
591.848	17145.58024
592.051	17088.88699
592.254	16890.47747
592.457	17036.24521
592.66	17155.70427
592.863	17307.57336
593.066	17141.53065
593.269	17431.10594
593.472	17115.20858
593.675	17346.04951
593.878	17028.14664
594.081	17341.99934
594.284	16872.25746
594.486	17390.6022
594.689	17216.44994
594.892	17068.63993
595.095	17163.80354
595.298	17443.25731
595.5	17566.80261
595.703	17589.08254
595.906	17461.48456
596.109	17226.57447
596.311	17384.52675
596.514	17398.70285
596.717	17463.50983
596.92	17858.49883
597.122	17518.19321
597.325	17390.6022
597.528	17678.2062
597.73	18111.76522
597.933	17915.22571
598.136	18075.29143
598.338	17724.79612
598.541	17961.82484
598.743	18018.55674
598.946	18063.13376
599.148	17738.97601
599.351	17544.52308
599.554	17915.22571
599.756	18046.92373
599.959	18148.24018
600.161	18121.89704
600.363	18125.94979
600.566	18138.10813
600.768	18142.16094
600.971	18046.92373
601.173	18168.50456
601.376	18249.56576
601.578	18271.85862
601.78	18292.12525
601.983	18352.92739
602.185	18200.92833
602.388	18182.68985
602.59	18209.03442
602.792	18160.39877
602.995	17815.95544
603.197	17994.24273
603.399	18405.62532
603.601	18026.66152
603.804	18286.04522
604.006	18312.39226
604.208	17988.1643
604.41	18101.63349
604.613	18336.71316
604.815	18454.27183
605.017	18561.70737
605.219	18673.20857
605.421	18383.32973
605.623	18255.64558
605.826	18590.08837
606.028	18498.8664
606.23	18348.87381
606.432	18379.27603
606.634	18774.58359
606.836	18456.29882
607.038	18448.1909
607.24	18517.11017
607.442	18671.18117
607.644	18551.57148
607.846	18705.64751
608.048	18946.94391
608.25	18997.64363
608.452	18630.63399
608.654	18924.63683
608.856	18920.58104
609.058	18926.66472
609.26	18855.69073
609.462	18598.19737
609.664	18776.61119
609.866	18338.73992
610.067	18452.24485
610.269	19054.43033
610.471	18464.4068
610.673	18894.21886
610.875	18877.99632
611.077	18839.46879
611.278	18932.74844
611.48	18975.33544
611.682	18800.94271
611.884	18948.97185
612.085	18869.88514
612.287	19019.95231
612.489	18942.88804
612.69	19253.20889
612.892	18800.94271
613.094	19090.93774
613.295	18855.69073
613.497	19202.49634
613.699	18689.42791
613.9	18869.88514
614.102	19076.74025
614.304	19153.8147
614.505	18732.00488
614.707	19121.36159
614.908	19054.43033
615.11	19088.90951
615.311	19257.26601
615.513	18971.27946
615.714	19125.41817
615.916	19263.35171
616.117	18904.35808
616.319	19194.38257
616.52	18798.91506
616.722	19074.71206
616.923	19080.79666
617.124	19247.12325
617.326	18861.77403
617.527	19155.84306
617.729	19291.75215
617.93	19092.96596
618.131	19297.83807
618.333	19036.17711
618.534	19247.12325
618.735	19330.2969
618.937	18957.08365
619.138	18946.94391
619.339	18553.59865
619.54	19074.71206
619.742	18886.10756
619.943	18855.69073
620.144	18841.49652
620.345	19165.98489
620.546	19009.81194
620.748	19239.00912
620.949	18950.99979
621.15	19072.68387
621.351	19271.46604
621.552	19474.34575
621.753	19441.88221
621.954	19983.75749
622.155	19289.72352
622.356	19399.27543
622.558	19340.4405
622.759	19782.8026
622.96	19271.46604
623.161	19583.91805
623.362	19395.21774
623.563	19606.23982
623.764	19527.10126
623.965	19947.21717
624.166	19843.69367
624.366	19454.05591
624.567	19449.99799
624.768	19679.29644
624.969	19297.83807
625.17	19807.15857
625.371	19565.65515
625.572	19287.6949
625.773	19516.95575
625.973	19768.59523
626.174	19508.83942
626.375	19945.18719
626.576	19734.09246
626.777	19673.20818
626.977	19405.362
627.178	20030.44987
627.379	19565.65515
627.58	19902.55863
627.78	19687.41417
627.981	19794.98051
628.182	19652.91426
628.382	19813.24766
628.583	19484.49082
628.784	19289.72352
628.984	19060.5148
629.185	19758.44723
629.386	19527.10126
629.586	19965.48716
629.787	19583.91805
629.987	19648.85552
630.188	19431.73757
630.388	19703.64985
630.589	19774.68407
630.79	19857.90213
630.99	19803.0992
631.191	20377.66738
631.391	20018.26904
631.591	20133.99311
631.792	19920.82779
631.992	19941.12725
632.193	19825.42595
632.393	19999.99807
632.594	19951.27714
632.794	19961.42713
632.994	19748.29933
633.195	19646.82616
633.395	19318.12471
633.595	19916.76795
633.796	19809.18827
633.996	20172.57083
634.196	19997.96798
634.397	20069.02353
634.597	20010.14856
634.797	20018.26904
634.997	19853.84255
635.198	19882.25997
635.398	19896.46899
635.598	20387.82179
635.798	19989.84767
635.998	20140.08423
636.199	20209.11955
636.399	20253.79206
636.599	20241.60845
636.799	20022.3293
636.999	19870.08098
637.199	20038.57052
637.399	20203.02801
637.599	20302.52803
637.799	19675.2376
637.999	20418.28564
638.199	20566.5565
638.399	20162.41865
638.599	19870.08098
638.799	20259.88393
638.999	20205.05852
639.199	20605.1512
639.399	20428.44047
639.599	20420.3166
639.799	19908.64832
639.999	20357.35888
640.199	20066.9933
640.399	20288.31312
640.599	19490.57791
640.799	20771.73504
640.998	20448.75043
641.198	20517.80745
641.398	20075.11424
641.598	20485.30943
641.798	20263.94519
641.997	20302.52803
642.197	20450.78145
642.397	20241.60845
642.597	20237.54728
642.796	20578.74413
642.996	20353.29723
643.196	20743.29192
643.395	20637.65316
643.595	20850.97373
643.795	20729.07066
643.994	20938.34676
644.194	20850.97373
644.394	20974.92377
644.593	20562.49399
644.793	21143.60163
644.992	20855.03743
645.192	20985.08429
645.392	20676.25063
645.591	20940.37878
645.791	20804.24246
645.99	21050.11404
646.19	20594.99455
646.389	20976.95587
646.589	21027.75959
646.788	20944.44284
646.987	20534.05687
647.187	21074.50127
647.386	20993.21278
647.586	21170.0236
647.785	21015.56646
647.984	21033.85621
648.184	21129.3747
648.383	20940.37878
648.582	20875.35614
648.782	21228.96739
648.981	20997.27705
649.18	21054.17854
649.38	21283.84915
649.579	21391.58855
649.778	21005.40564
649.977	21243.19571
650.177	21076.53357
650.376	21005.40564
650.575	20966.79543
650.774	21048.08179
650.973	20970.8596
651.173	20997.27705
651.372	20978.98797
651.571	21086.69511
651.77	20974.92377
651.969	21046.04956
652.168	20767.67169
652.367	21200.51134
652.566	21157.82876
652.765	21257.42423
652.964	21100.92144
653.163	21373.29238
653.362	21472.90875
653.561	21594.90098
653.76	21249.29362
653.959	21666.06966
654.158	21566.43485
654.357	21298.07823
654.556	20881.45183
654.755	21448.51202
654.954	20997.27705
655.153	21072.46898
655.352	21092.79209
655.551	20787.98862
655.749	20942.41081
655.948	20999.30919
656.147	21115.14797
656.346	21206.609
656.545	21190.34866
656.743	20942.41081
656.942	21436.31387
657.141	21491.20668
657.34	21115.14797
657.538	21503.40547
657.737	21131.40711
657.936	21657.93586
658.135	21074.50127
658.333	21733.17596
658.532	21322.47141
658.731	21243.19571
658.929	21279.78373
659.128	20991.18065
659.326	21188.31614
659.525	21552.20208
659.724	21167.99112
659.922	21212.70669
660.121	21015.56646
660.319	21507.47177
660.518	21125.3099
660.716	21342.7995
660.915	21769.78119
661.113	21698.60552
661.312	21674.20353
661.51	21818.59011
661.709	21361.09512
661.907	21651.83554
662.105	21527.80349
662.304	21653.86898
662.502	21611.16768
662.701	22064.70207
662.899	21342.7995
663.097	21812.48887
663.296	21657.93586
663.494	21668.10313
663.692	21281.81644
663.891	21615.23439
664.089	21204.57644
664.287	21387.52271
664.485	21184.2511
664.684	21493.2398
664.882	21729.10879
665.08	21397.68734
665.278	21218.80442
665.476	21562.36832
665.675	21529.83668
665.873	21578.63452
666.071	21505.43862
666.269	21385.48979
666.467	21544.06915
666.665	21842.9954
666.863	21468.84259
667.061	21798.25279
667.259	21283.84915
667.457	22105.38709
667.655	21452.5781
667.853	21678.27049
668.051	21619.30113
668.249	21363.12799
668.447	21405.81912
668.645	21338.73385
668.843	20948.50691
669.041	21448.51202
669.239	21188.31614
669.437	21426.14885
669.635	21753.51204
669.833	21501.37233
670.031	21267.58758
670.229	21647.76868
670.426	21725.04164
670.624	21464.77644
670.822	21143.60163
671.02	21598.96763
671.218	21468.84259
671.415	21436.31387
671.613	21117.18035
671.811	21275.71833
672.009	21031.824
672.206	21590.83434
672.404	21641.66843
672.602	21476.97493
672.799	21542.03593
672.997	21891.80765
673.195	21529.83668
673.392	21735.20955
673.59	21291.98003
673.788	20970.8596
673.985	21005.40564
674.183	21422.08288
674.38	21387.52271
674.578	21363.12799
674.775	21281.81644
674.973	21481.04112
675.17	21615.23439
675.368	21182.21859
675.565	21243.19571
675.763	21619.30113
675.96	21204.57644
676.158	21434.28086
676.355	21137.50435
676.553	21479.00802
676.75	21401.75322
676.947	21696.572
677.145	21753.51204
677.342	21755.54567
677.539	21155.7963
677.737	21464.77644
677.934	21206.609
678.131	21507.47177
678.329	21407.85208
678.526	21448.51202
678.723	21470.87567
678.92	21773.84851
679.118	21720.9745
679.315	21226.93479
679.512	21371.2595
679.709	21330.6026
679.906	21444.44595
680.104	21517.63758
680.301	21261.48956
680.498	21218.80442
680.695	21117.18035
680.892	21107.0185
681.089	20991.18065
681.286	21170.0236
681.483	20800.17897
681.68	21204.57644
681.877	20995.24491
682.075	21131.40711
682.272	21060.27531
682.469	21373.29238
682.665	20974.92377
682.862	21180.18608
683.059	21220.83701
683.256	21017.59864
683.453	21314.34029
683.65	20792.05205
683.847	20999.30919
684.044	20836.75094
684.241	20826.59193
684.438	21060.27531
684.635	20769.70336
684.831	21064.33985
685.028	20686.40811
685.225	20621.40205
685.422	20787.98862
685.619	20844.87823
685.815	20850.97373
686.012	20631.55896
686.209	20804.24246
686.405	21230.99999
686.602	20735.16546
686.799	20499.52718
686.996	20769.70336
687.192	20609.21388
687.389	20509.68285
687.586	20631.55896
687.782	20513.74514
687.979	21104.98614
688.175	20332.98924
688.372	20489.37162
688.568	20745.32354
688.765	20751.41844
688.962	20753.45008
689.158	20647.81025
689.355	20952.571
689.551	20485.30943
689.748	20523.90095
689.944	20568.58776
690.14	20639.68457
690.337	20954.60305
690.533	20834.71913
690.73	20440.6264
690.926	20682.34511
691.123	20257.8533
691.319	20389.85268
691.515	20761.57669
691.712	20605.1512
691.908	20410.16185
692.104	20316.74314
692.301	20302.52803
692.497	20085.26552
692.693	20582.80671
692.889	20298.46661
693.086	20146.17538
693.282	20022.3293
693.478	20272.06777
693.674	20534.05687
693.87	20221.30276
694.067	20138.05385
694.263	20280.19041
694.459	20129.93238
694.655	20501.55831
694.851	20395.94539
695.047	20361.42055
695.243	20107.59869
695.439	19853.84255
695.635	19628.5621
695.831	20085.26552
696.027	19624.50347
696.224	20081.20499
696.42	19794.98051
696.615	20330.95846
696.811	20079.17474
697.007	19890.37939
697.203	19819.33679
697.399	19819.33679
697.595	20079.17474
697.791	20087.29578
697.987	20343.14318
698.183	20357.35888
698.379	19648.85552
698.575	20194.906
698.77	20012.17868
698.966	19880.23013
699.162	19951.27714
699.358	20168.50995
699.554	19926.91758
699.749	20213.18061
699.945	20032.48003
700.141	20209.11955
700.337	20103.53808
700.532	20278.15974
700.728	19997.96798
700.924	20223.33331
701.119	19851.81277
701.315	20146.17538
701.511	19632.62075
701.706	19894.43912
701.902	19618.41555
702.097	19868.05116
702.293	19817.30708
702.489	19723.94482
702.684	19598.12276
702.88	19815.27737
703.075	19754.38806
703.271	19585.94728
703.466	19945.18719
703.662	19583.91805
703.857	19748.29933
704.053	19788.89154
704.248	19910.67822
704.443	19914.73803
704.639	19776.7137
704.834	20446.71942
705.03	19766.56562
705.225	19930.97747
705.42	19859.93193
705.616	20034.51019
705.811	19659.00239
706.006	19920.82779
706.202	19778.74333
706.397	19529.13038
706.592	19752.35848
706.787	19880.23013
706.983	19937.06733
707.178	20089.32606
707.373	19849.78299
707.568	19506.81035
707.763	19750.3289
707.959	20158.35781
708.154	19790.92119
708.349	19868.05116
708.544	19650.88489
708.739	19403.33314
708.934	19557.53842
709.129	19803.0992
709.324	19322.18209
709.519	20028.41972
709.714	19533.18862
709.909	19723.94482
710.104	19362.75679
710.299	19441.88221
710.494	19573.77195
710.689	19646.82616
710.884	19480.43278
711.079	19882.25997
711.274	19561.59678
711.469	19644.79681
711.664	19458.11385
711.859	19973.60726
712.054	19344.49797
712.249	19470.28775
712.443	19472.31674
712.638	19685.38473
712.833	19212.63865
713.028	19415.50637
713.223	19099.05067
713.417	19360.72801
713.612	19439.85327
713.807	19535.21775
714.002	19332.32561
714.196	19484.49082
714.391	19068.6275
714.586	19113.24847
714.78	19149.75801
714.975	19186.26887
715.17	18959.11161
715.364	19381.01594
715.559	19224.80955
715.754	18987.50349
715.948	18845.55199
716.143	19011.84001
716.337	18918.55316
716.532	19192.35414
716.726	18886.10756
716.921	18973.30745
717.115	18764.44564
717.31	18871.91293
717.504	19052.40217
717.699	19362.75679
717.893	18979.39144
718.088	19123.38987
718.282	19413.47749
718.476	18906.38594
718.671	18776.61119
718.865	19003.72777
719.059	18740.11498
719.254	18983.44746
719.448	18594.14287
719.642	18987.50349
719.837	18642.79798
720.031	18592.11562
720.225	18359.00779
720.419	18523.1915
720.614	18405.62532
720.808	18519.13728
721.002	18504.94762
721.196	18813.10869
721.39	18474.54186
721.585	18843.52426
721.779	18584.00667
721.973	19094.9942
722.167	18300.23201
722.361	18259.69882
722.555	18561.70737
722.749	18661.04423
722.943	18709.70244
723.137	18436.02913
723.331	18144.18735
723.525	18288.07189
723.719	18063.13376
723.913	18259.69882
724.107	18085.42292
724.301	18286.04522
724.495	18198.90182
724.689	18127.97617
724.883	18077.31772
725.077	18259.69882
725.271	18385.35658
725.465	18121.89704
725.659	18324.55264
725.853	18450.21787
726.046	18239.43278
726.24	17894.9658
726.434	17682.25743
726.628	18409.67911
726.822	18209.03442
727.015	18594.14287
727.209	18140.13453
727.403	18359.00779
727.596	18182.68985
727.79	18551.57148
727.984	18363.06141
728.177	18361.0346
728.371	18113.79157
728.565	18683.34563
728.758	18513.05597
728.952	18494.81227
729.146	18281.99189
729.339	18811.08102
729.533	18703.62004
729.726	18608.33371
729.92	18450.21787
730.113	18318.47243
730.307	18665.09899
730.5	18361.0346
730.694	18229.2999
730.887	18221.19367
731.081	18269.83198
731.274	18456.29882
731.468	18061.10749
731.661	17961.82484
731.854	18048.94997
732.048	18361.0346
732.241	17937.51202
732.435	17720.74475
732.628	17811.90377
732.821	17933.45993
733.014	18099.60716
733.208	17840.26576
733.401	18014.50437
733.594	17880.78406
733.788	18083.39661
733.981	18277.93857
734.174	18352.92739
734.367	18448.1909
734.56	18425.89443
734.754	18383.32973
734.947	18233.35304
735.14	18275.91192
735.333	18115.81793
735.526	18053.00246
735.719	17726.8218
735.912	17951.69444
736.105	18038.8188
736.298	17878.75812
736.491	17789.61982
736.684	17591.10801
736.877	17734.92459
737.07	18279.96523
737.263	17670.10379
737.456	17923.32977
737.649	17554.65009
737.842	17803.80047
738.035	17635.66912
738.228	17659.97584
738.421	17724.79612
738.614	17688.33429
738.807	17506.04115
739	17499.96516
739.192	17627.56698
739.385	17913.1997
739.578	17747.07887
739.771	18079.34401
739.964	17787.59403
740.156	17909.1477
740.349	17666.0526
740.542	17785.56824
740.735	17627.56698
740.927	17410.85392
741.12	17726.8218
741.313	17289.3482
741.505	17491.86389
741.698	17526.29465
741.891	17412.87911
742.083	17757.20754
742.276	17639.7202
742.468	17834.18814
742.661	17532.37076
742.854	17830.1364
743.046	17504.01582
743.239	17487.81327
743.431	17562.75176
743.624	17730.87319
743.816	17824.05883
744.009	17694.41119
744.201	17619.46489
744.393	17619.46489
744.586	17504.01582
744.778	17516.16786
744.971	17710.61639
745.163	17655.92469
745.355	17348.0746
745.548	17086.86227
745.74	17177.97738
745.932	17404.77837
746.125	17546.54847
746.317	17427.05551
746.509	17295.42323
746.702	17327.82383
746.894	17329.84889
747.086	17074.71402
747.278	17240.74893
747.471	17396.67769
747.663	17256.9485
747.855	17427.05551
748.047	17218.47484
748.239	17534.39614
748.431	17337.94918
748.623	17700.48811
748.815	17346.04951
749.008	17540.47229
749.2	17366.30055
749.392	17293.39821
749.584	16874.28189
749.776	17469.58565
749.968	16916.79564
750.16	17319.72361
750.352	17090.91171
750.544	17202.27572
750.736	17236.69907
750.928	17238.724
751.12	17163.80354
751.311	16920.84463
751.503	17099.01063
751.695	16935.01616
751.887	16821.64738
752.079	16943.11424
752.271	16536.23461
752.463	16892.50193
752.654	16627.31882
752.846	17354.14989
753.038	16852.01324
753.23	16878.33077
753.421	16623.27054
753.613	16277.17357
753.805	16983.60527
753.997	16677.92313
754.188	16852.01324
754.38	16605.05338
754.572	16647.56037
754.763	17088.88699
754.955	16607.0775
755.146	16613.14987
755.338	16825.69613
755.53	16779.13612
755.721	16811.52555
755.913	16580.76411
756.104	16536.23461
756.296	16596.95692
756.487	16475.51422
756.679	16422.8914
756.87	16408.72395
757.062	16690.06837
757.253	16350.03125
757.445	16422.8914
757.636	16667.80215
757.827	16540.2827
758.019	16439.08289
758.21	16554.45109
758.401	16386.46101
758.593	16161.82029
758.784	16204.31822
758.975	16127.41774
759.167	16242.76937
759.358	16076.82659
759.549	16267.05463
759.74	16127.41774
759.932	15821.86065
760.123	15842.0953
760.314	15692.36141
760.505	16054.56678
760.696	15639.75347
760.888	16046.47235
761.079	15854.23615
761.27	15927.08215
761.461	15607.37964
761.652	15827.93103
761.843	15564.8893
762.034	15799.60266
762.225	15560.84261
762.416	15623.56653
762.607	15653.91709
762.798	15827.93103
762.989	15690.33802
763.18	16175.98619
763.371	15591.19281
763.562	15751.04023
763.753	15643.80022
763.944	15631.66
764.135	15708.54859
764.326	15868.40053
764.517	15605.35629
764.708	15532.51591
764.899	15591.19281
765.089	15281.62677
765.28	15469.79294
765.471	15734.85289
765.662	15601.30957
765.853	15358.51148
766.043	15241.16128
766.234	15338.27862
766.425	15156.18388
766.615	15176.41659
766.806	15328.16221
766.997	15376.72109
767.187	15366.60464
767.378	15562.86595
767.569	15360.53477
767.759	15188.55621
767.95	15301.85955
768.141	15340.30191
768.331	15384.81425
768.522	15259.37074
768.712	15105.6021
768.903	15101.55556
769.093	15184.50967
769.284	15071.20646
769.474	15095.48574
769.665	14909.34361
769.855	15079.29956
770.046	15309.95267
770.236	14514.78556
770.426	14846.62102
770.617	15111.67192
770.807	15010.50813
770.998	15121.78828
771.188	14628.09822
771.378	14733.31413
771.569	14628.09822
771.759	14445.98664
771.949	14889.11057
772.139	14609.8875
772.33	14350.87944
772.52	14537.0437
772.71	14654.40244
772.9	14069.5817
773.09	14280.05258
773.281	14528.94985
773.471	14462.17476
773.661	14460.15125
773.851	14344.80865
774.041	14229.46061
774.231	14356.95022
774.421	14002.79272
774.611	14029.10384
774.802	13944.09716
774.992	13990.64898
775.182	14087.79643
775.372	13990.64898
775.562	13802.409
775.752	13996.72086
775.942	13778.1182
776.131	13865.15829
776.321	13792.28789
776.511	14002.79272
776.701	13727.51098
776.891	14014.93636
777.081	14186.96242
777.271	13988.62502
777.461	13938.02508
777.651	13907.66435
777.84	13804.43322
778.03	13654.63311
778.22	13567.57892
778.41	13533.16037
778.599	13614.14358
778.789	13907.66435
778.979	13650.58422
779.169	13808.48164
779.358	13707.26754
779.548	13946.12118
779.738	13804.43322
779.927	13940.04911
780.117	13810.50584
780.307	13950.16921
780.496	13875.27889
780.686	13869.20654
780.875	13719.41364
781.065	13261.82258
781.254	13330.67632
781.444	13601.99645
781.633	13454.19618
781.823	13717.3893
782.012	13759.89982
782.202	13725.48665
782.391	13407.62485
782.581	13336.75142
782.77	13095.7426
782.96	13330.67632
783.149	13186.88783
783.338	13275.99876
783.528	13178.78641
783.717	13371.17628
783.906	13411.67461
784.096	13334.72639
784.285	13024.84522
784.474	13089.66591
784.663	13162.58335
784.853	12909.37065
785.042	12945.8381
785.231	13083.58918
785.42	13030.92237
785.61	12957.99355
785.799	12710.79473
785.988	12649.99522
786.177	12652.02196
786.366	12658.10213
786.555	12609.45922
786.744	12854.66624
786.933	12822.24696
787.122	13020.79376
787.312	12765.50979
787.501	12384.43854
787.69	12540.54236
787.879	12878.97979
788.068	12455.39964
788.257	12633.78111
788.445	12374.30056
788.634	12575.00169
788.823	12396.60388
789.012	12862.77085
789.201	12449.31758
789.39	12583.1095
789.579	12366.19006
789.768	12520.27131
789.957	12570.94774
790.145	12609.45922
790.334	12577.02865
790.523	12680.39564
790.712	12453.3723
790.9	12283.05104
791.089	11978.77918
791.278	12218.15379
791.467	12197.87188
791.655	12175.56093
791.844	11919.93315
792.033	11936.16722
792.221	11635.74924
792.41	12276.96723
792.599	11757.5631
792.787	11893.55167
792.976	11934.13799
793.164	12019.35872
793.353	12072.10741
793.541	12043.70492
793.73	11942.25486
793.918	12031.53196
794.107	11865.13928
794.295	11988.92436
794.484	11966.6047
794.672	12163.39094
794.861	12212.06929
795.049	11997.04037
795.238	12274.93928
795.426	12187.73065
795.614	11865.13928
795.803	11928.05025
795.991	11950.3716
796.179	12068.05
796.368	11997.04037
796.556	11574.83015
796.744	11802.22028
796.932	11676.35742
797.121	11627.62717
797.309	11763.65296
797.497	11873.25727
797.685	11603.26008
797.874	11692.59969
798.062	11968.6338
798.25	11420.46406
798.438	11361.54651
798.626	11566.70697
798.814	11796.13091
799.002	11556.5528
799.19	11708.84139
799.378	11422.49555
799.566	11743.35313
799.755	11542.33656
799.943	11554.52194
800.131	11467.18592
800.318	11432.65286
800.506	11359.51472
800.694	11483.43581
800.882	11028.19563
801.07	11213.19945
801.258	11111.55999
801.446	11599.19877
801.634	11211.16692
801.822	11341.22818
802.01	11111.55999
802.197	11635.74924
802.385	11209.13438
802.573	11349.35563
802.761	11296.52433
802.949	11209.13438
803.136	11351.38747
803.324	11477.34218
803.512	11550.46018
803.699	11410.30645
803.887	11383.89552
804.075	11763.65296
804.262	11475.31095
804.45	11255.88021
804.638	11324.9728
804.825	11329.03671
805.013	11158.31743
805.201	11115.62608
805.388	11266.04162
805.576	11229.45932
805.763	11182.71038
805.951	11257.91251
806.138	11225.39442
806.326	11383.89552
806.513	11213.19945
806.701	11276.20278
806.888	11188.80839
807.075	11276.20278
807.263	11290.42797
807.45	11442.80994
807.638	11298.55643
807.825	11753.50315
808.012	11450.93542
808.2	11522.02686
808.387	11574.83015
808.574	11639.81022
808.761	11566.70697
808.949	11875.28675
809.136	11806.27981
809.323	11654.02337
809.51	11357.48292
809.698	11446.8727
809.885	11241.65379
810.072	11645.90162
810.259	11749.44317
810.446	11621.53552
810.633	11554.52194
810.82	11781.92208
811.008	11530.15085
811.195	11680.41804
811.382	11383.89552
811.569	11481.40461
811.756	11430.62142
811.943	11361.54651
812.13	11385.92719
812.317	11656.05378
812.504	11491.56053
812.691	11666.20572
812.878	11465.15465
813.064	11501.71621
813.251	11123.75813
813.438	11213.19945
813.625	11131.89001
813.812	11221.32947
813.999	11304.65267
814.186	11329.03671
814.372	11001.75918
814.559	11426.5585
814.746	11166.44858
814.933	11392.02214
815.12	11160.35023
815.306	11207.10182
815.493	10867.51412
815.68	11554.52194
815.866	11367.64181
816.053	11115.62608
816.24	11337.1644
816.426	11158.31743
816.613	11036.32954
816.799	11223.36195
816.986	11066.83017
817.173	11257.91251
817.359	11117.65911
817.546	11363.57829
817.732	11140.02171
817.919	11034.29608
818.105	10975.32085
818.292	11066.83017
818.478	11060.73024
818.665	11115.62608
818.851	11066.83017
819.037	11085.12937
819.224	11150.18611
819.41	11247.75089
819.597	11184.74306
819.783	11318.87687
819.969	11168.48135
820.156	11416.40104
820.342	11190.84103
820.528	11247.75089
820.714	11251.81557
820.901	11538.2747
821.087	11201.00411
821.273	11473.27971
821.459	11198.97151
821.646	11231.49176
821.832	11154.25179
822.018	11387.95885
822.204	11217.26448
822.39	11312.78084
822.576	10777.98961
822.762	10963.11791
822.948	10684.3713
823.134	10820.72004
823.32	10543.89549
823.507	10777.98961
823.693	10566.29415
823.879	10747.46468
824.065	10737.28911
824.25	10566.29415
824.436	10676.22937
824.622	10503.16675
824.808	10767.81493
824.994	10761.70998
825.18	10560.18557
825.366	10853.27309
825.552	10588.69129
825.738	10747.46468
825.923	10433.91618
826.109	10843.10058
826.295	10474.65361
826.481	10710.83122
826.667	10694.54844
826.852	10784.09427
827.038	10668.08725
827.224	10647.7311
827.409	10478.72706
827.595	10350.38819
827.781	9944.64754
827.966	10444.10102
828.152	10181.22639
828.338	10405.3969
828.523	10366.68807
828.709	10221.99681
828.894	9924.24379
829.08	10277.02822
829.266	10164.91668
829.451	10295.36984
829.637	9691.53605
829.822	10044.605
830.008	10378.91242
830.193	10246.45643
830.378	9809.95557
830.564	10444.10102
830.749	10024.20832
830.935	10260.72365
831.12	10181.22639
831.305	10615.15869
831.491	10158.80031
831.676	10215.88159
831.861	9936.48621
832.047	9950.76838
832.232	9844.65513
832.417	9920.16286
832.602	9730.33429
832.788	9856.901
832.973	9883.43189
833.158	9999.73041
833.343	9938.52657
833.528	10009.92979
833.714	9787.50061
833.899	9971.17024
834.084	9756.87727
834.269	10095.59049
834.454	9587.36585
834.639	10089.4727
834.824	9742.58522
835.009	9934.44584
835.194	9805.87299
835.379	9918.12238
835.564	9583.27991
835.749	9834.44982
835.934	9632.30697
836.119	9732.37615
836.304	9468.84806
836.489	9411.61329
836.674	9448.40853
836.859	9640.47728
837.044	9427.96738
837.228	9693.5782
837.413	9536.28715
837.598	9683.3673
837.783	9622.09375
837.968	9895.67608
838.152	9509.72232
838.337	9423.87895
838.522	9491.3297
838.707	9468.84806
838.891	9200.96023
839.076	9188.68371
839.261	9272.56117
839.445	9274.60661
839.63	9243.92327
839.815	9149.80403
839.999	8900.00667
840.184	9517.8964
840.368	9389.12472
840.553	9605.75177
840.737	9293.01481
840.922	9338.00696
841.106	9133.43179
841.291	9211.1902
841.475	9096.59024
841.66	9072.02611
841.844	8713.51004
842.029	8912.29791
842.213	8787.30689
842.397	8861.08018
842.582	8686.85532
842.766	8971.69653
842.951	8479.66129
843.135	8682.75432
843.319	8477.6089
843.504	8413.97534
843.688	8736.06159
843.872	8830.34416
844.056	8473.50406
844.241	8742.21163
844.425	8627.38353
844.609	8645.84197
844.793	8594.5648
844.977	8553.53464
845.161	8477.6089
845.346	8672.50149
845.53	8438.60987
845.714	8541.22412
845.898	8173.64178
846.082	8483.76601
846.266	8288.7067
846.45	8387.2848
846.634	8387.2848
846.818	8452.97874
847.002	8455.03135
847.186	8116.08595
847.37	8007.09783
847.554	8329.78636
847.738	8122.2534
847.922	8251.7283
848.106	8309.24751
848.29	8461.1891
848.473	8393.44444
848.657	8430.39867
848.841	8282.54407
849.025	8126.36493
849.209	8151.03243
849.392	7984.47052
849.576	7968.01274
849.76	7906.28439
849.944	7902.16851
850.127	8064.68353
850.311	7902.16851
850.495	8165.42047
850.678	7994.75596
850.862	8200.35881
851.046	7918.63154
851.229	8066.73987
851.413	7959.78336
851.596	7953.61111
851.78	7924.80484
851.964	8239.40075
852.147	7937.15087
852.331	8153.08792
852.514	7838.36179
852.698	7747.7631
852.881	7226.02013
853.065	7725.1071
853.248	7374.64139
853.431	7832.18589
853.615	7543.76691
853.798	7762.17924
853.982	7483.97083
854.165	7564.38205
854.348	7335.43294
854.532	7516.96401
854.715	7475.72168
854.898	7813.65706
855.081	7368.45111
855.265	7640.63952
855.448	7512.84016
855.631	7543.76691
855.814	7399.40057
855.997	7552.01322
856.181	7504.59221
856.364	7533.45853
856.547	7384.9581
856.73	7601.48393
856.913	7397.33743
857.096	7415.90495
857.279	7192.97768
857.462	7238.40959
857.645	7205.36926
857.828	7339.56051
858.011	7219.8251
858.194	7292.08808
858.377	6868.44528
858.56	7201.23882
858.743	6998.73818
858.926	7040.08229
859.109	6944.97738
859.292	7004.94037
859.475	6903.61253
859.658	6804.29985
859.841	6785.67289
860.023	6829.13294
860.206	6690.43946
860.389	6762.90408
860.572	6756.69393
860.755	6930.50071
860.937	6729.78088
861.12	6911.88622
861.303	6839.47909
861.486	6882.92671
861.668	6597.2293
861.851	6812.57791
862.034	6425.18555
862.216	6559.93216
862.399	6468.7298
862.581	6752.55371
862.764	6572.36537
862.947	6601.37296
863.129	6342.21574
863.312	6557.85987
863.494	6294.49118
863.677	6489.46155
863.859	6535.06323
864.042	6435.55416
864.224	6215.6148
864.406	6547.49811
864.589	6132.55046
864.771	6447.99572
864.954	5991.25476
865.136	6392.0021
865.318	6333.9167
865.501	6458.36305
865.683	6167.8574
865.865	6302.79199
866.048	6174.08733
866.23	6232.22317
866.412	6093.08173
866.594	6252.98152
866.777	5949.67647
866.959	6161.62725
867.141	5860.25122
867.323	6076.46078
867.505	5995.41207
867.687	6140.85859
867.869	5941.35968
868.052	6047.37049
868.234	5783.26899
868.416	6093.08173
868.598	6014.11879
868.78	6070.22753
868.962	5854.01062
869.144	6134.62753
869.326	5874.81179
869.508	6057.76041
869.69	5658.36426
869.872	5976.70343
870.054	5718.74548
870.236	6140.85859
870.417	6001.64785
870.599	6215.6148
870.781	5966.30892
870.963	5972.54569
871.145	5724.99069
871.327	5801.99737
871.508	5706.25444
871.69	6093.08173
871.872	5668.77623
872.054	5870.65174
872.235	5777.02577
872.417	6032.82361
872.599	5874.81179
872.78	6041.13626
872.962	5758.29484
873.144	5960.07193
873.325	5808.23974
873.507	5641.70387
873.689	5702.09058
873.87	5903.92947
874.052	5656.28179
874.233	5864.4115
874.415	5391.61717
874.596	5854.01062
874.778	5362.41832
874.959	5579.21399
875.141	5616.71047
875.322	5829.0461
875.503	5779.10686
875.685	5974.62457
875.866	5491.69253
876.048	5777.02577
876.229	5377.01832
876.41	5643.7865
876.592	5702.09058
876.773	5704.17252
876.954	5335.30099
877.136	5675.02313
877.317	5625.04198
877.498	5656.28179
877.679	5329.04259
877.86	5566.71347
878.042	5268.53378
878.223	5583.38065
878.404	5454.17062
878.585	5727.07237
878.766	5625.04198
878.947	5695.8446
879.128	5766.61993
879.309	5914.32751
879.49	5856.09084
879.672	5874.81179
879.853	5458.34009
880.034	5654.1993
880.215	5595.88004
880.396	6066.07192
880.576	5545.87738
880.757	5733.31729
880.938	5568.79695
881.119	5749.96937
881.3	5495.86116
881.481	5687.51629
881.662	5710.41822
881.843	5953.83472
882.023	5816.56257
882.204	5976.70343
882.385	5575.04725
882.566	5793.67388
882.747	5764.53869
882.927	5810.32048
883.108	5639.62122
883.289	5878.97174
883.469	5508.36649
883.65	5818.64321
883.831	5437.49176
884.011	5868.57169
884.192	5708.33634
884.373	6001.64785
884.553	5468.76338
884.734	5851.93037
884.914	5866.4916
885.095	5939.28043
885.275	5529.20682
885.456	5966.30892
885.636	5804.07818
885.817	5885.21149
885.997	5862.33137
886.178	5964.22994
886.358	5801.99737
886.538	5783.26899
886.719	5560.46289
886.899	5903.92947
887.08	5903.92947
887.26	5862.33137
887.44	5650.03425
887.621	5924.72497
887.801	5733.31729
887.981	5733.31729
888.161	5291.48771
888.342	5556.29572
888.522	5441.66162
888.702	5841.52878
888.882	5443.74651
889.062	5808.23974
889.242	5606.29555
889.423	5860.25122
889.603	5595.88004
889.783	5816.56257
889.963	5685.43416
890.143	5749.96937
890.323	5410.38542
890.503	5670.85855
890.683	5708.33634
890.863	5808.23974
891.043	5537.54229
891.223	5822.80444
891.403	5562.54644
891.583	5797.83567
891.763	5195.47973
891.943	5587.5472
892.122	5500.0297
892.302	5801.99737
892.482	5741.64352
892.662	5633.37312
892.842	5612.54457
893.022	5797.83567
893.201	5485.43941
893.381	5874.81179
893.561	5533.3746
893.741	5464.59413
893.92	5441.66162
894.1	5560.46289
894.28	5293.57429
894.459	5251.83823
894.639	5040.9287
894.819	5410.38542
894.998	5132.83924
895.178	5408.30015
895.357	5347.81718
895.537	5481.27054
895.716	5441.66162
895.896	5399.95885
896.075	5053.4646
896.255	5201.74262
896.434	5216.35523
896.614	5418.72626
896.793	5086.88958
896.973	5270.62062
897.152	4815.14087
897.331	5151.63358
897.511	5061.8214
897.69	5337.38708
897.87	5040.9287
898.049	5212.18032
898.228	4957.33482
898.407	4961.51539
898.587	4752.37472
898.766	5003.31602
898.945	4986.59688
899.124	5015.85442
899.304	4700.05402
899.483	4955.2445
899.662	4624.68748
899.841	4840.2416
900.02	4563.95446
900.199	4572.33254
900.378	4429.85698
900.557	4813.049
900.737	4622.59355
900.916	4708.42628
901.095	4536.72323
901.274	4660.28086
901.453	4396.31854
901.632	4517.86865
901.811	4325.03088
901.989	4486.44037
902.168	4505.29793
902.347	4649.81289
902.526	4331.32198
902.705	4499.01227
902.884	4346.00044
903.063	4559.76528
903.242	4186.57795
903.42	4312.44811
903.599	4209.65989
903.778	4534.62836
903.957	4136.20849
904.135	4390.02946
904.314	4123.61423
904.493	4213.85633
904.672	3856.86167
904.85	3959.82092
905.029	3852.65822
905.207	4031.23343
905.386	3758.05993
905.565	4043.83317
905.743	3953.51869
905.922	4001.83114
906.1	3671.83603
906.279	3770.67533
906.457	3535.07421
906.636	3972.42485
906.814	3598.20488
906.993	3583.47588
907.171	3509.81729
907.35	3499.2928
907.528	3394.02308
907.707	3572.95462
907.885	3208.64228
908.063	3383.49366
908.242	3309.7755
908.42	3572.95462
908.598	3139.091
908.777	3330.84
908.955	3295.02933
909.133	3316.09503
909.311	3177.03026
909.49	3147.5224
909.668	2805.85395
909.846	3126.44342
910.024	3025.24224
910.202	3337.15901
910.38	3050.54591
910.559	3118.01137
910.737	3195.99792
910.915	3328.73363
911.093	3130.65934
911.271	3394.02308
911.449	3295.02933
911.627	3261.32068
911.805	3286.60258
911.983	3198.10535
912.161	3099.03835
912.339	3514.02696
912.517	3337.15901
912.695	3356.11511
912.872	3280.28233
913.05	3459.29559
913.228	3282.3891
913.406	3383.49366
913.584	3450.87429
913.762	3299.24261
913.939	3227.6077
914.117	3421.3975
914.295	3162.27673
914.473	3522.44608
914.65	3345.58412
914.828	3362.4335
915.006	3126.44342
915.184	3284.49584
915.361	3044.2202
915.539	3410.86923
915.716	3065.30536
915.894	3284.49584
916.072	3227.6077
916.249	3324.52083
916.427	3050.54591
916.604	3219.17879
916.782	3050.54591
916.959	3149.63021
917.137	3033.67705
917.314	3189.67551
917.492	2888.14295
917.669	3134.8752
917.847	2987.2826
918.024	3109.57908
918.201	2898.69126
918.379	3136.98311
918.556	2826.95572
918.733	3086.38895
918.911	2706.65741
919.088	2926.11516
919.265	2658.10385
919.442	3061.08845
919.62	2417.35274
919.797	2932.44341
919.974	2696.10287
920.151	2814.29482
920.328	2613.76651
920.506	2723.544
920.683	2748.87231
920.86	2708.76828
921.037	2611.65507
921.214	2797.41285
921.391	2592.65158
921.568	2719.32243
921.745	2632.7689
921.922	2867.04525
922.099	2683.43699
922.276	2670.77065
922.453	2611.65507
922.63	2641.21409
922.807	2463.82502
922.984	2476.49836
923.161	2328.61893
923.338	2687.659
923.514	2484.94704
923.691	2421.57771
923.868	2265.22702
924.045	2362.42439
924.222	2375.10078
924.399	2527.18771
924.575	2552.52991
924.752	2476.49836
924.929	2227.18788
925.105	2468.04951
925.282	2157.44217
925.459	2299.03709
925.635	2309.60225
925.812	2362.42439
925.989	2098.25705
926.165	2256.77413
926.342	2062.32033
926.518	2282.13235
926.695	2155.32852
926.871	2328.61893
927.048	1973.52689
927.224	2248.32109
927.401	1853.0044
927.577	2098.25705
927.754	1778.99126
927.93	1893.18053
928.107	1770.53228
928.283	1941.81222
928.459	1918.55396
928.636	2030.60975
928.812	1719.77715
928.988	1840.31682
929.165	1607.68664
929.341	1550.58156
929.517	1542.12146
929.693	1781.10599
929.87	1554.81161
930.046	1622.49145
930.222	1444.8294
930.398	1622.49145
930.574	1478.67023
930.751	1658.44552
930.927	1497.70566
931.103	1702.85834
931.279	1495.59062
931.455	1660.56045
931.631	1320.04245
931.807	1639.4111
931.983	1421.56384
932.159	1470.21003
932.335	1281.9728
932.511	1520.97113
932.687	1385.60808
932.863	1478.67023
933.039	1243.9039
933.215	1472.32508
933.391	1165.65421
933.566	1292.54764
933.742	1205.83591
933.918	1377.14793
934.094	1089.52453
934.27	1188.91714
934.445	922.48709
934.621	1307.35249
934.797	799.88117
934.973	954.19992
935.148	914.03062
935.324	939.40039
935.5	842.15579
935.675	827.35926
935.851	778.74526
936.027	732.24978
936.202	675.19421
936.378	717.45683
936.553	573.78333
936.729	624.48519
936.904	567.44613
937.08	668.85521
937.255	428.0599
937.431	514.64087
937.606	413.28038
937.782	493.52124
937.957	398.50165
938.133	371.05758
938.308	362.61382
938.483	362.61382
938.659	299.2945
938.834	299.2945
939.009	309.84661
939.185	316.17809
939.36	297.18413
939.535	375.27956
939.71	297.18413
939.886	322.50973
940.061	193.79933
940.236	278.19166
940.411	174.81543
940.586	206.45618
940.761	229.66226
940.937	198.0182
941.112	244.431
941.287	202.23715
941.462	297.18413
941.637	210.67529
941.812	229.66226
941.987	126.30869
942.162	233.8818
942.337	204.34665
942.512	117.87389
942.687	235.99161
942.862	195.90876
943.037	155.83321
943.212	128.41744
943.386	126.30869
943.561	206.45618
943.736	170.59702
943.911	143.17933
944.086	172.70621
944.26	37.76098
944.435	145.28826
944.61	168.48784
944.785	136.85268
944.959	145.28826
945.134	189.58055
945.309	149.50617
945.483	160.05133
945.658	111.54801
945.833	246.5409
946.007	94.67998
946.182	162.16043
946.357	94.67998
946.531	151.61516
946.706	145.28826
946.88	210.67529
947.055	176.92467
947.229	143.17933
947.404	200.12766
947.578	88.35483
947.752	176.92467
947.927	117.87389
948.101	151.61516
948.276	248.65082
948.45	155.83321
948.624	187.47118
948.799	105.22233
948.973	151.61516
949.147	155.83321
949.321	143.17933
949.496	202.23715
949.67	198.0182
949.844	141.07043
950.018	153.72418
950.193	202.23715
950.367	128.41744
950.541	202.23715
950.715	185.36184
950.889	208.56572
951.063	219.11374
951.237	134.74384
951.411	115.76524
951.585	227.55252
951.759	183.25252
951.933	136.85268
952.107	195.90876
952.281	101.00532
952.455	75.70514
952.629	134.74384
952.803	153.72418
952.977	103.11382
953.151	113.65661
953.325	168.48784
953.499	113.65661
953.672	132.63502
953.846	122.09124
954.02	136.85268
954.194	153.72418
954.368	113.65661
954.541	227.55252
954.715	181.14322
954.889	126.30869
955.062	195.90876
955.236	219.11374
955.41	119.98255
955.583	98.89685
955.757	164.26954
955.93	214.89448
956.104	206.45618
956.278	147.39721
956.451	168.48784
956.625	101.00532
956.798	179.03394
956.972	202.23715
957.145	128.41744
957.319	227.55252
957.492	94.67998
957.665	155.83321
957.839	128.41744
958.012	231.77202
958.185	145.28826
958.359	297.18413
958.532	117.87389
958.705	170.59702
958.879	189.58055
959.052	122.09124
959.225	147.39721
959.398	200.12766
959.572	153.72418
959.745	153.72418
959.918	111.54801
960.091	134.74384
960.264	41.97663
960.438	119.98255
960.611	252.87071
960.784	143.17933
960.957	176.92467
961.13	153.72418
961.303	290.85314
961.476	134.74384
961.649	160.05133
961.822	160.05133
961.995	160.05133
962.168	149.50617
962.341	229.66226
962.514	128.41744
962.686	77.81336
962.859	189.58055
963.032	179.03394
963.205	117.87389
963.378	126.30869
963.551	138.96154
963.723	94.67998
963.896	223.33309
964.069	223.33309
964.242	75.70514
964.414	126.30869
964.587	176.92467
964.76	94.67998
964.932	101.00532
965.105	122.09124
965.278	153.72418
965.45	101.00532
965.623	130.52622
965.795	128.41744
965.968	254.98069
966.14	153.72418
966.313	109.43943
966.485	109.43943
966.658	124.19996
966.83	119.98255
967.003	170.59702
967.175	111.54801
967.348	92.57157
967.52	193.79933
967.692	210.67529
967.865	58.84015
968.037	155.83321
968.209	122.09124
968.382	86.24649
968.554	151.61516
968.726	88.35483
968.898	119.98255
969.071	75.70514
969.243	122.09124
969.415	71.48875
969.587	176.92467
969.759	183.25252
969.932	122.09124
970.104	-17.03383
970.276	117.87389
970.448	143.17933
970.62	92.57157
970.792	109.43943
970.964	145.28826
971.136	128.41744
971.308	147.39721
971.48	67.27246
971.652	86.24649
971.824	164.26954
971.996	46.19237
972.168	96.7884
972.339	119.98255
972.511	84.13817
972.683	71.48875
972.855	46.19237
973.027	143.17933
973.199	82.02988
973.37	103.11382
973.542	92.57157
973.714	107.33087
973.886	126.30869
974.057	92.57157
974.229	96.7884
974.401	119.98255
974.572	117.87389
974.744	35.65319
974.915	67.27246
975.087	84.13817
975.259	126.30869
975.43	58.84015
975.602	94.67998
975.773	71.48875
975.945	69.38059
976.116	143.17933
976.288	50.4082
976.459	94.67998
976.63	1.93177
976.802	71.48875
976.973	69.38059
977.145	77.81336
977.316	63.05626
977.487	10.36155
977.659	44.08449
977.83	18.79172
978.001	60.94819
978.172	29.32996
978.344	46.19237
978.515	4.03918
978.686	33.54542
978.857	-4.39031
979.028	71.48875
979.2	69.38059
979.371	69.38059
979.542	18.79172
979.713	46.19237
979.884	35.65319
980.055	52.51615
980.226	20.89932
980.397	75.70514
980.568	56.73213
980.739	101.00532
980.91	67.27246
981.081	69.38059
981.252	113.65661
981.423	67.27246
981.594	86.24649
981.765	41.97663
981.936	-12.81942
982.106	63.05626
982.277	6.14661
982.448	25.11459
982.619	35.65319
982.79	-17.03383
982.96	12.46906
983.131	16.68414
983.302	41.97663
983.472	63.05626
983.643	10.36155
983.814	-31.78348
983.984	79.92161
984.155	56.73213
984.326	-50.74553
984.496	63.05626
984.667	-25.46235
984.837	92.57157
985.008	48.30027
985.178	54.62413
985.349	25.11459
985.519	10.36155
985.69	-38.10439
985.86	75.70514
986.031	-14.92664
986.201	-23.35526
986.371	-19.141
986.542	50.4082
986.712	33.54542
986.882	-4.39031
987.053	31.43768
987.223	134.74384
987.393	-4.39031
987.563	16.68414
987.734	50.4082
987.904	-2.28298
988.074	12.46906
988.244	46.19237
988.414	39.86879
988.585	75.70514
988.755	-6.49763
988.925	10.36155
989.095	25.11459
989.265	27.22227
989.435	41.97663
989.605	-50.74553
989.775	44.08449
989.945	10.36155
990.115	23.00695
990.285	92.57157
990.455	54.62413
990.625	-0.17561
990.795	63.05626
990.965	44.08449
991.134	-12.81942
991.304	-50.74553
991.474	122.09124
991.644	6.14661
991.814	52.51615
991.984	37.76098
992.153	8.25407
992.323	-17.03383
992.493	-14.92664
992.662	12.46906
992.832	16.68414
993.002	1.93177
993.171	-2.28298
993.341	25.11459
993.511	-27.56942
993.68	-59.17246
993.85	29.32996
994.019	92.57157
994.189	-21.24814
994.358	-63.38577
994.528	-23.35526
994.697	75.70514
994.867	58.84015
995.036	-4.39031
995.206	29.32996
995.375	109.43943
995.544	-10.71218
995.714	-4.39031
995.883	-65.49239
996.052	18.79172
996.222	41.97663
996.391	-54.95905
996.56	46.19237
996.73	-6.49763
996.899	33.54542
997.068	29.32996
997.237	10.36155
997.406	8.25407
997.576	94.67998
997.745	-48.63874
997.914	46.19237
998.083	-52.8523
998.252	41.97663
998.421	-57.06577
998.59	10.36155
998.759	-12.81942
998.928	-0.17561
999.097	-54.95905
999.266	-21.24814
999.435	-25.46235
999.604	-21.24814
999.773	-33.89048
999.942	65.16435
1000.111	-0.17561
1000.28	-6.49763
1000.448	-6.49763
1000.617	29.32996
1000.786	23.00695
1000.955	-17.03383
1001.124	25.11459
1001.292	60.94819
1001.461	-59.17246
1001.63	27.22227
1001.798	33.54542
1001.967	25.11459
1002.136	25.11459
1002.304	-10.71218
1002.473	8.25407
1002.642	10.36155
1002.81	-44.42508
1002.979	-38.10439
1003.147	-0.17561
1003.316	54.62413
1003.484	23.00695
1003.653	-23.35526
1003.821	35.65319
1003.99	35.65319
1004.158	4.03918
1004.327	10.36155
1004.495	-2.28298
1004.663	-14.92664
1004.832	37.76098
1005	18.79172
1005.168	-40.21131
1005.337	20.89932
1005.505	-29.67646
1005.673	16.68414
1005.842	-19.141
1006.01	-21.24814
1006.178	10.36155
1006.346	-44.42508
1006.514	16.68414
1006.683	4.03918
1006.851	-14.92664
1007.019	-17.03383
1007.187	-21.24814
1007.355	54.62413
1007.523	8.25407
1007.691	16.68414
1007.859	-46.53192
1008.027	-8.60492
1008.195	-59.17246
1008.363	-0.17561
1008.531	-29.67646
1008.699	33.54542
1008.867	-8.60492
1009.035	18.79172
1009.203	52.51615
1009.37	-38.10439
1009.538	-50.74553
1009.706	33.54542
1009.874	-23.35526
1010.042	29.32996
1010.209	6.14661
1010.377	-57.06577
1010.545	-4.39031
1010.713	-42.31821
1010.88	-33.89048
1011.048	75.70514
1011.216	-38.10439
1011.383	-33.89048
1011.551	-0.17561
1011.718	-8.60492
1011.886	-35.99745
1012.054	-71.81209
1012.221	4.03918
1012.389	-25.46235
1012.556	25.11459
1012.724	-2.28298
1012.891	-90.7698
1013.058	46.19237
1013.226	-12.81942
1013.393	10.36155
1013.561	29.32996
1013.728	-17.03383
1013.895	12.46906
1014.063	12.46906
1014.23	-14.92664
1014.397	4.03918
1014.565	12.46906
1014.732	-57.06577
1014.899	-21.24814
1015.066	-21.24814
1015.233	-65.49239
1015.401	-59.17246
1015.568	-12.81942
1015.735	-23.35526
1015.902	-42.31821
1016.069	29.32996
1016.236	-29.67646
1016.403	35.65319
1016.57	-6.49763
1016.737	88.35483
1016.904	-17.03383
1017.071	96.7884
1017.238	-27.56942
1017.405	-0.17561
1017.572	-12.81942
1017.739	-40.21131
1017.906	27.22227
1018.073	-14.92664
1018.24	-17.03383
1018.407	-38.10439
1018.573	-48.63874
1018.74	-52.8523
1018.907	12.46906
1019.074	50.4082
1019.241	-0.17561
1019.407	-33.89048
1019.574	41.97663
1019.741	-42.31821
1019.907	-2.28298
1020.074	-99.19478
1020.241	-4.39031
1020.407	-31.78348
1020.574	1.93177
1020.74	-23.35526
1020.907	18.79172
1021.073	-33.89048
1021.24	-0.17561
1021.406	-6.49763
1021.573	8.25407
1021.739	-65.49239
1021.906	-21.24814
1022.072	-25.46235
1022.239	-25.46235
1022.405	14.57659
1022.571	-31.78348
1022.738	-59.17246
1022.904	92.57157
1023.07	20.89932
1023.237	8.25407
1023.403	-21.24814
1023.569	-27.56942
1023.735	12.46906
1023.902	-101.30096
1024.068	-33.89048
1024.234	-29.67646
1024.4	20.89932
1024.566	-25.46235
1024.732	-57.06577
1024.898	-14.92664
1025.065	-17.03383
1025.231	23.00695
1025.397	-25.46235
1025.563	-14.92664
1025.729	-4.39031
1025.895	-17.03383
1026.061	-67.59898
1026.227	-4.39031
1026.392	10.36155
1026.558	33.54542
1026.724	-46.53192
1026.89	-8.60492
1027.056	35.65319
1027.222	-50.74553
1027.388	-44.42508
1027.553	10.36155
1027.719	-46.53192
1027.885	84.13817
1028.051	-38.10439
1028.216	-17.03383
1028.382	-19.141
1028.548	25.11459
1028.713	1.93177
1028.879	48.30027
1029.045	-42.31821
1029.21	-8.60492
1029.376	-166.57927
1029.541	-23.35526
1029.707	41.97663
1029.873	33.54542
1030.038	-31.78348
1030.204	-44.42508
1030.369	-17.03383
1030.534	37.76098
1030.7	-27.56942
1030.865	-84.4508
1031.031	-54.95905
1031.196	50.4082
1031.361	-52.8523
1031.527	-14.92664
1031.692	-38.10439
1031.857	-31.78348
1032.023	-38.10439
1032.188	-8.60492
1032.353	1.93177
1032.518	-42.31821
1032.684	-4.39031
1032.849	-92.87609
1033.014	20.89932
1033.179	-97.08857
1033.344	12.46906
1033.509	10.36155
1033.674	-92.87609
1033.839	-0.17561
1034.004	-59.17246
1034.17	10.36155
1034.335	-17.03383
1034.5	-12.81942
1034.664	-50.74553
1034.829	-0.17561
1034.994	8.25407
1035.159	18.79172
1035.324	25.11459
1035.489	-0.17561
1035.654	-23.35526
1035.819	-31.78348
1035.984	-42.31821
1036.148	-90.7698
1036.313	-25.46235
1036.478	-33.89048
1036.643	39.86879
1036.807	-80.238
1036.972	12.46906
1037.137	-35.99745
1037.301	52.51615
1037.466	-31.78348
1037.631	-23.35526
1037.795	-6.49763
1037.96	-50.74553
1038.124	-76.0251
1038.289	4.03918
1038.454	-25.46235
1038.618	-19.141
1038.783	-33.89048
1038.947	-8.60492
1039.111	12.46906
1039.276	-8.60492
1039.44	-63.38577
1039.605	25.11459
1039.769	-14.92664
1039.933	-17.03383
1040.098	25.11459
1040.262	33.54542
1040.426	18.79172
1040.591	-25.46235
1040.755	-109.72541
1040.919	8.25407
1041.083	-65.49239
1041.248	-61.27913
1041.412	1.93177
1041.576	-29.67646
1041.74	29.32996
1041.904	-21.24814
1042.068	16.68414
1042.232	-65.49239
1042.397	25.11459
1042.561	-33.89048
1042.725	8.25407
1042.889	-8.60492
1043.053	-17.03383
1043.217	-14.92664
1043.381	10.36155
1043.544	-8.60492
1043.708	12.46906
1043.872	-6.49763
1044.036	-33.89048
1044.2	12.46906
1044.364	-109.72541
1044.528	23.00695
1044.691	8.25407
1044.855	18.79172
1045.019	-6.49763
1045.183	-6.49763
1045.346	46.19237
1045.51	-33.89048
1045.674	-33.89048
1045.837	-8.60492
1046.001	-71.81209
1046.165	-35.99745
1046.328	-21.24814
1046.492	-25.46235
1046.655	-17.03383
1046.819	16.68414
1046.983	-0.17561
1047.146	44.08449
1047.31	-17.03383
1047.473	16.68414
1047.636	-57.06577
1047.8	-59.17246
1047.963	-35.99745
1048.127	16.68414
1048.29	4.03918
