Data from mixed_try1_USB4F045381__12__00077.txt Node

Date: Thu Apr 03 19:52:13 EDT 2025
User: mmckonesweet
Spectrometer: USB4F04538
Trigger mode: 4
Integration Time (sec): 2.700000E-3
Scans to average: 1
Electric dark correction enabled: true
Nonlinearity correction enabled: true
Boxcar width: 0
XAxis mode: Wavelengths
Number of Pixels in Spectrum: 3648
>>>>>Begin Spectral Data<<<<<
345.52	-5.26836
345.736	-5.26836
345.952	-5.26836
346.168	-26.3403
346.384	9.48343
346.6	-64.26353
346.816	-9.48295
347.032	47.42198
347.248	-1.05368
347.464	7.37596
347.68	-91.64742
347.896	24.2364
348.112	-13.69743
348.328	1.05369
348.544	51.63784
348.76	32.66719
348.975	15.80599
349.191	-15.80464
349.407	45.31408
349.623	-11.5902
349.839	1.05369
350.055	7.37596
350.27	-57.94356
350.486	11.59093
350.702	36.88273
350.918	-17.91182
351.133	3.16109
351.349	-1.05368
351.565	7.37596
351.781	-47.40976
351.996	41.09836
352.212	-83.22208
352.428	1.05369
352.644	26.34407
352.859	-20.01897
353.075	38.99053
353.291	-43.19607
353.506	34.77495
353.722	-64.26353
353.938	11.59093
354.153	32.66719
354.369	-5.26836
354.584	15.80599
354.8	-22.12611
355.016	-1.05368
355.231	-34.76838
355.447	57.9618
355.662	3.16109
355.878	32.66719
356.093	-15.80464
356.309	-47.40976
356.524	-13.69743
356.74	-17.91182
356.955	-9.48295
357.171	85.36802
357.386	7.37596
357.602	-9.48295
357.817	-15.80464
358.033	-22.12611
358.248	3.16109
358.464	15.80599
358.679	-1.05368
358.895	-7.37567
359.11	-60.05024
359.325	1.05369
359.541	-36.87534
359.756	-76.90279
359.972	26.34407
360.187	-24.23321
360.402	-9.48295
360.618	-3.16104
360.833	24.2364
361.048	20.02115
361.264	-9.48295
361.479	-7.37567
361.694	17.91356
361.909	-20.01897
362.125	-30.55439
362.34	15.80599
362.555	-15.80464
362.77	1.05369
362.986	-26.3403
363.201	7.37596
363.416	-32.6614
363.631	-22.12611
363.847	26.34407
364.062	53.7458
364.277	1.05369
364.492	-24.23321
364.707	-15.80464
364.922	1.05369
365.138	-32.6614
365.353	49.5299
365.568	-34.76838
365.783	-9.48295
365.998	66.39408
366.213	7.37596
366.428	-43.19607
366.643	-64.26353
366.858	-24.23321
367.073	-15.80464
367.288	38.99053
367.503	-51.62336
367.718	28.45175
367.933	-15.80464
368.148	26.34407
368.363	-68.47672
368.578	-20.01897
368.793	83.25972
369.008	-41.08919
369.223	-68.47672
369.438	68.5022
369.653	1.05369
369.868	28.45175
370.083	45.31408
370.298	49.5299
370.513	41.09836
370.728	-7.37567
370.943	36.88273
371.157	34.77495
371.372	15.80599
371.587	-28.44736
371.802	-1.05368
372.017	49.5299
372.232	79.04317
372.446	38.99053
372.661	9.48343
372.876	7.37596
373.091	70.61035
373.306	-9.48295
373.52	49.5299
373.735	-26.3403
373.95	45.31408
374.165	24.2364
374.379	36.88273
374.594	-26.3403
374.809	-34.76838
375.023	-49.51657
375.238	43.20621
375.453	-15.80464
375.667	22.12877
375.882	-43.19607
376.097	15.80599
376.311	-13.69743
376.526	68.5022
376.741	11.59093
376.955	17.91356
377.17	17.91356
377.384	83.25972
377.599	-76.90279
377.813	-45.30293
378.028	41.09836
378.242	36.88273
378.457	-34.76838
378.672	-9.48295
378.886	34.77495
379.101	-74.79631
379.315	-30.55439
379.53	20.02115
379.744	49.5299
379.958	51.63784
380.173	-1.05368
380.387	43.20621
380.602	9.48343
380.816	3.16109
381.031	26.34407
381.245	64.28597
381.459	-66.37014
381.674	15.80599
381.888	32.66719
382.103	66.39408
382.317	-15.80464
382.531	24.2364
382.746	11.59093
382.96	32.66719
383.174	62.17789
383.388	-24.23321
383.603	9.48343
383.817	-1.05368
384.031	7.37596
384.246	-45.30293
384.46	-32.6614
384.674	51.63784
384.888	47.42198
385.103	26.34407
385.317	32.66719
385.531	-30.55439
385.745	74.82672
385.959	-22.12611
386.174	-7.37567
386.388	-9.48295
386.602	17.91356
386.816	7.37596
387.03	87.47635
387.244	68.5022
387.458	-24.23321
387.672	11.59093
387.887	34.77495
388.101	-34.76838
388.315	9.48343
388.529	-47.40976
388.743	-43.19607
388.957	24.2364
389.171	7.37596
389.385	49.5299
389.599	62.17789
389.813	3.16109
390.027	11.59093
390.241	95.90989
390.455	20.02115
390.669	-24.23321
390.883	-9.48295
391.097	41.09836
391.311	17.91356
391.525	-11.5902
391.738	30.55946
391.952	-47.40976
392.166	41.09836
392.38	1.05369
392.594	7.37596
392.808	17.91356
393.022	-64.26353
393.236	60.06984
393.449	-20.01897
393.663	30.55946
393.877	60.06984
394.091	36.88273
394.305	-22.12611
394.518	7.37596
394.732	-15.80464
394.946	24.2364
395.16	-17.91182
395.373	-43.19607
395.587	28.45175
395.801	15.80599
396.015	-24.23321
396.228	-38.98228
396.442	20.02115
396.656	-32.6614
396.869	102.23527
397.083	-26.3403
397.297	36.88273
397.51	20.02115
397.724	34.77495
397.938	-1.05368
398.151	15.80599
398.365	-53.73012
398.578	5.26851
398.792	47.42198
399.005	-1.05368
399.219	-7.37567
399.433	49.5299
399.646	-38.98228
399.86	57.9618
400.073	15.80599
400.287	-119.02692
400.5	17.91356
400.714	-3.16104
400.927	60.06984
401.141	-30.55439
401.354	-41.08919
401.567	-20.01897
401.781	-9.48295
401.994	-66.37014
402.208	49.5299
402.421	-7.37567
402.635	-26.3403
402.848	41.09836
403.061	51.63784
403.275	43.20621
403.488	17.91356
403.701	28.45175
403.915	1.05369
404.128	7.37596
404.341	3.16109
404.555	-22.12611
404.768	32.66719
404.981	22.12877
405.195	-51.62336
405.408	74.82672
405.621	-13.69743
405.834	15.80599
406.048	-55.83685
406.261	15.80599
406.474	34.77495
406.687	7.37596
406.9	13.69845
407.114	-22.12611
407.327	22.12877
407.54	-32.6614
407.753	32.66719
407.966	-15.80464
408.179	-26.3403
408.392	-17.91182
408.605	-3.16104
408.819	24.2364
409.032	36.88273
409.245	-93.7537
409.458	15.80599
409.671	-55.83685
409.884	20.02115
410.097	53.7458
410.31	-74.79631
410.523	28.45175
410.736	32.66719
410.949	34.77495
411.162	-5.26836
411.375	83.25972
411.588	68.5022
411.801	74.82672
412.014	17.91356
412.227	36.88273
412.44	66.39408
412.653	-49.51657
412.865	-66.37014
413.078	20.02115
413.291	3.16109
413.504	72.71852
413.717	-116.92096
413.93	-57.94356
414.143	-17.91182
414.356	17.91356
414.568	24.2364
414.781	-11.5902
414.994	83.25972
415.207	3.16109
415.42	-47.40976
415.632	-1.05368
415.845	79.04317
416.058	-43.19607
416.271	41.09836
416.483	41.09836
416.696	-13.69743
416.909	41.09836
417.121	15.80599
417.334	-51.62336
417.547	-17.91182
417.759	41.09836
417.972	15.80599
418.185	-51.62336
418.397	79.04317
418.61	-3.16104
418.823	-9.48295
419.035	43.20621
419.248	-9.48295
419.46	-47.40976
419.673	-30.55439
419.885	41.09836
420.098	49.5299
420.311	3.16109
420.523	15.80599
420.736	3.16109
420.948	34.77495
421.161	13.69845
421.373	-26.3403
421.586	-3.16104
421.798	53.7458
422.01	34.77495
422.223	32.66719
422.435	49.5299
422.648	57.9618
422.86	9.48343
423.073	79.04317
423.285	24.2364
423.497	60.06984
423.71	26.34407
423.922	-20.01897
424.134	-9.48295
424.347	7.37596
424.559	41.09836
424.771	-11.5902
424.984	11.59093
425.196	32.66719
425.408	-7.37567
425.621	-30.55439
425.833	22.12877
426.045	-47.40976
426.257	17.91356
426.47	74.82672
426.682	1.05369
426.894	36.88273
427.106	32.66719
427.318	11.59093
427.531	15.80599
427.743	60.06984
427.955	3.16109
428.167	45.31408
428.379	15.80599
428.591	1.05369
428.804	-11.5902
429.016	41.09836
429.228	3.16109
429.44	49.5299
429.652	-22.12611
429.864	49.5299
430.076	11.59093
430.288	-45.30293
430.5	43.20621
430.712	-3.16104
430.924	28.45175
431.136	17.91356
431.348	-20.01897
431.56	3.16109
431.772	43.20621
431.984	-17.91182
432.196	43.20621
432.408	57.9618
432.62	34.77495
432.832	-11.5902
433.044	53.7458
433.256	13.69845
433.468	-9.48295
433.679	-22.12611
433.891	62.17789
434.103	34.77495
434.315	-7.37567
434.527	57.9618
434.739	-26.3403
434.95	-9.48295
435.162	-34.76838
435.374	13.69845
435.586	-9.48295
435.798	-66.37014
436.009	41.09836
436.221	76.93493
436.433	62.17789
436.645	-7.37567
436.856	85.36802
437.068	-26.3403
437.28	100.12679
437.491	-64.26353
437.703	49.5299
437.915	34.77495
438.126	-30.55439
438.338	9.48343
438.55	32.66719
438.761	57.9618
438.973	43.20621
439.184	-26.3403
439.396	15.80599
439.608	-60.05024
439.819	-36.87534
440.031	51.63784
440.242	87.47635
440.454	22.12877
440.665	-76.90279
440.877	-24.23321
441.088	3.16109
441.3	15.80599
441.511	20.02115
441.723	68.5022
441.934	-30.55439
442.146	-43.19607
442.357	9.48343
442.569	15.80599
442.78	47.42198
442.991	57.9618
443.203	3.16109
443.414	91.69308
443.626	13.69845
443.837	45.31408
444.048	-5.26836
444.26	34.77495
444.471	-49.51657
444.682	24.2364
444.894	36.88273
445.105	13.69845
445.316	7.37596
445.528	3.16109
445.739	41.09836
445.95	68.5022
446.161	68.5022
446.373	85.36802
446.584	15.80599
446.795	9.48343
447.006	11.59093
447.217	45.31408
447.429	-1.05368
447.64	24.2364
447.851	-11.5902
448.062	32.66719
448.273	-9.48295
448.484	41.09836
448.695	-38.98228
448.907	1.05369
449.118	-7.37567
449.329	43.20621
449.54	-24.23321
449.751	45.31408
449.962	-7.37567
450.173	-30.55439
450.384	32.66719
450.595	-3.16104
450.806	68.5022
451.017	91.69308
451.228	68.5022
451.439	41.09836
451.65	11.59093
451.861	24.2364
452.072	-17.91182
452.283	-17.91182
452.494	30.55946
452.705	57.9618
452.915	100.12679
453.126	20.02115
453.337	70.61035
453.548	-20.01897
453.759	62.17789
453.97	-7.37567
454.181	76.93493
454.391	-30.55439
454.602	-1.05368
454.813	15.80599
455.024	7.37596
455.235	7.37596
455.445	-3.16104
455.656	-5.26836
455.867	5.26851
456.078	-38.98228
456.288	-5.26836
456.499	-13.69743
456.71	41.09836
456.921	34.77495
457.131	-13.69743
457.342	34.77495
457.553	-1.05368
457.763	9.48343
457.974	60.06984
458.184	30.55946
458.395	-76.90279
458.606	32.66719
458.816	-17.91182
459.027	49.5299
459.237	-1.05368
459.448	-5.26836
459.659	-24.23321
459.869	-9.48295
460.08	15.80599
460.29	-17.91182
460.501	87.47635
460.711	57.9618
460.922	-13.69743
461.132	49.5299
461.343	47.42198
461.553	45.31408
461.764	-34.76838
461.974	-41.08919
462.184	-76.90279
462.395	51.63784
462.605	-17.91182
462.816	-1.05368
463.026	64.28597
463.236	-41.08919
463.447	20.02115
463.657	26.34407
463.867	60.06984
464.078	9.48343
464.288	66.39408
464.498	28.45175
464.709	36.88273
464.919	-1.05368
465.129	60.06984
465.339	15.80599
465.55	32.66719
465.76	11.59093
465.97	24.2364
466.18	17.91356
466.391	3.16109
466.601	-15.80464
466.811	51.63784
467.021	-11.5902
467.231	34.77495
467.441	-17.91182
467.651	17.91356
467.862	-26.3403
468.072	32.66719
468.282	7.37596
468.492	15.80599
468.702	53.7458
468.912	38.99053
469.122	62.17789
469.332	-20.01897
469.542	-34.76838
469.752	-32.6614
469.962	-9.48295
470.172	-26.3403
470.382	32.66719
470.592	-24.23321
470.802	51.63784
471.012	-9.48295
471.222	53.7458
471.432	30.55946
471.642	51.63784
471.852	28.45175
472.062	41.09836
472.272	53.7458
472.482	45.31408
472.691	45.31408
472.901	100.12679
473.111	74.82672
473.321	41.09836
473.531	-17.91182
473.741	34.77495
473.95	41.09836
474.16	13.69845
474.37	-1.05368
474.58	28.45175
474.79	30.55946
474.999	-22.12611
475.209	70.61035
475.419	3.16109
475.628	83.25972
475.838	32.66719
476.048	15.80599
476.258	144.40954
476.467	-41.08919
476.677	41.09836
476.886	-17.91182
477.096	41.09836
477.306	45.31408
477.515	1.05369
477.725	79.04317
477.935	93.80147
478.144	34.77495
478.354	70.61035
478.563	-13.69743
478.773	9.48343
478.982	79.04317
479.192	36.88273
479.401	17.91356
479.611	20.02115
479.82	70.61035
480.03	-17.91182
480.239	53.7458
480.449	24.2364
480.658	32.66719
480.868	91.69308
481.077	49.5299
481.287	53.7458
481.496	95.90989
481.705	36.88273
481.915	121.21262
482.124	57.9618
482.333	-24.23321
482.543	83.25972
482.752	79.04317
482.961	30.55946
483.171	66.39408
483.38	125.43005
483.589	70.61035
483.799	-20.01897
484.008	36.88273
484.217	11.59093
484.426	64.28597
484.636	24.2364
484.845	47.42198
485.054	-9.48295
485.263	100.12679
485.472	70.61035
485.682	125.43005
485.891	32.66719
486.1	66.39408
486.309	49.5299
486.518	74.82672
486.727	66.39408
486.936	74.82672
487.146	3.16109
487.355	57.9618
487.564	129.64756
487.773	51.63784
487.982	154.95444
488.191	34.77495
488.4	53.7458
488.609	34.77495
488.818	95.90989
489.027	108.56086
489.236	60.06984
489.445	123.32132
489.654	70.61035
489.863	45.31408
490.072	-17.91182
490.281	76.93493
490.49	49.5299
490.698	133.86516
490.907	85.36802
491.116	83.25972
491.325	95.90989
491.534	144.40954
491.743	102.23527
491.952	51.63784
492.16	138.08285
492.369	119.10394
492.578	102.23527
492.787	49.5299
492.996	98.01833
493.204	57.9618
493.413	108.56086
493.622	127.53879
493.831	100.12679
494.039	110.66943
494.248	81.15143
494.457	93.80147
494.665	47.42198
494.874	152.84542
495.083	66.39408
495.291	142.30062
495.5	87.47635
495.709	100.12679
495.917	83.25972
496.126	144.40954
496.335	133.86516
496.543	146.51847
496.752	146.51847
496.96	87.47635
497.169	121.21262
497.377	22.12877
497.586	184.48295
497.794	142.30062
498.003	154.95444
498.211	152.84542
498.42	114.88664
498.628	119.10394
498.837	161.28164
499.045	106.45231
499.254	150.73642
499.462	171.82738
499.671	176.04582
499.879	159.17255
500.087	112.77803
500.296	201.3582
500.504	138.08285
500.713	133.86516
500.921	209.7963
501.129	91.69308
501.338	163.39074
501.546	188.70164
501.754	144.40954
501.962	100.12679
502.171	159.17255
502.379	245.66178
502.587	201.3582
502.795	233.00273
503.004	161.28164
503.212	186.59229
503.42	207.68674
503.628	192.92041
503.837	133.86516
504.045	203.46769
504.253	182.37364
504.461	176.04582
504.669	251.99156
504.877	142.30062
505.085	133.86516
505.294	239.33216
505.502	239.33216
505.71	220.34438
505.918	184.48295
506.126	205.57721
506.334	167.60902
506.542	184.48295
506.75	150.73642
506.958	289.97385
507.166	228.7832
507.374	243.55189
507.582	144.40954
507.79	245.66178
507.998	260.43154
508.206	171.82738
508.414	226.67346
508.622	228.7832
508.83	146.51847
509.037	323.7409
509.245	277.31241
509.453	233.00273
509.661	218.23472
509.869	304.74637
510.077	262.54158
510.285	311.07772
510.492	294.19448
510.7	389.17739
510.908	258.32152
511.116	281.53282
511.324	313.1882
511.531	294.19448
511.739	304.74637
511.947	281.53282
512.155	264.65165
512.362	302.63595
512.57	233.00273
512.778	332.18339
512.985	338.51543
513.193	408.17811
513.401	351.18
513.608	313.1882
513.816	270.98194
514.024	319.51977
514.231	279.42261
514.439	327.96211
514.646	270.98194
514.854	363.84518
515.061	370.17801
515.269	372.28898
515.477	336.40473
515.684	344.84764
515.892	344.84764
516.099	475.74669
516.307	353.29082
516.514	389.17739
516.722	302.63595
516.929	408.17811
517.136	382.84411
517.344	344.84764
517.551	395.51081
517.759	452.5182
517.966	467.29976
518.173	539.10623
518.381	467.29976
518.588	414.51198
518.796	389.17739
519.003	560.2289
519.21	458.85306
519.418	505.31286
519.625	393.39965
519.832	501.08894
520.039	429.29157
520.247	490.52941
520.454	463.07638
520.661	517.98495
520.868	522.20909
521.076	617.26677
521.283	503.20089
521.49	520.09701
521.697	524.32118
521.904	564.4536
522.112	496.86509
522.319	589.80291
522.526	505.31286
522.733	522.20909
522.94	610.92877
523.147	572.90316
523.354	581.35293
523.561	651.07135
523.768	581.35293
523.975	674.31378
524.183	513.76086
524.39	636.28146
524.597	682.76593
524.804	615.15409
525.011	648.95847
525.218	636.28146
525.425	648.95847
525.632	594.02798
525.838	653.18424
526.045	632.05589
526.252	667.9748
526.459	708.12345
526.666	754.61631
526.873	716.57631
527.08	642.61991
527.287	674.31378
527.494	716.57631
527.701	712.34986
527.907	727.14263
528.114	767.29705
528.321	642.61991
528.528	930.06278
528.735	763.0701
528.941	796.88685
529.148	758.84318
529.355	925.83448
529.562	811.68246
529.768	784.20528
529.975	765.18357
530.182	872.98328
530.388	769.41055
530.595	868.75541
530.802	788.43243
531.008	932.17695
531.215	775.75109
531.422	1004.06271
531.628	961.776
531.835	968.11884
532.042	858.18586
532.248	1012.52036
532.455	900.46529
532.661	974.46173
532.868	957.54748
533.074	970.23313
533.281	851.84424
533.487	989.26206
533.694	944.86208
533.9	1111.90463
534.107	987.14771
534.313	1145.74011
534.52	1067.49742
534.726	1141.51062
534.933	1001.94831
535.139	1020.97811
535.345	997.71953
535.552	1122.4781
535.758	989.26206
535.965	1133.05168
536.171	1107.67528
536.377	1154.19916
536.584	1164.77305
536.79	1173.23224
536.996	1101.33129
537.203	1230.33325
537.409	1124.5928
537.615	1147.85487
537.821	1285.32149
538.028	1215.52905
538.234	1196.49531
538.44	1240.90777
538.646	1327.6212
538.853	1249.36744
539.059	1266.28691
539.265	1376.26667
539.471	1405.87723
539.677	1424.91267
539.883	1321.2762
540.09	1418.56752
540.296	1427.02772
540.502	1537.01014
540.708	1359.34643
540.914	1448.17823
541.12	1333.96622
541.326	1467.2137
541.532	1469.32875
541.738	1462.9836
541.944	1456.63844
542.15	1549.7003
542.356	1393.18697
542.562	1630.07006
542.768	1477.78896
542.974	1606.8054
543.18	1600.46045
543.386	1562.39042
543.592	1534.89511
543.798	1615.26531
544.004	1488.36421
544.21	1792.91318
544.415	1547.58528
544.621	1714.66628
544.827	1699.86227
545.033	1811.94539
545.239	1682.94322
545.445	1902.87186
545.651	1507.39962
545.856	1689.28789
546.062	1638.52987
546.268	1811.94539
546.474	1706.20687
546.679	1731.58495
546.885	1646.98964
547.091	1879.61248
547.297	1727.35531
547.502	1883.84151
547.708	1723.12564
547.914	1877.49796
548.119	1750.61819
548.325	1862.69617
548.531	1729.47013
548.736	1896.52846
548.942	1697.7474
549.147	1968.4174
549.353	1833.09188
549.559	1976.87447
549.764	1784.45431
549.97	2038.18519
550.175	1896.52846
550.381	2226.30731
550.586	1943.0456
550.792	2281.25188
550.997	2004.35927
551.203	2141.76576
551.408	1976.87447
551.614	2082.57904
551.819	2095.26241
552.025	2323.51267
552.23	2116.40076
552.435	2112.17315
552.641	2126.96964
552.846	2247.44056
553.052	2219.96717
553.257	2234.76072
553.462	2091.03465
553.668	2336.19016
553.873	2264.34651
554.078	2357.31852
554.283	2215.74036
554.489	2412.24752
554.694	2340.41591
554.899	2393.23442
555.105	2315.06082
555.31	2378.44588
555.515	2374.22049
555.72	2505.18792
555.925	2281.25188
556.131	2547.4264
556.336	2397.45963
556.541	2458.72037
556.746	2336.19016
556.951	2524.19581
557.156	2511.52399
557.361	2606.55238
557.567	2443.93412
557.772	2551.65
557.977	2369.99506
558.182	2661.44653
558.387	2612.88675
558.592	2585.43704
558.797	2481.95482
559.002	2823.96639
559.207	2564.32049
559.412	2722.66451
559.617	2433.37218
559.822	2686.77942
560.027	2405.90992
560.232	2619.221
560.437	2728.99679
560.642	2790.20257
560.847	2788.09221
561.051	2745.88226
561.256	2693.11236
561.461	2769.0984
561.666	2758.54581
561.871	2935.78326
562.076	2697.33425
562.281	2982.1858
562.485	2619.221
562.69	2707.88875
562.895	2714.2213
563.1	3037.01575
563.305	2948.43921
563.509	3085.51049
563.714	2933.67388
563.919	2853.50681
564.123	2948.43921
564.328	2925.23623
564.533	2788.09221
564.737	2975.8586
564.942	2821.85625
565.147	3233.05123
565.351	2914.68883
565.556	3043.34162
565.761	2916.79834
565.965	3108.7007
566.17	2699.44518
566.374	3074.96886
566.579	2804.97467
566.784	3211.97888
566.988	2980.07675
567.193	3243.58678
567.397	3096.05173
567.602	3214.08619
567.806	2999.05765
568.011	3201.44209
568.215	3119.24106
568.42	3353.13137
568.624	3138.21272
568.828	3338.38769
569.033	3148.75196
569.237	3409.99185
569.442	3178.25969
569.646	3222.51527
569.85	3167.72158
570.055	3511.04512
570.259	3412.09755
570.463	3489.99578
570.668	3193.01236
570.872	3311.00431
571.076	3357.3437
571.281	3557.34721
571.485	3334.17505
571.689	3513.14995
571.893	3193.01236
572.098	3454.20776
572.302	3422.62577
572.506	3519.46434
572.71	3372.08629
572.914	3460.52367
573.119	3498.41574
573.323	3591.01584
573.527	3329.96234
573.731	3580.49491
573.935	3378.40428
574.139	3523.67384
574.343	3479.47044
574.547	3582.59913
574.751	3740.36214
574.955	3700.40566
575.159	3723.53921
575.364	3824.45809
575.568	3635.19866
575.772	3557.34721
575.976	3626.78352
576.18	3723.53921
576.383	3807.64141
576.587	3721.43626
576.791	3525.77857
576.995	3868.59585
577.199	3664.64925
577.403	3910.62363
577.607	3950.54257
577.811	4030.35842
578.015	3637.3024
578.219	3940.03829
578.422	3664.64925
578.626	3956.84489
578.83	3738.25934
579.034	3879.10354
579.238	3826.56009
579.442	4026.15832
579.645	3757.18383
579.849	3973.65019
580.053	4061.85652
580.257	4143.7297
580.46	3870.69743
580.664	4093.34995
580.868	4034.55843
581.071	4290.60117
581.275	4000.95602
581.479	4343.02988
581.682	3916.9271
581.886	4021.95814
582.09	4061.85652
582.293	4261.23523
582.497	4177.30948
582.7	4315.76864
582.904	4204.58908
583.107	4311.57428
583.311	4131.13589
583.515	4498.13925
583.718	4145.82859
583.922	4248.64854
584.125	4118.54133
584.329	4393.34872
584.532	4194.09735
584.735	4456.22962
584.939	4263.33293
585.142	4420.59953
585.346	4162.61899
585.549	4380.77019
585.753	4336.73915
585.956	4646.84687
586.159	4458.32531
586.363	4590.30931
586.566	4428.98365
586.769	4481.37646
586.973	4252.84418
587.176	4334.6422
587.379	4357.7075
587.582	4801.71761
587.786	4632.19055
587.989	4523.28079
588.192	4554.70324
588.395	4738.94709
588.599	4475.09004
588.802	4722.20484
589.005	4391.25236
589.208	4868.65027
589.411	4619.62711
589.615	4784.9808
589.818	4516.99571
590.021	4791.25727
590.224	4575.64876
590.427	4833.0952
590.63	4655.22141
590.833	4757.78038
591.036	4671.96943
591.239	4789.16514
591.442	4791.25727
591.645	4889.56194
591.848	4835.18686
592.051	5023.34223
592.254	4835.18686
592.457	4923.01584
592.66	4805.90158
592.863	5056.77255
593.066	4596.59206
593.269	5257.22967
593.472	4923.01584
593.675	5259.31663
593.878	5065.1292
594.081	5102.72956
594.284	5040.05813
594.486	5106.90691
594.689	5054.68332
594.892	5048.41552
595.095	4964.82494
595.298	5169.55607
595.5	5002.44527
595.703	5353.20583
595.906	4883.28868
596.109	5286.44505
596.311	5029.61086
596.514	5340.69001
596.717	5175.81983
596.92	5436.62303
597.122	5196.69753
597.325	5511.66636
597.528	5234.27151
597.73	5488.73969
597.933	5209.22303
598.136	5365.7208
598.338	5315.65584
598.541	5551.26027
598.743	5278.09826
598.946	5374.06365
599.148	5436.62303
599.351	5551.26027
599.554	5490.82405
599.756	5390.74822
599.959	5622.09128
600.161	5576.26256
600.363	5378.23493
600.566	5620.0084
600.768	5557.51116
600.971	5759.50894
601.173	5592.92887
601.376	5824.01811
601.578	5534.59018
601.78	5907.22224
601.983	5484.5709
602.185	5861.46464
602.388	5553.34392
602.59	5676.23778
602.792	5561.6783
602.995	5726.20501
603.197	5805.29198
603.399	6094.29362
603.601	5680.40223
603.804	5715.79629
604.006	5778.23974
604.208	5640.8361
604.41	5694.97708
604.613	5774.07751
604.815	5717.87808
605.017	6040.27037
605.219	5796.96864
605.421	5911.38146
605.623	5740.77622
605.826	5865.6249
606.028	5863.54478
606.23	6085.98338
606.432	5973.75838
606.634	6189.83427
606.836	5415.77225
607.038	6106.75826
607.24	5815.69562
607.442	5973.75838
607.644	5876.02512
607.846	6098.44859
608.048	5986.23121
608.25	6208.52119
608.452	6034.0359
608.654	6119.22206
608.856	6119.22206
609.058	6337.20178
609.26	5948.81016
609.462	6166.99211
609.664	6017.4096
609.866	6318.52792
610.067	6152.45472
610.269	6094.29362
610.471	5711.63264
610.673	6115.06755
610.875	6123.37647
611.077	6384.91528
611.278	6048.58268
611.48	6395.28615
611.682	6038.19224
611.884	6270.79723
612.085	5944.65179
612.287	6198.1398
612.489	6158.68517
612.69	6218.902
612.892	6102.60347
613.094	6347.57533
613.295	5905.1426
613.497	6187.75783
613.699	6073.51733
613.9	6341.35127
614.102	6297.77697
614.304	6416.02613
614.505	6069.36179
614.707	6362.09732
614.908	6100.52605
615.11	6405.65643
615.311	6314.37792
615.513	6193.98708
615.714	6193.98708
615.916	6405.65643
616.117	6270.79723
616.319	6561.14098
616.52	6380.76677
616.722	6488.59777
616.923	6347.57533
617.124	6372.46947
617.326	6353.79918
617.527	6670.93822
617.729	6384.91528
617.93	6339.27654
618.131	6297.77697
618.333	6612.9402
618.534	6424.32148
618.735	6712.35434
618.937	6544.56217
619.138	6420.17385
619.339	6501.03576
619.54	6695.789
619.742	6691.64743
619.943	6670.93822
620.144	6548.70701
620.345	6509.3273
620.546	6426.39525
620.748	6714.42491
620.949	6542.48972
621.15	6805.50709
621.351	6503.10868
621.552	6606.72506
621.753	6656.44041
621.954	6778.60105
622.155	6581.8624
622.356	6774.46132
622.558	6494.81687
622.759	6948.25171
622.96	6463.71927
623.161	6780.67089
623.362	6550.7794
623.563	6718.56597
623.764	6391.13787
623.965	6730.9886
624.166	6728.91822
624.366	6879.99603
624.567	6673.00925
624.768	6764.11159
624.969	6550.7794
625.17	6629.51291
625.371	6592.22224
625.572	6807.57663
625.773	6681.29311
625.973	6762.04157
626.174	6857.23865
626.375	6960.65919
626.576	6896.54513
626.777	6960.65919
626.977	6770.3215
627.178	6942.04767
627.379	6803.43754
627.58	6863.44548
627.78	6844.82437
627.981	6824.13209
628.182	6913.09277
628.382	6861.37656
628.583	6968.93039
628.784	6960.65919
628.984	6617.08352
629.185	7206.57396
629.386	6716.49545
629.586	7202.44354
629.787	7059.88983
629.987	7010.28098
630.188	7119.81663
630.388	7092.95522
630.589	6795.15907
630.79	7051.62258
630.99	6950.31968
631.191	7097.08799
631.391	7169.39704
631.591	7183.85559
631.792	7190.05177
631.992	7427.4228
632.193	7200.3783
632.393	7274.71302
632.594	7068.15671
632.794	7210.70428
632.994	6861.37656
633.195	7332.50918
633.395	7113.61818
633.595	7223.09473
633.796	7318.06175
633.996	7464.5504
634.196	7144.60844
634.397	7594.44197
634.597	7016.4828
634.797	7472.80002
634.997	7128.08092
635.198	7237.54924
635.398	7132.21294
635.598	7450.11272
635.798	7365.52785
635.998	7322.1897
636.199	7365.52785
636.399	7481.0493
636.599	7190.05177
636.799	7398.54093
636.999	7266.45502
637.199	7266.45502
637.399	7400.60406
637.599	7268.51955
637.799	7268.51955
637.999	7427.4228
638.199	7252.00267
638.399	7596.50306
638.599	7218.96467
638.799	7340.76437
638.999	7571.76863
639.199	7390.28818
639.399	7334.57301
639.599	7483.11156
639.799	7239.61408
639.999	7524.35235
640.199	7365.52785
640.399	7588.25859
640.599	7066.09002
640.799	7810.74033
640.998	7549.09269
641.198	7491.36041
641.398	7456.30043
641.598	7798.38667
641.798	7382.03509
641.997	7604.74719
642.197	7445.98748
642.397	7660.38614
642.597	7464.5504
642.796	7652.14431
642.996	7645.96272
643.196	7831.32811
643.395	7687.16976
643.595	7804.56359
643.795	7505.79506
643.994	7913.65847
644.194	7637.72029
644.394	8076.1645
644.593	7666.5673
644.793	7769.55853
644.992	7664.50693
645.192	7804.56359
645.392	7691.29
645.591	7827.21072
645.791	7666.5673
645.99	7998.01292
646.19	7802.50464
646.389	7942.4663
646.589	7542.9079
646.788	7839.56264
646.987	7445.98748
647.187	7781.91395
647.386	7858.08911
647.586	8018.58196
647.785	8000.06991
647.984	7991.84181
648.184	7983.61337
648.383	8037.09237
648.582	8004.18384
648.782	8115.22935
648.981	7934.2359
649.18	7876.6139
649.38	7860.1475
649.579	7948.63888
649.778	7969.21283
649.977	8324.82298
650.177	7950.69637
650.376	8160.45328
650.575	7932.17825
650.774	8174.84069
650.973	7736.60706
651.173	8183.06163
651.372	8125.50837
651.571	8275.52531
651.77	8059.71397
651.969	8090.55766
652.168	7901.31102
652.367	8300.17556
652.566	8298.12148
652.765	8310.44566
652.964	8296.06738
653.163	8499.32905
653.362	8343.30671
653.561	8053.54468
653.76	8238.54464
653.959	8092.61374
654.158	8271.41666
654.357	8291.95912
654.556	7938.35114
654.755	8597.8127
654.954	7907.48484
655.153	8345.36036
655.352	8326.87681
655.551	8437.75455
655.749	8409.01388
655.948	8497.27684
656.147	8254.98128
656.346	8357.68185
656.545	8160.45328
656.743	8316.60749
656.942	8370.00264
657.141	8579.35033
657.34	8544.47279
657.538	8612.17128
657.737	8429.54331
657.936	8763.90629
658.135	8337.14564
658.333	8482.91086
658.532	8655.24152
658.731	8419.27884
658.929	8283.74238
659.128	8374.10941
659.326	8521.90207
659.525	8577.29886
659.724	8139.89815
659.922	8413.11992
660.121	8339.19935
660.319	8704.45462
660.518	8398.74844
660.716	8665.49512
660.915	8443.91277
661.113	8610.12011
661.312	8372.05604
661.51	8577.29886
661.709	8476.75373
661.907	8821.29333
662.105	8739.30747
662.304	8872.51978
662.502	8632.68194
662.701	8659.34301
662.899	8312.49962
663.097	8694.20277
663.296	8976.98707
663.494	8618.32467
663.692	8429.54331
663.891	8757.75683
664.089	8429.54331
664.287	8675.74827
664.485	8378.21611
664.684	8911.44437
664.882	8511.64189
665.08	8526.00601
665.278	8665.49512
665.476	8657.29227
665.675	8509.5898
665.873	8634.7329
666.071	8636.78385
666.269	8731.10727
666.467	8649.08913
666.665	8815.1454
666.863	8583.45321
667.061	8731.10727
667.259	8571.14434
667.457	8839.73615
667.655	8503.43341
667.853	9028.17974
668.051	8544.47279
668.249	8798.75012
668.447	8517.79805
668.645	8841.78526
668.843	8702.40428
669.041	8895.05586
669.239	8546.52456
669.437	8657.29227
669.635	8704.45462
669.833	8847.93249
670.031	8394.64213
670.229	8530.10987
670.426	8630.63096
670.624	8827.4411
670.822	8497.27684
671.02	8673.69768
671.218	8462.38641
671.415	8550.62805
671.613	8532.16177
671.811	8821.29333
672.009	8772.10531
672.206	8901.20168
672.404	8640.88568
672.602	8681.89993
672.799	8837.68702
672.997	8790.55205
673.195	8681.89993
673.392	8854.07955
673.59	8503.43341
673.788	8841.78526
673.985	8813.09605
674.183	9026.13224
674.38	8638.83477
674.578	9026.13224
674.775	8659.34301
674.973	9042.51172
675.17	8847.93249
675.368	8786.4529
675.565	8802.84905
675.763	8985.17863
675.96	8661.39374
676.158	8884.81245
676.355	8505.48555
676.553	9210.33772
676.75	8651.13994
676.947	9042.51172
677.145	8433.64897
677.342	8970.84321
677.539	8823.34261
677.737	8782.35368
677.934	8683.95045
678.131	9079.36149
678.329	8763.90629
678.526	9048.65374
678.723	8739.30747
678.92	8911.44437
679.118	8710.60551
679.315	8628.57996
679.512	8739.30747
679.709	9050.70105
679.906	8626.52894
680.104	8888.90987
680.301	8686.00095
680.498	8608.06892
680.695	8536.26552
680.892	9026.13224
681.089	8681.89993
681.286	8665.49512
681.483	8610.12011
681.68	9003.60863
681.877	8731.10727
682.075	8991.32212
682.272	8624.4779
682.469	8817.19473
682.665	8718.80643
682.862	8903.25026
683.059	8698.30356
683.256	8683.95045
683.453	8724.95694
683.65	8667.54579
683.847	8554.73146
684.044	8616.27356
684.241	8821.29333
684.438	9050.70105
684.635	8808.99731
684.831	8817.19473
685.028	8661.39374
685.225	8790.55205
685.422	8690.1019
685.619	8731.10727
685.815	8626.52894
686.012	8796.70063
686.209	8768.00584
686.405	8788.50248
686.602	8558.83479
686.799	8722.90679
686.996	8640.88568
687.192	8968.79522
687.389	8411.06691
687.586	8517.79805
687.782	8429.54331
687.979	8612.17128
688.175	8406.96083
688.372	8429.54331
688.568	8599.86398
688.765	8556.78313
688.962	8722.90679
689.158	8798.75012
689.355	8731.10727
689.551	8704.45462
689.748	8653.19074
689.944	8630.63096
690.14	8509.5898
690.337	8636.78385
690.533	8657.29227
690.73	8554.73146
690.926	8497.27684
691.123	8353.57476
691.319	8458.28129
691.515	8722.90679
691.712	8618.32467
691.908	8569.09279
692.104	8228.2711
692.301	8497.27684
692.497	8464.43894
692.693	8919.6382
692.889	8651.13994
693.086	8567.04123
693.282	8476.75373
693.478	8501.38124
693.674	8558.83479
693.87	8722.90679
694.067	8484.9632
694.263	8856.12854
694.459	8714.70601
694.655	8933.97672
694.851	8714.70601
695.047	8669.59644
695.243	8476.75373
695.439	8612.17128
695.635	8419.27884
695.831	8542.421
696.027	8402.85467
696.224	8649.08913
696.42	8341.25304
696.615	8544.47279
696.811	8396.69529
697.007	8552.67976
697.203	8404.90776
697.399	8608.06892
697.595	8487.01552
697.791	8573.19586
697.987	8452.12347
698.183	8837.68702
698.379	8314.55356
698.575	8938.07328
698.77	8716.75623
698.966	8958.55502
699.162	8653.19074
699.358	8768.00584
699.554	8464.43894
699.749	8698.30356
699.945	8454.1761
700.141	8806.94791
700.337	8774.15502
700.532	8989.27431
700.728	8632.68194
700.924	8849.98153
701.119	8616.27356
701.315	8665.49512
701.511	8503.43341
701.706	8476.75373
701.902	8345.36036
702.097	8548.57631
702.293	8558.83479
702.489	8729.05718
702.684	8487.01552
702.88	8690.1019
703.075	8372.05604
703.271	8425.43758
703.466	8606.01771
703.662	8739.30747
703.857	8612.17128
704.053	8755.70697
704.248	8538.31737
704.443	8673.69768
704.639	8632.68194
704.834	8841.78526
705.03	8324.82298
705.225	8821.29333
705.42	8554.73146
705.616	8651.13994
705.811	8281.68814
706.006	8784.4033
706.202	8536.26552
706.397	8573.19586
706.592	8571.14434
706.787	8731.10727
706.983	8575.24737
707.178	8880.71497
707.373	8398.74844
707.568	8530.10987
707.763	8355.62831
707.959	8700.35393
708.154	8517.79805
708.349	8808.99731
708.544	8267.30794
708.739	8495.22462
708.934	8291.95912
709.129	8612.17128
709.324	8419.27884
709.519	8411.06691
709.714	8267.30794
709.909	8628.57996
710.104	8098.78188
710.299	8328.93061
710.494	8267.30794
710.689	8792.60159
710.884	8365.89579
711.079	8669.59644
711.274	8392.58894
711.469	8784.4033
711.664	8468.54395
711.859	8528.05795
712.054	8166.61943
712.249	8402.85467
712.443	8230.32585
712.638	8283.74238
712.833	8503.43341
713.028	8753.6571
713.223	8388.48252
713.417	8417.22588
713.612	8404.90776
713.807	8759.80667
714.002	8532.16177
714.196	8667.54579
714.391	8509.5898
714.586	8505.48555
714.78	8351.52119
714.975	8671.64707
715.17	8380.26943
715.364	8655.24152
715.559	8271.41666
715.754	8450.07083
715.948	8421.33177
716.143	8476.75373
716.337	8294.01326
716.532	8353.57476
716.726	8341.25304
716.921	8528.05795
717.115	8232.38057
717.31	8487.01552
717.504	8193.33735
717.699	8575.24737
717.893	8361.78886
718.088	8406.96083
718.282	8139.89815
718.476	8215.94219
718.671	8310.44566
718.865	8102.89387
719.059	8006.24078
719.254	8355.62831
719.448	8137.84253
719.642	8209.77747
719.837	7860.1475
720.031	8289.90497
720.225	8098.78188
720.419	8267.30794
720.614	8135.78688
720.808	8468.54395
721.002	8024.75228
721.196	8382.32273
721.39	8261.1447
721.585	8443.91277
721.779	8361.78886
721.973	8474.70131
722.167	8026.80901
722.361	8234.43528
722.555	8181.00642
722.749	8183.06163
722.943	8123.4526
723.137	8127.56411
723.331	7909.54274
723.525	8304.28366
723.719	8113.17349
723.913	8238.54464
724.107	8181.00642
724.301	8365.89579
724.495	8172.78541
724.689	7993.89886
724.883	7993.89886
725.077	8189.22712
725.271	8248.81769
725.465	8304.28366
725.659	8183.06163
725.853	8135.78688
726.046	8217.99706
726.24	8160.45328
726.434	7759.26177
726.628	8172.78541
726.822	8123.4526
727.015	8209.77747
727.209	8012.41146
727.403	8172.78541
727.596	8026.80901
727.79	8263.19913
727.984	8111.1176
728.177	8345.36036
728.371	8213.88731
728.565	8254.98128
728.758	8098.78188
728.952	8267.30794
729.146	8267.30794
729.339	8378.21611
729.533	8096.72585
729.726	8285.79659
729.92	8291.95912
730.113	8304.28366
730.307	8139.89815
730.5	8335.09191
730.694	8337.14564
730.887	8259.09025
731.081	8228.2711
731.274	8246.76312
731.468	7944.52385
731.661	8123.4526
731.854	8004.18384
732.048	8057.65756
732.241	7942.4663
732.435	8337.14564
732.628	7960.9835
732.821	8078.22073
733.014	8117.28519
733.208	8092.61374
733.401	8316.60749
733.594	8197.4475
733.788	8000.06991
733.981	8341.25304
734.174	8205.66756
734.367	8267.30794
734.56	8133.73122
734.754	8150.17597
734.947	8072.05199
735.14	8224.16154
735.333	7926.00518
735.526	7944.52385
735.719	7860.1475
735.912	7954.81128
736.105	8041.20557
736.298	8049.43172
736.491	8119.34102
736.684	8217.99706
736.877	8148.12044
737.07	8055.60113
737.263	8119.34102
737.456	8072.05199
737.649	7864.26423
737.842	7983.61337
738.035	7884.84661
738.228	7823.09325
738.421	7936.29353
738.614	8028.86572
738.807	8146.0649
739	8109.0617
739.192	8283.74238
739.385	8174.84069
739.578	8265.25354
739.771	8349.4676
739.964	8049.43172
740.156	8016.52515
740.349	7995.9559
740.542	8259.09025
740.735	8248.81769
740.927	8263.19913
741.12	8197.4475
741.313	8222.10673
741.505	8207.72253
741.698	8154.28695
741.891	7870.43916
742.083	8008.29769
742.276	8098.78188
742.468	8092.61374
742.661	8065.88307
742.854	8082.33312
743.046	7967.15553
743.239	7915.71631
743.431	8055.60113
743.624	7985.67051
743.816	8037.09237
744.009	7948.63888
744.201	7860.1475
744.393	8069.9957
744.586	8010.35459
744.778	7810.74033
744.971	7744.84543
745.163	7781.91395
745.355	7886.90473
745.548	7837.50403
745.74	7977.44183
745.932	7967.15553
746.125	7963.04086
746.317	7967.15553
746.509	7934.2359
746.702	7998.01292
746.894	7658.32572
747.086	7742.78587
747.278	8028.86572
747.471	7740.72628
747.663	7872.49743
747.855	7979.49903
748.047	7926.00518
748.239	8016.52515
748.431	7958.92611
748.623	8183.06163
748.815	7963.04086
749.008	8055.60113
749.2	7909.54274
749.392	7777.79556
749.584	7821.03448
749.776	8076.1645
749.968	7897.19504
750.16	8152.23147
750.352	7907.48484
750.544	8012.41146
750.736	7936.29353
750.928	8107.00577
751.12	7895.13702
751.311	7930.12058
751.503	7963.04086
751.695	8008.29769
751.887	7864.26423
752.079	7713.9498
752.271	7536.72291
752.463	7831.32811
752.654	7740.72628
752.846	7893.07898
753.038	7884.84661
753.23	7716.00966
753.421	7866.32256
753.613	8072.05199
753.805	7946.58138
753.997	8084.38928
754.188	7987.72763
754.38	7882.78846
754.572	7592.38087
754.763	7703.65021
754.955	7415.04538
755.146	7769.55853
755.338	7631.53825
755.53	7806.62253
755.721	7555.27729
755.913	7732.48774
756.104	7582.07501
756.296	7621.23442
756.487	7256.13202
756.679	7551.15425
756.87	7349.01922
757.062	7415.04538
757.253	7518.16678
757.445	7346.95554
757.636	7631.53825
757.827	7629.47753
758.019	7458.36295
758.21	7439.79945
758.401	7417.10834
758.593	7386.16168
758.784	7225.15972
758.975	7526.41416
759.167	7095.02161
759.358	7511.98102
759.549	7571.76863
759.74	7386.16168
759.932	7243.7437
760.123	7249.93796
760.314	7196.24776
760.505	7301.54909
760.696	7241.6789
760.888	7363.46435
761.079	7252.00267
761.27	7439.79945
761.461	7326.31756
761.652	7249.93796
761.843	7266.45502
762.034	7212.76941
762.225	7126.01488
762.416	7359.33728
762.607	7134.27891
762.798	7274.71302
762.989	7549.09269
763.18	7555.27729
763.371	7101.22067
763.562	7179.72469
763.753	7130.14694
763.944	7474.86237
764.135	7221.02971
764.326	7551.15425
764.517	7419.17127
764.708	7392.3514
764.899	7179.72469
765.089	7185.921
765.28	6844.82437
765.471	7204.50876
765.662	6927.57078
765.853	6884.13344
766.043	6695.789
766.234	7018.55002
766.425	6782.7407
766.615	7074.35664
766.806	7082.6229
766.997	7369.65479
767.187	7109.48576
767.378	7095.02161
767.569	6906.88758
767.759	6770.3215
767.95	6791.01971
768.141	7006.14633
768.331	7053.68943
768.522	7183.85559
768.712	7047.48883
768.903	7014.41555
769.093	6935.84342
769.284	6948.25171
769.474	7084.6894
769.665	6648.15544
769.855	6722.70694
770.046	6838.61693
770.236	6656.44041
770.426	6660.58276
770.617	6877.92729
770.807	6952.38763
770.998	6987.53927
771.188	7212.76941
771.378	6877.92729
771.569	6884.13344
771.759	6650.22672
771.949	6565.28545
772.139	6722.70694
772.33	6476.15894
772.52	6745.48063
772.71	6621.22674
772.9	6689.57661
773.09	6695.789
773.281	6848.96256
773.471	6699.93047
773.661	6822.06274
773.851	6726.84781
774.041	6697.85974
774.231	6708.21314
774.421	6314.37792
774.611	6588.07838
774.802	6432.61645
774.992	6525.90925
775.182	6534.19967
775.372	6650.22672
775.562	6360.02282
775.752	6496.88986
775.942	6164.91541
776.131	6438.83743
776.321	6349.64997
776.511	6534.19967
776.701	6484.45159
776.891	6683.36402
777.081	6513.47292
777.271	6330.97737
777.461	6604.6533
777.651	6550.7794
777.84	6326.82765
778.03	6447.13175
778.22	6173.22207
778.41	6447.13175
778.599	6285.32527
778.789	6287.40061
778.979	6208.52119
779.169	6451.27877
779.358	6416.02613
779.548	6438.83743
779.738	6241.7377
779.927	6355.87375
780.117	6218.902
780.307	6355.87375
780.496	6150.37785
780.686	6247.96513
780.875	6100.52605
781.065	6169.06879
781.254	5998.7032
781.444	6422.24768
781.633	6281.17452
781.823	6426.39525
782.012	6268.7217
782.202	6343.42598
782.391	6034.0359
782.581	6281.17452
782.77	5952.96843
782.96	6239.66185
783.149	5967.52164
783.338	6123.37647
783.528	6061.05043
783.717	6148.30096
783.906	5986.23121
784.096	6108.83562
784.285	5830.25973
784.474	6046.50464
784.663	6009.09588
784.853	5809.45351
785.042	5717.87808
785.231	5940.49333
785.42	5824.01811
785.61	5965.44268
785.799	5640.8361
785.988	5884.34487
786.177	5669.99092
786.366	5998.7032
786.555	5903.06293
786.744	5705.38698
786.933	5753.26491
787.122	5973.75838
787.312	5740.77622
787.501	5940.49333
787.69	5803.21118
787.879	5867.70499
788.068	5861.46464
788.257	5484.5709
788.445	5636.67075
788.634	5701.22309
788.823	5636.67075
789.012	5840.66196
789.201	5724.12331
789.39	5680.40223
789.579	5665.82623
789.768	5738.69469
789.957	5657.49656
790.145	5624.17413
790.334	5657.49656
790.523	5674.15552
790.712	5609.59367
790.9	5542.92541
791.089	5509.58224
791.278	5609.59367
791.467	5711.63264
791.655	5688.73086
791.844	5499.16126
792.033	5705.38698
792.221	5326.08715
792.41	5663.74385
792.599	5440.79291
792.787	5388.66273
792.976	5357.37758
793.164	5478.31754
793.353	5440.79291
793.541	5386.57722
793.73	5549.17659
793.918	5384.49168
794.107	5177.9077
794.295	5582.5126
794.484	5626.25696
794.672	5524.17062
794.861	5324.00094
795.049	5784.48292
795.238	5188.34673
795.426	5582.5126
795.614	5324.00094
795.803	5528.33852
795.991	5298.96452
796.179	5286.44505
796.368	5198.78517
796.556	5444.96269
796.744	5298.96452
796.932	5419.9426
797.121	5290.6183
797.309	5319.82844
797.497	5196.69753
797.685	5553.34392
797.874	5209.22303
798.062	5303.13749
798.25	5190.43446
798.438	5317.74215
798.626	5259.31663
798.814	5449.13237
799.002	5503.32972
799.19	5376.1493
799.378	5342.77604
799.566	5390.74822
799.755	5004.53507
799.943	5228.00971
800.131	5096.46335
800.318	5175.81983
800.506	5094.37457
800.694	5115.26134
800.882	4797.53354
801.07	5140.3224
801.258	5127.79229
801.446	5303.13749
801.634	5069.30739
801.822	5108.99555
802.01	5035.87929
802.197	5307.31037
802.385	5035.87929
802.573	5369.89227
802.761	5019.16302
802.949	5069.30739
803.136	4996.17574
803.324	5081.8414
803.512	5044.23687
803.699	5265.57739
803.887	5301.05102
804.075	5334.43178
804.262	5031.70036
804.45	5217.5729
804.638	5232.18427
804.825	5313.56951
805.013	5004.53507
805.201	5294.79146
805.388	5008.7146
805.576	4805.90158
805.763	5073.48548
805.951	5140.3224
806.138	5127.79229
806.326	5273.92473
806.513	4981.54601
806.701	5353.20583
806.888	4989.90599
807.075	5286.44505
807.263	4964.82494
807.45	5194.60986
807.638	5159.11599
807.825	5071.39645
808.012	4956.46386
808.2	5081.8414
808.387	5040.05813
808.574	5148.67534
808.761	5182.08338
808.949	5138.2341
809.136	5202.96038
809.323	5390.74822
809.51	5198.78517
809.698	5259.31663
809.885	5127.79229
810.072	4981.54601
810.259	5205.04796
810.446	5344.86204
810.633	5157.02791
810.82	5407.43129
811.008	5037.96872
811.195	5182.08338
811.382	5006.62485
811.569	5292.70489
811.756	5014.98372
811.943	5309.39677
812.13	5194.60986
812.317	5432.45307
812.504	5134.05745
812.691	5478.31754
812.878	5207.1355
813.064	5332.34566
813.251	5250.96863
813.438	5501.2455
813.625	5242.62026
813.812	5298.96452
813.999	5250.96863
814.186	5467.89479
814.372	5188.34673
814.559	5419.9426
814.746	5182.08338
814.933	5399.08994
815.12	5246.79449
815.306	5027.52134
815.493	5027.52134
815.68	5213.39801
815.866	5209.22303
816.053	5328.17335
816.24	5140.3224
816.426	5298.96452
816.613	5088.10809
816.799	5401.17531
816.986	5100.64085
817.173	5271.83793
817.359	4989.90599
817.546	5123.6154
817.732	4906.28962
817.919	5182.08338
818.105	4977.36588
818.292	5165.38011
818.478	4877.01521
818.665	5113.17277
818.851	4847.73632
819.037	5215.48547
819.224	5058.86174
819.41	5209.22303
819.597	5058.86174
819.783	5232.18427
819.969	5269.75111
820.156	5269.75111
820.342	5056.77255
820.528	5019.16302
820.714	5058.86174
820.901	5207.1355
821.087	4931.37839
821.273	5184.17119
821.459	4987.81603
821.646	5207.1355
821.832	5127.79229
822.018	5407.43129
822.204	4864.46767
822.39	4958.55416
822.576	5098.55211
822.762	4975.27578
822.948	4939.74058
823.134	5213.39801
823.32	4831.00352
823.507	4889.56194
823.693	4787.07298
823.879	4977.36588
824.065	4885.37979
824.25	4860.28497
824.436	4661.50209
824.622	5042.14751
824.808	4701.27499
824.994	4782.88859
825.18	4588.21501
825.366	5142.41067
825.552	4766.15015
825.738	5048.41552
825.923	4973.18566
826.109	5006.62485
826.295	4707.55418
826.481	4851.9193
826.667	4764.05774
826.852	4964.82494
827.038	4950.1928
827.224	5050.50481
827.409	4630.0967
827.595	5207.1355
827.781	4764.05774
827.966	5136.14579
828.152	4663.5956
828.338	4822.63657
828.523	4565.17628
828.709	4657.31499
828.894	4489.75803
829.08	4665.68909
829.266	4728.48335
829.451	4690.80923
829.637	4458.32531
829.822	4410.11889
830.008	4479.28101
830.193	4563.08172
830.378	4479.28101
830.564	4732.66891
830.749	4437.36742
830.935	4609.15697
831.12	4403.83024
831.305	4770.3349
831.491	4269.62593
831.676	4711.7402
831.861	4516.99571
832.047	4784.9808
832.232	4282.21133
832.417	4709.6472
832.602	4397.5414
832.788	4663.5956
832.973	4504.42493
833.158	4546.32441
833.343	4403.83024
833.528	4743.13242
833.714	4387.05955
833.899	4697.08876
834.084	4445.75084
834.269	4688.71601
834.454	4202.49077
834.639	4657.31499
834.824	4496.04398
835.009	4749.41026
835.194	4489.75803
835.379	4590.30931
835.564	4533.7555
835.749	4546.32441
835.934	4244.4528
836.119	4269.62593
836.304	4248.64854
836.489	4317.86579
836.674	4152.12515
836.859	4252.84418
837.044	4210.88386
837.228	4206.68736
837.413	3942.13919
837.598	4546.32441
837.783	4252.84418
837.968	4257.03975
838.152	4042.95822
838.337	4338.83608
838.522	4238.15904
838.707	4221.37474
838.891	4129.03685
839.076	4278.01628
839.261	4084.95216
839.445	4454.13391
839.63	4110.14454
839.815	4332.54522
839.999	4164.71769
840.184	4219.2766
840.368	4215.08027
840.553	4319.96291
840.737	4042.95822
840.922	4227.66901
841.106	3879.10354
841.291	4030.35842
841.475	3900.11744
841.66	4093.34995
841.844	3660.44225
842.029	3940.03829
842.213	3942.13919
842.397	4171.01368
842.582	3765.59421
842.766	4036.65841
842.951	3790.82347
843.135	3904.31997
843.319	3746.67042
843.504	3736.15652
843.688	3580.49491
843.872	3944.24006
844.056	3790.82347
844.241	3963.14703
844.425	3774.00428
844.609	3910.62363
844.793	3723.53921
844.977	3986.25331
845.161	3622.57584
845.346	3853.88424
845.53	3736.15652
845.714	3731.95083
845.898	3635.19866
846.082	3870.69743
846.266	3805.53924
846.45	3952.64336
846.634	3799.2326
846.818	3824.45809
847.002	3420.52016
847.186	3759.28646
847.37	3534.19728
847.554	3498.41574
847.738	3527.88327
847.922	3767.69676
848.106	3515.25477
848.29	3635.19866
848.473	3534.19728
848.657	3656.23517
848.841	3449.99706
849.025	3799.2326
849.209	3479.47044
849.392	3620.47197
849.576	3492.1008
849.76	3534.19728
849.944	3540.51112
850.127	3643.61349
850.311	3475.26017
850.495	3601.53631
850.678	3574.18212
850.862	3744.56768
851.046	3363.66206
851.229	3471.04983
851.413	3323.64315
851.596	3481.57554
851.78	3437.36453
851.964	3462.62894
852.147	3222.51527
852.331	3329.96234
852.514	3140.3206
852.698	3384.72211
852.881	3115.02497
853.065	3254.12191
853.248	3100.26812
853.431	3167.72158
853.615	3049.66735
853.798	3329.96234
853.982	3226.7297
854.165	3254.12191
854.348	3083.4022
854.532	3218.30076
854.715	3028.58105
854.898	3279.40451
855.081	3081.29389
855.265	3258.33585
855.448	2986.40385
855.631	3230.94407
855.814	3068.64369
855.997	3188.79739
856.181	3085.51049
856.364	3235.15838
856.547	3024.3636
856.73	3193.01236
856.913	2847.17695
857.096	3203.54948
857.279	3066.53527
857.462	2999.05765
857.645	2788.09221
857.828	2935.78326
858.011	2823.96639
858.194	2880.93473
858.377	2847.17695
858.56	3003.27546
858.743	2764.87741
858.926	2834.51686
859.109	2872.49563
859.292	2851.39687
859.475	2627.66651
859.658	2887.2639
859.841	2775.4298
860.023	2842.95698
860.206	2728.99679
860.389	2878.82497
860.572	2614.99818
860.755	2686.77942
860.937	2524.19581
861.12	2872.49563
861.303	2541.09093
861.486	2691.00139
861.668	2583.32544
861.851	2659.33537
862.034	2500.96382
862.216	2777.54023
862.399	2494.62759
862.581	2667.77992
862.764	2492.51549
862.947	2534.75534
863.129	2473.50608
863.312	2722.66451
863.494	2775.4298
863.677	2804.97467
863.859	2471.39387
864.042	2644.55692
864.224	2473.50608
864.406	2773.31935
864.589	2583.32544
864.771	2769.0984
864.954	2443.93412
865.136	2686.77942
865.318	2234.76072
865.501	2543.20276
865.683	2369.99506
865.865	2629.77785
866.048	2350.98012
866.23	2735.32894
866.412	2538.97908
866.594	2555.87354
866.777	2386.89654
866.959	2315.06082
867.141	2300.26971
867.323	2547.4264
867.505	2255.89361
867.687	2568.5439
867.869	2393.23442
868.052	2408.02246
868.234	2160.78876
868.416	2334.07727
868.598	2382.67123
868.78	2376.33319
868.962	2274.91244
869.144	2469.28165
869.326	2283.36501
869.508	2492.51549
869.69	2401.68479
869.872	2517.85995
870.054	2353.09293
870.236	2462.94491
870.417	2293.93052
870.599	2213.62694
870.781	2143.87946
870.963	2317.1738
871.145	2205.17319
871.327	2209.40008
871.508	2038.18519
871.69	2433.37218
871.872	2255.89361
872.054	2342.52877
872.235	2112.17315
872.417	2188.26527
872.599	2088.92075
872.78	2224.19394
872.962	2158.67513
873.144	2173.4704
873.325	2057.21151
873.507	2338.30304
873.689	2091.03465
873.87	2215.74036
874.052	2181.92466
874.233	2129.0834
874.415	2192.4923
874.596	2534.75534
874.778	2000.13091
874.959	2141.76576
875.141	1947.27429
875.322	2063.55349
875.503	2044.52736
875.685	2310.83484
875.866	2040.29926
876.048	2129.0834
876.229	1962.07453
876.41	2099.49014
876.592	2099.49014
876.773	2342.52877
876.954	1930.35937
877.136	2281.25188
877.317	2076.23725
877.498	2143.87946
877.679	1945.15995
877.86	2196.7193
878.042	2059.32551
878.223	2317.1738
878.404	1985.33145
878.585	2179.81111
878.766	2002.24509
878.947	2224.19394
879.128	2260.12008
879.309	2238.98737
879.49	2137.53834
879.672	2310.83484
879.853	2230.53403
880.034	2374.22049
880.215	2150.22051
880.396	2260.12008
880.576	2165.01601
880.757	2418.58503
880.938	2112.17315
881.119	2348.8673
881.3	2097.37627
881.481	2393.23442
881.662	2215.74036
881.843	2298.15665
882.023	2207.28664
882.204	2414.36003
882.385	2120.62833
882.566	2342.52877
882.747	2000.13091
882.927	2226.30731
883.108	2027.61478
883.289	2184.03821
883.469	1911.32966
883.65	2112.17315
883.831	2086.80686
884.011	2298.15665
884.192	2025.50067
884.373	2247.44056
884.553	2258.00685
884.734	2312.94783
884.914	2112.17315
885.095	2162.90239
885.275	2063.55349
885.456	2403.79736
885.636	2122.74211
885.817	2399.57222
885.997	2133.31088
886.178	2247.44056
886.358	2105.83168
886.538	2145.99315
886.719	2241.10068
886.899	2291.81743
887.08	2120.62833
887.26	2258.00685
887.44	2110.05933
887.621	2469.28165
887.801	2067.78144
887.981	2353.09293
888.161	2027.61478
888.342	2241.10068
888.522	2036.07112
888.702	2287.59124
888.882	2152.33418
889.062	2496.73968
889.242	2338.30304
889.423	2298.15665
889.603	2086.80686
889.783	2247.44056
889.963	2044.52736
890.143	2272.79927
890.323	2175.58398
890.503	2287.59124
890.683	2112.17315
890.863	2302.38275
891.043	2031.84296
891.223	2291.81743
891.403	2211.51352
891.583	2450.27115
891.763	2023.38656
891.943	2369.99506
892.122	2061.4395
892.302	2435.48459
892.482	2124.85588
892.662	2179.81111
892.842	2012.81591
893.022	2315.06082
893.201	2061.4395
893.381	2306.60881
893.561	2014.93006
893.741	2300.26971
893.92	2046.6414
894.1	2192.4923
894.28	2017.04419
894.459	2010.70176
894.639	2025.50067
894.819	2198.83278
894.998	2072.00936
895.178	2171.35682
895.357	2103.71784
895.537	2074.12331
895.716	2209.40008
895.896	2126.96964
896.075	1858.46705
896.255	2019.15832
896.434	1822.51869
896.614	2021.27245
896.793	1858.46705
896.973	1955.73161
897.152	1883.84151
897.331	1858.46705
897.511	1797.14259
897.69	1968.4174
897.87	1858.46705
898.049	1892.2995
898.228	1801.37199
898.407	1894.41398
898.587	1750.61819
898.766	1822.51869
898.945	1666.02399
899.124	1835.2065
899.304	1693.51765
899.483	1830.97725
899.662	1682.94322
899.841	1718.89597
900.02	1674.48363
900.199	1824.63334
900.378	1820.40404
900.557	1858.46705
900.737	1655.44938
900.916	1835.2065
901.095	1575.08049
901.274	1775.99537
901.453	1587.7705
901.632	1674.48363
901.811	1482.01906
901.989	1566.62045
902.168	1340.31125
902.347	1469.32875
902.526	1391.07193
902.705	1397.41706
902.884	1367.80654
903.063	1613.15033
903.242	1511.6297
903.42	1583.5405
903.599	1435.48792
903.778	1594.11548
903.957	1245.1376
904.135	1545.47026
904.314	1317.0462
904.493	1479.90401
904.672	1291.6664
904.85	1300.1263
905.029	1158.4287
905.207	1312.81621
905.386	1204.95472
905.565	1380.49674
905.743	1304.35626
905.922	1367.80654
906.1	1097.10198
906.279	1300.1263
906.457	1116.13401
906.636	1298.01132
906.814	1025.20702
906.993	1120.3634
907.171	1063.26828
907.35	1063.26828
907.528	913.14974
907.707	1059.03916
907.885	885.66711
908.063	1147.85487
908.242	987.14771
908.42	1046.35194
908.598	927.94863
908.777	1048.46646
908.955	927.94863
909.133	1054.81006
909.311	1004.06271
909.49	989.26206
909.668	868.75541
909.846	966.00455
910.024	911.03565
910.202	961.776
910.38	856.07198
910.559	995.60516
910.737	847.61653
910.915	972.34743
911.093	942.74787
911.271	1080.18497
911.449	877.21119
911.627	936.4053
911.805	820.1373
911.983	877.21119
912.161	851.84424
912.339	1029.43596
912.517	858.18586
912.695	1137.28114
912.872	1004.06271
913.05	1012.52036
913.228	944.86208
913.406	1078.07036
913.584	997.71953
913.762	1042.12291
913.939	894.12316
914.117	1078.07036
914.295	1020.97811
914.473	1004.06271
914.65	879.32516
914.828	1101.33129
915.006	963.89027
915.184	1048.46646
915.361	1016.74922
915.539	1027.32149
915.716	944.86208
915.894	1035.77941
916.072	1033.66492
916.249	1128.82223
916.427	1097.10198
916.604	1185.92113
916.782	997.71953
916.959	1122.4781
917.137	900.46529
917.314	1130.93695
917.492	868.75541
917.669	980.80469
917.847	966.00455
918.024	974.46173
918.201	864.52756
918.379	953.31898
918.556	820.1373
918.733	1037.8939
918.911	684.87899
919.088	921.6062
919.265	699.67076
919.442	784.20528
919.62	809.56877
919.797	860.29975
919.974	699.67076
920.151	927.94863
920.328	805.34143
920.506	837.04742
920.683	777.86462
920.86	936.4053
921.037	741.93593
921.214	815.90986
921.391	708.12345
921.568	699.67076
921.745	796.88685
921.922	843.38886
922.099	750.38947
922.276	851.84424
922.453	686.99207
922.63	621.49217
922.807	712.34986
922.984	834.93362
923.161	623.60489
923.338	803.22777
923.514	634.16867
923.691	750.38947
923.868	708.12345
924.045	773.63756
924.222	651.07135
924.399	691.21826
924.575	566.56597
924.752	792.65962
924.929	558.11657
925.105	655.29714
925.282	505.31286
925.459	729.25593
925.635	655.29714
925.812	693.33136
925.989	511.64884
926.165	693.33136
926.342	589.80291
926.518	642.61991
926.695	463.07638
926.871	619.37947
927.048	541.21844
927.224	575.01558
927.401	482.08206
927.577	551.77967
927.754	401.84439
927.93	560.2289
928.107	482.08206
928.283	439.84889
928.459	496.86509
928.636	437.73739
928.812	403.95561
928.988	482.08206
929.165	469.41147
929.341	429.29157
929.517	376.51098
929.693	463.07638
929.87	397.62199
930.046	450.40661
930.222	420.84599
930.398	374.39997
930.574	412.40067
930.751	412.40067
930.927	389.17739
931.103	469.41147
931.279	353.29082
931.455	363.84518
931.631	363.84518
931.807	425.06875
931.983	414.51198
932.159	378.62201
932.335	302.63595
932.511	344.84764
932.687	311.07772
932.863	393.39965
933.039	332.18339
933.215	294.19448
933.391	218.23472
933.566	251.99156
933.742	311.07772
933.918	243.55189
934.094	340.62615
934.27	285.7533
934.445	260.43154
934.621	296.30482
934.797	226.67346
934.973	169.71819
935.148	211.90588
935.324	203.46769
935.5	205.57721
935.675	233.00273
935.851	226.67346
936.027	135.97399
936.202	146.51847
936.378	220.34438
936.553	146.51847
936.729	224.56375
936.904	154.95444
937.08	133.86516
937.255	119.10394
937.431	129.64756
937.606	91.69308
937.782	163.39074
937.957	178.15507
938.133	123.32132
938.308	161.28164
938.483	125.43005
938.659	176.04582
938.834	154.95444
939.009	100.12679
939.185	154.95444
939.36	203.46769
939.535	129.64756
939.71	47.42198
939.886	74.82672
940.061	83.25972
940.236	41.09836
940.411	57.9618
940.586	100.12679
940.761	188.70164
940.937	114.88664
941.112	108.56086
941.287	79.04317
941.462	127.53879
941.637	121.21262
941.812	91.69308
941.987	79.04317
942.162	24.2364
942.337	79.04317
942.512	17.91356
942.687	87.47635
942.862	83.25972
943.037	142.30062
943.212	26.34407
943.386	45.31408
943.561	83.25972
943.736	91.69308
943.911	104.34378
944.086	102.23527
944.26	20.02115
944.435	15.80599
944.61	91.69308
944.785	24.2364
944.959	57.9618
945.134	108.56086
945.309	45.31408
945.483	49.5299
945.658	51.63784
945.833	53.7458
946.007	49.5299
946.182	36.88273
946.357	9.48343
946.531	49.5299
946.706	53.7458
946.88	-22.12611
947.055	43.20621
947.229	100.12679
947.404	62.17789
947.578	68.5022
947.752	24.2364
947.927	68.5022
948.101	41.09836
948.276	87.47635
948.45	176.04582
948.624	60.06984
948.799	108.56086
948.973	102.23527
949.147	76.93493
949.321	62.17789
949.496	32.66719
949.67	43.20621
949.844	100.12679
950.018	66.39408
950.193	17.91356
950.367	32.66719
950.541	87.47635
950.715	64.28597
950.889	49.5299
951.063	57.9618
951.237	79.04317
951.411	24.2364
951.585	85.36802
951.759	150.73642
951.933	49.5299
952.107	125.43005
952.281	104.34378
952.455	57.9618
952.629	-3.16104
952.803	53.7458
952.977	91.69308
953.151	110.66943
953.325	79.04317
953.499	91.69308
953.672	62.17789
953.846	83.25972
954.02	108.56086
954.194	112.77803
954.368	49.5299
954.541	119.10394
954.715	9.48343
954.889	93.80147
955.062	87.47635
955.236	159.17255
955.41	116.99528
955.583	159.17255
955.757	32.66719
955.93	41.09836
956.104	66.39408
956.278	53.7458
956.451	87.47635
956.625	152.84542
956.798	-41.08919
956.972	49.5299
957.145	74.82672
957.319	60.06984
957.492	28.45175
957.665	93.80147
957.839	104.34378
958.012	106.45231
958.185	20.02115
958.359	70.61035
958.532	41.09836
958.705	47.42198
958.879	135.97399
959.052	91.69308
959.225	119.10394
959.398	66.39408
959.572	32.66719
959.745	76.93493
959.918	64.28597
960.091	24.2364
960.264	95.90989
960.438	138.08285
960.611	98.01833
960.784	41.09836
960.957	41.09836
961.13	108.56086
961.303	57.9618
961.476	-13.69743
961.649	85.36802
961.822	110.66943
961.995	129.64756
962.168	11.59093
962.341	114.88664
962.514	26.34407
962.686	87.47635
962.859	32.66719
963.032	95.90989
963.205	62.17789
963.378	76.93493
963.551	68.5022
963.723	91.69308
963.896	24.2364
964.069	47.42198
964.242	68.5022
964.414	108.56086
964.587	93.80147
964.76	102.23527
964.932	74.82672
965.105	68.5022
965.278	70.61035
965.45	140.19172
965.623	60.06984
965.795	83.25972
965.968	28.45175
966.14	49.5299
966.313	64.28597
966.485	53.7458
966.658	-15.80464
966.83	91.69308
967.003	85.36802
967.175	-1.05368
967.348	70.61035
967.52	119.10394
967.692	121.21262
967.865	36.88273
968.037	85.36802
968.209	150.73642
968.382	9.48343
968.554	79.04317
968.726	45.31408
968.898	24.2364
969.071	121.21262
969.243	85.36802
969.415	91.69308
969.587	11.59093
969.759	51.63784
969.932	83.25972
970.104	91.69308
970.276	57.9618
970.448	81.15143
970.62	24.2364
970.792	49.5299
970.964	93.80147
971.136	150.73642
971.308	45.31408
971.48	51.63784
971.652	38.99053
971.824	102.23527
971.996	66.39408
972.168	24.2364
972.339	60.06984
972.511	28.45175
972.683	15.80599
972.855	55.85379
973.027	104.34378
973.199	-9.48295
973.37	1.05369
973.542	66.39408
973.714	45.31408
973.886	83.25972
974.057	47.42198
974.229	49.5299
974.401	13.69845
974.572	7.37596
974.744	68.5022
974.915	66.39408
975.087	20.02115
975.259	60.06984
975.43	57.9618
975.602	28.45175
975.773	114.88664
975.945	66.39408
976.116	72.71852
976.288	11.59093
976.459	53.7458
976.63	32.66719
976.802	30.55946
976.973	-3.16104
977.145	41.09836
977.316	34.77495
977.487	68.5022
977.659	1.05369
977.83	85.36802
978.001	53.7458
978.172	7.37596
978.344	22.12877
978.515	36.88273
978.686	62.17789
978.857	60.06984
979.028	64.28597
979.2	66.39408
979.371	-76.90279
979.542	108.56086
979.713	-26.3403
979.884	26.34407
980.055	32.66719
980.226	32.66719
980.397	-24.23321
980.568	51.63784
980.739	49.5299
980.91	3.16109
981.081	64.28597
981.252	3.16109
981.423	-15.80464
981.594	34.77495
981.765	74.82672
981.936	121.21262
982.106	-32.6614
982.277	9.48343
982.448	34.77495
982.619	9.48343
982.79	-5.26836
982.96	7.37596
983.131	43.20621
983.302	34.77495
983.472	-13.69743
983.643	95.90989
983.814	83.25972
983.984	3.16109
984.155	32.66719
984.326	76.93493
984.496	57.9618
984.667	-9.48295
984.837	43.20621
985.008	57.9618
985.178	49.5299
985.349	133.86516
985.519	24.2364
985.69	-26.3403
985.86	45.31408
986.031	34.77495
986.201	43.20621
986.371	68.5022
986.542	53.7458
986.712	-1.05368
986.882	-1.05368
987.053	74.82672
987.223	49.5299
987.393	57.9618
987.563	36.88273
987.734	79.04317
987.904	47.42198
988.074	32.66719
988.244	28.45175
988.414	38.99053
988.585	85.36802
988.755	76.93493
988.925	7.37596
989.095	51.63784
989.265	49.5299
989.435	41.09836
989.605	-57.94356
989.775	32.66719
989.945	11.59093
990.115	100.12679
990.285	70.61035
990.455	24.2364
990.625	45.31408
990.795	-34.76838
990.965	83.25972
991.134	83.25972
991.304	3.16109
991.474	24.2364
991.644	74.82672
991.814	133.86516
991.984	26.34407
992.153	15.80599
992.323	-9.48295
992.493	-1.05368
992.662	43.20621
992.832	60.06984
993.002	-34.76838
993.171	57.9618
993.341	125.43005
993.511	51.63784
993.68	17.91356
993.85	68.5022
994.019	-9.48295
994.189	7.37596
994.358	26.34407
994.528	45.31408
994.697	-3.16104
994.867	17.91356
995.036	55.85379
995.206	17.91356
995.375	45.31408
995.544	93.80147
995.714	53.7458
995.883	20.02115
996.052	7.37596
996.222	13.69845
996.391	49.5299
996.56	68.5022
996.73	24.2364
996.899	-5.26836
997.068	-53.73012
997.237	49.5299
997.406	43.20621
997.576	-17.91182
997.745	-1.05368
997.914	-47.40976
998.083	91.69308
998.252	43.20621
998.421	49.5299
998.59	51.63784
998.759	-45.30293
998.928	-51.62336
999.097	15.80599
999.266	112.77803
999.435	89.5847
999.604	-1.05368
999.773	-28.44736
999.942	95.90989
1000.111	9.48343
1000.28	76.93493
1000.448	47.42198
1000.617	17.91356
1000.786	28.45175
1000.955	68.5022
1001.124	116.99528
1001.292	-1.05368
1001.461	28.45175
1001.63	-1.05368
1001.798	-20.01897
1001.967	32.66719
1002.136	-15.80464
1002.304	36.88273
1002.473	3.16109
1002.642	17.91356
1002.81	-22.12611
1002.979	15.80599
1003.147	36.88273
1003.316	62.17789
1003.484	100.12679
1003.653	110.66943
1003.821	17.91356
1003.99	-1.05368
1004.158	20.02115
1004.327	-26.3403
1004.495	32.66719
1004.663	41.09836
1004.832	83.25972
1005	7.37596
1005.168	15.80599
1005.337	-9.48295
1005.505	32.66719
1005.673	57.9618
1005.842	7.37596
1006.01	60.06984
1006.178	-9.48295
1006.346	-41.08919
1006.514	-26.3403
1006.683	62.17789
1006.851	-1.05368
1007.019	26.34407
1007.187	-3.16104
1007.355	85.36802
1007.523	9.48343
1007.691	-17.91182
1007.859	32.66719
1008.027	-13.69743
1008.195	-9.48295
1008.363	-7.37567
1008.531	-1.05368
1008.699	51.63784
1008.867	-13.69743
1009.035	28.45175
1009.203	5.26851
1009.37	-15.80464
1009.538	17.91356
1009.706	26.34407
1009.874	38.99053
1010.042	-30.55439
1010.209	-11.5902
1010.377	83.25972
1010.545	-24.23321
1010.713	53.7458
1010.88	-13.69743
1011.048	60.06984
1011.216	28.45175
1011.383	28.45175
1011.551	-38.98228
1011.718	7.37596
1011.886	-38.98228
1012.054	-47.40976
1012.221	57.9618
1012.389	66.39408
1012.556	-34.76838
1012.724	32.66719
1012.891	15.80599
1013.058	-22.12611
1013.226	28.45175
1013.393	32.66719
1013.561	7.37596
1013.728	7.37596
1013.895	-26.3403
1014.063	51.63784
1014.23	-36.87534
1014.397	7.37596
1014.565	-7.37567
1014.732	28.45175
1014.899	-1.05368
1015.066	-32.6614
1015.233	3.16109
1015.401	9.48343
1015.568	20.02115
1015.735	38.99053
1015.902	43.20621
1016.069	15.80599
1016.236	11.59093
1016.403	-41.08919
1016.57	17.91356
1016.737	49.5299
1016.904	-43.19607
1017.071	66.39408
1017.238	64.28597
1017.405	9.48343
1017.572	70.61035
1017.739	7.37596
1017.906	28.45175
1018.073	-3.16104
1018.24	32.66719
1018.407	7.37596
1018.573	47.42198
1018.74	3.16109
1018.907	62.17789
1019.074	-89.54113
1019.241	24.2364
1019.407	15.80599
1019.574	-36.87534
1019.741	3.16109
1019.907	-1.05368
1020.074	9.48343
1020.241	1.05369
1020.407	-5.26836
1020.574	74.82672
1020.74	15.80599
1020.907	110.66943
1021.073	38.99053
1021.24	-7.37567
1021.406	-9.48295
1021.573	28.45175
1021.739	-1.05368
1021.906	-89.54113
1022.072	32.66719
1022.239	-7.37567
1022.405	-34.76838
1022.571	62.17789
1022.738	7.37596
1022.904	41.09836
1023.07	-17.91182
1023.237	11.59093
1023.403	15.80599
1023.569	-1.05368
1023.735	15.80599
1023.902	3.16109
1024.068	9.48343
1024.234	-22.12611
1024.4	-57.94356
1024.566	-13.69743
1024.732	9.48343
1024.898	7.37596
1025.065	55.85379
1025.231	-9.48295
1025.397	-106.39078
1025.563	-36.87534
1025.729	93.80147
1025.895	24.2364
1026.061	-51.62336
1026.227	-51.62336
1026.392	-15.80464
1026.558	-43.19607
1026.724	17.91356
1026.89	-5.26836
1027.056	-22.12611
1027.222	7.37596
1027.388	72.71852
1027.553	-5.26836
1027.719	20.02115
1027.885	53.7458
1028.051	66.39408
1028.216	20.02115
1028.382	-34.76838
1028.548	-28.44736
1028.713	13.69845
1028.879	53.7458
1029.045	-5.26836
1029.21	-9.48295
1029.376	15.80599
1029.541	-110.60293
1029.707	-22.12611
1029.873	32.66719
1030.038	26.34407
1030.204	24.2364
1030.369	-13.69743
1030.534	-9.48295
1030.7	26.34407
1030.865	-26.3403
1031.031	-1.05368
1031.196	-41.08919
1031.361	-1.05368
1031.527	26.34407
1031.692	-13.69743
1031.857	1.05369
1032.023	24.2364
1032.188	9.48343
1032.353	55.85379
1032.518	70.61035
1032.684	-36.87534
1032.849	51.63784
1033.014	-34.76838
1033.179	-22.12611
1033.344	-24.23321
1033.509	7.37596
1033.674	9.48343
1033.839	-9.48295
1034.004	-57.94356
1034.17	-17.91182
1034.335	-1.05368
1034.5	1.05369
1034.664	-9.48295
1034.829	41.09836
1034.994	-60.05024
1035.159	-1.05368
1035.324	1.05369
1035.489	24.2364
1035.654	32.66719
1035.819	-20.01897
1035.984	36.88273
1036.148	91.69308
1036.313	51.63784
1036.478	41.09836
1036.643	-34.76838
1036.807	-41.08919
1036.972	17.91356
1037.137	-7.37567
1037.301	7.37596
1037.466	24.2364
1037.631	-32.6614
1037.795	110.66943
1037.96	28.45175
1038.124	-17.91182
1038.289	45.31408
1038.454	-9.48295
1038.618	62.17789
1038.783	-1.05368
1038.947	11.59093
1039.111	41.09836
1039.276	95.90989
1039.44	28.45175
1039.605	15.80599
1039.769	112.77803
1039.933	-5.26836
1040.098	-9.48295
1040.262	-15.80464
1040.426	-34.76838
1040.591	3.16109
1040.755	-17.91182
1040.919	-51.62336
1041.083	49.5299
1041.248	9.48343
1041.412	36.88273
1041.576	-9.48295
1041.74	-26.3403
1041.904	-55.83685
1042.068	-55.83685
1042.232	13.69845
1042.397	-51.62336
1042.561	-22.12611
1042.725	41.09836
1042.889	-60.05024
1043.053	-34.76838
1043.217	5.26851
1043.381	26.34407
1043.544	47.42198
1043.708	-36.87534
1043.872	1.05369
1044.036	-1.05368
1044.2	-5.26836
1044.364	57.9618
1044.528	-22.12611
1044.691	34.77495
1044.855	34.77495
1045.019	15.80599
1045.183	9.48343
1045.346	36.88273
1045.51	24.2364
1045.674	32.66719
1045.837	45.31408
1046.001	-13.69743
1046.165	7.37596
1046.328	1.05369
1046.492	20.02115
1046.655	-3.16104
1046.819	-15.80464
1046.983	36.88273
1047.146	-9.48295
1047.31	49.5299
1047.473	43.20621
1047.636	1.05369
1047.8	15.80599
1047.963	24.2364
1048.127	45.31408
1048.29	24.2364
