Data from mixed_try1_USB4F045381__27__00049.txt Node

Date: Thu Apr 03 19:34:55 EDT 2025
User: mmckonesweet
Spectrometer: USB4F04538
Trigger mode: 4
Integration Time (sec): 2.700000E-3
Scans to average: 1
Electric dark correction enabled: true
Nonlinearity correction enabled: true
Boxcar width: 0
XAxis mode: Wavelengths
Number of Pixels in Spectrum: 3648
>>>>>Begin Spectral Data<<<<<
345.52	-25.63794
345.736	-25.63794
345.952	-25.63794
346.168	-15.10224
346.384	33.36978
346.6	-40.38689
346.816	81.85419
347.032	-61.45468
347.248	56.55646
347.464	67.09678
347.68	39.69314
347.896	14.40096
348.112	-34.06606
348.328	-40.38689
348.544	-36.17303
348.76	-27.74501
348.975	-19.31659
349.191	-42.49378
349.407	-15.10224
349.623	-31.95906
349.839	5.97099
350.055	-23.53085
350.27	-25.63794
350.486	52.34049
350.702	-10.88778
350.918	35.47754
351.133	-25.63794
351.349	39.69314
351.565	73.42125
351.781	-15.10224
351.996	-53.02787
352.212	29.15432
352.428	-8.78052
352.644	-12.99502
352.859	-57.24133
353.075	-69.8811
353.291	56.55646
353.506	18.61609
353.722	-10.88778
353.938	-59.34802
354.153	24.93896
354.369	-59.34802
354.584	14.40096
354.8	-76.20064
355.016	-6.67324
355.231	-21.42373
355.447	29.15432
355.662	-34.06606
355.878	-36.17303
356.093	18.61609
356.309	-57.24133
356.524	71.31307
356.74	-50.9211
356.955	-44.60065
357.171	-44.60065
357.386	-57.24133
357.602	5.97099
357.817	-2.45859
358.033	-10.88778
358.248	29.15432
358.464	-71.98763
358.679	37.58533
358.895	-10.88778
359.11	-61.45468
359.325	-40.38689
359.541	-90.94533
359.756	-4.56592
359.972	16.50851
360.187	-25.63794
360.402	-78.3071
360.618	14.40096
360.833	-82.51994
361.048	-25.63794
361.264	-65.66794
361.479	-61.45468
361.694	-78.3071
361.909	-17.20943
362.125	60.77252
362.34	37.58533
362.555	-15.10224
362.77	-67.77453
362.986	-23.53085
363.201	64.98867
363.416	-12.99502
363.631	-71.98763
363.847	8.07845
364.062	56.55646
364.277	22.83131
364.492	-120.43087
364.707	-36.17303
364.922	-145.70005
365.138	-42.49378
365.353	33.36978
365.568	-53.02787
365.783	8.07845
365.998	16.50851
366.213	-17.20943
366.428	5.97099
366.643	-6.67324
366.858	-61.45468
367.073	-86.73269
367.288	-34.06606
367.503	-69.8811
367.718	16.50851
367.933	14.40096
368.148	-48.81431
368.363	5.97099
368.578	10.18593
368.793	-31.95906
369.008	-61.45468
369.223	1.75615
369.438	-6.67324
369.653	-2.45859
369.868	1.75615
370.083	5.97099
370.298	-50.9211
370.513	-2.45859
370.728	-15.10224
370.943	-10.88778
371.157	-17.20943
371.372	3.86356
371.587	-10.88778
371.802	-95.15786
372.017	8.07845
372.232	58.66448
372.446	-2.45859
372.661	-8.78052
372.876	-59.34802
373.091	-2.45859
373.306	-55.13461
373.52	-2.45859
373.735	5.97099
373.95	-36.17303
374.165	-19.31659
374.379	-23.53085
374.594	-69.8811
374.809	-2.45859
375.023	1.75615
375.238	-15.10224
375.453	-12.99502
375.667	-67.77453
375.882	-15.10224
376.097	-8.78052
376.311	-42.49378
376.526	29.15432
376.741	-10.88778
376.955	-23.53085
377.17	50.23254
377.384	-65.66794
377.599	5.97099
377.813	5.97099
378.028	54.44846
378.242	-15.10224
378.457	14.40096
378.672	24.93896
378.886	39.69314
379.101	-25.63794
379.315	52.34049
379.53	-29.85205
379.744	-10.88778
379.958	22.83131
380.173	27.04663
380.387	-57.24133
380.602	-29.85205
380.816	-8.78052
381.031	-27.74501
381.245	16.50851
381.459	35.47754
381.674	-59.34802
381.888	-23.53085
382.103	-17.20943
382.317	-6.67324
382.531	-25.63794
382.746	58.66448
382.96	-38.27997
383.174	-46.70749
383.388	-38.27997
383.603	50.23254
383.817	-0.35123
384.031	-4.56592
384.246	73.42125
384.46	-44.60065
384.674	-27.74501
384.888	18.61609
385.103	27.04663
385.317	-53.02787
385.531	16.50851
385.745	-44.60065
385.959	-40.38689
386.174	10.18593
386.388	-48.81431
386.602	-2.45859
386.816	5.97099
387.03	8.07845
387.244	-53.02787
387.458	24.93896
387.672	3.86356
387.887	29.15432
388.101	22.83131
388.315	-44.60065
388.529	-19.31659
388.743	-19.31659
388.957	12.29343
389.171	18.61609
389.385	-2.45859
389.599	-78.3071
389.813	-65.66794
390.027	-86.73269
390.241	-27.74501
390.455	-38.27997
390.669	-84.62633
390.883	-10.88778
391.097	52.34049
391.311	18.61609
391.525	-139.38312
391.738	5.97099
391.952	-2.45859
392.166	-59.34802
392.38	-6.67324
392.594	39.69314
392.808	18.61609
393.022	14.40096
393.236	58.66448
393.449	-27.74501
393.663	-34.06606
393.877	22.83131
394.091	60.77252
394.305	-42.49378
394.518	-38.27997
394.732	20.72369
394.946	-44.60065
395.16	-40.38689
395.373	-86.73269
395.587	22.83131
395.801	-23.53085
396.015	16.50851
396.228	-8.78052
396.442	-17.20943
396.656	-19.31659
396.869	-19.31659
397.083	-27.74501
397.297	35.47754
397.51	31.26204
397.724	-15.10224
397.938	41.80097
398.151	-8.78052
398.365	-23.53085
398.578	-19.31659
398.792	-17.20943
399.005	-53.02787
399.219	-19.31659
399.433	-2.45859
399.646	-6.67324
399.86	-40.38689
400.073	56.55646
400.287	73.42125
400.5	-80.41353
400.714	-4.56592
400.927	22.83131
401.141	27.04663
401.354	-2.45859
401.567	-53.02787
401.781	5.97099
401.994	58.66448
402.208	22.83131
402.421	-19.31659
402.635	-36.17303
402.848	14.40096
403.061	-10.88778
403.275	-19.31659
403.488	-2.45859
403.701	-29.85205
403.915	-0.35123
404.128	18.61609
404.341	-15.10224
404.555	-38.27997
404.768	-48.81431
404.981	50.23254
405.195	-23.53085
405.408	41.80097
405.621	-10.88778
405.834	-0.35123
406.048	73.42125
406.261	56.55646
406.474	-17.20943
406.687	43.90883
406.9	56.55646
407.114	-67.77453
407.327	-10.88778
407.54	-31.95906
407.753	67.09678
407.966	-6.67324
408.179	69.20492
408.392	22.83131
408.605	14.40096
408.819	14.40096
409.032	-2.45859
409.245	-50.9211
409.458	-10.88778
409.671	52.34049
409.884	50.23254
410.097	56.55646
410.31	-42.49378
410.523	-36.17303
410.736	-17.20943
410.949	1.75615
411.162	-40.38689
411.375	16.50851
411.588	-65.66794
411.801	-15.10224
412.014	58.66448
412.227	-4.56592
412.44	-6.67324
412.653	39.69314
412.865	14.40096
413.078	5.97099
413.291	16.50851
413.504	-53.02787
413.717	-0.35123
413.93	39.69314
414.143	-17.20943
414.356	-27.74501
414.568	-10.88778
414.781	-34.06606
414.994	-6.67324
415.207	-25.63794
415.42	-2.45859
415.632	16.50851
415.845	-27.74501
416.058	-74.09415
416.271	71.31307
416.483	24.93896
416.696	-10.88778
416.909	16.50851
417.121	-69.8811
417.334	14.40096
417.547	-34.06606
417.759	-71.98763
417.972	46.01671
418.185	37.58533
418.397	16.50851
418.61	41.80097
418.823	-34.06606
419.035	14.40096
419.248	16.50851
419.46	79.74592
419.673	-50.9211
419.885	39.69314
420.098	43.90883
420.311	22.83131
420.523	-44.60065
420.736	1.75615
420.948	-65.66794
421.161	27.04663
421.373	-4.56592
421.586	39.69314
421.798	-27.74501
422.01	-78.3071
422.223	24.93896
422.435	22.83131
422.648	12.29343
422.86	39.69314
423.073	14.40096
423.285	31.26204
423.497	-8.78052
423.71	22.83131
423.922	41.80097
424.134	-0.35123
424.347	-46.70749
424.559	-25.63794
424.771	-0.35123
424.984	-27.74501
425.196	10.18593
425.408	79.74592
425.621	22.83131
425.833	22.83131
426.045	1.75615
426.257	35.47754
426.47	10.18593
426.682	56.55646
426.894	18.61609
427.106	37.58533
427.318	35.47754
427.531	46.01671
427.743	31.26204
427.955	22.83131
428.167	10.18593
428.379	50.23254
428.591	-6.67324
428.804	-57.24133
429.016	83.96248
429.228	-0.35123
429.44	14.40096
429.652	-12.99502
429.864	39.69314
430.076	22.83131
430.288	35.47754
430.5	86.0708
430.712	-23.53085
430.924	18.61609
431.136	33.36978
431.348	-31.95906
431.56	43.90883
431.772	16.50851
431.984	-23.53085
432.196	27.04663
432.408	149.33043
432.62	75.52945
432.832	56.55646
433.044	10.18593
433.256	14.40096
433.468	12.29343
433.679	10.18593
433.891	-0.35123
434.103	10.18593
434.315	5.97099
434.527	-36.17303
434.739	-6.67324
434.95	39.69314
435.162	-19.31659
435.374	90.28749
435.586	-15.10224
435.798	22.83131
436.009	22.83131
436.221	75.52945
436.433	-27.74501
436.645	16.50851
436.856	90.28749
437.068	20.72369
437.28	41.80097
437.491	43.90883
437.703	-8.78052
437.915	-25.63794
438.126	48.12461
438.338	-23.53085
438.55	52.34049
438.761	-0.35123
438.973	-21.42373
439.184	39.69314
439.396	60.77252
439.608	8.07845
439.819	62.88058
440.031	39.69314
440.242	60.77252
440.454	73.42125
440.665	52.34049
440.877	22.83131
441.088	5.97099
441.3	22.83131
441.511	81.85419
441.723	-12.99502
441.934	92.39587
442.146	90.28749
442.357	58.66448
442.569	16.50851
442.78	33.36978
442.991	10.18593
443.203	22.83131
443.414	67.09678
443.626	22.83131
443.837	50.23254
444.048	-15.10224
444.26	90.28749
444.471	39.69314
444.682	75.52945
444.894	81.85419
445.105	35.47754
445.316	10.18593
445.528	39.69314
445.739	75.52945
445.95	140.89469
446.161	31.26204
446.373	94.50427
446.584	132.45929
446.795	33.36978
447.006	77.63768
447.217	31.26204
447.429	81.85419
447.64	33.36978
447.851	115.58952
448.062	27.04663
448.273	94.50427
448.484	90.28749
448.695	-2.45859
448.907	39.69314
449.118	75.52945
449.329	115.58952
449.54	69.20492
449.751	10.18593
449.962	67.09678
450.173	50.23254
450.384	31.26204
450.595	14.40096
450.806	161.98467
451.017	86.0708
451.228	67.09678
451.439	100.82962
451.65	111.37229
451.861	92.39587
452.072	48.12461
452.283	39.69314
452.494	90.28749
452.705	56.55646
452.915	69.20492
453.126	56.55646
453.337	48.12461
453.548	107.15516
453.759	98.72115
453.97	41.80097
454.181	174.63967
454.391	94.50427
454.602	67.09678
454.813	115.58952
455.024	90.28749
455.235	83.96248
455.445	64.98867
455.656	64.98867
455.867	134.5681
456.078	132.45929
456.288	132.45929
456.499	92.39587
456.71	151.43941
456.921	126.13296
457.131	100.82962
457.342	73.42125
457.553	130.35049
457.763	195.73297
457.974	109.26371
458.184	92.39587
458.395	115.58952
458.606	105.04662
458.816	86.0708
459.027	214.71868
459.237	124.02423
459.448	124.02423
459.659	191.51415
459.869	210.49949
460.08	134.5681
460.29	145.11251
460.501	166.20292
460.711	140.89469
460.922	185.18606
461.132	288.56699
461.343	145.11251
461.553	202.06136
461.764	161.98467
461.974	143.00359
462.184	151.43941
462.395	189.40476
462.605	242.1453
462.816	227.37671
463.026	172.53045
463.236	172.53045
463.447	242.1453
463.657	231.59621
463.867	263.24494
464.078	307.56028
464.288	341.32972
464.498	326.55503
464.709	278.01581
464.919	326.55503
465.129	294.89792
465.339	368.7707
465.55	313.8917
465.76	309.67074
465.97	410.99314
466.18	267.46509
466.391	415.21575
466.601	366.65975
466.811	404.65936
467.021	292.78759
467.231	476.45062
467.441	385.65888
467.651	563.04536
467.862	470.11538
468.072	499.68099
468.282	461.6686
468.492	429.99538
468.702	514.46487
468.912	573.6073
469.122	470.11538
469.332	613.74564
469.542	529.24946
469.752	685.58335
469.962	725.73377
470.172	645.43704
470.382	664.45318
470.592	672.90511
470.802	685.58335
471.012	801.81867
471.222	723.62049
471.432	789.13696
471.642	687.69643
471.852	892.71381
472.062	829.29687
472.272	875.80189
472.482	888.48578
472.691	1089.34831
472.901	909.62625
473.111	1032.25526
473.321	1070.31686
473.531	1137.98605
473.741	1091.46294
473.95	1214.11914
474.16	1182.39643
474.37	1233.15312
474.58	1163.36319
474.79	1343.13127
474.999	1286.02648
475.209	1412.92739
475.419	1328.3262
475.628	1662.49913
475.838	1379.08671
476.048	1520.79488
476.258	1611.74035
476.467	1738.63433
476.677	1687.87797
476.886	2000.83564
477.096	1778.81503
477.306	1723.83059
477.515	1757.66746
477.725	1869.74468
477.935	1814.76495
478.144	2087.51149
478.354	1943.75038
478.563	2125.56047
478.773	2212.21799
478.982	2410.83917
479.192	2203.76422
479.401	2220.67163
479.611	2410.83917
479.82	2349.57157
480.03	2575.5828
480.239	2668.48362
480.449	2499.55578
480.658	2693.81601
480.868	2887.96714
481.077	2805.67809
481.287	2662.15024
481.496	2841.55031
481.705	2881.63798
481.915	3141.02322
482.124	3039.82727
482.333	3056.69577
482.543	2938.59574
482.752	3090.42979
482.961	3189.49989
483.171	3318.02597
483.38	3056.69577
483.589	3457.01485
483.799	3499.11739
484.008	3429.64434
484.217	3461.22543
484.426	3713.72526
484.636	3785.21721
484.845	3823.05675
485.054	3604.34169
485.263	3816.7506
485.472	3778.91001
485.682	3938.63768
485.891	3999.5558
486.1	4075.15432
486.309	4213.68148
486.518	4150.72593
486.727	4066.7558
486.936	4343.72884
487.146	4297.59245
487.355	4291.30031
487.564	4412.91378
487.773	4603.57267
487.982	4362.59981
488.191	4547.02266
488.4	4565.87446
488.609	4850.52498
488.818	4676.854
489.027	4821.24205
489.236	4936.25638
489.445	5136.8419
489.654	5024.03875
489.863	5097.15961
490.072	5172.33999
490.281	5120.13459
490.49	5109.69176
490.698	5316.35128
490.907	5120.13459
491.116	5637.36498
491.325	5383.10131
491.534	5504.02446
491.743	5453.99689
491.952	5641.53032
492.16	5581.12372
492.369	5870.47841
492.578	5649.86071
492.787	5855.91749
492.996	5697.75311
493.204	5897.51704
493.413	5776.85234
493.622	6165.60765
493.831	5822.63106
494.039	6034.72863
494.248	6038.88495
494.457	6263.18684
494.665	6032.65043
494.874	6387.6809
495.083	6354.49071
495.291	6387.6809
495.5	6391.82926
495.709	6406.34776
495.917	6342.04284
496.126	6630.20341
496.335	6640.56056
496.543	6578.40899
496.752	6530.74537
496.96	6669.55753
497.169	6578.40899
497.377	6675.77058
497.586	6673.69958
497.794	6797.9186
498.003	6737.88971
498.211	7126.70357
498.42	6982.02572
498.628	7232.04289
498.837	6855.85933
499.045	7008.90278
499.254	7083.31173
499.462	7353.83438
499.671	7248.56147
499.879	7473.48747
500.087	7508.5444
500.296	7636.34652
500.504	7401.29177
500.713	7529.16321
500.921	7551.84143
501.129	7545.65672
501.338	7479.67444
501.546	7895.82303
501.754	7564.21027
501.962	7636.34652
502.171	7644.589
502.379	8054.23017
502.587	7718.7561
502.795	7850.54149
503.004	7943.15215
503.212	8169.35989
503.42	8048.06072
503.628	8015.15393
503.837	8019.26756
504.045	8011.04022
504.253	8214.57227
504.461	8422.01608
504.669	8130.30507
504.877	8401.48594
505.085	8298.80617
505.294	8446.64971
505.502	8249.50254
505.71	8610.80383
505.918	8329.61521
506.126	8737.94079
506.334	8504.11746
506.542	8856.81153
506.75	8356.31283
506.958	8553.36366
507.166	8834.27176
507.374	8885.49536
507.582	8815.82851
507.79	8813.77917
507.998	8616.95727
508.206	8821.97643
508.414	8733.8407
508.622	9030.90971
508.83	8873.20272
509.037	9139.40096
509.245	9217.15749
509.453	9262.16326
509.661	9039.09942
509.869	9364.41908
510.077	9313.29635
510.285	9485.02822
510.492	9270.34526
510.7	9419.62011
510.908	9376.68701
511.116	9474.80929
511.324	9270.34526
511.531	9343.97123
511.739	9329.65675
511.947	9368.50846
512.155	9615.79539
512.362	9707.70265
512.57	9482.98447
512.778	9764.8737
512.985	9552.46314
513.193	9685.23932
513.401	9548.37667
513.608	9779.1646
513.816	9550.41991
514.024	9746.49859
514.231	9813.86799
514.439	9752.62376
514.646	9858.77185
514.854	9932.23543
515.061	9887.34329
515.269	10005.68009
515.477	9838.3619
515.684	10003.64022
515.892	10015.87926
516.099	10276.85839
516.307	10152.51391
516.514	10360.40592
516.722	10307.42716
516.929	10323.72928
517.136	10213.67329
517.344	10362.44339
517.551	10087.26347
517.759	10531.5077
517.966	10541.68948
518.173	10441.89433
518.381	10437.8204
518.588	10716.76746
518.796	10580.37737
519.003	10665.88206
519.21	10877.51641
519.418	10903.9618
519.625	10893.79072
519.832	10684.20168
520.039	10954.8129
520.247	11060.5608
520.454	10757.47037
520.661	11160.18083
520.868	11215.06259
521.076	11416.23175
521.283	11003.62335
521.49	11196.76952
521.697	11052.4274
521.904	11156.11521
522.112	11066.66073
522.319	11424.35774
522.526	11206.93244
522.733	11343.09074
522.94	11239.45204
523.147	11564.50692
523.354	11552.32182
523.561	11613.24398
523.768	11255.71085
523.975	11757.39394
524.183	11789.87231
524.39	11933.96889
524.597	11637.61053
524.804	12102.36791
525.011	11958.31912
525.218	12004.98716
525.425	11897.44133
525.632	11881.20601
525.838	11946.14415
526.045	11992.8133
526.252	11929.9104
526.459	12136.85268
526.666	12392.37983
526.873	12293.02158
527.08	12335.60572
527.287	12392.37983
527.494	12104.39649
527.701	12329.52246
527.907	12333.57798
528.114	12372.10398
528.321	12416.70996
528.528	12574.83277
528.735	12680.22675
528.941	12690.35993
529.148	12615.37087
529.355	12686.30668
529.562	12406.57252
529.768	12688.33331
529.975	12171.33527
530.182	12771.42012
530.388	12477.53109
530.595	12795.73639
530.802	12599.15593
531.008	13134.0585
531.215	13079.36921
531.422	13065.18993
531.628	12939.59148
531.835	12980.10923
532.042	13211.02288
532.248	13279.88029
532.455	13352.78275
532.661	13516.79432
532.868	13186.71905
533.074	13340.63271
533.281	13287.98083
533.487	13498.57205
533.694	13356.83273
533.9	13668.63544
534.107	13476.29998
534.313	13433.77929
534.52	13636.24428
534.726	13470.22569
534.933	13443.90342
535.139	13680.7819
535.345	13668.63544
535.552	13970.24056
535.758	13871.06198
535.965	14028.93518
536.171	13962.14458
536.377	14239.41046
536.584	13992.50428
536.79	14243.45784
536.996	14257.62362
537.203	14174.65128
537.409	13968.21657
537.615	13958.09658
537.821	14049.17423
538.028	14225.24456
538.234	14235.36307
538.44	14229.29197
538.646	14326.42755
538.853	14259.64729
539.059	14318.33308
539.265	14484.26466
539.471	14486.28816
539.677	14678.5145
539.883	14619.83596
540.09	14514.61693
540.296	14745.28565
540.502	15004.26968
540.708	14551.03927
540.914	14662.3274
541.12	14716.95861
541.326	14866.68556
541.532	15279.43489
541.738	14884.89535
541.944	14923.33809
542.15	15408.92519
542.356	15131.73603
542.562	15338.11002
542.768	15093.29386
542.974	15305.73751
543.18	15240.99267
543.386	15671.9589
543.592	15451.41454
543.798	15566.74403
544.004	15785.26994
544.21	15765.03559
544.415	15457.48446
544.621	15295.62111
544.827	15582.93079
545.033	15613.28111
545.239	15591.02419
545.445	15898.58433
545.651	15730.63744
545.856	15926.91353
546.062	15926.91353
546.268	15916.79593
546.474	15736.70768
546.679	15748.84819
546.885	15977.502
547.091	15890.49032
547.297	15813.5982
547.502	16034.16212
547.708	15807.52784
547.914	16242.60072
548.119	16149.50952
548.325	16685.85126
548.531	15894.53733
548.736	16048.32732
548.942	16137.36745
549.147	16094.87065
549.353	16372.12515
549.559	16515.8256
549.764	16384.26846
549.97	16378.1968
550.175	16742.53007
550.381	16706.09348
550.586	16113.08348
550.792	16455.10585
550.997	16339.74333
551.203	16558.33055
551.408	16596.78824
551.614	16768.84586
551.819	16770.87017
552.025	17030.00256
552.23	17183.88319
552.435	17096.81717
552.641	17230.45556
552.846	17240.58019
553.052	17021.90402
553.257	17218.3061
553.462	17001.65787
553.668	17250.7049
553.873	17048.22443
554.078	17157.56035
554.283	17313.47972
554.489	17507.89771
554.694	17505.87237
554.899	17408.65997
555.105	17376.25743
555.31	17445.11378
555.515	17384.35799
555.72	17412.71034
555.925	17228.43064
556.131	17505.87237
556.336	17430.93718
556.541	17852.25228
556.746	17548.40509
556.951	17769.19323
557.156	17487.6445
557.361	17963.68209
557.567	17825.91586
557.772	18188.60043
557.977	17929.23902
558.182	18058.91237
558.387	17915.05688
558.592	18069.04372
558.797	18018.38789
559.002	18186.57394
559.207	18040.67618
559.412	18022.44027
559.617	17864.40775
559.822	18456.1299
560.027	18188.60043
560.232	18433.83327
560.437	18038.64995
560.642	18024.46647
560.847	18261.55656
561.051	18433.83327
561.256	18190.62693
561.461	18448.02198
561.666	18717.64341
561.871	18332.49074
562.076	18640.6017
562.281	18772.38703
562.485	18308.16993
562.69	18324.38374
562.895	18344.65134
563.1	18598.02844
563.305	18498.69748
563.509	18618.3012
563.714	18425.72552
563.919	18883.91076
564.123	18612.21933
564.328	18559.51125
564.533	18922.43994
564.737	18671.01222
564.942	18784.55267
565.147	19013.69907
565.351	18782.52505
565.556	18707.50602
565.761	18814.96739
565.965	18766.30426
566.17	18806.85671
566.374	18932.57944
566.579	18938.66319
566.784	19003.55877
566.988	19113.07945
567.193	19036.0081
567.397	18916.35629
567.602	19315.92697
567.806	19230.72601
568.011	19364.6165
568.215	19297.66901
568.42	19472.14766
568.624	19326.07043
568.828	19390.99099
569.033	19494.46691
569.237	19614.18785
569.442	19372.73165
569.646	19464.03169
569.85	19742.04152
570.055	19800.90038
570.259	19478.23468
570.463	19969.37803
570.668	19547.2235
570.872	19386.93333
571.076	19579.6905
571.281	20050.58242
571.485	20052.61262
571.689	19896.29984
571.893	19835.4055
572.098	19910.50906
572.302	19979.52821
572.506	19857.73298
572.71	19744.07108
572.914	20020.12999
573.119	20217.07247
573.323	20172.40163
573.527	19989.6785
573.731	20089.15687
573.935	20174.43208
574.139	20280.02119
574.343	19973.43809
574.547	20210.98087
574.751	20052.61262
574.955	20227.22521
575.159	20302.3588
575.364	20771.56573
575.568	20442.48815
575.772	20235.34749
575.976	20395.77615
576.18	20263.77597
576.383	20440.45715
576.587	20566.38723
576.791	20334.85078
576.995	20694.36488
577.199	20604.98192
577.403	20479.04691
577.607	20373.43641
577.811	21015.39711
578.015	20556.23098
578.219	21027.59024
578.422	21119.04337
578.626	21031.65465
578.83	20775.6291
579.034	21011.33277
579.238	20946.30553
579.442	21149.52958
579.645	20938.17742
579.849	20846.74074
580.053	21238.96107
580.257	21005.23629
580.46	20858.93181
580.664	20905.66565
580.868	21306.03983
581.071	21519.50132
581.275	21086.52575
581.479	20986.94706
581.682	21133.27015
581.886	21025.55804
582.09	21177.9842
582.293	21631.33196
582.497	21590.6649
582.7	21627.26519
582.904	21816.38688
583.107	21578.46508
583.311	21261.32017
583.515	21922.14694
583.718	21572.36523
583.922	21948.58857
584.125	21855.02877
584.329	21417.8475
584.532	21765.54441
584.735	21995.3715
584.939	21423.94645
585.142	21759.44347
585.346	21590.6649
585.549	21767.57806
585.753	21938.41864
585.956	22221.17804
586.159	21920.11299
586.363	22164.21349
586.566	22219.14355
586.769	22322.90768
586.973	22335.11585
587.176	22770.62528
587.379	22125.56063
587.582	22255.76509
587.786	22414.47218
587.989	22685.13869
588.192	22296.45709
588.395	22630.18627
588.599	22355.4631
588.802	22850.01115
589.005	22573.2013
589.208	22648.50346
589.411	22589.48244
589.615	22481.62414
589.818	22611.86937
590.021	23008.79843
590.224	22567.09593
590.427	22672.92682
590.63	22444.99531
590.833	22593.55276
591.036	22532.49945
591.239	22479.58918
591.442	22475.51926
591.645	22693.28
591.848	22847.97555
592.051	22554.88529
592.254	22652.57398
592.457	23157.42546
592.66	23149.28105
592.863	23477.13381
593.066	23014.90604
593.269	23330.50623
593.472	23000.65499
593.675	23464.91423
593.878	23261.27113
594.081	23578.96801
594.284	23851.92084
594.486	23847.84653
594.689	23627.85113
594.892	23436.4023
595.095	23855.99517
595.298	23664.51462
595.5	23631.92481
595.703	24126.96333
595.906	23723.58562
596.109	23578.96801
596.311	23719.51168
596.514	23640.07219
596.717	23915.07417
596.92	24106.58806
597.122	23668.5884
597.325	23623.77747
597.528	23800.99277
597.73	23945.63322
597.933	23737.84451
598.136	23951.74511
598.338	23595.26219
598.541	24114.73813
598.743	24157.52675
598.946	23758.21461
599.148	24222.73078
599.351	23949.70781
599.554	23809.14114
599.756	23876.36696
599.959	24304.23969
600.161	24318.50419
600.363	24367.41203
600.566	24344.99575
600.768	24334.80664
600.971	24169.75229
601.173	24497.84029
601.376	24544.71551
601.578	24342.95792
601.78	24542.67743
601.983	24742.42123
602.185	24715.92324
602.388	24846.3788
602.59	24618.0881
602.792	24770.95798
602.995	24785.22653
603.197	24622.16445
603.399	24275.71108
603.601	24338.88227
603.804	24546.75359
604.006	24548.79168
604.208	24501.91634
604.41	24711.84666
604.613	24889.18666
604.815	24461.15627
605.017	24872.87878
605.219	24673.11967
605.421	24652.7374
605.623	24748.5362
605.826	24828.03289
606.028	24375.56349
606.23	24801.53359
606.432	24830.07132
606.634	24799.4952
606.836	24652.7374
607.038	25072.66049
607.24	24834.14817
607.442	24995.19149
607.644	25009.46185
607.846	25351.98314
608.048	24956.45823
608.25	24889.18666
608.452	25139.93883
608.654	25154.2103
608.856	25035.96424
609.058	25148.09394
609.26	25078.7766
609.462	25274.50271
609.664	25225.56929
609.866	25133.82252
610.067	25453.93569
610.269	25435.58385
610.471	24842.30191
610.673	24946.2654
610.875	25460.05301
611.077	25494.71816
611.278	25207.21958
611.48	25162.36548
611.682	25109.35746
611.884	25602.79561
612.085	25449.85749
612.287	25584.44244
612.489	25409.07593
612.69	25555.89338
612.892	25231.6859
613.094	25608.91337
613.295	25166.44308
613.497	25386.64642
613.699	25125.66746
613.9	24915.68728
614.102	25498.79645
614.304	25211.29728
614.505	24991.11427
614.707	25396.84162
614.908	25229.64703
615.11	25818.96706
615.311	25217.41384
615.513	25190.90888
615.714	25370.33421
615.916	25586.48167
616.117	25339.74918
616.319	25292.85306
616.52	25146.05516
616.722	25152.17152
616.923	25115.4737
617.124	24783.18816
617.326	24911.61023
617.527	25074.69919
617.729	25133.82252
617.93	25592.59939
618.131	25174.59831
618.333	25247.99695
618.534	25918.90257
618.735	26057.59584
618.937	25719.03606
619.138	25553.85418
619.339	25535.50144
619.54	25508.99222
619.742	25358.10014
619.943	25423.34938
620.144	25874.03301
620.345	26194.2575
620.546	26045.35787
620.748	25604.83486
620.949	25755.74487
621.15	25710.87863
621.351	25763.90247
621.552	25519.18803
621.753	24997.23011
621.954	25515.1097
622.155	25545.69739
622.356	25880.15154
622.558	26200.37686
622.759	25986.20856
622.96	25878.11203
623.161	25696.6032
623.362	25690.48519
623.563	25674.17057
623.764	25572.20708
623.965	25896.46768
624.166	25564.05022
624.366	25992.32738
624.567	26084.11167
624.768	26112.66751
624.969	25843.44065
625.17	25659.89539
625.371	25700.68188
625.572	25927.06077
625.773	25978.05015
625.973	26022.92175
626.174	26126.94556
626.375	25631.34531
626.576	26012.72358
626.777	25967.85218
626.977	25812.8487
627.178	25994.367
627.379	25743.50853
627.58	26335.00663
627.78	26247.29247
627.981	26147.34292
628.182	26243.21281
628.382	26073.91324
628.583	26037.19925
628.784	26202.41665
628.984	25584.44244
629.185	26177.93928
629.386	25519.18803
629.586	26212.61563
629.787	26326.84704
629.987	26228.93408
630.188	25823.04597
630.388	26179.97906
630.589	25878.11203
630.79	26149.38267
630.99	25971.93137
631.191	26012.72358
631.391	26243.21281
631.591	26298.2887
631.792	26255.45179
631.992	26326.84704
632.193	26706.29485
632.393	26290.12923
632.594	26281.96979
632.794	26139.18396
632.994	25751.66609
633.195	26145.30318
633.395	26386.00464
633.595	26539.00471
633.796	26335.00663
633.996	26641.00967
634.196	26077.99261
634.397	26596.12701
634.597	26665.49143
634.797	26614.48801
634.997	26673.65206
635.198	26779.74251
635.398	26490.04371
635.598	26842.99063
635.798	26571.64587
635.998	26879.71599
636.199	26461.48355
636.399	26483.92365
636.599	26171.81998
636.799	26577.76614
636.999	26249.33229
637.199	26649.17023
637.399	26736.8978
637.599	27044.98581
637.799	26714.4556
637.999	27438.81269
638.199	26787.90348
638.399	26849.11149
638.599	27216.38628
638.799	27081.71367
638.999	27008.25839
639.199	27295.96827
639.399	26618.56825
639.599	27142.92777
639.799	26600.20722
639.999	26667.53158
640.199	26547.16496
640.399	26820.54759
640.599	25871.99351
640.799	27408.20264
640.998	27544.92969
641.198	27047.02623
641.398	26955.20846
641.598	27222.5079
641.798	27234.75118
641.997	27132.72533
642.197	27079.67322
642.397	26993.97562
642.597	26887.87725
642.796	26432.9237
642.996	26371.72509
643.196	26853.19207
643.395	26624.68861
643.595	27022.54122
643.795	27098.03731
643.994	27230.67008
644.194	27110.2801
644.394	27195.98097
644.593	26549.20503
644.793	27638.8052
644.992	27522.48158
645.192	27120.48246
645.392	27165.37324
645.591	27716.35647
645.791	26998.0564
645.99	27120.48246
646.19	27073.55189
646.389	27195.98097
646.589	27149.04924
646.788	27691.86641
646.987	27114.36104
647.187	27749.01015
647.386	27138.84679
647.586	27669.41734
647.785	27800.03213
647.984	27491.87077
648.184	27783.70502
648.383	27481.66723
648.582	27538.80746
648.782	27595.94867
648.981	27338.82094
649.18	27218.42682
649.38	27502.07434
649.579	27700.02974
649.778	27253.11618
649.977	28044.94772
650.177	27310.25243
650.376	27502.07434
650.575	27614.31569
650.774	27422.4873
650.973	27469.42302
651.173	27653.09083
651.372	27657.17245
651.571	27530.64451
651.77	27818.40022
651.969	28034.74257
652.168	27471.46371
652.367	27765.3371
652.566	27346.98342
652.765	27851.05484
652.964	27816.35932
653.163	27685.74392
653.362	27481.66723
653.561	27704.11142
653.76	27289.84651
653.959	27461.26023
654.158	27536.76672
654.357	27700.02974
654.556	27291.8871
654.755	28049.02978
654.954	27716.35647
655.153	27883.70976
655.352	27891.87354
655.551	27953.10244
655.749	28106.17916
655.948	28126.58987
656.147	28491.95999
656.346	28489.91873
656.545	28002.0863
656.743	27773.50061
656.942	27895.95543
657.141	27744.92842
657.34	28100.05597
657.538	27871.46413
657.737	28069.44017
657.936	28638.93419
658.135	27918.40594
658.333	28385.81539
658.532	28122.50772
658.731	28475.62987
658.929	28240.89187
659.128	28069.44017
659.326	27861.25947
659.525	28424.59866
659.724	28016.37338
659.922	28087.80962
660.121	27859.21855
660.319	27812.27752
660.518	27551.05193
660.716	27934.73366
660.915	28306.20883
661.113	28463.38232
661.312	28261.3033
661.51	27967.38933
661.709	27928.61076
661.907	27897.99638
662.105	27736.76498
662.304	27993.92228
662.502	28132.7131
662.701	27879.62788
662.899	28100.05597
663.097	28147.00069
663.296	28653.22364
663.494	28616.47944
663.692	28318.45589
663.891	28230.68619
664.089	27908.20114
664.287	28498.08381
664.485	27891.87354
664.684	28498.08381
664.882	28081.68646
665.08	28314.37353
665.278	28489.91873
665.476	28089.85068
665.675	28098.01491
665.873	28210.27492
666.071	28496.04254
666.269	27897.99638
666.467	28216.39829
666.665	28210.27492
666.863	27759.21449
667.061	28147.00069
667.259	27995.96328
667.457	28110.2613
667.655	27630.64201
667.853	27938.8156
668.051	27749.01015
668.249	28191.90487
668.447	28036.7836
668.645	27838.80933
668.843	27840.85024
669.041	27877.58694
669.239	27361.2678
669.437	27657.17245
669.635	27538.80746
669.833	27889.83259
670.031	27528.60378
670.229	27973.5123
670.426	27757.17362
670.624	27961.26637
670.822	27777.58237
671.02	27910.2421
671.218	27755.13275
671.415	27761.25536
671.613	27591.86712
671.811	28032.70155
672.009	28177.61712
672.206	28285.79716
672.404	28138.83635
672.602	28053.11185
672.799	28471.54735
672.997	28122.50772
673.195	28171.49381
673.392	28375.60933
673.59	27914.32402
673.788	27779.62325
673.985	27381.67417
674.183	27767.37798
674.38	27649.00922
674.578	27685.74392
674.775	28104.1381
674.973	27830.64567
675.17	28140.87743
675.368	27800.03213
675.565	27424.52797
675.763	27714.31562
675.96	27463.30093
676.158	27685.74392
676.355	27495.95219
676.553	28265.3856
676.75	27944.93853
676.947	27804.11392
677.145	27812.27752
677.342	28040.86565
677.539	27838.80933
677.737	27455.13816
677.934	27716.35647
678.131	27881.66882
678.329	27951.06146
678.526	27830.64567
678.723	27789.82768
678.92	27991.88128
679.118	27740.8467
679.315	27349.02404
679.512	27597.98945
679.709	27749.01015
679.906	27518.40012
680.104	27436.77201
680.301	27457.17885
680.498	27187.81888
680.695	27159.25173
680.892	27453.09747
681.089	27169.45425
681.286	27324.53665
681.483	26689.97341
681.68	26930.72421
681.877	26965.4103
682.075	26977.65255
682.272	26698.13411
682.469	27824.52294
682.665	27630.64201
682.862	27002.13719
683.059	26747.09886
683.256	26828.70867
683.453	27040.90496
683.65	27326.57726
683.847	27512.27795
684.044	27316.37423
684.241	26628.76887
684.438	27393.91806
684.635	26804.22548
684.831	27293.92769
685.028	26967.45067
685.225	27295.96827
685.422	26836.86978
685.619	26989.89484
685.815	26796.06447
686.012	27395.95871
686.209	26547.16496
686.405	27053.14752
686.602	26665.49143
686.799	26767.5011
686.996	27034.7837
687.192	27159.25173
687.389	27465.34162
687.586	27340.86156
687.782	27049.06666
687.979	26953.1681
688.175	26661.41112
688.372	26745.05865
688.568	26404.36417
688.765	26857.27266
688.962	26371.72509
689.158	26424.7638
689.355	26765.46087
689.551	26375.80495
689.748	26636.92939
689.944	26392.12447
690.14	26532.88453
690.337	26669.57174
690.533	27018.4604
690.73	26908.28048
690.926	26791.98397
691.123	26275.85023
691.319	26569.60579
691.515	26375.80495
691.712	26386.00464
691.908	26302.36844
692.104	26206.49624
692.301	26073.91324
692.497	26369.68516
692.693	26514.5241
692.889	26204.45645
693.086	26620.60837
693.282	26298.2887
693.478	26447.20359
693.674	25767.98128
693.87	26332.96673
694.067	26388.04458
694.263	26192.21772
694.459	25841.40117
694.655	26118.78667
694.851	26461.48355
695.047	26173.85975
695.243	26092.27045
695.439	26398.24431
695.635	26371.72509
695.831	26033.11996
696.027	26135.10448
696.224	26149.38267
696.42	25894.42816
696.615	26155.50191
696.811	26202.41665
697.007	25729.23289
697.203	25723.11478
697.399	25935.21899
697.595	26088.19106
697.791	26175.89952
697.987	26022.92175
698.183	26337.04653
698.379	25684.36719
698.575	25794.49374
698.77	25551.81498
698.966	26020.88211
699.162	25982.12935
699.358	26363.56539
699.554	25814.88815
699.749	26106.54837
699.945	26343.16624
700.141	25967.85218
700.337	25963.77301
700.532	26249.33229
700.728	25784.2966
700.924	26163.66093
701.119	26069.83388
701.315	25076.73789
701.511	25074.69919
701.706	25604.83486
701.902	25362.17816
702.097	25918.90257
702.293	25912.78394
702.489	25566.08943
702.684	25702.72123
702.88	25945.41681
703.075	25362.17816
703.271	25511.03138
703.466	25808.76981
703.662	25633.38459
703.857	25596.67787
704.053	25557.93259
704.248	25806.73037
704.443	26057.59584
704.639	25849.55909
704.834	26080.03229
705.03	25714.95734
705.225	25268.38596
705.42	25133.82252
705.616	25602.79561
705.811	25095.08633
706.006	25203.14189
706.202	25458.0139
706.397	25290.81412
706.592	25274.50271
706.787	25384.60739
706.983	25227.60816
707.178	25825.08543
707.373	25280.61947
707.568	25239.84141
707.763	24976.84405
707.959	25084.89273
708.154	24931.99555
708.349	25386.64642
708.544	25672.13126
708.739	25337.7102
708.934	24980.92125
709.129	25323.43736
709.324	24858.60951
709.519	24868.80183
709.714	24840.26348
709.909	24797.45681
710.104	24626.24081
710.299	24650.69918
710.494	24770.95798
710.689	25470.24858
710.884	25639.50243
711.079	25235.76365
711.274	25160.32668
711.469	25519.18803
711.664	25035.96424
711.859	25303.04777
712.054	24993.15288
712.249	24634.39357
712.443	24589.55393
712.638	25056.35095
712.833	24410.20763
713.028	24312.39082
713.223	24487.6502
713.417	24764.84292
713.612	24719.99983
713.807	24697.57872
714.002	24679.2344
714.196	24917.7258
714.391	25166.44308
714.586	25260.23033
714.78	25417.23218
714.975	24852.49414
715.17	24756.68954
715.364	25197.02538
715.559	24938.11119
715.754	25172.5595
715.948	24809.68718
716.143	24530.44899
716.337	24294.05084
716.532	24618.0881
716.726	25040.04156
716.921	25203.14189
717.115	24850.45569
717.31	24925.87993
717.504	24742.42123
717.699	24948.30397
717.893	24141.22618
718.088	24361.29847
718.282	24683.3109
718.476	24699.61699
718.671	24320.54199
718.865	24287.93757
719.059	24184.01555
719.254	24198.27894
719.448	23835.62366
719.642	24096.40052
719.837	23705.25297
720.031	23876.36696
720.225	23829.51227
720.419	24145.30131
720.614	23937.48407
720.808	23627.85113
721.002	23709.32687
721.196	23821.36378
721.39	23915.07417
721.585	24157.52675
721.779	24204.39186
721.973	24265.52242
722.167	23798.95569
722.361	24120.85072
722.555	24104.55054
722.749	23951.74511
722.943	23776.54795
723.137	23454.73133
723.331	23330.50623
723.525	23748.02952
723.719	24073.9882
723.913	23888.59018
724.107	23434.36576
724.301	23493.42677
724.495	23328.46985
724.689	23409.92749
724.883	22996.58329
725.077	23269.41624
725.271	23409.92749
725.465	23668.5884
725.659	23631.92481
725.853	23660.44085
726.046	23530.08664
726.24	23446.58506
726.434	23273.48882
726.628	23629.88797
726.822	23012.87016
727.015	23487.31689
727.209	23071.91186
727.403	23884.51576
727.596	23794.88153
727.79	23646.18276
727.984	23438.43885
728.177	23471.02401
728.371	23576.93125
728.565	23200.18442
728.758	23312.17893
728.952	23499.53668
729.146	23208.32914
729.339	23578.96801
729.533	23348.83379
729.726	23855.99517
729.92	23562.67402
730.113	23770.43681
730.307	23674.6991
730.5	23371.23448
730.694	23900.8135
730.887	23576.93125
731.081	23601.37256
731.274	23485.28027
731.468	23135.02848
731.661	23375.30737
731.854	22902.93795
732.048	23057.66016
732.241	22919.22359
732.435	23342.72457
732.628	23126.88422
732.821	23151.31715
733.014	23725.6226
733.208	23837.6608
733.401	23682.84673
733.594	23558.60055
733.788	23143.17279
733.981	23220.54633
734.174	23291.81557
734.367	23631.92481
734.56	23513.79324
734.754	23648.21962
734.947	23491.39014
735.14	23263.3074
735.333	22825.58417
735.526	22890.72387
735.719	22660.71508
735.912	22272.04171
736.105	22695.31534
736.298	22316.80364
736.491	22331.04645
736.684	22414.47218
736.877	22473.4843
737.07	22803.19321
737.263	22721.77505
737.456	22744.16449
737.649	22267.97253
737.842	22363.6021
738.035	22862.22482
738.228	22762.48343
738.421	22947.72396
738.614	22788.94463
738.807	22793.01563
739	22591.5176
739.192	22748.23534
739.385	23000.65499
739.578	22465.34452
739.771	22573.2013
739.964	22501.974
740.156	22947.72396
740.349	22738.05823
740.542	23065.80397
740.735	22715.66891
740.927	23049.51641
741.12	22697.35068
741.313	22909.04504
741.505	22754.34165
741.698	22422.6116
741.891	22196.76431
742.083	22866.29607
742.276	22567.09593
742.468	22272.04171
742.661	21846.89352
742.854	22123.52631
743.046	22152.00718
743.239	22666.82093
743.431	22345.28943
743.624	22312.7343
743.816	22166.24789
744.009	22683.10337
744.201	22349.35889
744.393	22253.73053
744.586	22196.76431
744.778	22365.63686
744.971	22272.04171
745.163	22459.23972
745.355	22518.25414
745.548	22314.76897
745.74	22398.19351
745.932	22038.08811
746.125	21741.14088
746.317	22009.61019
746.509	22046.22479
746.702	22422.6116
746.894	21916.04511
747.086	22111.32044
747.278	22257.79965
747.471	22259.83422
747.663	22567.09593
747.855	22180.48878
748.047	22479.58918
748.239	22288.31857
748.431	21962.82664
748.623	22088.94338
748.815	21966.8947
749.008	21747.24171
749.2	21840.79212
749.392	21983.16707
749.584	21826.55566
749.776	21952.65657
749.968	21710.63726
750.16	22160.1447
750.352	22184.55764
750.544	21993.33742
750.736	21684.2015
750.928	21730.97291
751.12	21604.89819
751.311	21676.06755
751.503	21832.65698
751.695	21686.235
751.887	21989.26927
752.079	22440.92551
752.271	21972.99681
752.463	21582.53167
752.654	21753.34257
752.846	21562.19888
753.038	21513.40181
753.23	21367.02433
753.421	21373.12298
753.613	21072.29962
753.805	21588.63158
753.997	21387.3533
754.188	21332.466
754.38	21104.81678
754.572	21468.67317
754.763	21336.53163
754.955	20810.16841
755.146	21297.90884
755.338	21610.99823
755.53	21139.36741
755.721	21393.45206
755.913	21649.63266
756.104	21383.28747
756.296	21062.13823
756.487	21175.9517
756.679	21336.53163
756.87	21224.73281
757.062	21265.38551
757.253	21271.48356
757.445	20716.71188
757.636	20840.64526
757.827	20891.44207
758.019	20877.21871
758.21	21096.68739
758.401	21072.29962
758.593	20653.73526
758.784	20568.41849
758.975	20600.91925
759.167	20450.6122
759.358	20631.38968
759.549	20324.69692
759.74	20146.00618
759.932	20206.91982
760.123	20298.29738
760.314	20399.83797
760.505	20231.28634
760.696	20639.51529
760.888	20428.27122
761.079	20600.91925
761.27	20095.24771
761.461	20231.28634
761.652	20649.67239
761.843	20115.55078
762.034	20607.01326
762.225	20079.00555
762.416	20273.9292
762.607	20158.18861
762.798	20393.74524
762.989	20495.29569
763.18	20158.18861
763.371	20050.58242
763.562	20284.08253
763.753	19955.16796
763.944	20052.61262
764.135	19821.19736
764.326	20428.27122
764.517	19857.73298
764.708	19774.51494
764.899	19973.43809
765.089	19441.71313
765.28	19654.77452
765.471	19770.4557
765.662	19480.26369
765.853	19597.95365
766.043	19167.84424
766.234	19182.04301
766.425	19141.47563
766.615	19662.89205
766.806	19591.86589
766.997	19699.42178
767.187	19492.43787
767.378	19671.00965
767.569	19742.04152
767.759	19721.74618
767.95	19729.86426
768.141	19435.62634
768.331	19372.73165
768.522	19526.93217
768.712	19492.43787
768.903	19565.48605
769.093	19356.50141
769.284	19163.78749
769.474	19005.58682
769.665	18626.41042
769.855	18729.80841
770.046	19190.15668
770.236	19007.61488
770.426	18936.63527
770.617	18691.28639
770.807	18802.8014
770.998	19011.671
771.188	18875.79953
771.378	18865.66059
771.569	18699.39617
771.759	18691.28639
771.949	18709.53349
772.139	18837.27209
772.33	18565.59282
772.52	18819.02276
772.71	18705.47855
772.9	18825.10583
773.09	18873.77174
773.281	18877.82733
773.471	18705.47855
773.661	18411.5371
773.851	18190.62693
774.041	18423.69859
774.231	18490.58924
774.421	18249.39687
774.611	18616.27391
774.802	18032.5713
774.992	18306.14322
775.182	18093.35932
775.372	18385.18768
775.562	18308.16993
775.752	18243.31708
775.942	17981.91707
776.131	18338.57102
776.321	17840.09694
776.511	18129.83369
776.701	17967.73428
776.891	17884.66714
777.081	17566.63383
777.271	17759.06447
777.461	17748.93579
777.651	18139.96567
777.84	17572.71013
778.03	17710.44758
778.22	17597.01564
778.41	17451.18951
778.599	17671.96059
778.789	17821.86416
778.979	17649.67919
779.169	17868.4596
779.358	17599.04112
779.548	17904.92688
779.738	17834.01931
779.927	17627.39819
780.117	17546.37969
780.307	17522.07515
780.496	17366.13179
780.686	17615.24508
780.875	17384.35799
781.065	17351.95603
781.254	17250.7049
781.444	17277.02947
781.633	17046.19977
781.823	17471.44215
782.012	17183.88319
782.202	17311.45468
782.391	17218.3061
782.581	16944.97006
782.77	16738.48152
782.96	16791.11339
783.149	16594.76413
783.338	16803.25944
783.528	16627.15014
783.717	16801.23509
783.906	16938.89649
784.096	16606.90882
784.285	17040.12579
784.474	16843.74692
784.663	16817.42995
784.853	16831.60057
785.042	16647.39169
785.231	16633.22258
785.42	16720.26317
785.61	16716.21468
785.799	16661.56091
785.988	16946.99459
786.177	16481.41751
786.366	16667.63347
786.555	16679.77864
786.744	16455.10585
786.933	16321.52877
787.122	16564.40277
787.312	16438.91423
787.501	16250.69578
787.69	16149.50952
787.879	16226.41069
788.068	16015.94982
788.257	16058.44537
788.445	15821.69203
788.634	16173.79384
788.823	16202.12585
789.012	16011.90266
789.201	16218.31571
789.39	15995.71406
789.579	15688.14601
789.768	16060.46898
789.957	16143.43848
790.145	16351.88645
790.334	16218.31571
790.523	16147.48584
790.712	15997.73763
790.9	15902.63135
791.089	15621.37456
791.278	15758.96531
791.467	15603.16432
791.655	15619.35119
791.844	15619.35119
792.033	15319.90047
792.221	15501.9974
792.41	15680.05245
792.599	15214.69013
792.787	15348.22644
792.976	15238.9694
793.164	15643.6316
793.353	15781.22306
793.541	15611.25775
793.73	15186.36433
793.918	15293.59783
794.107	15083.1775
794.295	15164.10836
794.484	15372.5059
794.672	15348.22644
794.861	15190.41087
795.049	15206.59704
795.238	14923.33809
795.426	15095.31714
795.614	14836.33581
795.803	15036.64216
795.991	15062.94475
796.179	15036.64216
796.368	14718.98198
796.556	15180.29452
796.744	15012.3628
796.932	14996.17654
797.121	14555.08618
797.309	14743.2623
797.497	15020.45593
797.685	15141.85238
797.874	15107.45677
798.062	15018.43265
798.25	14856.56899
798.438	15289.55128
798.626	14943.57105
798.814	15208.62031
799.002	14777.65921
799.19	14753.37906
799.378	14725.05207
799.566	14559.13307
799.755	14672.44434
799.943	14729.09879
800.131	14789.79925
800.318	14692.67816
800.506	14423.55918
800.694	14654.23383
800.882	14668.39757
801.07	14921.3148
801.258	14882.87204
801.446	14761.47246
801.634	14773.61253
801.822	14832.28917
802.01	14890.96527
802.197	14899.05849
802.385	14818.1259
802.573	14860.61562
802.761	14644.11684
802.949	14575.32061
803.136	14217.14972
803.324	14395.2295
803.512	14716.95861
803.699	14694.70153
803.887	14615.78914
804.075	15236.94612
804.262	14769.56584
804.45	14747.309
804.638	14506.52303
804.825	15153.992
805.013	14846.45241
805.201	14913.2216
805.388	14518.66388
805.576	14567.22685
805.763	14702.79503
805.951	14751.35571
806.138	14168.58
806.326	14615.78914
806.513	14397.25306
806.701	14364.87593
806.888	14196.91248
807.075	14625.9062
807.263	14162.5087
807.45	14486.28816
807.638	14449.86505
807.825	14642.09344
808.012	14609.71889
808.2	14745.28565
808.387	14627.92961
808.574	14897.03518
808.761	14478.19417
808.949	14451.88857
809.136	14435.70038
809.323	14640.07004
809.51	14455.9356
809.698	14423.55918
809.885	14397.25306
810.072	14905.1284
810.259	14599.60178
810.446	14838.35913
810.633	14601.6252
810.82	14690.65478
811.008	14611.7423
811.195	14769.56584
811.382	14607.69547
811.569	14994.15326
811.756	14366.89952
811.943	14986.06012
812.13	14824.19587
812.317	14532.82816
812.504	14459.98263
812.691	15008.31624
812.878	14690.65478
813.064	14890.96527
813.251	14597.57836
813.438	14739.21559
813.625	14439.74744
813.812	14486.28816
813.999	14488.31165
814.186	14700.77166
814.372	14296.07313
814.559	14516.64041
814.746	14377.01741
814.933	14350.71081
815.12	14200.95994
815.306	13846.77236
815.493	14113.93763
815.68	14314.28583
815.866	14200.95994
816.053	14421.53564
816.24	14271.78931
816.426	14702.79503
816.613	14279.88394
816.799	14472.12367
816.986	14478.19417
817.173	14546.99237
817.359	14231.31567
817.546	14328.45117
817.732	14057.26978
817.919	14397.25306
818.105	14174.65128
818.292	14413.44147
818.478	14292.02584
818.665	14433.67685
818.851	14265.71831
819.037	14379.04098
819.224	14308.21495
819.41	14120.00908
819.597	13935.83238
819.783	14231.31567
819.969	13994.52824
820.156	14053.22201
820.342	14221.19714
820.528	14354.758
820.714	14154.41361
820.901	14328.45117
821.087	14156.43738
821.273	14105.84233
821.459	14146.31848
821.646	14352.73441
821.832	14239.41046
822.018	14538.89854
822.204	13982.38444
822.39	13992.50428
822.576	13613.97487
822.762	13852.8448
822.948	13784.02226
823.134	14020.83949
823.32	13676.73309
823.507	13903.44753
823.693	14032.98301
823.879	14162.5087
824.065	13873.0861
824.25	13589.68049
824.436	13741.5125
824.622	13723.29362
824.808	13798.19188
824.994	13743.53681
825.18	13717.2206
825.366	13676.73309
825.552	13506.67087
825.738	13844.74821
825.923	13826.5307
826.109	14227.26827
826.295	13877.13433
826.481	13725.31795
826.667	13952.02456
826.852	13765.80395
827.038	13630.17085
827.224	13630.17085
827.409	13261.65382
827.595	13415.55562
827.781	13241.40177
827.966	13411.50587
828.152	13085.44597
828.338	13190.76974
828.523	12903.12374
828.709	13063.1643
828.894	12696.43977
829.08	12972.00585
829.266	12741.02363
829.451	12807.89422
829.637	12761.2881
829.822	12769.39372
830.008	12957.82472
830.193	13063.1643
830.378	12931.48769
830.564	12996.31576
830.749	13125.9566
830.935	13182.66835
831.12	12947.6952
831.305	13263.679
831.491	12803.84163
831.676	13085.44597
831.861	12915.27984
832.047	13095.5738
832.232	12651.85306
832.417	12633.61221
832.602	12813.97306
832.788	13103.67599
832.973	13061.13867
833.158	13044.93341
833.343	12765.34092
833.528	12986.18672
833.714	12641.71932
833.899	12864.62814
834.084	12586.99446
834.269	12773.4465
834.454	12260.57444
834.639	12355.88281
834.824	12424.81979
835.009	12603.2097
835.194	12485.64013
835.379	12461.3127
835.564	12100.33933
835.749	12422.79234
835.934	11986.72626
836.119	12153.08005
836.304	12226.09734
836.489	12169.30694
836.674	12096.28214
836.859	11921.79333
837.044	12136.85268
837.228	12215.95662
837.413	11804.0809
837.598	12037.44941
837.783	11848.73376
837.968	12280.85412
838.152	11824.37816
838.337	12092.22492
838.522	11787.84247
838.707	12276.79824
838.891	11838.58574
839.076	12009.04505
839.261	11765.51374
839.445	11982.66819
839.63	12023.24742
839.815	12151.05165
839.999	11990.78429
840.184	12242.32211
840.368	12146.99484
840.553	12067.88094
840.737	11751.304
840.922	11558.41442
841.106	11280.09782
841.291	11822.34848
841.475	11359.3454
841.66	11666.03652
841.844	11473.11043
842.029	11645.73242
842.213	11592.93752
842.397	11607.15214
842.582	11517.79555
842.766	11469.04792
842.951	11200.83472
843.135	11101.22516
843.319	11082.92673
843.504	11355.2818
843.688	11302.45126
843.872	11402.01089
844.056	11446.70342
844.241	11316.67554
844.425	11054.46077
844.609	10944.64325
844.793	10991.42134
844.977	10946.6772
845.161	10903.9618
845.346	11312.61151
845.53	10967.01612
845.714	10962.94843
845.898	10975.15137
846.082	11296.35499
846.266	11290.25863
846.45	11227.2575
846.634	11050.39403
846.818	11296.35499
847.002	11080.89352
847.186	11202.86731
847.37	11015.82496
847.554	11302.45126
847.738	10936.50732
847.922	11174.41017
848.106	11150.0167
848.29	11154.08239
848.473	10804.27283
848.657	10572.23293
848.841	10568.16063
849.025	10431.70942
849.209	10201.44241
849.392	10307.42716
849.576	10278.8964
849.76	10484.66744
849.944	10427.63536
850.127	10912.09845
850.311	10362.44339
850.495	10555.94344
850.678	10472.44713
850.862	10787.99442
851.046	10366.51828
851.229	10390.96653
851.413	10264.63003
851.596	10507.07014
851.78	10258.51567
851.964	10502.99704
852.147	10095.42056
852.331	10317.61608
852.514	10005.68009
852.698	10089.30276
852.881	9797.53752
853.065	9797.53752
853.248	9793.45476
853.431	9752.62376
853.615	9583.10967
853.798	9695.45016
853.982	9491.15939
854.165	9817.95046
854.348	9621.92352
854.532	9813.86799
854.715	9768.95689
854.898	9683.19711
855.081	9585.15264
855.265	9860.81276
855.448	9809.78546
855.631	10095.42056
855.814	9750.58205
855.997	9805.70288
856.181	9509.55202
856.364	9662.77413
856.547	9677.07038
856.73	9397.13224
856.913	9534.07352
857.096	9670.94351
857.279	9442.10601
857.462	9446.19415
857.645	9597.41017
857.828	9468.67774
858.011	9487.07196
858.194	9601.49588
858.377	9008.38654
858.56	9423.7086
858.743	9037.05202
858.926	9288.75377
859.109	9106.654
859.292	9084.1379
859.475	9272.39071
859.658	9315.34146
859.841	9188.5132
860.023	9429.84122
860.206	8987.90909
860.389	8996.10028
860.572	8737.94079
860.755	9127.12137
860.937	8742.0408
861.12	8926.46618
861.303	8887.54407
861.486	9155.7728
861.668	8901.88454
861.851	8824.02569
862.034	8608.75265
862.216	8682.58344
862.399	8508.22172
862.581	8409.69823
862.764	8255.66612
862.947	8692.83582
863.129	8524.63803
863.312	8543.10493
863.494	8374.79387
863.677	8655.9251
863.859	8565.67351
864.042	8602.599
864.224	8204.29757
864.406	8483.59498
864.589	8255.66612
864.771	8198.13252
864.954	8130.30507
865.136	8325.50759
865.318	7980.18476
865.501	8228.95602
865.683	8294.69797
865.865	8360.41986
866.048	8169.35989
866.23	8286.48133
866.412	8179.63627
866.594	8231.01076
866.777	8237.17486
866.959	8101.52321
867.141	8008.98333
867.323	8142.63895
867.505	7869.06697
867.687	7918.46006
867.869	7912.28657
868.052	8107.69108
868.234	7885.53265
868.416	8411.75125
868.598	7883.47451
868.78	8015.15393
868.962	8154.97211
869.144	8122.08208
869.326	7879.35817
869.508	7926.69108
869.69	7712.57655
869.872	8023.38111
870.054	7706.39682
870.236	7961.66929
870.417	7901.99701
870.599	7850.54149
870.781	7702.27689
870.963	7877.29997
871.145	7654.89163
871.327	7780.54116
871.508	7714.63642
871.69	8270.0471
871.872	7764.06699
872.054	7943.15215
872.235	7492.0478
872.417	7574.51705
872.599	7494.10995
872.78	7706.39682
872.962	7479.67444
873.144	7496.17208
873.325	7374.46944
873.507	7908.17081
873.689	7382.72286
873.87	7832.01433
874.052	7397.1655
874.233	7533.28672
874.415	7803.19096
874.596	7671.37473
874.778	7217.58796
874.959	7219.65302
875.141	7168.01998
875.322	7535.34844
875.503	7475.54982
875.685	7792.89591
875.866	7465.23788
876.048	7650.77064
876.229	7465.23788
876.41	7558.02594
876.592	7395.10233
876.773	7654.89163
876.954	7421.92182
877.136	7502.35834
877.317	7157.69171
877.498	7477.61214
877.679	7384.78616
877.86	7209.32752
878.042	7267.1432
878.223	7549.77988
878.404	7442.54971
878.585	7393.03914
878.766	7314.62173
878.947	7405.41795
879.128	7298.10878
879.309	7529.16321
879.49	7194.87089
879.672	7588.94564
879.853	7339.38853
880.034	7423.98471
880.215	7281.59442
880.396	7285.72314
880.576	7223.78306
880.757	7648.71012
880.938	7244.43196
881.119	7628.1037
881.3	7516.79218
881.481	7751.71048
881.662	7613.67794
881.843	7901.99701
882.023	7529.16321
882.204	7473.48747
882.385	7465.23788
882.566	7430.17324
882.747	7246.49673
882.927	7700.21689
883.108	7314.62173
883.289	7533.28672
883.469	7360.02513
883.65	7580.70086
883.831	7611.61703
884.011	7813.48549
884.192	7605.43418
884.373	7834.07299
884.553	7537.41014
884.734	7615.73883
884.914	7479.67444
885.095	7665.19372
885.275	7547.71831
885.456	7712.57655
885.636	7473.48747
885.817	7698.15687
885.997	7535.34844
886.178	7811.42663
886.358	7547.71831
886.538	7829.95565
886.719	7656.95209
886.899	7873.18351
887.08	7838.19024
887.26	7704.33686
887.44	7393.03914
887.621	7553.90295
887.801	7145.29706
887.981	7549.77988
888.161	7380.65954
888.342	7384.78616
888.522	7283.65879
888.702	7558.02594
888.882	7566.27167
889.062	7656.95209
889.242	7560.08741
889.423	7712.57655
889.603	7285.72314
889.783	7673.43502
889.963	7170.08557
890.143	7421.92182
890.323	7553.90295
890.503	7646.64957
890.683	7613.67794
890.863	7784.65949
891.043	7619.86054
891.223	7875.24175
891.403	7570.3944
891.583	7415.73303
891.763	7368.27915
891.943	7446.67502
892.122	7275.40117
892.302	7566.27167
892.482	7184.54406
892.662	7310.49363
892.842	7083.31173
893.022	7141.16532
893.201	6919.9872
893.381	7118.43921
893.561	7017.17187
893.741	7702.27689
893.92	7256.82024
894.1	7419.85892
894.28	7033.70899
894.459	7134.96756
894.639	7118.43921
894.819	7188.67486
894.998	7174.21668
895.178	7184.54406
895.357	7157.69171
895.537	7364.15218
895.716	7372.40603
895.896	7397.1655
896.075	6973.75509
896.255	7083.31173
896.434	7186.60947
896.614	7267.1432
896.793	7027.50774
896.973	7068.8456
897.152	6754.45132
897.331	7108.10827
897.511	6938.60089
897.69	7240.30236
897.87	6826.8912
898.049	6814.47492
898.228	6642.63192
898.407	6859.99727
898.587	6613.63076
898.766	6940.66897
898.945	6557.68718
899.124	6599.12849
899.304	6344.11755
899.483	6630.20341
899.662	6300.54389
899.841	6580.48104
900.02	6115.75998
900.199	6460.26366
900.378	6036.8068
900.557	6366.93773
900.737	6016.024
900.916	6366.93773
901.095	5866.31826
901.274	6200.90823
901.453	6061.74305
901.632	6038.88495
901.811	5991.08153
901.989	6163.53093
902.168	5733.14382
902.347	5993.1602
902.526	5614.45395
902.705	5926.63111
902.884	5604.0389
903.063	6082.52068
903.242	5749.79591
903.42	6043.04118
903.599	5674.84961
903.778	5974.45133
903.957	5668.6027
904.135	5918.31328
904.314	5529.03316
904.493	5589.45684
904.672	5314.26495
904.85	5376.84452
905.029	5197.39341
905.207	5262.09922
905.386	5155.63584
905.565	5364.33029
905.743	5289.22722
905.922	5330.9549
906.1	5147.28321
906.279	5049.11195
906.457	4955.07031
906.636	5163.9881
906.814	4808.69085
906.993	4967.61189
907.171	4890.25895
907.35	4806.5989
907.528	4773.12468
907.707	4754.29287
907.885	4469.50196
908.063	4676.854
908.242	4697.78647
908.42	4670.57382
908.598	4477.88403
908.777	4509.31366
908.955	4662.19993
909.133	4902.80481
909.311	4605.6668
909.49	4494.64712
909.668	4324.85613
909.846	4687.32051
910.024	4410.81761
910.202	4724.99531
910.38	4505.12333
910.559	4739.64465
910.737	4616.13713
910.915	4819.15024
911.093	4611.94906
911.271	4848.43349
911.449	4574.25247
911.627	4863.07344
911.805	4507.21851
911.983	4603.57267
912.161	4295.49509
912.339	4768.93999
912.517	4507.21851
912.695	4925.80339
912.872	4800.32293
913.05	4982.24269
913.228	4620.3251
913.406	4942.5279
913.584	4913.25905
913.762	4921.62204
913.939	4523.97912
914.117	4628.70078
914.295	4697.78647
914.473	4741.73732
914.65	4620.3251
914.828	4846.34198
915.006	4538.6435
915.184	4802.41494
915.361	4268.2275
915.539	4605.6668
915.716	4054.15741
915.894	4385.66193
916.072	4234.66242
916.249	4364.69647
916.427	4186.40308
916.604	4586.8188
916.782	4186.40308
916.959	4639.16988
917.137	4408.72143
917.314	4381.46902
917.492	4150.72593
917.669	4383.56549
917.847	3894.51393
918.024	4289.20289
918.201	4188.50154
918.379	4268.2275
918.556	4148.62709
918.733	4171.71323
918.911	3833.5666
919.088	4138.13254
919.265	3907.12162
919.442	4276.61791
919.62	4033.15844
919.797	4452.73676
919.974	3961.74657
920.151	4335.34118
920.328	3970.14919
920.506	4089.85091
920.683	3900.81786
920.86	3781.01243
921.037	3707.41607
921.214	3844.07595
921.391	3598.02954
921.568	3831.46467
921.745	3827.26075
921.922	3892.41258
922.099	3942.83948
922.276	3976.45094
922.453	3555.94425
922.63	3852.48308
922.807	3513.85156
922.984	3583.30053
923.161	3465.43593
923.338	3839.87227
923.514	3387.52999
923.691	3717.93129
923.868	3461.22543
924.045	3722.13724
924.222	3616.96548
924.399	3638.00364
924.575	3318.02597
924.752	3528.58484
924.929	3410.69376
925.105	3574.88355
925.282	3115.72765
925.459	3473.85673
925.635	3261.1451
925.812	3444.38268
925.989	3048.26164
926.165	3263.25202
926.342	2892.18651
926.518	3250.61025
926.695	3029.28395
926.871	3014.52266
927.048	2816.22916
927.224	2873.19889
927.401	2740.25387
927.577	2875.30869
927.754	2636.81558
927.93	2930.15822
928.107	2704.37062
928.283	2932.26763
928.459	2765.58091
928.636	2862.64972
928.812	2799.34729
928.988	3025.06651
929.165	2552.35392
929.341	2898.51545
929.517	2839.44029
929.693	2744.47517
929.87	2400.27641
930.046	2630.48163
930.222	2355.90999
930.398	2571.35947
930.574	2330.55577
930.751	2712.81408
930.927	2472.09794
931.103	2664.26138
931.279	2351.68439
931.455	2478.43453
931.631	2195.3103
931.807	2332.66867
931.983	2224.8984
932.159	2343.23306
932.335	2032.54766
932.511	2246.03171
932.687	2051.57414
932.863	2095.96703
933.039	1969.12216
933.215	2210.10456
933.391	2121.33293
933.566	2051.57414
933.742	1882.43183
933.918	1954.32206
934.094	1721.71575
934.27	2026.20538
934.445	1850.7136
934.621	2028.31948
934.797	1486.95417
934.973	1755.55269
935.148	1442.53809
935.324	1584.2455
935.5	1387.54686
935.675	1575.78549
935.851	1269.10683
936.027	1410.81234
936.202	1053.40037
936.378	1341.01625
936.553	1133.75658
936.729	1317.7512
936.904	1150.67455
937.08	1015.3396
937.255	928.65334
937.431	1002.65311
937.606	768.00155
937.782	981.50947
937.957	770.11505
938.133	818.72815
938.308	757.43422
938.483	774.34207
938.659	630.64738
938.834	596.84472
939.009	518.68897
939.185	615.85832
939.36	596.84472
939.535	588.39456
939.71	537.6981
939.886	598.95729
940.061	512.35284
940.236	455.33367
940.411	448.99889
940.586	512.35284
940.761	457.4453
940.937	499.68099
941.112	427.88395
941.287	461.6686
941.462	413.10444
941.637	402.54813
941.812	347.662
941.987	297.00827
942.162	288.56699
942.337	370.88166
942.512	286.45672
942.687	379.32569
942.862	267.46509
943.037	358.21613
943.212	263.24494
943.386	309.67074
943.561	199.95188
943.736	297.00827
943.911	212.60907
944.086	244.25518
944.26	256.91485
944.435	303.33942
944.61	242.1453
944.785	269.5752
944.959	267.46509
945.134	271.68532
945.309	288.56699
945.483	242.1453
945.658	199.95188
945.833	313.8917
946.007	261.13489
946.182	250.58493
946.357	263.24494
946.531	278.01581
946.706	218.93794
946.88	235.81579
947.055	250.58493
947.229	250.58493
947.404	280.12601
947.578	202.06136
947.752	216.8283
947.927	275.90563
948.101	250.58493
948.276	309.67074
948.45	334.99761
948.624	320.22329
948.799	309.67074
948.973	320.22329
949.147	278.01581
949.321	305.44984
949.496	273.79547
949.67	256.91485
949.844	280.12601
950.018	311.78121
950.193	233.70599
950.367	244.25518
950.541	273.79547
950.715	269.5752
950.889	351.8836
951.063	316.00221
951.237	250.58493
951.411	364.54882
951.585	320.22329
951.759	402.54813
951.933	343.44047
952.107	320.22329
952.281	278.01581
952.455	337.1083
952.629	284.34646
952.803	408.88187
952.977	284.34646
953.151	316.00221
953.325	292.78759
953.499	377.21465
953.672	337.1083
953.846	311.78121
954.02	330.77629
954.194	301.22902
954.368	233.70599
954.541	387.76998
954.715	288.56699
954.889	305.44984
955.062	313.8917
955.236	377.21465
955.41	254.80485
955.583	345.55122
955.757	307.56028
955.93	353.99443
956.104	309.67074
956.278	301.22902
956.451	259.02486
956.625	275.90563
956.798	318.11274
956.972	322.33385
957.145	292.78759
957.319	377.21465
957.492	271.68532
957.665	322.33385
957.839	305.44984
958.012	275.90563
958.185	216.8283
958.359	436.32974
958.532	275.90563
958.705	385.65888
958.879	320.22329
959.052	423.66115
959.225	278.01581
959.398	328.66565
959.572	313.8917
959.745	347.662
959.918	269.5752
960.091	252.69488
960.264	278.01581
960.438	303.33942
960.611	237.92561
960.784	305.44984
960.957	301.22902
961.13	343.44047
961.303	334.99761
961.476	303.33942
961.649	301.22902
961.822	334.99761
961.995	242.1453
962.168	301.22902
962.341	136.67694
962.514	326.55503
962.686	290.67728
962.859	240.03545
963.032	210.49949
963.205	286.45672
963.378	271.68532
963.551	415.21575
963.723	242.1453
963.896	252.69488
964.069	227.37671
964.242	337.1083
964.414	166.20292
964.587	223.15728
964.76	343.44047
964.932	309.67074
965.105	309.67074
965.278	337.1083
965.45	275.90563
965.623	360.32701
965.795	313.8917
965.968	292.78759
966.14	193.62355
966.313	267.46509
966.485	174.63967
966.658	284.34646
966.83	286.45672
967.003	221.0476
967.175	208.38993
967.348	343.44047
967.52	212.60907
967.692	256.91485
967.865	208.38993
968.037	259.02486
968.209	250.58493
968.382	313.8917
968.554	231.59621
968.726	218.93794
968.898	199.95188
969.071	330.77629
969.243	178.85816
969.415	191.51415
969.587	197.84241
969.759	187.2954
969.932	168.31207
970.104	225.26699
970.276	98.72115
970.448	178.85816
970.62	176.7489
970.792	157.7665
970.964	210.49949
971.136	199.95188
971.308	113.4809
971.48	294.89792
971.652	143.00359
971.824	227.37671
971.996	244.25518
972.168	128.24171
972.339	39.69314
972.511	183.07674
972.683	132.45929
972.855	157.7665
973.027	134.5681
973.199	259.02486
973.37	164.09378
973.542	117.69816
973.714	140.89469
973.886	174.63967
974.057	166.20292
974.229	119.80683
974.401	64.98867
974.572	202.06136
974.744	83.96248
974.915	174.63967
975.087	124.02423
975.259	176.7489
975.43	227.37671
975.602	176.7489
975.773	69.20492
975.945	212.60907
976.116	157.7665
976.288	187.2954
976.459	111.37229
976.63	134.5681
976.802	117.69816
976.973	121.91552
977.145	126.13296
977.316	157.7665
977.487	149.33043
977.659	81.85419
977.83	107.15516
978.001	147.22146
978.172	145.11251
978.344	113.4809
978.515	107.15516
978.686	210.49949
978.857	109.26371
979.028	107.15516
979.2	90.28749
979.371	161.98467
979.542	124.02423
979.713	41.80097
979.884	191.51415
980.055	52.34049
980.226	60.77252
980.397	149.33043
980.568	75.52945
980.739	102.93811
980.91	124.02423
981.081	77.63768
981.252	22.83131
981.423	166.20292
981.594	60.77252
981.765	149.33043
981.936	43.90883
982.106	81.85419
982.277	48.12461
982.448	48.12461
982.619	145.11251
982.79	81.85419
982.96	96.6127
983.131	111.37229
983.302	58.66448
983.472	94.50427
983.643	128.24171
983.814	102.93811
983.984	102.93811
984.155	71.31307
984.326	39.69314
984.496	62.88058
984.667	50.23254
984.837	56.55646
985.008	136.67694
985.178	81.85419
985.349	58.66448
985.519	14.40096
985.69	86.0708
985.86	100.82962
986.031	111.37229
986.201	124.02423
986.371	16.50851
986.542	31.26204
986.712	39.69314
986.882	98.72115
987.053	41.80097
987.223	73.42125
987.393	64.98867
987.563	52.34049
987.734	24.93896
987.904	64.98867
988.074	83.96248
988.244	90.28749
988.414	67.09678
988.585	67.09678
988.755	90.28749
988.925	14.40096
989.095	12.29343
989.265	124.02423
989.435	58.66448
989.605	56.55646
989.775	-2.45859
989.945	39.69314
990.115	54.44846
990.285	56.55646
990.455	107.15516
990.625	50.23254
990.795	81.85419
990.965	56.55646
991.134	81.85419
991.304	16.50851
991.474	94.50427
991.644	111.37229
991.814	33.36978
991.984	31.26204
992.153	73.42125
992.323	-53.02787
992.493	56.55646
992.662	41.80097
992.832	56.55646
993.002	16.50851
993.171	67.09678
993.341	48.12461
993.511	27.04663
993.68	90.28749
993.85	56.55646
994.019	37.58533
994.189	8.07845
994.358	-23.53085
994.528	14.40096
994.697	81.85419
994.867	18.61609
995.036	43.90883
995.206	18.61609
995.375	69.20492
995.544	-67.77453
995.714	18.61609
995.883	-34.06606
996.052	-0.35123
996.222	8.07845
996.391	14.40096
996.56	-12.99502
996.73	48.12461
996.899	16.50851
997.068	56.55646
997.237	-2.45859
997.406	-27.74501
997.576	10.18593
997.745	60.77252
997.914	1.75615
998.083	-40.38689
998.252	-23.53085
998.421	31.26204
998.59	35.47754
998.759	-10.88778
998.928	48.12461
999.097	5.97099
999.266	62.88058
999.435	8.07845
999.604	71.31307
999.773	10.18593
999.942	48.12461
1000.111	-27.74501
1000.28	10.18593
1000.448	1.75615
1000.617	31.26204
1000.786	18.61609
1000.955	39.69314
1001.124	75.52945
1001.292	22.83131
1001.461	14.40096
1001.63	48.12461
1001.798	5.97099
1001.967	14.40096
1002.136	-19.31659
1002.304	18.61609
1002.473	-42.49378
1002.642	58.66448
1002.81	1.75615
1002.979	58.66448
1003.147	5.97099
1003.316	27.04663
1003.484	-19.31659
1003.653	77.63768
1003.821	50.23254
1003.99	-17.20943
1004.158	-42.49378
1004.327	10.18593
1004.495	-2.45859
1004.663	-21.42373
1004.832	-8.78052
1005	69.20492
1005.168	64.98867
1005.337	56.55646
1005.505	-65.66794
1005.673	22.83131
1005.842	22.83131
1006.01	41.80097
1006.178	10.18593
1006.346	31.26204
1006.514	31.26204
1006.683	-25.63794
1006.851	-31.95906
1007.019	-10.88778
1007.187	27.04663
1007.355	-53.02787
1007.523	-8.78052
1007.691	-21.42373
1007.859	10.18593
1008.027	39.69314
1008.195	16.50851
1008.363	56.55646
1008.531	-34.06606
1008.699	33.36978
1008.867	20.72369
1009.035	14.40096
1009.203	-0.35123
1009.37	-2.45859
1009.538	31.26204
1009.706	67.09678
1009.874	16.50851
1010.042	33.36978
1010.209	-53.02787
1010.377	27.04663
1010.545	-36.17303
1010.713	20.72369
1010.88	18.61609
1011.048	-15.10224
1011.216	-34.06606
1011.383	-19.31659
1011.551	-19.31659
1011.718	-25.63794
1011.886	31.26204
1012.054	1.75615
1012.221	46.01671
1012.389	-10.88778
1012.556	-17.20943
1012.724	-25.63794
1012.891	1.75615
1013.058	-10.88778
1013.226	56.55646
1013.393	-19.31659
1013.561	31.26204
1013.728	35.47754
1013.895	27.04663
1014.063	10.18593
1014.23	22.83131
1014.397	81.85419
1014.565	43.90883
1014.732	-2.45859
1014.899	67.09678
1015.066	115.58952
1015.233	48.12461
1015.401	-57.24133
1015.568	-10.88778
1015.735	39.69314
1015.902	-53.02787
1016.069	-57.24133
1016.236	71.31307
1016.403	18.61609
1016.57	31.26204
1016.737	56.55646
1016.904	50.23254
1017.071	-15.10224
1017.238	3.86356
1017.405	-53.02787
1017.572	18.61609
1017.739	-50.9211
1017.906	-19.31659
1018.073	41.80097
1018.24	3.86356
1018.407	-10.88778
1018.573	-36.17303
1018.74	41.80097
1018.907	-10.88778
1019.074	31.26204
1019.241	5.97099
1019.407	24.93896
1019.574	-27.74501
1019.741	27.04663
1019.907	-2.45859
1020.074	-23.53085
1020.241	-2.45859
1020.407	-53.02787
1020.574	-69.8811
1020.74	12.29343
1020.907	-36.17303
1021.073	31.26204
1021.24	-86.73269
1021.406	54.44846
1021.573	-19.31659
1021.739	27.04663
1021.906	10.18593
1022.072	37.58533
1022.239	5.97099
1022.405	20.72369
1022.571	27.04663
1022.738	-15.10224
1022.904	22.83131
1023.07	5.97099
1023.237	-65.66794
1023.403	-31.95906
1023.569	-29.85205
1023.735	39.69314
1023.902	-2.45859
1024.068	39.69314
1024.234	-12.99502
1024.4	5.97099
1024.566	-17.20943
1024.732	33.36978
1024.898	-0.35123
1025.065	-23.53085
1025.231	-2.45859
1025.397	-55.13461
1025.563	-34.06606
1025.729	-25.63794
1025.895	-6.67324
1026.061	16.50851
1026.227	-36.17303
1026.392	56.55646
1026.558	-25.63794
1026.724	14.40096
1026.89	-34.06606
1027.056	-17.20943
1027.222	-84.62633
1027.388	14.40096
1027.553	43.90883
1027.719	8.07845
1027.885	-29.85205
1028.051	35.47754
1028.216	-15.10224
1028.382	5.97099
1028.548	-0.35123
1028.713	10.18593
1028.879	5.97099
1029.045	16.50851
1029.21	-38.27997
1029.376	-59.34802
1029.541	-63.56133
1029.707	-0.35123
1029.873	-15.10224
1030.038	58.66448
1030.204	-27.74501
1030.369	-19.31659
1030.534	69.20492
1030.7	22.83131
1030.865	56.55646
1031.031	-57.24133
1031.196	-34.06606
1031.361	-46.70749
1031.527	1.75615
1031.692	-4.56592
1031.857	-17.20943
1032.023	-38.27997
1032.188	31.26204
1032.353	-8.78052
1032.518	-42.49378
1032.684	22.83131
1032.849	67.09678
1033.014	-25.63794
1033.179	-17.20943
1033.344	-42.49378
1033.509	-36.17303
1033.674	-38.27997
1033.839	8.07845
1034.004	-86.73269
1034.17	-12.99502
1034.335	-36.17303
1034.5	-133.06595
1034.664	50.23254
1034.829	-2.45859
1034.994	-48.81431
1035.159	-8.78052
1035.324	-23.53085
1035.489	-63.56133
1035.654	-93.05161
1035.819	-15.10224
1035.984	-2.45859
1036.148	-57.24133
1036.313	-2.45859
1036.478	27.04663
1036.643	-2.45859
1036.807	-40.38689
1036.972	-42.49378
1037.137	-29.85205
1037.301	-10.88778
1037.466	-27.74501
1037.631	24.93896
1037.795	3.86356
1037.96	-59.34802
1038.124	-50.9211
1038.289	-59.34802
1038.454	-50.9211
1038.618	-15.10224
1038.783	41.80097
1038.947	35.47754
1039.111	33.36978
1039.276	8.07845
1039.44	-40.38689
1039.605	10.18593
1039.769	46.01671
1039.933	-36.17303
1040.098	1.75615
1040.262	-19.31659
1040.426	16.50851
1040.591	-59.34802
1040.755	1.75615
1040.919	-19.31659
1041.083	10.18593
1041.248	-27.74501
1041.412	-19.31659
1041.576	16.50851
1041.74	-19.31659
1041.904	-25.63794
1042.068	27.04663
1042.232	-15.10224
1042.397	-31.95906
1042.561	-19.31659
1042.725	24.93896
1042.889	48.12461
1043.053	-4.56592
1043.217	-17.20943
1043.381	24.93896
1043.544	39.69314
1043.708	-2.45859
1043.872	-15.10224
1044.036	-27.74501
1044.2	-29.85205
1044.364	-19.31659
1044.528	-8.78052
1044.691	-2.45859
1044.855	-31.95906
1045.019	-27.74501
1045.183	-4.56592
1045.346	-6.67324
1045.51	-0.35123
1045.674	-57.24133
1045.837	16.50851
1046.001	-31.95906
1046.165	-17.20943
1046.328	39.69314
1046.492	43.90883
1046.655	-48.81431
1046.819	-40.38689
1046.983	60.77252
1047.146	-19.31659
1047.31	81.85419
1047.473	-53.02787
1047.636	-8.78052
1047.8	5.97099
1047.963	14.40096
1048.127	-40.38689
1048.29	-101.47647
