Data from mixed_try1_USB4F045381__34__00099.txt Node

Date: Thu Apr 03 19:57:15 EDT 2025
User: mmckonesweet
Spectrometer: USB4F04538
Trigger mode: 4
Integration Time (sec): 2.700000E-3
Scans to average: 1
Electric dark correction enabled: true
Nonlinearity correction enabled: true
Boxcar width: 0
XAxis mode: Wavelengths
Number of Pixels in Spectrum: 3648
>>>>>Begin Spectral Data<<<<<
345.52	82.55695
345.736	82.55695
345.952	82.55695
346.168	10.88843
346.384	-18.61421
346.6	23.53386
346.816	23.53386
347.032	-50.21884
347.248	-3.86348
347.464	-27.04265
347.68	-31.25673
347.896	0.35123
348.112	-43.89836
348.328	6.67348
348.544	53.04315
348.76	-1.75614
348.975	50.93519
349.191	-8.0781
349.407	40.39575
349.623	-18.61421
349.839	53.04315
350.055	19.31862
350.27	34.07236
350.486	-14.39983
350.702	-43.89836
350.918	-1.75614
351.133	82.55695
351.349	2.45862
351.565	-1.75614
351.781	-41.79148
351.996	44.61145
352.212	-22.82848
352.428	2.45862
352.644	4.56604
352.859	34.07236
353.075	31.96461
353.291	23.53386
353.506	69.90763
353.722	10.88843
353.938	36.18013
354.153	17.21104
354.369	0.35123
354.584	23.53386
354.8	-1.75614
355.016	19.31862
355.231	-50.21884
355.447	-8.0781
355.662	10.88843
355.878	4.56604
356.093	23.53386
356.309	-20.72135
356.524	-27.04265
356.74	-12.29261
356.955	27.74919
357.171	-58.64579
357.386	74.12398
357.602	34.07236
357.817	-41.79148
358.033	40.39575
358.248	-10.18537
358.464	-10.18537
358.679	-43.89836
358.895	6.67348
359.11	40.39575
359.325	29.85689
359.541	-1.75614
359.756	-39.68458
359.972	-50.21884
360.187	19.31862
360.402	23.53386
360.618	-69.17891
360.833	-18.61421
361.048	69.90763
361.264	-22.82848
361.479	31.96461
361.694	-8.0781
361.909	-18.61421
362.125	-22.82848
362.34	36.18013
362.555	-60.75247
362.77	50.93519
362.986	6.67348
363.201	-22.82848
363.416	-33.36373
363.631	-1.75614
363.847	65.69137
364.062	25.64151
364.277	-56.53909
364.492	-8.0781
364.707	15.10348
364.922	-35.47071
365.138	55.15113
365.353	40.39575
365.568	-8.0781
365.783	74.12398
365.998	21.42623
366.213	-18.61421
366.428	10.88843
366.643	-50.21884
366.858	-5.9708
367.073	12.99594
367.288	6.67348
367.503	-16.50703
367.718	48.82725
367.933	-5.9708
368.148	-14.39983
368.363	-41.79148
368.578	-52.32561
368.793	57.25913
369.008	-8.0781
369.223	27.74919
369.438	42.50359
369.653	10.88843
369.868	67.79949
370.083	10.88843
370.298	25.64151
370.513	6.67348
370.728	15.10348
370.943	15.10348
371.157	42.50359
371.372	-27.04265
371.587	31.96461
371.802	48.82725
372.017	-35.47071
372.232	76.23219
372.446	-27.04265
372.661	34.07236
372.876	-14.39983
373.091	15.10348
373.306	8.78094
373.52	15.10348
373.735	-33.36373
373.95	-69.17891
374.165	-33.36373
374.379	27.74919
374.594	-58.64579
374.809	34.07236
375.023	50.93519
375.238	17.21104
375.453	23.53386
375.667	-48.11204
375.882	-5.9708
376.097	69.90763
376.311	0.35123
376.526	-12.29261
376.741	-29.1497
376.955	42.50359
377.17	10.88843
377.384	42.50359
377.599	65.69137
377.813	34.07236
378.028	50.93519
378.242	15.10348
378.457	-27.04265
378.672	23.53386
378.886	-1.75614
379.101	-62.85911
379.315	-24.93558
379.53	-50.21884
379.744	-5.9708
379.958	-10.18537
380.173	8.78094
380.387	48.82725
380.602	-5.9708
380.816	2.45862
381.031	-18.61421
381.245	17.21104
381.459	-27.04265
381.674	17.21104
381.888	0.35123
382.103	15.10348
382.317	23.53386
382.531	29.85689
382.746	84.66525
382.96	-24.93558
383.174	-48.11204
383.388	-5.9708
383.603	-73.39198
383.817	31.96461
384.031	44.61145
384.246	42.50359
384.46	-18.61421
384.674	-3.86348
384.888	50.93519
385.103	-8.0781
385.317	40.39575
385.531	88.88192
385.745	31.96461
385.959	74.12398
386.174	-5.9708
386.388	6.67348
386.602	-24.93558
386.816	-1.75614
387.03	61.47521
387.244	0.35123
387.458	-52.32561
387.672	-35.47071
387.887	19.31862
388.101	19.31862
388.315	-10.18537
388.529	6.67348
388.743	29.85689
388.957	90.99028
389.171	82.55695
389.385	15.10348
389.599	19.31862
389.813	76.23219
390.027	40.39575
390.241	40.39575
390.455	2.45862
390.669	-54.43236
390.883	-1.75614
391.097	0.35123
391.311	15.10348
391.525	53.04315
391.738	72.0158
391.952	31.96461
392.166	-52.32561
392.38	-16.50703
392.594	-39.68458
392.808	50.93519
393.022	-48.11204
393.236	-27.04265
393.449	-3.86348
393.663	19.31862
393.877	6.67348
394.091	15.10348
394.305	31.96461
394.518	27.74919
394.732	69.90763
394.946	29.85689
395.16	-8.0781
395.373	-39.68458
395.587	34.07236
395.801	2.45862
396.015	46.71934
396.228	6.67348
396.442	-60.75247
396.656	-14.39983
396.869	4.56604
397.083	-27.04265
397.297	2.45862
397.51	25.64151
397.724	-18.61421
397.938	44.61145
398.151	-75.49848
398.365	90.99028
398.578	-69.17891
398.792	-16.50703
399.005	36.18013
399.219	4.56604
399.433	-14.39983
399.646	31.96461
399.86	-18.61421
400.073	59.36716
400.287	-29.1497
400.5	67.79949
400.714	10.88843
400.927	50.93519
401.141	-67.07234
401.354	4.56604
401.567	-18.61421
401.781	36.18013
401.994	57.25913
402.208	21.42623
402.421	0.35123
402.635	-5.9708
402.848	-10.18537
403.061	4.56604
403.275	48.82725
403.488	27.74919
403.701	48.82725
403.915	6.67348
404.128	-5.9708
404.341	59.36716
404.555	-58.64579
404.768	103.64094
404.981	2.45862
405.195	76.23219
405.408	93.09867
405.621	-10.18537
405.834	-1.75614
406.048	34.07236
406.261	-48.11204
406.474	57.25913
406.687	48.82725
406.9	17.21104
407.114	2.45862
407.327	-18.61421
407.54	0.35123
407.753	2.45862
407.966	-18.61421
408.179	57.25913
408.392	-35.47071
408.605	59.36716
408.819	19.31862
409.032	-10.18537
409.245	17.21104
409.458	-41.79148
409.671	23.53386
409.884	42.50359
410.097	57.25913
410.31	-33.36373
410.523	65.69137
410.736	95.20708
410.949	82.55695
411.162	-56.53909
411.375	-16.50703
411.588	8.78094
411.801	61.47521
412.014	-18.61421
412.227	76.23219
412.44	-22.82848
412.653	6.67348
412.865	-29.1497
413.078	69.90763
413.291	27.74919
413.504	25.64151
413.717	15.10348
413.93	6.67348
414.143	42.50359
414.356	78.34042
414.568	67.79949
414.781	10.88843
414.994	17.21104
415.207	27.74919
415.42	-10.18537
415.632	6.67348
415.845	-20.72135
416.058	48.82725
416.271	0.35123
416.483	57.25913
416.696	17.21104
416.909	57.25913
417.121	-18.61421
417.334	-27.04265
417.547	82.55695
417.759	42.50359
417.972	15.10348
418.185	-39.68458
418.397	-18.61421
418.61	0.35123
418.823	29.85689
419.035	34.07236
419.248	15.10348
419.46	12.99594
419.673	74.12398
419.885	40.39575
420.098	-8.0781
420.311	46.71934
420.523	25.64151
420.736	42.50359
420.948	65.69137
421.161	2.45862
421.373	-64.96574
421.586	25.64151
421.798	-5.9708
422.01	48.82725
422.223	-18.61421
422.435	27.74919
422.648	78.34042
422.86	-18.61421
423.073	34.07236
423.285	-56.53909
423.497	78.34042
423.71	17.21104
423.922	38.28793
424.134	31.96461
424.347	59.36716
424.559	61.47521
424.771	23.53386
424.984	38.28793
425.196	86.77357
425.408	-24.93558
425.621	31.96461
425.833	-18.61421
426.045	40.39575
426.257	107.85801
426.47	48.82725
426.682	84.66525
426.894	101.53244
427.106	53.04315
427.318	59.36716
427.531	15.10348
427.743	53.04315
427.955	2.45862
428.167	48.82725
428.379	107.85801
428.591	0.35123
428.804	21.42623
429.016	-16.50703
429.228	31.96461
429.44	15.10348
429.652	6.67348
429.864	-16.50703
430.076	48.82725
430.288	59.36716
430.5	-48.11204
430.712	99.42397
430.924	48.82725
431.136	82.55695
431.348	57.25913
431.56	88.88192
431.772	50.93519
431.984	-10.18537
432.196	57.25913
432.408	86.77357
432.62	99.42397
432.832	78.34042
433.044	160.57861
433.256	78.34042
433.468	61.47521
433.679	84.66525
433.891	65.69137
434.103	69.90763
434.315	55.15113
434.527	122.61842
434.739	128.94464
434.95	31.96461
435.162	90.99028
435.374	53.04315
435.586	147.92445
435.798	72.0158
436.009	34.07236
436.221	107.85801
436.433	107.85801
436.645	-1.75614
436.856	42.50359
437.068	48.82725
437.28	53.04315
437.491	59.36716
437.703	82.55695
437.915	34.07236
438.126	99.42397
438.338	74.12398
438.55	84.66525
438.761	93.09867
438.973	99.42397
439.184	107.85801
439.396	53.04315
439.608	50.93519
439.819	74.12398
440.031	57.25913
440.242	48.82725
440.454	29.85689
440.665	-3.86348
440.877	145.81549
441.088	-8.0781
441.3	116.2924
441.511	124.72714
441.723	78.34042
441.934	76.23219
442.146	93.09867
442.357	90.99028
442.569	137.37989
442.78	72.0158
442.991	74.12398
443.203	105.74946
443.414	101.53244
443.626	133.16222
443.837	112.07516
444.048	99.42397
444.26	109.96657
444.471	116.2924
444.682	112.07516
444.894	128.94464
445.105	6.67348
445.316	55.15113
445.528	86.77357
445.739	86.77357
445.95	131.05342
446.161	141.59765
446.373	124.72714
446.584	82.55695
446.795	97.31551
447.006	175.34274
447.217	124.72714
447.429	171.12431
447.64	116.2924
447.851	118.40105
448.062	101.53244
448.273	74.12398
448.484	158.46953
448.695	126.83588
448.907	103.64094
449.118	169.01513
449.329	204.87403
449.54	107.85801
449.751	156.36047
449.962	40.39575
450.173	90.99028
450.384	103.64094
450.595	105.74946
450.806	194.32669
451.017	88.88192
451.228	162.68771
451.439	145.81549
451.65	200.65503
451.861	90.99028
452.072	133.16222
452.283	126.83588
452.494	175.34274
452.705	162.68771
452.915	175.34274
453.126	99.42397
453.337	67.79949
453.548	150.03342
453.759	154.25143
453.97	135.27105
454.181	217.53151
454.391	118.40105
454.602	259.7282
454.813	135.27105
455.024	285.04988
455.235	150.03342
455.445	194.32669
455.656	268.16846
455.867	253.3982
456.078	162.68771
456.288	175.34274
456.499	217.53151
456.71	280.82941
456.921	185.88917
457.131	217.53151
457.342	209.09311
457.553	211.20268
457.763	270.27857
457.974	287.16014
458.184	259.7282
458.395	255.50818
458.606	293.49103
458.816	242.84859
459.027	230.1897
459.237	293.49103
459.448	318.81625
459.659	240.73873
459.869	232.29947
460.08	259.7282
460.29	318.81625
460.501	327.25857
460.711	320.92681
460.922	261.83823
461.132	320.92681
461.343	346.25481
461.553	213.31227
461.764	329.36919
461.974	301.93248
462.184	348.36559
462.395	278.71921
462.605	422.25357
462.816	386.36258
463.026	373.69631
463.236	285.04988
463.447	407.47436
463.657	327.25857
463.867	555.30016
464.078	422.25357
464.288	487.7136
464.498	538.40216
464.709	485.60176
464.919	399.02945
465.129	487.7136
465.339	572.19902
465.55	601.77407
465.76	513.05685
465.97	544.73881
466.18	464.48416
466.391	677.83549
466.601	470.81928
466.811	648.25418
467.021	703.19269
467.231	665.1575
467.441	523.61715
467.651	724.32492
467.862	559.52479
468.072	846.91191
468.282	844.79808
468.492	762.36561
468.702	944.15735
468.912	929.35806
469.122	868.05076
469.332	965.29979
469.542	939.92894
469.752	1187.33102
469.962	1003.35791
470.172	1113.31442
470.382	1020.27329
470.592	1047.76162
470.802	1062.56342
471.012	1214.82409
471.222	1187.33102
471.432	1123.8879
471.642	1240.2028
471.852	1250.77739
472.062	1309.99623
472.272	1445.35816
472.482	1474.96889
472.691	1616.67529
472.901	1451.70332
473.111	1502.46452
473.321	1443.24311
473.531	1553.22534
473.741	1648.3996
473.95	1777.4052
474.16	1688.58293
474.37	1927.54019
474.58	1910.62485
474.79	2001.54037
474.999	1781.63467
475.209	1893.70915
475.419	1974.05546
475.628	2155.85694
475.838	1916.96814
476.048	2048.05076
476.258	2240.39624
476.467	2305.90447
476.677	2365.06534
476.886	2542.49882
477.096	2686.07575
477.306	2702.96336
477.515	2411.54335
477.725	2637.51934
477.935	2529.8276
478.144	2833.8135
478.354	2648.07565
478.563	3000.46359
478.773	2973.04647
478.982	2983.59182
479.192	3008.89911
479.401	3175.44957
479.611	3202.84702
479.82	3204.9544
480.03	3386.12605
480.239	3512.44834
480.449	3344.00443
480.658	3617.66679
480.868	3588.2103
481.077	3760.68819
481.287	3579.79349
481.496	3748.07224
481.705	3811.14499
481.915	3706.01401
482.124	3731.24987
482.333	3993.95485
482.543	3748.07224
482.752	4113.64324
482.961	4260.53599
483.171	4185.00409
483.38	4059.05687
483.589	4457.62675
483.799	4482.77341
484.008	4413.6125
484.217	4340.23403
484.426	4648.24265
484.636	4560.28893
484.845	4815.66384
485.054	4530.9623
485.263	4750.8053
485.472	4734.06408
485.682	5026.82483
485.891	4688.01826
486.1	4899.31993
486.309	5158.41997
486.518	5145.89107
486.727	5056.07614
486.936	5218.96451
487.146	5185.56305
487.355	5377.53973
487.564	5506.80337
487.773	5700.5291
487.982	5358.76814
488.191	5538.06324
488.4	5558.90021
488.609	5862.85141
488.818	5877.41177
489.027	5690.11893
489.236	5777.54604
489.445	6070.74698
489.654	6006.32456
489.863	6363.48031
490.072	6097.7561
490.281	6249.34897
490.49	6263.87871
490.698	6436.07258
490.907	6214.05769
491.116	6620.53621
491.325	6386.2981
491.534	6446.44057
491.743	6599.8191
491.952	6603.9627
492.16	6603.9627
492.369	6790.3298
492.578	6788.26008
492.787	7053.00048
492.996	6897.92415
493.204	6990.98516
493.413	6835.858
493.622	7274.02487
493.831	7028.19678
494.039	7385.47392
494.248	7158.38028
494.457	7319.43775
494.665	7488.61083
494.874	7490.67302
495.083	7612.304
495.291	7529.85047
495.5	7533.97396
495.709	7591.69383
495.917	7624.66909
496.126	7620.54748
496.335	7787.405
496.543	8001.44123
496.752	7777.10915
496.96	7968.52706
497.169	7795.64131
497.377	8007.61206
497.586	7923.26153
497.794	7972.64162
498.003	7935.60766
498.211	8024.0667
498.42	8184.43175
498.628	8272.78622
498.837	8204.98257
499.045	8445.28125
499.254	8225.5314
499.462	8521.21807
499.671	8453.49189
499.879	8767.32258
500.087	8551.99586
500.296	8625.84526
500.504	8623.79422
500.713	8607.38519
500.921	8568.40894
501.129	8603.28274
501.338	8599.18022
501.546	9082.77322
501.754	8845.20041
501.962	9168.73306
502.171	8984.49601
502.379	9246.48036
502.587	8910.76154
502.795	9054.11318
503.004	9041.82927
503.212	9199.4257
503.42	9268.98161
503.628	9320.11332
503.837	9275.11796
504.045	9219.88534
504.253	9250.57164
504.461	9487.7532
504.669	9608.30527
504.877	9741.05388
505.085	9655.28532
505.294	9906.38931
505.502	9665.49728
505.71	9724.71909
505.918	9677.75113
506.126	9900.26751
506.334	9732.88661
506.542	9790.0524
506.75	9769.63741
506.958	10063.47066
507.166	10128.72634
507.374	9949.23818
507.582	9981.88064
507.79	10112.41377
507.998	10116.492
508.206	10318.29533
508.414	9951.27844
508.622	10128.72634
508.83	10008.39991
509.037	10418.12903
509.245	10200.08339
509.453	10401.83181
509.661	10471.08929
509.869	10277.53773
510.077	10432.38842
510.285	10615.66766
510.492	10532.18649
510.7	10579.01998
510.908	10609.55999
511.116	10741.86815
511.324	10526.07729
511.531	11183.21855
511.739	10576.98388
511.947	10874.12583
512.155	10727.62204
512.362	10847.67825
512.57	10815.12468
512.778	10780.53323
512.985	10770.35862
513.193	10847.67825
513.401	10933.1173
513.608	11057.1719
513.816	11130.36529
514.024	11051.07182
514.231	11122.23338
514.439	11420.97193
514.646	11166.95677
514.854	11360.02267
515.061	11195.41445
515.269	11341.73615
515.477	11181.18587
515.684	11425.0349
515.892	11512.37942
516.099	11384.40344
516.307	11670.77401
516.514	11638.28736
516.722	11552.99878
516.929	11449.4119
517.136	11516.44152
517.344	11496.13062
517.551	11341.73615
517.759	11668.74366
517.966	11749.95067
518.173	11731.68032
518.381	11934.6453
518.588	12066.52847
518.796	12040.1545
519.003	12356.5587
519.21	11865.64666
519.418	12086.81524
519.625	12137.52883
519.832	12180.1246
520.039	12046.24092
520.247	12291.66965
520.454	12336.28164
520.661	12305.86474
520.868	12074.64327
521.076	12526.85947
521.283	12453.87913
521.49	12717.38102
521.697	12711.30137
521.904	12470.09772
522.112	12425.4956
522.319	12836.93712
522.526	12632.26102
522.733	12956.47413
522.94	12605.9122
523.147	12695.0887
523.354	12674.82233
523.561	12911.90316
523.768	12944.31866
523.975	13302.83165
524.183	12899.74701
524.39	12990.91362
524.597	13031.4288
524.804	13108.40223
525.011	13003.06838
525.218	13179.29275
525.425	13199.54616
525.632	13150.93722
525.838	13140.81003
526.045	13375.73242
526.252	13590.35534
526.459	13331.18258
526.666	13353.45775
526.873	13517.46922
527.08	13402.0564
527.287	13709.79799
527.494	13519.49389
527.701	14112.58842
527.907	13744.21157
528.114	13754.33305
528.321	13620.72322
528.528	13869.71257
528.735	13875.78492
528.941	13831.25378
529.148	13782.67276
529.355	14191.51584
529.562	13857.5678
529.768	14288.6531
529.975	13875.78492
530.182	14142.9455
530.388	14183.42087
530.595	14280.55849
530.802	14049.84886
531.008	14482.91567
531.215	14476.84517
531.422	14549.69031
531.628	14446.49252
531.835	14422.21016
532.042	14482.91567
532.248	14488.98615
532.455	14640.74451
532.661	14958.40852
532.868	14832.96361
533.074	14885.56979
533.281	14578.01853
533.487	14729.77325
533.694	14660.97847
533.9	15132.41045
534.107	14525.40878
534.313	15102.06138
534.52	15045.40969
534.726	15280.10932
534.933	14907.82613
535.139	15302.36537
535.345	15019.10707
535.552	15126.34064
535.758	15037.31658
535.965	15547.18508
536.171	15354.97073
536.377	15794.03818
536.584	15314.50505
536.79	15332.71459
536.996	15848.67159
537.203	15371.15704
537.409	15494.57856
537.615	15587.65194
537.821	15494.57856
538.028	15976.15297
538.234	15591.69864
538.44	15628.1191
538.646	15312.48177
538.853	15996.38859
539.059	15539.09174
539.265	16154.23145
539.471	15959.96457
539.677	16283.7509
539.883	16105.66343
540.09	15964.01166
540.296	15955.91748
540.502	16131.97099
540.708	16136.01834
540.914	16293.86991
541.12	16170.421
541.326	16289.8223
541.532	16154.23145
541.738	16324.22721
541.944	16441.61282
542.15	16518.5243
542.356	16303.98896
542.562	16866.69027
542.768	16423.39738
542.974	16761.42341
543.18	16893.00805
543.386	16874.788
543.592	16666.28401
543.798	16925.39975
544.004	16737.132
544.21	16787.7395
544.415	16546.86087
544.621	17063.07204
544.827	17150.13605
545.033	17152.16085
545.239	17198.73218
545.445	17421.48619
545.651	16957.79212
545.856	17271.62952
546.062	17233.15545
546.268	17148.11124
546.474	16925.39975
546.679	16741.18055
546.885	16795.83684
547.091	17214.93126
547.297	17010.43117
547.502	17312.12969
547.708	17259.4797
547.914	17291.87946
548.119	17275.67948
548.325	17668.58459
548.531	16973.98856
548.736	17599.71628
548.942	17405.28467
549.147	17397.18398
549.353	17636.1755
549.559	17842.79812
549.764	17818.48775
549.97	17719.22549
550.175	17745.55958
550.381	18276.41858
550.586	17869.13491
550.792	18329.11282
550.997	17935.99249
551.203	18010.95855
551.408	17954.22703
551.614	18308.8455
551.819	18235.88626
552.025	18171.03764
552.23	18171.03764
552.435	18316.95238
552.641	18164.95827
552.846	18365.59493
553.052	18185.22295
553.257	18349.3805
553.462	18543.96962
553.668	18693.98965
553.873	18827.80943
554.078	18882.55888
554.283	18878.50327
554.489	19022.48742
554.694	19166.49199
554.899	18860.2532
555.105	18996.1226
555.31	18931.2275
555.515	18590.59518
555.72	18756.84225
555.925	18714.26427
556.131	19144.18007
556.336	18679.79765
556.541	19326.74666
556.746	18998.15064
556.951	19048.85292
557.156	18825.78173
557.361	19529.63766
557.567	19436.30265
557.772	19696.03934
557.977	19480.94003
558.182	19365.29276
558.387	19614.86428
558.592	19878.70775
558.797	19493.11421
559.002	19430.21589
559.207	19320.66057
559.412	19436.30265
559.617	18983.95446
559.822	19217.20272
560.027	19407.89808
560.232	19515.43394
560.437	19549.92904
560.642	19401.8115
560.847	19515.43394
561.051	19890.88685
561.256	19440.36051
561.461	19710.24567
561.666	19771.13224
561.871	19758.95462
562.076	19714.30466
562.281	19957.87462
562.485	19507.31762
562.69	19413.98471
562.895	19564.13326
563.1	19728.51124
563.305	19570.22085
563.509	20022.83683
563.714	19795.48793
563.919	20197.44412
564.123	19903.06611
564.328	19931.48495
564.533	20081.71256
564.737	20286.79011
564.942	20177.13935
565.147	20638.16102
565.351	20213.68824
565.556	19941.63474
565.761	20104.04566
565.965	20179.16981
566.17	20236.02434
566.374	20504.09722
566.579	20201.50513
566.784	20290.85148
566.988	20483.78611
567.193	20390.36041
567.397	20250.23849
567.602	20479.72394
567.806	20229.93263
568.011	20498.00384
568.215	20745.83145
568.42	20656.44385
568.624	20376.14423
568.828	20938.85476
569.033	20640.19242
569.237	20906.34296
569.442	20892.11938
569.646	20615.81579
569.85	20581.28324
570.055	20890.08746
570.259	20723.48379
570.463	20965.27138
570.668	20904.31101
570.872	20898.21518
571.076	21243.70387
571.281	21087.20319
571.485	21148.17462
571.689	21288.42276
571.893	21284.35733
572.098	21428.6901
572.302	21107.52659
572.506	21434.78911
572.71	21168.49924
572.914	21119.72083
573.119	21276.22651
573.323	21282.32462
573.527	21154.27196
573.731	21276.22651
573.935	21540.51102
574.139	21713.34866
574.343	21266.06307
574.547	21251.83443
574.751	21670.64496
574.955	21247.76914
575.159	21745.88597
575.364	21719.44933
575.568	21347.37337
575.772	21601.50929
575.976	21373.80061
576.18	21833.33491
576.383	21666.57803
576.587	21810.96357
576.791	21705.21449
576.995	21829.26735
577.199	21743.85236
577.403	21705.21449
577.607	21961.47063
577.811	22288.99678
578.015	21916.72309
578.219	21845.53765
578.422	21975.70887
578.626	22144.54783
578.83	21859.77436
579.034	22160.82283
579.238	21963.50465
579.442	22407.01109
579.645	22236.09781
579.849	22295.10067
580.053	22500.61733
580.257	22343.93295
580.46	22512.8274
580.664	22600.33666
580.868	22547.4233
581.071	22516.89745
581.275	22820.15602
581.479	22618.65338
581.682	22468.05777
581.886	22602.37183
582.09	22720.41812
582.293	22700.06447
582.497	22671.56995
582.7	22317.48187
582.904	22944.33103
583.107	22773.33924
583.311	22681.74649
583.515	22647.14662
583.718	22457.8831
583.922	22752.98469
584.125	22657.32295
584.329	22956.54564
584.532	23084.8064
584.735	23070.55455
584.939	23017.62054
585.142	23209.00787
585.346	22964.68879
585.549	23441.15425
585.753	23166.24862
585.956	23685.56262
586.159	23131.63503
586.363	23587.794
586.566	23608.16189
586.769	23365.80397
586.973	23023.7282
587.176	23608.16189
587.379	23437.08115
587.582	23712.04281
587.786	23441.15425
587.989	23483.92252
588.192	23485.95914
588.395	23445.22736
588.599	23744.63451
588.802	23942.23774
589.005	23459.48334
589.208	24068.55496
589.411	24068.55496
589.615	23978.90936
589.818	24343.6372
590.021	23868.89727
590.224	23974.83469
590.427	23864.82291
590.63	23938.16317
590.833	23964.64806
591.036	24082.81725
591.239	24162.28112
591.442	23944.27502
591.645	24121.52989
591.848	24331.41028
592.051	24264.16394
592.254	24174.5067
592.457	24315.10787
592.66	24315.10787
592.863	24543.35679
593.066	24582.08078
593.269	24739.02403
593.472	24408.84902
593.675	24814.44346
593.878	24482.21551
594.081	25130.42457
594.284	24736.98571
594.486	24869.48132
594.689	24708.44952
594.892	24268.23939
595.095	24663.60791
595.298	24749.21565
595.5	24714.56438
595.703	24871.5198
595.906	24690.10508
596.109	24500.55765
596.311	24537.24256
596.514	24661.56969
596.717	24893.94315
596.92	25030.52782
597.122	25154.8899
597.325	25010.14139
597.528	25101.8821
597.73	25185.47201
597.933	24924.5209
598.136	25285.37697
598.338	24973.4464
598.541	25258.87107
598.743	25560.65153
598.946	25226.24891
599.148	25222.17118
599.351	24914.32826
599.554	24914.32826
599.756	25362.85783
599.959	25554.53392
600.161	25424.02907
600.363	25554.53392
600.566	25442.38081
600.768	25632.02507
600.971	25287.4159
601.173	24959.17633
601.376	25299.64953
601.578	25258.87107
601.78	25574.92605
601.983	25387.3261
602.185	25668.7324
602.388	25214.01575
602.59	25511.7111
602.792	25214.01575
602.995	25597.35762
603.197	25515.78942
603.399	25695.24364
603.601	25585.12219
603.804	25381.209
604.006	25821.68633
604.208	25583.08295
604.41	25576.96527
604.613	25846.15995
604.815	25619.78943
605.017	25595.31837
605.219	25921.62196
605.421	25805.37074
605.623	26123.54602
605.826	25872.67335
606.028	25544.33793
606.23	25842.081
606.432	25882.87089
606.634	25911.42425
606.836	25271.10451
607.038	25795.17355
607.24	25697.28298
607.442	25964.45287
607.644	25803.3313
607.846	26341.8063
608.048	26284.6896
608.25	26490.72372
608.452	26431.56372
608.654	26247.97241
608.856	26278.57003
609.058	26154.14208
609.26	26472.36357
609.462	25995.04687
609.664	26423.40382
609.866	26425.44379
610.067	26290.80918
610.269	26331.6068
610.471	26084.79157
610.673	26498.88382
610.875	26139.86387
611.077	26325.48711
611.278	25999.1261
611.48	26164.34085
611.682	25999.1261
611.884	26207.17617
612.085	25956.29454
612.287	26323.44722
612.489	26339.7664
612.69	26484.60366
612.892	26651.89042
613.094	26415.24395
613.295	26301.00852
613.497	26517.24415
613.699	26347.92602
613.9	26296.92878
614.102	26874.27517
614.304	26694.73382
614.505	26135.7844
614.707	26339.7664
614.908	26090.91065
615.11	26158.22158
615.311	25850.23892
615.513	25738.07018
615.714	26156.18183
615.916	26427.48377
616.117	26245.93258
616.319	26390.7645
616.52	26319.36744
616.722	26749.81915
616.923	26829.38877
617.124	26986.4942
617.326	26360.16552
617.527	26494.80377
617.729	26384.64468
617.93	26604.96747
618.131	26747.77894
618.333	26686.57312
618.534	26647.81013
618.735	26859.99306
618.937	26849.79159
619.138	26660.05102
619.339	26327.527
619.54	26727.37685
619.742	26800.82506
619.943	26494.80377
620.144	26582.52635
620.345	26862.03335
620.546	26482.56364
620.748	26790.6238
620.949	26505.00392
621.15	26949.7675
621.351	26835.5096
621.552	26894.67831
621.753	26358.1256
621.954	26735.53766
622.155	26366.28528
622.356	26829.38877
622.558	26562.12549
622.759	26919.16227
622.96	26698.81417
623.161	26849.79159
623.362	26966.09042
623.563	27086.47473
623.764	26882.43641
623.965	27106.87932
624.166	26994.65575
624.366	26766.14094
624.567	26423.40382
624.768	26429.52374
624.969	26604.96747
625.17	26900.79928
625.371	26692.69364
625.572	26684.53295
625.773	26800.82506
625.973	27106.87932
626.174	27127.28405
626.375	26898.75895
626.576	27172.17493
626.777	27180.33698
626.977	26660.05102
627.178	27147.68892
627.379	26594.76694
627.58	27070.15115
627.78	26509.08399
627.981	27115.0412
628.182	26757.98004
628.382	26755.93981
628.583	26719.21605
628.784	27172.17493
628.984	26729.41705
629.185	27376.23246
629.386	26790.6238
629.586	27188.49905
629.787	26568.24573
629.987	26937.52537
630.188	26857.95276
630.388	27210.94485
630.589	26990.57497
630.79	27241.55302
630.99	26713.09547
631.191	26949.7675
631.391	27108.91979
631.591	27010.97892
631.792	26627.40878
631.992	27108.91979
632.193	27553.77293
632.393	27319.09504
632.594	27155.8509
632.794	27078.31293
632.994	27253.79637
633.195	27278.28321
633.395	27006.89812
633.595	27433.37088
633.796	27117.08167
633.996	27721.11844
634.196	27598.6697
634.397	27219.107
634.597	27186.45853
634.797	27525.20256
634.997	26978.33267
635.198	27008.93852
635.398	26872.23486
635.598	27421.12685
635.798	27392.55762
635.998	27706.83254
636.199	27437.45224
636.399	27514.99891
636.599	27013.01932
636.799	27761.93565
636.999	27186.45853
637.199	27253.79637
637.399	26962.00968
637.599	27388.47632
637.799	27212.98539
637.999	27506.83602
638.199	27666.01598
638.399	27606.83282
638.599	27390.51697
638.799	27645.60788
638.999	27637.44467
639.199	27631.32228
639.399	27410.92353
639.599	27666.01598
639.799	27192.58009
639.999	28227.28431
640.199	27655.81191
640.399	27806.83512
640.599	26892.63799
640.799	28127.27023
640.998	27851.73515
641.198	27929.29108
641.398	27523.16183
641.598	27539.48771
641.798	27588.46584
641.997	27455.81839
642.197	27100.75793
642.397	27872.14444
642.597	27588.46584
642.796	27645.60788
642.996	27478.26605
643.196	28027.25882
643.395	27931.33205
643.595	28264.02483
643.795	27827.24415
643.994	28070.12052
644.194	27584.3843
644.394	27802.75332
644.593	27419.08618
644.793	27637.44467
644.992	28008.88967
645.192	28204.83194
645.392	28251.77795
645.591	28272.18944
645.791	27710.91422
645.99	27792.54886
646.19	27982.35661
646.389	28090.53103
646.589	28104.81846
646.788	28241.57225
646.987	27849.69423
647.187	28149.72214
647.386	28063.99739
647.586	28498.76423
647.785	28447.73272
647.984	27898.6767
648.184	28582.45735
648.383	28798.84285
648.582	28237.48997
648.782	28525.30088
648.981	28070.12052
649.18	28012.97169
649.38	28210.9553
649.579	28433.44402
649.778	27951.74179
649.977	28615.11856
650.177	28315.05393
650.376	28923.3719
650.575	28008.88967
650.774	28172.17418
650.973	28174.21528
651.173	27472.14395
651.372	27906.84051
651.571	28425.27907
651.77	27978.27462
651.969	28125.22915
652.168	28333.42456
652.367	28494.68169
652.566	28313.01275
652.765	28439.56774
652.964	28368.1249
653.163	28702.89688
653.362	29064.23728
653.561	28498.76423
653.76	28480.39281
653.959	28102.77739
654.158	28315.05393
654.357	27917.04529
654.556	28125.22915
654.755	28151.76323
654.954	28143.59888
655.153	28419.15537
655.352	28476.31029
655.551	28080.32576
655.749	28496.72296
655.948	28639.61464
656.147	28198.70859
656.346	28762.09732
656.545	28831.50583
656.743	28521.21831
656.942	28580.41603
657.141	28762.09732
657.34	28798.84285
657.538	28962.16042
657.737	28535.50733
657.936	28870.29347
658.135	28582.45735
658.333	28723.31073
658.532	28551.83771
658.731	28429.36154
658.929	28159.9276
659.128	28270.14829
659.326	28904.99852
659.525	28851.92033
659.724	28551.83771
659.922	28690.64863
660.121	28576.3334
660.319	28568.16815
660.518	28280.35407
660.716	28647.78003
660.915	28464.06274
661.113	28937.66236
661.312	28706.97964
661.51	28900.91556
661.709	28800.88428
661.907	28537.54863
662.105	28486.51661
662.304	28874.3764
662.502	29029.53086
662.701	29258.19046
662.899	28484.47534
663.097	28662.06951
663.296	28588.5813
663.494	29045.86325
663.692	28453.85647
663.891	28843.75452
664.089	28290.55988
664.287	28602.87057
664.485	28858.0447
664.684	29480.73782
664.882	28949.91138
665.08	29103.02716
665.278	29066.27884
665.476	28439.56774
665.675	28425.27907
665.873	28586.53998
666.071	28562.04423
666.269	28719.22795
666.467	28178.29749
666.665	28715.14518
666.863	28586.53998
667.061	28688.60726
667.259	28960.11891
667.457	28453.85647
667.655	28492.64042
667.853	28529.38346
668.051	28631.44926
668.249	28408.94922
668.447	27919.08626
668.645	28372.20731
668.843	28535.50733
669.041	28613.07722
669.239	28545.71381
669.437	28417.11414
669.635	28459.98023
669.833	28294.64221
670.031	28082.36682
670.229	28474.26903
670.426	28457.93897
670.624	28513.05318
670.822	28549.79641
671.02	28758.0145
671.218	28431.40278
671.415	28155.84541
671.613	28004.80765
671.811	28431.40278
672.009	28059.91531
672.206	28349.7541
672.404	28521.21831
672.602	28541.63122
672.799	28370.16611
672.997	28410.99045
673.195	27943.57788
673.392	28449.77397
673.59	27945.61885
673.788	28302.80688
673.985	28351.79529
674.183	28688.60726
674.38	28229.32544
674.578	28443.65023
674.775	28080.32576
674.973	28413.03168
675.17	28290.55988
675.368	28074.20262
675.565	28655.94544
675.763	28200.7497
675.96	28153.80432
676.158	28086.44892
676.355	28308.9304
676.553	29280.6488
676.75	28298.72454
676.947	28349.7541
677.145	27825.20324
677.342	28082.36682
677.539	27770.09915
677.737	27992.56161
677.934	28388.53701
678.131	28021.13576
678.329	27984.39761
678.526	28615.11856
678.723	28770.26296
678.92	28343.63051
679.118	28453.85647
679.315	28208.91418
679.512	28027.25882
679.709	28531.42475
679.906	27912.96338
680.104	28210.9553
680.301	27580.30277
680.498	27672.13843
680.695	27217.06646
680.892	27996.64362
681.089	27674.17925
681.286	28147.68105
681.483	27431.33021
681.68	28012.97169
681.877	28112.98272
682.075	27778.26266
682.272	27627.24069
682.469	28288.51871
682.665	27984.39761
682.862	27680.30172
683.059	27759.89478
683.256	27270.12091
683.453	27259.91806
683.65	27266.03977
683.847	27337.46053
684.044	27010.97892
684.241	27233.39081
684.438	27851.73515
684.635	27778.26266
684.831	27719.0776
685.028	27382.35439
685.225	27017.10013
685.422	26929.36397
685.619	27182.3775
685.815	27037.50426
686.012	27478.26605
686.209	27237.47191
686.405	27753.77217
686.602	27343.58238
686.799	27192.58009
686.996	27117.08167
687.192	27241.55302
687.389	27121.16262
687.586	26943.64643
687.782	27384.39503
687.979	27370.11054
688.175	26609.0477
688.372	27125.24357
688.568	27131.36501
688.765	27217.06646
688.962	26949.7675
689.158	27174.21544
689.355	27263.9992
689.551	26837.54988
689.748	26968.13079
689.944	26825.30822
690.14	26723.29645
690.337	26517.24415
690.533	27000.77693
690.73	26802.86531
690.926	27312.97323
691.123	26772.26164
691.319	26774.30187
691.515	27092.59609
691.712	26611.08781
691.908	27108.91979
692.104	26566.20565
692.301	26635.5693
692.497	26631.48904
692.693	26788.58356
692.889	26913.04126
693.086	26362.20544
693.282	26713.09547
693.478	26698.81417
693.674	26449.92357
693.87	26709.01509
694.067	26505.00392
694.263	26894.67831
694.459	26753.89959
694.655	27057.90852
694.851	26549.88505
695.047	26078.6725
695.243	26372.40507
695.439	26252.05207
695.635	26097.02975
695.831	26423.40382
696.027	26380.5648
696.224	26278.57003
696.42	25719.71584
696.615	26358.1256
696.811	26180.65898
697.007	26109.26799
697.203	26054.1964
697.399	25899.18705
697.595	25966.49246
697.791	26219.41497
697.987	25913.46379
698.183	26443.80361
698.379	25886.94992
698.575	26494.80377
698.77	26354.04576
698.966	26627.40878
699.162	26451.96357
699.358	26225.53439
699.554	25939.97797
699.749	26311.20791
699.945	26164.34085
700.141	26741.65829
700.337	26276.53018
700.532	26441.76362
700.728	26409.12407
700.924	26641.68971
701.119	26033.79984
701.315	26003.20533
701.511	25891.02895
701.706	26050.11707
701.902	25919.58242
702.097	26043.9981
702.293	25860.43636
702.489	25813.52852
702.684	25939.97797
702.88	26168.42037
703.075	26474.40358
703.271	26027.68091
703.466	25758.46407
703.662	26201.05679
703.857	26103.14886
704.053	25854.31789
704.248	25840.04152
704.443	26694.73382
704.639	26086.83126
704.834	25903.26611
705.03	25752.34588
705.225	25980.76962
705.42	25756.42467
705.616	25568.80839
705.811	25709.51906
706.006	26078.6725
706.202	26037.87914
706.397	25556.57312
706.592	25835.96258
706.787	25799.25242
706.983	25797.21298
707.178	25891.02895
707.373	25711.55841
707.568	25285.37697
707.763	25046.83713
707.959	25393.44322
708.154	25564.72996
708.349	25057.03051
708.544	25028.48917
708.739	25081.49488
708.934	25334.31189
709.129	25585.12219
709.324	25148.77354
709.519	25505.59362
709.714	25226.24891
709.909	25848.19943
710.104	25054.99183
710.299	24967.33064
710.494	25193.62732
710.689	25344.50682
710.884	25148.77354
711.079	25479.08478
711.274	25315.96115
711.469	25699.32232
711.664	25171.2003
711.859	25110.03704
712.054	24871.5198
712.249	24816.48187
712.443	24696.21988
712.638	24930.63652
712.833	24286.57906
713.028	24439.41799
713.223	24467.94954
713.417	24694.18161
713.612	24304.91895
713.807	24630.99658
714.002	24665.64614
714.196	25008.10276
714.391	24661.56969
714.586	24651.37859
714.78	24887.82766
714.975	24995.87103
715.17	24728.83246
715.364	25258.87107
715.559	25016.2573
715.754	24967.33064
715.948	24763.48402
716.143	25118.19203
716.337	24435.34209
716.532	24394.58371
716.726	25001.98689
716.921	24971.40781
717.115	24806.28985
717.31	25038.68245
717.504	25028.48917
717.699	24861.32746
717.893	24527.05222
718.088	24683.99032
718.282	24869.48132
718.476	24194.88288
718.671	24037.99335
718.865	24105.22971
719.059	24203.03343
719.254	24321.22125
719.448	24480.17751
719.642	24688.06683
719.837	24048.18048
720.031	24233.59838
720.225	23777.22697
720.419	24154.13078
720.614	24276.39033
720.808	24311.0323
721.002	23834.26557
721.196	24180.61952
721.39	24097.07969
721.585	24459.79762
721.779	24531.12835
721.973	24256.01306
722.167	24160.24353
722.361	24317.14566
722.555	24221.37233
722.749	23742.59751
722.943	23266.02244
723.137	23174.39313
723.331	23280.27648
723.525	23461.51992
723.719	23610.19869
723.913	24076.70482
724.107	23378.02264
724.301	23771.11582
724.495	23602.05149
724.689	23934.08861
724.883	23791.4864
725.077	23681.48879
725.271	23797.59763
725.465	23595.94112
725.659	23604.08828
725.853	23231.40615
726.046	23282.31278
726.24	22940.25952
726.434	23284.34909
726.628	23591.86755
726.822	23481.8859
727.015	23170.32086
727.209	23190.6823
727.403	23217.15266
727.596	23801.6718
727.79	24031.8811
727.984	23762.96767
728.177	23736.48652
728.371	23414.67934
728.565	23665.19359
728.758	23663.1567
728.952	23742.59751
729.146	23622.41959
729.339	23826.11706
729.533	23681.48879
729.726	23630.56691
729.92	23463.5565
730.113	23542.98571
730.307	23380.0591
730.5	23272.13129
730.694	23233.44238
730.887	23314.89407
731.081	23314.89407
731.274	23259.91362
731.468	22944.33103
731.661	23072.59052
731.854	22710.24126
732.048	22834.40497
732.241	22818.12047
732.435	23477.81268
732.628	23280.27648
732.821	23553.16929
733.014	23538.91231
733.208	23284.34909
733.401	23465.59309
733.594	23133.6711
733.788	23402.46033
733.981	23587.794
734.174	23384.13202
734.367	23416.71585
734.56	23314.89407
734.754	23648.89857
734.947	23457.44676
735.14	23347.47618
735.333	23492.06901
735.526	23661.11981
735.719	23402.46033
735.912	23147.92366
736.105	23070.55455
736.298	23259.91362
736.491	22889.36676
736.684	22630.86468
736.877	23103.13044
737.07	23040.01543
737.263	22934.15227
737.456	22930.08079
737.649	23149.95975
737.842	23135.70717
738.035	22970.79618
738.228	22742.80754
738.421	23023.7282
738.614	23080.73442
738.807	23035.9436
739	23066.48262
739.192	22822.19157
739.385	22954.50987
739.578	22952.47409
739.771	22720.41812
739.964	22628.82946
740.156	23143.85148
740.349	22791.65863
740.542	23388.20496
740.735	22789.62313
740.927	23325.07589
741.12	22708.20589
741.313	22366.31512
741.505	22757.05557
741.698	22423.28989
741.891	22392.76734
742.083	22549.45838
742.276	22628.82946
742.468	22468.05777
742.661	22232.02877
742.854	22136.41042
743.046	22142.51347
743.239	22543.35314
743.431	22966.72458
743.624	22474.16262
743.816	22341.89823
744.009	22523.00256
744.201	22177.09807
744.393	22073.34751
744.586	22002.1518
744.778	22189.30466
744.971	22321.55122
745.163	22138.44476
745.355	22370.38465
745.548	22382.59333
745.74	22199.47692
745.932	22061.1422
746.125	22248.30505
746.317	22130.3074
746.509	21987.91322
746.702	22797.76516
746.894	22339.86351
747.086	22006.22001
747.278	22101.82709
747.471	21670.64496
747.663	21930.96074
747.855	22020.45883
748.047	22101.82709
748.239	22203.54585
748.431	22453.81326
748.623	22183.20135
748.815	22321.55122
749.008	22295.10067
749.2	22264.58156
749.392	22378.52376
749.584	21546.61068
749.776	21719.44933
749.968	21668.61149
750.16	21636.07656
750.352	21566.94317
750.544	21874.01126
750.736	21951.30057
750.928	21837.40247
751.12	21963.50465
751.311	21495.78121
751.503	21686.91283
751.695	21611.67602
751.887	21373.80061
752.079	21719.44933
752.271	21325.0124
752.463	21967.57271
752.654	21266.06307
752.846	21347.37337
753.038	21672.67843
753.23	21359.57047
753.421	21223.37775
753.613	21404.29441
753.805	21796.7275
753.997	21603.54263
754.188	21638.10996
754.38	20867.73657
754.572	21227.44294
754.763	21113.62369
754.955	20786.46483
755.146	21007.94583
755.338	20877.896
755.53	20827.09988
755.721	21113.62369
755.913	20814.90919
756.104	21290.45548
756.296	21475.45011
756.487	21054.6866
756.679	21290.45548
756.87	20717.38907
757.062	20961.20724
757.253	21286.39004
757.445	21054.6866
757.636	20989.65656
757.827	21016.07451
758.019	21241.67124
758.21	20662.5382
758.401	20654.41241
758.593	20495.97273
758.784	20292.88218
758.975	20039.07806
759.167	20116.22756
759.358	20782.40142
759.549	20565.03305
759.74	20142.6222
759.932	20420.82434
760.123	20325.37385
760.314	20410.66959
760.505	20162.92626
760.696	19949.75465
760.888	20272.57543
761.079	20359.89742
761.27	19858.40958
761.461	20225.87151
761.652	20739.73658
761.843	20491.9105
762.034	20317.25083
762.225	19929.45501
762.416	20252.2691
762.607	19854.35
762.798	20329.43538
762.989	20110.13659
763.18	20252.2691
763.371	19728.51124
763.562	19669.65671
763.753	19428.18697
763.944	20150.74378
764.135	19720.39317
764.326	20024.86697
764.517	19558.04571
764.708	19903.06611
764.899	19525.57943
765.089	19687.92154
765.28	19422.10026
765.471	19198.94656
765.662	18921.08802
765.853	18878.50327
766.043	19056.96552
766.234	19229.37368
766.425	19225.31667
766.615	19347.0339
766.806	19306.45984
766.997	19491.08517
767.187	19511.37577
767.378	19829.99285
767.569	19436.30265
767.759	19308.4885
767.95	19241.54478
768.141	19065.07818
768.331	19351.09139
768.522	19040.74039
768.712	19205.03191
768.903	18973.81445
769.093	18748.73202
769.284	18578.4318
769.474	18545.99678
769.665	18454.77858
769.855	18600.73145
770.046	18473.0216
770.236	18456.80556
770.426	18385.86329
770.617	18748.73202
770.807	18837.948
770.998	18910.94863
771.188	18821.72634
771.378	18837.948
771.569	18712.23679
771.759	18738.59433
771.949	18205.488
772.139	18821.72634
772.33	18355.46088
772.52	18207.51453
772.71	18335.19308
772.9	18310.87222
773.09	18377.7559
773.281	18533.8339
773.471	18537.88818
773.661	18430.45503
773.851	18217.64721
774.041	18227.77998
774.231	17871.16084
774.421	17672.63579
774.611	17668.58459
774.802	17603.76725
774.992	17820.51359
775.182	17676.68699
775.372	17711.12281
775.562	17609.84374
775.752	17798.22948
775.942	17459.96562
776.131	17447.8141
776.321	17767.84272
776.511	18006.90621
776.701	18146.72037
776.891	17956.25311
777.081	17859.00531
777.271	18096.06108
777.461	17980.56632
777.651	17812.41023
777.84	17484.26899
778.03	17419.46099
778.22	17739.48243
778.41	17850.90168
778.599	17688.8407
778.789	17547.05482
778.979	17713.14847
779.169	17437.68792
779.358	17087.36845
779.548	17133.9377
779.738	17267.57957
779.927	17417.43579
780.117	17561.23269
780.307	17314.15473
780.496	17445.78886
780.686	17425.53661
780.875	16959.81667
781.065	17109.64052
781.254	16994.23435
781.444	17160.26011
781.633	17178.48359
781.823	17210.88148
782.012	16882.88577
782.202	17061.04736
782.391	16915.27727
782.581	16854.54375
782.77	16494.23614
782.96	16514.47625
783.149	16453.75654
783.338	16613.6559
783.528	16512.45223
783.717	16368.75202
783.906	16601.51117
784.096	16391.01477
784.285	16366.72815
784.474	16380.89531
784.663	16182.56324
784.853	16299.94133
785.042	16267.56058
785.231	16142.08936
785.42	16089.47428
785.61	16340.41794
785.799	15913.4234
785.988	16057.0963
786.177	15636.21258
786.366	15836.53076
786.555	15755.59293
786.744	15512.78846
786.933	15575.51185
787.122	16097.56884
787.312	16174.46841
787.501	15951.8704
787.69	15917.47043
787.879	15994.36502
788.068	15743.45241
788.257	15692.86726
788.445	15615.97892
788.634	15658.46969
788.823	15777.85066
789.012	15903.30585
789.201	15994.36502
789.39	16028.76587
789.579	15943.77626
789.768	16289.8223
789.957	16073.28524
790.145	16032.81306
790.334	16522.57235
790.523	16089.47428
790.712	16245.29907
790.9	15990.31789
791.089	15660.49307
791.278	15757.61636
791.467	15547.18508
791.655	15745.47583
791.844	15547.18508
792.033	15257.85329
792.221	15265.94638
792.41	15300.34209
792.599	14909.84943
792.787	15069.689
792.976	15223.45764
793.164	15126.34064
793.353	14932.10571
793.541	14798.56703
793.73	15065.64245
793.918	15047.43297
794.107	14980.66469
794.295	15128.36391
794.484	15280.10932
794.672	15261.89983
794.861	15352.94744
795.049	15330.69131
795.238	15185.01549
795.426	15462.20552
795.614	15136.45699
795.803	14901.75622
795.991	14790.47369
796.179	14814.75368
796.368	14796.5437
796.556	14804.63703
796.744	14557.78411
796.932	14932.10571
797.121	14792.49703
797.309	14618.48702
797.497	14707.51623
797.685	14810.70702
797.874	14669.07203
798.062	14486.96266
798.25	14353.40894
798.438	14871.40662
798.626	14774.28698
798.814	14964.47839
799.002	14921.98923
799.19	14760.12356
799.378	14612.41678
799.566	14703.46949
799.755	14545.6434
799.943	14782.38034
800.131	14669.07203
800.318	14780.357
800.506	14656.93169
800.694	14480.89217
800.882	14201.63452
801.07	14199.61079
801.258	14284.6058
801.446	14511.24448
801.634	14106.51694
801.822	14074.1354
802.01	14276.51118
802.197	14648.8381
802.385	14070.08767
802.573	14284.6058
802.761	14321.03124
802.949	14369.59762
803.136	14367.57404
803.324	14571.94821
803.512	14268.41653
803.699	14472.79817
803.887	14430.3043
804.075	14739.89004
804.262	14519.33837
804.45	14612.41678
804.638	14464.70415
804.825	14598.25283
805.013	14375.66836
805.201	14393.88046
805.388	14181.39712
805.576	14155.0882
805.763	14339.24375
805.951	14314.96037
806.138	14454.58659
806.326	14604.3231
806.513	14434.35136
806.701	14440.42195
806.888	14120.68369
807.075	14432.32783
807.263	14001.27475
807.45	14531.47918
807.638	14529.45572
807.825	14503.15056
808.012	14531.47918
808.2	14357.45612
808.387	14308.88949
808.574	14369.59762
808.761	14260.32185
808.949	14658.95508
809.136	14353.40894
809.323	14501.12707
809.51	14523.38531
809.698	14110.5646
809.885	14408.04535
810.072	14408.04535
810.259	14272.46386
810.446	14543.61994
810.633	14389.83334
810.82	14721.6798
811.008	14721.6798
811.195	14509.221
811.382	14209.72942
811.569	14132.82653
811.756	13944.60317
811.943	14246.15609
812.13	13999.2508
812.317	14448.51604
812.504	14059.96829
812.691	14493.03313
812.878	14300.79496
813.064	14501.12707
813.251	14005.32265
813.438	14365.55046
813.625	13993.17893
813.812	14361.50329
813.999	14213.77686
814.186	14288.6531
814.372	14262.34552
814.559	14098.42161
814.746	14177.34962
814.933	14045.80107
815.12	14179.37337
815.306	14284.6058
815.493	14146.99308
815.68	14756.07686
815.866	14023.53806
816.053	14551.71376
816.24	14165.20706
816.426	14296.74768
816.613	14276.51118
816.799	14383.76264
816.986	14238.06133
817.173	14410.0689
817.359	14381.73907
817.546	14408.04535
817.732	13798.86662
817.919	14132.82653
818.105	13790.76972
818.292	13813.03609
818.478	13701.70054
818.665	14037.70546
818.851	13902.09815
819.037	13920.31473
819.224	13997.22685
819.41	13966.86724
819.597	13640.96805
819.783	13908.17036
819.969	13679.4323
820.156	13847.44708
820.342	13572.13424
820.528	13920.31473
820.714	13545.81437
820.901	13725.99273
821.087	13752.30876
821.273	13754.33305
821.459	13815.06029
821.646	13968.89123
821.832	13885.90545
822.018	13541.76511
822.204	13327.1325
822.39	13736.11434
822.576	13766.47871
822.762	13683.4811
822.948	13355.48274
823.134	13387.88203
823.32	13088.14674
823.507	13130.68272
823.693	13355.48274
823.879	13233.97591
824.065	13187.39417
824.25	13355.48274
824.436	13236.00116
824.622	13387.88203
824.808	13078.01881
824.994	13442.55354
825.18	13312.95708
825.366	13772.5515
825.552	13341.30772
825.738	13393.95679
825.923	13452.67758
826.109	13434.45424
826.295	13406.10619
826.481	13420.28031
826.667	13523.54324
826.852	13594.40444
827.038	13432.4294
827.224	13361.55768
827.409	13430.40456
827.595	13426.35487
827.781	13276.50504
827.966	13361.55768
828.152	13086.12116
828.338	13442.55354
828.523	13037.5059
828.709	13219.79911
828.894	12824.77976
829.08	12964.57767
829.266	12990.91362
829.451	13116.50429
829.637	12461.98848
829.822	12816.67475
830.008	12924.05913
830.193	12913.92917
830.378	12579.56235
830.564	13031.4288
830.749	12737.64616
830.935	12741.69912
831.12	12674.82233
831.305	12792.35917
831.491	12725.48715
831.676	12391.02813
831.861	12275.44627
832.047	12585.64317
832.232	12397.11076
832.417	12186.20945
832.602	12271.39035
832.788	12672.79566
832.973	12832.88469
833.158	12966.60354
833.343	12810.59593
833.528	12332.22614
833.714	12549.15736
833.899	12429.55047
834.084	12425.4956
834.269	12360.61403
834.454	12068.55718
834.639	12169.98305
834.824	12040.1545
835.009	12180.1246
835.194	11837.23266
835.379	12070.58588
835.564	11914.35257
835.749	12103.04411
835.934	12036.09685
836.119	11969.14107
836.304	11879.85304
836.489	12048.26971
836.674	11565.18386
836.859	11695.13749
837.044	11735.74046
837.228	11747.92067
837.413	11601.7371
837.598	11863.61714
837.783	11806.78725
837.968	11914.35257
838.152	11818.96564
838.337	12048.26971
838.522	11952.90806
838.707	11857.52854
838.891	11550.9679
839.076	11654.53097
839.261	11577.36861
839.445	11682.95591
839.63	11431.12928
839.815	11276.71083
839.999	11319.38486
840.184	11689.04674
840.368	11276.71083
840.553	11636.25687
840.737	11504.25509
840.922	11587.52231
841.106	11441.28639
841.291	11268.58194
841.475	11173.05502
841.66	11203.54483
841.844	11012.43566
842.029	11150.69432
842.213	11089.70403
842.397	11097.83663
842.582	10914.81063
842.766	11264.51743
842.951	10920.91295
843.135	11000.23394
843.319	10890.4003
843.504	10908.7082
843.688	11014.46924
843.872	11085.63766
844.056	11380.34008
844.241	11425.0349
844.425	11353.92725
844.609	10977.86308
844.793	11024.63698
844.977	10827.33262
845.161	10825.29799
845.346	11053.10519
845.53	11032.77098
845.714	10983.96436
845.898	10707.26943
846.082	11036.83791
846.266	10937.18532
846.45	10631.95423
846.634	10332.55923
846.818	10674.70274
847.002	10845.64374
847.186	10992.09924
847.37	10574.94776
847.554	10701.16341
847.738	10615.66766
847.922	10603.45221
848.106	10265.3094
848.29	10489.41965
848.473	10558.65841
848.657	10574.94776
848.841	10106.29633
849.025	10259.19505
849.209	10244.92777
849.392	10183.7747
849.576	10071.62841
849.76	10365.15999
849.944	10002.28029
850.127	10312.18203
850.311	10412.01767
850.495	10334.59688
850.678	10348.86003
850.862	10507.74899
851.046	10234.73644
851.229	9953.31869
851.413	9802.30068
851.596	10316.25758
851.78	9851.28837
851.964	10008.39991
852.147	9712.46737
852.331	9696.13087
852.514	9769.63741
852.698	9583.79066
852.881	9322.15837
853.065	9722.67718
853.248	9665.49728
853.431	9812.50716
853.615	9661.41254
853.798	9739.01208
853.982	9457.09553
854.165	9704.29924
854.348	9467.31516
854.532	9659.37015
854.715	9410.08004
854.898	9581.74767
855.081	9493.8843
855.265	9808.42461
855.448	9649.15795
855.631	9669.58196
855.814	9455.05156
855.997	9769.63741
856.181	9199.4257
856.364	9324.2034
856.547	9236.25184
856.73	9076.63207
856.913	9170.77936
857.096	9107.33627
857.279	9189.19525
857.462	9082.77322
857.645	8910.76154
857.828	9099.14886
858.011	9129.85022
858.194	9037.73449
858.377	8707.8718
858.56	8976.30443
858.743	8978.35235
858.926	8968.11256
859.109	8638.15113
859.292	8812.41294
859.475	8599.18022
859.658	8871.83683
859.841	8578.6665
860.023	8541.73707
860.206	8420.64746
860.389	8767.32258
860.572	8416.54156
860.755	8978.35235
860.937	8586.87222
861.12	8714.0226
861.303	8554.04756
861.486	8469.91227
861.668	8128.9346
861.851	8455.54451
862.034	8566.35737
862.216	8578.6665
862.399	8239.91441
862.581	8601.23149
862.764	8223.47661
862.947	8631.99828
863.129	8246.07826
863.312	8217.31211
863.494	8188.54207
863.677	8295.38268
863.859	8083.7039
864.042	8122.76734
864.224	8009.66896
864.406	8098.09654
864.589	7810.05404
864.771	7937.66528
864.954	7912.97252
865.136	8126.87887
865.318	7764.75344
865.501	7826.52448
865.683	7818.28943
865.865	8067.25395
866.048	7937.66528
866.23	7842.99359
866.412	7554.59013
866.594	7645.27586
866.777	7921.20377
866.959	7945.89554
867.141	8052.85919
867.323	7935.60766
867.505	7630.85134
867.687	7529.85047
867.869	7801.81832
868.052	7653.51798
868.234	7670.00119
868.416	7919.14599
868.598	7735.92051
868.78	7754.45644
868.962	7838.87644
869.144	7849.16916
869.326	7735.92051
869.508	7709.14339
869.69	7507.16973
869.872	8083.7039
870.054	7620.54748
870.236	7826.52448
870.417	7812.11292
870.599	7604.06019
870.781	7263.70227
870.963	7269.8959
871.145	7414.35772
871.327	7529.85047
871.508	7515.41758
871.69	7465.92536
871.872	7412.29473
872.054	7591.69383
872.235	7418.48363
872.417	7397.85321
872.599	7364.84002
872.78	7836.81783
872.962	7538.09736
873.144	7342.14021
873.325	7348.33133
873.507	7251.31443
873.689	6993.05267
873.87	7323.56566
874.052	7168.70852
874.233	7247.18498
874.415	7187.29794
874.596	7325.62959
874.778	7053.00048
874.959	7152.18308
875.141	7108.79702
875.322	7017.86095
875.503	6988.91764
875.685	7156.31457
875.866	6897.92415
876.048	7057.13412
876.229	7230.66627
876.41	7084.00057
876.592	7017.86095
876.773	7150.1173
876.954	7117.06179
877.136	7453.55036
877.317	7133.59025
877.498	7377.22062
877.679	7015.79372
877.86	7129.45827
878.042	7141.85395
878.223	7294.6684
878.404	7135.65621
878.585	7286.41125
878.766	7162.51164
878.947	7523.66507
879.128	7166.64291
879.309	7335.94889
879.49	7261.63769
879.672	7236.86095
879.853	7381.34731
880.034	7356.58585
880.215	7350.39499
880.396	7422.60945
880.576	7408.16869
880.757	7422.60945
880.938	7317.37375
881.119	7395.79005
881.3	7096.3992
881.481	7470.05018
881.662	7164.57729
881.843	7591.69383
882.023	7236.86095
882.204	7404.04257
882.385	7304.98935
882.566	7375.15724
882.747	7410.23173
882.927	7488.61083
883.108	7199.68989
883.289	7267.83138
883.469	7127.39225
883.65	7278.15375
883.831	6902.06117
884.011	7162.51164
884.192	6959.96991
884.373	7236.86095
884.553	7112.92945
884.734	7133.59025
884.914	6918.60833
885.095	7166.64291
885.275	7009.59188
885.456	7164.57729
885.636	7274.02487
885.817	7329.75737
885.997	7492.73518
886.178	7571.08151
886.358	7542.22068
886.538	7265.76684
886.719	7139.78806
886.899	7453.55036
887.08	7282.28254
887.26	7624.66909
887.44	7457.67545
887.621	7781.22755
887.801	7451.48778
887.981	7569.02017
888.161	7249.24972
888.342	7362.77651
888.522	7389.60044
888.702	7558.7131
888.882	7375.15724
889.062	7641.15468
889.242	7269.8959
889.423	7566.9588
889.603	7259.57308
889.783	7632.91205
889.963	7467.98778
890.143	7593.75494
890.323	7391.66366
890.503	7579.3267
890.683	7228.60133
890.863	7434.9864
891.043	7323.56566
891.223	7503.04569
891.403	7490.67302
891.583	7634.97274
891.763	7323.56566
891.943	7424.67233
892.122	7166.64291
892.302	7323.56566
892.482	7228.60133
892.662	7224.47139
892.842	7261.63769
893.022	7123.26013
893.201	6933.08591
893.381	7282.28254
893.561	7127.39225
893.741	7269.8959
893.92	6995.12015
894.1	7181.10166
894.28	6928.94958
894.459	7079.86752
894.639	6993.05267
894.819	6860.68691
894.998	6897.92415
895.178	6968.24114
895.357	6655.75001
895.537	7251.31443
895.716	7001.32245
895.896	7050.93363
896.075	6806.88679
896.255	6928.94958
896.434	6717.8758
896.614	6947.56239
896.793	6827.58097
896.973	6711.66415
897.152	6498.27184
897.331	6496.19887
897.511	6537.6539
897.69	6850.34193
897.87	6579.09968
898.049	6574.95552
898.228	6475.46787
898.407	6550.08861
898.587	6487.90675
898.766	6612.24964
898.945	6321.98619
899.124	6610.17794
899.304	6164.22317
899.483	6404.9651
899.662	6425.704
899.841	6375.92672
900.02	6357.25678
900.199	6251.42472
900.378	5941.87949
900.557	6301.23562
900.737	5787.95126
900.916	6141.37783
901.095	5656.80241
901.274	5941.87949
901.453	5656.80241
901.632	5738.00084
901.811	5606.81631
901.989	5837.88809
902.168	5490.12927
902.347	5492.21361
902.526	5294.09594
902.705	5831.64673
902.884	5608.89933
903.063	6035.42136
903.242	5850.37017
903.42	5821.24399
903.599	5752.57112
903.778	5781.7082
903.957	5517.22391
904.135	5596.40083
904.314	5129.18456
904.493	5448.43743
904.672	5110.38797
904.85	5189.73856
905.029	5066.52194
905.207	5314.9604
905.386	5008.01802
905.565	5310.78769
905.743	5095.7671
905.922	5300.35552
906.1	4788.46775
906.279	5072.78914
906.457	4828.21458
906.636	5047.71909
906.814	4865.86188
906.993	4870.04446
907.171	4763.36027
907.35	4832.39798
907.528	4489.05958
907.707	4723.60008
907.885	4499.53609
908.063	4587.51691
908.242	4369.58861
908.42	4415.70863
908.598	4193.39788
908.777	4426.18898
908.955	4199.693
909.133	4493.25025
909.311	4214.38088
909.49	4436.66879
909.668	3943.53977
909.846	4474.39154
910.024	4107.34553
910.202	4380.07136
910.38	4050.65773
910.559	4212.28267
910.737	3966.64814
910.915	4380.07136
911.093	4201.79133
911.271	4591.70549
911.449	4237.45972
911.627	4354.91185
911.805	4138.8322
911.983	4503.72654
912.161	4407.32396
912.339	4685.92501
912.517	4644.05527
912.695	4742.43487
912.872	4401.03522
913.05	4746.62013
913.228	4440.86055
913.406	4537.24694
913.584	4405.22773
913.762	4401.03522
913.939	4247.94925
914.117	4524.67745
914.295	4413.6125
914.473	4252.14492
914.65	4419.90084
914.828	4685.92501
915.006	4237.45972
915.184	4449.24383
915.361	4113.64324
915.539	4231.16575
915.716	4094.74955
915.894	4419.90084
916.072	4268.92671
916.249	4189.20103
916.427	4298.29156
916.604	4380.07136
916.782	4033.85844
916.959	4126.2381
917.137	4029.65841
917.314	4212.28267
917.492	4023.35821
917.669	4168.21549
917.847	4069.55534
918.024	4235.36175
918.201	3926.73215
918.379	4119.94076
918.556	3832.16531
918.733	3869.9969
918.911	3607.14704
919.088	3874.20002
919.265	3501.92396
919.442	3708.1171
919.62	3461.92718
919.797	3878.40305
919.974	3798.53185
920.151	3930.93418
920.328	3928.83317
920.506	3735.45558
920.683	3813.24711
920.86	3634.49741
921.037	3556.64573
921.214	3804.83851
921.391	3529.2864
921.568	3884.70744
921.745	3613.45894
921.922	3762.79079
922.099	3457.71662
922.276	3781.71323
922.453	3251.31258
922.63	3573.48069
922.807	3413.50134
922.984	3668.15502
923.161	3520.86752
923.338	3581.89772
923.514	3285.02253
923.691	3428.24064
923.868	3310.30213
924.045	3432.45171
924.222	3091.13254
924.399	3255.52656
924.575	3253.41958
924.752	3413.50134
924.929	3061.61557
925.105	3285.02253
925.282	2918.20467
925.459	3196.52478
925.635	3183.87985
925.812	3238.67024
925.989	3175.44957
926.165	3244.99149
926.342	3067.94089
926.518	3369.27824
926.695	3091.13254
926.871	3065.83246
927.048	3019.44317
927.224	3078.48278
927.401	2686.07575
927.577	3015.22559
927.754	2686.07575
927.93	2977.26466
928.107	2705.07425
928.283	2973.04647
928.459	2639.63063
928.636	2880.23148
928.812	2559.39313
928.988	2711.40685
929.165	2544.61065
929.341	2601.62558
929.517	2288.99998
929.693	2721.96092
929.87	2341.82449
930.046	2358.72704
930.222	2284.77376
930.398	2392.53022
930.574	2261.5289
930.751	2240.39624
930.927	2223.48948
931.103	2407.31828
931.279	2151.62962
931.455	2314.35649
931.631	2029.02418
931.807	2360.83982
931.983	2060.73484
932.159	2166.42508
932.335	1999.42618
932.511	2069.19075
932.687	1887.36568
932.863	1967.71264
933.039	1699.15732
933.215	2016.33948
933.391	1756.25761
933.566	1912.73928
933.742	1783.7494
933.918	1802.78178
934.094	1730.88001
934.27	1722.4207
934.445	1513.03973
934.621	1807.01115
934.797	1453.81837
934.973	1620.90523
935.148	1405.17222
935.324	1593.41049
935.5	1360.75644
935.675	1403.05717
935.851	1265.58192
936.027	1553.22534
936.202	1157.72378
936.378	1265.58192
936.553	1077.36549
936.729	1087.93856
936.904	961.07124
937.08	1090.05319
937.255	929.35806
937.431	927.24391
937.606	724.32492
937.782	838.45662
937.957	711.64545
938.133	901.87466
938.308	770.81955
938.483	656.70575
938.659	580.64877
938.834	756.02526
939.009	546.85105
939.185	563.74948
939.36	420.14221
939.535	464.48416
939.71	428.58776
939.886	445.47962
940.061	453.92593
940.236	479.26632
940.411	403.25187
940.586	525.72925
940.761	354.69804
940.937	432.81063
941.112	369.47435
941.287	369.47435
941.462	278.71921
941.637	434.92209
941.812	259.7282
941.987	375.80731
942.162	394.80709
942.337	394.80709
942.512	318.81625
942.687	325.14796
942.862	255.50818
943.037	310.37423
943.212	259.7282
943.386	318.81625
943.561	285.04988
943.736	356.80889
943.911	280.82941
944.086	276.60902
944.26	221.75083
944.435	192.21728
944.61	175.34274
944.785	297.71172
944.959	228.07995
945.134	299.82209
945.309	230.1897
945.483	192.21728
945.658	196.43612
945.833	183.77985
946.007	217.53151
946.182	244.95848
946.357	215.42188
946.531	238.62888
946.706	251.28824
946.88	394.80709
947.055	276.60902
947.229	259.7282
947.404	268.16846
947.578	255.50818
947.752	225.97022
947.927	295.60137
948.101	171.12431
948.276	276.60902
948.45	244.95848
948.624	272.3887
948.799	268.16846
948.973	282.93964
949.147	268.16846
949.321	251.28824
949.496	261.83823
949.67	274.49885
949.844	181.67054
950.018	236.51906
950.193	247.06838
950.367	276.60902
950.541	295.60137
950.715	301.93248
950.889	259.7282
951.063	242.84859
951.237	225.97022
951.411	331.47983
951.585	225.97022
951.759	354.69804
951.933	285.04988
952.107	278.71921
952.281	272.3887
952.455	422.25357
952.629	289.27042
952.803	346.25481
952.977	310.37423
953.151	361.03064
953.325	274.49885
953.499	325.14796
953.672	238.62888
953.846	293.49103
954.02	268.16846
954.194	329.36919
954.368	236.51906
954.541	310.37423
954.715	285.04988
954.889	344.14405
955.062	320.92681
955.236	369.47435
955.41	312.48471
955.583	377.91833
955.757	261.83823
955.93	344.14405
956.104	211.20268
956.278	356.80889
956.451	310.37423
956.625	285.04988
956.798	276.60902
956.972	348.36559
957.145	225.97022
957.319	335.70117
957.492	278.71921
957.665	318.81625
957.839	320.92681
958.012	361.03064
958.185	344.14405
958.359	293.49103
958.532	242.84859
958.705	217.53151
958.879	179.56125
959.052	295.60137
959.225	274.49885
959.398	312.48471
959.572	306.15332
959.745	295.60137
959.918	255.50818
960.091	289.27042
960.264	270.27857
960.438	285.04988
960.611	244.95848
960.784	282.93964
960.957	185.88917
961.13	247.06838
961.303	242.84859
961.476	318.81625
961.649	251.28824
961.822	301.93248
961.995	272.3887
962.168	287.16014
962.341	150.03342
962.514	268.16846
962.686	259.7282
962.859	270.27857
963.032	270.27857
963.205	316.70572
963.378	318.81625
963.551	247.06838
963.723	236.51906
963.896	268.16846
964.069	232.29947
964.242	217.53151
964.414	244.95848
964.587	221.75083
964.76	217.53151
964.932	183.77985
965.105	213.31227
965.278	217.53151
965.45	242.84859
965.623	175.34274
965.795	192.21728
965.968	158.46953
966.14	255.50818
966.313	386.36258
966.485	299.82209
966.658	204.87403
966.83	255.50818
967.003	301.93248
967.175	221.75083
967.348	238.62888
967.52	169.01513
967.692	234.40925
967.865	244.95848
968.037	272.3887
968.209	192.21728
968.382	177.45199
968.554	242.84859
968.726	211.20268
968.898	192.21728
969.071	192.21728
969.243	242.84859
969.415	169.01513
969.587	171.12431
969.759	244.95848
969.932	253.3982
970.104	249.1783
970.276	217.53151
970.448	192.21728
970.62	204.87403
970.792	162.68771
970.964	185.88917
971.136	247.06838
971.308	160.57861
971.48	268.16846
971.652	131.05342
971.824	99.42397
971.996	249.1783
972.168	131.05342
972.339	152.14241
972.511	101.53244
972.683	183.77985
972.855	179.56125
973.027	238.62888
973.199	160.57861
973.37	150.03342
973.542	202.76452
973.714	211.20268
973.886	192.21728
974.057	147.92445
974.229	65.69137
974.401	200.65503
974.572	181.67054
974.744	74.12398
974.915	124.72714
975.087	158.46953
975.259	124.72714
975.43	166.90597
975.602	185.88917
975.773	93.09867
975.945	192.21728
976.116	88.88192
976.288	154.25143
976.459	107.85801
976.63	141.59765
976.802	141.59765
976.973	158.46953
977.145	78.34042
977.316	198.54556
977.487	65.69137
977.659	221.75083
977.83	150.03342
978.001	137.37989
978.172	150.03342
978.344	181.67054
978.515	126.83588
978.686	59.36716
978.857	141.59765
979.028	160.57861
979.2	82.55695
979.371	-1.75614
979.542	99.42397
979.713	109.96657
979.884	27.74919
980.055	135.27105
980.226	82.55695
980.397	25.64151
980.568	145.81549
980.739	107.85801
980.91	69.90763
981.081	133.16222
981.252	99.42397
981.423	74.12398
981.594	116.2924
981.765	57.25913
981.936	120.50972
982.106	126.83588
982.277	78.34042
982.448	164.79683
982.619	128.94464
982.79	99.42397
982.96	99.42397
983.131	162.68771
983.302	131.05342
983.472	93.09867
983.643	74.12398
983.814	74.12398
983.984	27.74919
984.155	109.96657
984.326	63.58328
984.496	44.61145
984.667	82.55695
984.837	80.44868
985.008	40.39575
985.178	65.69137
985.349	86.77357
985.519	97.31551
985.69	65.69137
985.86	93.09867
986.031	97.31551
986.201	48.82725
986.371	97.31551
986.542	61.47521
986.712	93.09867
986.882	-1.75614
987.053	90.99028
987.223	65.69137
987.393	93.09867
987.563	53.04315
987.734	84.66525
987.904	36.18013
988.074	57.25913
988.244	82.55695
988.414	48.82725
988.585	29.85689
988.755	99.42397
988.925	93.09867
989.095	42.50359
989.265	15.10348
989.435	65.69137
989.605	118.40105
989.775	99.42397
989.945	40.39575
990.115	27.74919
990.285	90.99028
990.455	95.20708
990.625	-41.79148
990.795	31.96461
990.965	76.23219
991.134	99.42397
991.304	93.09867
991.474	46.71934
991.644	10.88843
991.814	90.99028
991.984	103.64094
992.153	10.88843
992.323	65.69137
992.493	53.04315
992.662	97.31551
992.832	27.74919
993.002	65.69137
993.171	90.99028
993.341	112.07516
993.511	90.99028
993.68	116.2924
993.85	23.53386
994.019	42.50359
994.189	57.25913
994.358	86.77357
994.528	44.61145
994.697	36.18013
994.867	69.90763
995.036	-8.0781
995.206	57.25913
995.375	67.79949
995.544	34.07236
995.714	-8.0781
995.883	-29.1497
996.052	-1.75614
996.222	2.45862
996.391	82.55695
996.56	0.35123
996.73	8.78094
996.899	65.69137
997.068	25.64151
997.237	-5.9708
997.406	57.25913
997.576	90.99028
997.745	-1.75614
997.914	65.69137
998.083	-5.9708
998.252	0.35123
998.421	86.77357
998.59	40.39575
998.759	15.10348
998.928	76.23219
999.097	19.31862
999.266	40.39575
999.435	-3.86348
999.604	93.09867
999.773	8.78094
999.942	57.25913
1000.111	-52.32561
1000.28	-35.47071
1000.448	2.45862
1000.617	31.96461
1000.786	2.45862
1000.955	59.36716
1001.124	-1.75614
1001.292	53.04315
1001.461	122.61842
1001.63	50.93519
1001.798	59.36716
1001.967	-16.50703
1002.136	-5.9708
1002.304	-8.0781
1002.473	36.18013
1002.642	59.36716
1002.81	-10.18537
1002.979	74.12398
1003.147	74.12398
1003.316	-1.75614
1003.484	78.34042
1003.653	93.09867
1003.821	-31.25673
1003.99	-8.0781
1004.158	25.64151
1004.327	44.61145
1004.495	72.0158
1004.663	-8.0781
1004.832	17.21104
1005	-48.11204
1005.168	40.39575
1005.337	-16.50703
1005.505	25.64151
1005.673	-18.61421
1005.842	124.72714
1006.01	59.36716
1006.178	15.10348
1006.346	48.82725
1006.514	48.82725
1006.683	10.88843
1006.851	34.07236
1007.019	57.25913
1007.187	-1.75614
1007.355	69.90763
1007.523	34.07236
1007.691	74.12398
1007.859	0.35123
1008.027	65.69137
1008.195	44.61145
1008.363	10.88843
1008.531	80.44868
1008.699	-31.25673
1008.867	118.40105
1009.035	2.45862
1009.203	-39.68458
1009.37	25.64151
1009.538	-92.34952
1009.706	29.85689
1009.874	-27.04265
1010.042	23.53386
1010.209	8.78094
1010.377	42.50359
1010.545	-69.17891
1010.713	80.44868
1010.88	17.21104
1011.048	-1.75614
1011.216	-8.0781
1011.383	15.10348
1011.551	-18.61421
1011.718	-8.0781
1011.886	114.18377
1012.054	31.96461
1012.221	34.07236
1012.389	36.18013
1012.556	57.25913
1012.724	90.99028
1012.891	40.39575
1013.058	31.96461
1013.226	10.88843
1013.393	-12.29261
1013.561	59.36716
1013.728	31.96461
1013.895	12.99594
1014.063	44.61145
1014.23	120.50972
1014.397	46.71934
1014.565	-3.86348
1014.732	6.67348
1014.899	-1.75614
1015.066	-31.25673
1015.233	19.31862
1015.401	65.69137
1015.568	19.31862
1015.735	25.64151
1015.902	-3.86348
1016.069	61.47521
1016.236	10.88843
1016.403	42.50359
1016.57	36.18013
1016.737	-27.04265
1016.904	-60.75247
1017.071	2.45862
1017.238	10.88843
1017.405	19.31862
1017.572	6.67348
1017.739	-35.47071
1017.906	-20.72135
1018.073	57.25913
1018.24	10.88843
1018.407	17.21104
1018.573	42.50359
1018.74	63.58328
1018.907	6.67348
1019.074	-27.04265
1019.241	8.78094
1019.407	17.21104
1019.574	-39.68458
1019.741	-1.75614
1019.907	40.39575
1020.074	67.79949
1020.241	25.64151
1020.407	57.25913
1020.574	6.67348
1020.74	27.74919
1020.907	65.69137
1021.073	25.64151
1021.24	42.50359
1021.406	10.88843
1021.573	27.74919
1021.739	36.18013
1021.906	72.0158
1022.072	-1.75614
1022.239	25.64151
1022.405	6.67348
1022.571	-10.18537
1022.738	36.18013
1022.904	-18.61421
1023.07	57.25913
1023.237	-41.79148
1023.403	34.07236
1023.569	2.45862
1023.735	-43.89836
1023.902	-27.04265
1024.068	-14.39983
1024.234	23.53386
1024.4	27.74919
1024.566	-58.64579
1024.732	-41.79148
1024.898	74.12398
1025.065	10.88843
1025.231	27.74919
1025.397	90.99028
1025.563	23.53386
1025.729	40.39575
1025.895	8.78094
1026.061	50.93519
1026.227	40.39575
1026.392	40.39575
1026.558	40.39575
1026.724	46.71934
1026.89	-24.93558
1027.056	36.18013
1027.222	-29.1497
1027.388	21.42623
1027.553	-24.93558
1027.719	59.36716
1027.885	29.85689
1028.051	2.45862
1028.216	15.10348
1028.382	-27.04265
1028.548	-22.82848
1028.713	-1.75614
1028.879	42.50359
1029.045	6.67348
1029.21	10.88843
1029.376	-14.39983
1029.541	0.35123
1029.707	0.35123
1029.873	-90.24323
1030.038	-35.47071
1030.204	-3.86348
1030.369	57.25913
1030.534	53.04315
1030.7	29.85689
1030.865	31.96461
1031.031	-52.32561
1031.196	31.96461
1031.361	23.53386
1031.527	10.88843
1031.692	74.12398
1031.857	-22.82848
1032.023	36.18013
1032.188	4.56604
1032.353	6.67348
1032.518	25.64151
1032.684	31.96461
1032.849	23.53386
1033.014	15.10348
1033.179	31.96461
1033.344	-16.50703
1033.509	17.21104
1033.674	17.21104
1033.839	-35.47071
1034.004	-22.82848
1034.17	57.25913
1034.335	19.31862
1034.5	-83.9242
1034.664	31.96461
1034.829	57.25913
1034.994	17.21104
1035.159	-12.29261
1035.324	6.67348
1035.489	19.31862
1035.654	40.39575
1035.819	36.18013
1035.984	23.53386
1036.148	10.88843
1036.313	-24.93558
1036.478	2.45862
1036.643	-14.39983
1036.807	-52.32561
1036.972	10.88843
1037.137	-10.18537
1037.301	-94.45578
1037.466	25.64151
1037.631	-10.18537
1037.795	31.96461
1037.96	86.77357
1038.124	-35.47071
1038.289	-16.50703
1038.454	44.61145
1038.618	23.53386
1038.783	6.67348
1038.947	0.35123
1039.111	-58.64579
1039.276	-56.53909
1039.44	29.85689
1039.605	8.78094
1039.769	36.18013
1039.933	-18.61421
1040.098	-56.53909
1040.262	10.88843
1040.426	42.50359
1040.591	-43.89836
1040.755	21.42623
1040.919	6.67348
1041.083	-29.1497
1041.248	27.74919
1041.412	40.39575
1041.576	57.25913
1041.74	65.69137
1041.904	25.64151
1042.068	-16.50703
1042.232	-14.39983
1042.397	4.56604
1042.561	-39.68458
1042.725	-18.61421
1042.889	6.67348
1043.053	-18.61421
1043.217	65.69137
1043.381	27.74919
1043.544	17.21104
1043.708	15.10348
1043.872	-35.47071
1044.036	-50.21884
1044.2	15.10348
1044.364	19.31862
1044.528	-64.96574
1044.691	-52.32561
1044.855	-60.75247
1045.019	19.31862
1045.183	-1.75614
1045.346	23.53386
1045.51	48.82725
1045.674	-16.50703
1045.837	-3.86348
1046.001	50.93519
1046.165	107.85801
1046.328	40.39575
1046.492	76.23219
1046.655	0.35123
1046.819	-10.18537
1046.983	-33.36373
1047.146	10.88843
1047.31	74.12398
1047.473	23.53386
1047.636	10.88843
1047.8	-22.82848
1047.963	57.25913
1048.127	-43.89836
1048.29	-12.29261
