Data from mixed_try1_USB4F045381__27__00092.txt Node

Date: Thu Apr 03 19:53:50 EDT 2025
User: mmckonesweet
Spectrometer: USB4F04538
Trigger mode: 4
Integration Time (sec): 2.700000E-3
Scans to average: 1
Electric dark correction enabled: true
Nonlinearity correction enabled: true
Boxcar width: 0
XAxis mode: Wavelengths
Number of Pixels in Spectrum: 3648
>>>>>Begin Spectral Data<<<<<
345.52	52.69182
345.736	52.69182
345.952	52.69182
346.168	21.07496
346.384	4.2148
346.6	-35.82187
346.816	48.47593
347.032	-18.9654
347.248	-6.32202
347.464	44.26014
347.68	-14.75104
347.896	27.39791
348.112	14.75222
348.328	-27.39383
348.544	-29.50088
348.76	-23.17966
348.975	21.07496
349.191	-63.21022
349.407	-23.17966
349.623	27.39791
349.839	56.90779
350.055	25.29023
350.27	4.2148
350.486	33.72107
350.702	-23.17966
350.918	59.01582
351.133	-65.31684
351.349	-4.2147
351.565	42.15228
351.781	12.64469
351.996	10.53718
352.212	35.82884
352.428	14.75222
352.644	2.10739
352.859	6.32224
353.075	12.64469
353.291	-105.33773
353.506	-2.10736
353.722	27.39791
353.938	54.79979
354.153	-69.53
354.369	-31.6079
354.584	12.64469
354.8	2.10739
355.016	-2.10736
355.231	71.66443
355.447	-18.9654
355.662	23.18258
355.878	35.82884
356.093	-31.6079
356.309	-4.2147
356.524	18.96735
356.74	59.01582
356.955	10.53718
357.171	44.26014
357.386	-37.92881
357.602	2.10739
357.817	-37.92881
358.033	52.69182
358.248	-23.17966
358.464	-8.42931
358.679	-77.95602
358.895	-54.78349
359.11	-31.6079
359.325	12.64469
359.541	18.96735
359.756	-40.03573
359.972	-23.17966
360.187	2.10739
360.402	-10.53658
360.618	35.82884
360.833	-35.82187
361.048	-18.9654
361.264	37.93663
361.479	113.83233
361.694	-56.89021
361.909	-21.07254
362.125	8.4297
362.34	29.5056
362.555	-14.75104
362.77	-44.2495
362.986	8.4297
363.201	-58.9969
363.416	-63.21022
363.631	31.61332
363.847	-6.32202
364.062	-48.46317
364.277	44.26014
364.492	-33.71489
364.707	-29.50088
364.922	4.2148
365.138	-48.46317
365.353	10.53718
365.568	82.20557
365.783	-73.74306
365.998	-4.2147
366.213	-2.10736
366.428	-0
366.643	-101.12544
366.858	-31.6079
367.073	29.5056
367.288	-31.6079
367.503	35.82884
367.718	10.53718
367.933	-8.42931
368.148	12.64469
368.363	12.64469
368.578	-18.9654
368.793	-69.53
369.008	-48.46317
369.223	-35.82187
369.438	-48.46317
369.653	-25.28676
369.868	-48.46317
370.083	-6.32202
370.298	-2.10736
370.513	18.96735
370.728	-35.82187
370.943	21.07496
371.157	-23.17966
371.372	31.61332
371.587	4.2148
371.802	-166.40382
372.017	27.39791
372.232	-6.32202
372.446	-4.2147
372.661	27.39791
372.876	-14.75104
373.091	-14.75104
373.306	-10.53658
373.52	-14.75104
373.735	54.79979
373.95	6.32224
374.165	-33.71489
374.379	44.26014
374.594	-21.07254
374.809	-46.35635
375.023	2.10739
375.238	-21.07254
375.453	-8.42931
375.667	-46.35635
375.882	-23.17966
376.097	-122.1858
376.311	35.82884
376.526	-56.89021
376.741	-33.71489
376.955	-18.9654
377.17	29.5056
377.384	-54.78349
377.599	-73.74306
377.813	52.69182
378.028	29.5056
378.242	-69.53
378.457	-16.85823
378.672	-40.03573
378.886	82.20557
379.101	2.10739
379.315	10.53718
379.53	14.75222
379.744	-46.35635
379.958	52.69182
380.173	33.72107
380.387	-33.71489
380.602	-18.9654
380.816	-18.9654
381.031	-31.6079
381.245	92.74727
381.459	10.53718
381.674	-23.17966
381.888	10.53718
382.103	23.18258
382.317	-88.48797
382.531	-23.17966
382.746	-2.10736
382.96	18.96735
383.174	-73.74306
383.388	-6.32202
383.603	12.64469
383.817	-6.32202
384.031	54.79979
384.246	-12.64382
384.46	-14.75104
384.674	-21.07254
384.888	-12.64382
385.103	33.72107
385.317	8.4297
385.531	-46.35635
385.745	-10.53658
385.959	-44.2495
386.174	-35.82187
386.388	27.39791
386.602	84.31387
386.816	94.85568
387.03	-71.63655
387.244	-77.95602
387.458	37.93663
387.672	-8.42931
387.887	-44.2495
388.101	40.04444
388.315	-40.03573
388.529	44.26014
388.743	-2.10736
388.957	6.32224
389.171	52.69182
389.385	-21.07254
389.599	-58.9969
389.813	46.36803
390.027	40.04444
390.241	-29.50088
390.455	71.66443
390.669	-10.53658
390.883	4.2148
391.097	-56.89021
391.311	82.20557
391.525	40.04444
391.738	-18.9654
391.952	46.36803
392.166	-31.6079
392.38	54.79979
392.594	-0
392.808	-18.9654
393.022	21.07496
393.236	-40.03573
393.449	-46.35635
393.663	-27.39383
393.877	18.96735
394.091	4.2148
394.305	-23.17966
394.518	35.82884
394.732	61.12386
394.946	40.04444
395.16	77.98905
395.373	-27.39383
395.587	33.72107
395.801	-46.35635
396.015	-27.39383
396.228	14.75222
396.442	-40.03573
396.656	-6.32202
396.869	-27.39383
397.083	-12.64382
397.297	37.93663
397.51	61.12386
397.724	-69.53
397.938	-71.63655
398.151	10.53718
398.365	14.75222
398.578	-52.67674
398.792	46.36803
399.005	-48.46317
399.219	63.23193
399.433	-12.64382
399.646	-10.53658
399.86	6.32224
400.073	44.26014
400.287	18.96735
400.5	-27.39383
400.714	-27.39383
400.927	-52.67674
401.141	35.82884
401.354	73.77262
401.567	-31.6079
401.781	35.82884
401.994	-6.32202
402.208	-12.64382
402.421	-14.75104
402.635	40.04444
402.848	-2.10736
403.061	-27.39383
403.275	-12.64382
403.488	56.90779
403.701	4.2148
403.915	69.55627
404.128	23.18258
404.341	-23.17966
404.555	10.53718
404.768	-40.03573
404.981	48.47593
405.195	18.96735
405.408	18.96735
405.621	2.10739
405.834	21.07496
406.048	69.55627
406.261	10.53718
406.474	52.69182
406.687	18.96735
406.9	-6.32202
407.114	18.96735
407.327	-48.46317
407.54	-44.2495
407.753	2.10739
407.966	8.4297
408.179	-35.82187
408.392	-46.35635
408.605	44.26014
408.819	-40.03573
409.032	96.96411
409.245	4.2148
409.458	-18.9654
409.671	33.72107
409.884	-29.50088
410.097	-6.32202
410.31	12.64469
410.523	-65.31684
410.736	-48.46317
410.949	-12.64382
411.162	4.2148
411.375	-33.71489
411.588	-61.10358
411.801	-56.89021
412.014	-21.07254
412.227	-65.31684
412.44	37.93663
412.653	-65.31684
412.865	35.82884
413.078	77.98905
413.291	35.82884
413.504	63.23193
413.717	2.10739
413.93	-23.17966
414.143	-14.75104
414.356	42.15228
414.568	33.72107
414.781	37.93663
414.994	-65.31684
415.207	-65.31684
415.42	-40.03573
415.632	27.39791
415.845	-21.07254
416.058	-16.85823
416.271	18.96735
416.483	31.61332
416.696	-54.78349
416.909	-25.28676
417.121	21.07496
417.334	-23.17966
417.547	27.39791
417.759	29.5056
417.972	-12.64382
418.185	14.75222
418.397	35.82884
418.61	6.32224
418.823	-48.46317
419.035	6.32224
419.248	-8.42931
419.46	-29.50088
419.673	-37.92881
419.885	4.2148
420.098	69.55627
420.311	92.74727
420.523	-6.32202
420.736	18.96735
420.948	21.07496
421.161	48.47593
421.373	-14.75104
421.586	-14.75104
421.798	2.10739
422.01	27.39791
422.223	-6.32202
422.435	48.47593
422.648	-4.2147
422.86	23.18258
423.073	2.10739
423.285	99.07256
423.497	2.10739
423.71	-4.2147
423.922	10.53718
424.134	-8.42931
424.347	27.39791
424.559	23.18258
424.771	-14.75104
424.984	40.04444
425.196	14.75222
425.408	6.32224
425.621	4.2148
425.833	21.07496
426.045	-14.75104
426.257	-48.46317
426.47	10.53718
426.682	10.53718
426.894	71.66443
427.106	-42.14263
427.318	31.61332
427.531	27.39791
427.743	80.0973
427.955	8.4297
428.167	10.53718
428.379	12.64469
428.591	-23.17966
428.804	-0
429.016	-61.10358
429.228	29.5056
429.44	-37.92881
429.652	-6.32202
429.864	-0
430.076	52.69182
430.288	-16.85823
430.5	56.90779
430.712	-35.82187
430.924	35.82884
431.136	-46.35635
431.348	86.42218
431.56	46.36803
431.772	-27.39383
431.984	37.93663
432.196	37.93663
432.408	27.39791
432.62	-71.63655
432.832	2.10739
433.044	31.61332
433.256	8.4297
433.468	-6.32202
433.679	82.20557
433.891	-14.75104
434.103	37.93663
434.315	21.07496
434.527	6.32224
434.739	35.82884
434.95	-18.9654
435.162	29.5056
435.374	46.36803
435.586	61.12386
435.798	120.15828
436.009	-2.10736
436.221	40.04444
436.433	14.75222
436.645	14.75222
436.856	29.5056
437.068	44.26014
437.28	-14.75104
437.491	27.39791
437.703	10.53718
437.915	-12.64382
438.126	82.20557
438.338	29.5056
438.55	6.32224
438.761	4.2148
438.973	-4.2147
439.184	-25.28676
439.396	48.47593
439.608	56.90779
439.819	-31.6079
440.031	-10.53658
440.242	27.39791
440.454	29.5056
440.665	40.04444
440.877	10.53718
441.088	35.82884
441.3	-2.10736
441.511	16.85977
441.723	35.82884
441.934	21.07496
442.146	40.04444
442.357	84.31387
442.569	42.15228
442.78	6.32224
442.991	-31.6079
443.203	48.47593
443.414	59.01582
443.626	37.93663
443.837	21.07496
444.048	31.61332
444.26	33.72107
444.471	44.26014
444.682	23.18258
444.894	-48.46317
445.105	25.29023
445.316	10.53718
445.528	10.53718
445.739	10.53718
445.95	-12.64382
446.161	44.26014
446.373	52.69182
446.584	56.90779
446.795	35.82884
447.006	61.12386
447.217	18.96735
447.429	18.96735
447.64	12.64469
447.851	90.63889
448.062	35.82884
448.273	31.61332
448.484	-0
448.695	105.39804
448.907	48.47593
449.118	18.96735
449.329	33.72107
449.54	48.47593
449.751	139.13728
449.962	27.39791
450.173	44.26014
450.384	2.10739
450.595	10.53718
450.806	88.53052
451.017	56.90779
451.228	71.66443
451.439	-40.03573
451.65	37.93663
451.861	-50.56997
452.072	77.98905
452.283	29.5056
452.494	54.79979
452.705	4.2148
452.915	6.32224
453.126	10.53718
453.337	31.61332
453.548	14.75222
453.759	-21.07254
453.97	52.69182
454.181	105.39804
454.391	-2.10736
454.602	107.50658
454.813	54.79979
455.024	6.32224
455.235	82.20557
455.445	10.53718
455.656	61.12386
455.867	65.34002
456.078	94.85568
456.288	33.72107
456.499	111.72373
456.71	33.72107
456.921	65.34002
457.131	69.55627
457.342	170.77278
457.553	54.79979
457.763	88.53052
457.974	77.98905
458.184	-4.2147
458.395	52.69182
458.606	21.07496
458.816	77.98905
459.027	29.5056
459.237	8.4297
459.448	42.15228
459.659	69.55627
459.869	25.29023
460.08	33.72107
460.29	137.02842
460.501	113.83233
460.711	103.28953
460.922	35.82884
461.132	105.39804
461.343	145.464
461.553	21.07496
461.764	153.89993
461.974	35.82884
462.184	126.48442
462.395	120.15828
462.605	111.72373
462.816	73.77262
463.026	92.74727
463.236	103.28953
463.447	65.34002
463.657	88.53052
463.867	86.42218
464.078	67.44814
464.288	86.42218
464.498	90.63889
464.709	113.83233
464.919	158.11802
465.129	162.33619
465.339	105.39804
465.55	88.53052
465.76	134.91958
465.97	80.0973
466.18	69.55627
466.391	179.20971
466.601	132.81075
466.811	99.07256
467.021	84.31387
467.231	120.15828
467.441	94.85568
467.651	221.39921
467.862	111.72373
468.072	204.52245
468.282	90.63889
468.492	166.55444
468.702	145.464
468.912	267.81677
469.122	238.27725
469.332	246.71673
469.542	240.38709
469.752	185.53762
469.962	172.88198
470.172	276.25732
470.382	278.36751
470.592	255.15652
470.802	293.13931
471.012	299.47036
471.222	305.80158
471.432	265.70668
471.642	189.75633
471.852	318.4645
472.062	331.12806
472.272	246.71673
472.482	350.12459
472.691	318.4645
472.901	373.34447
473.111	339.57079
473.321	409.23374
473.531	386.01073
473.741	402.9
473.95	483.13796
474.16	417.67897
474.37	445.1277
474.58	390.23295
474.79	626.77399
474.999	428.23586
475.209	512.70485
475.419	426.12445
475.628	586.63414
475.838	525.37723
476.048	601.42197
476.258	542.27454
476.467	576.0718
476.677	626.77399
476.886	736.65255
477.096	804.2846
477.306	738.76589
477.515	745.10599
477.725	738.76589
477.935	753.55959
478.144	732.42589
478.354	795.83004
478.563	931.11986
478.773	855.01504
478.982	1070.66929
479.192	1117.19135
479.401	994.54797
479.611	977.6332
479.82	1085.4715
480.03	973.40458
480.239	1197.55274
480.449	1085.4715
480.658	1170.06004
480.868	1163.71566
481.077	1252.53983
481.287	1184.86372
481.496	1351.94384
481.705	1235.6205
481.915	1502.11201
482.124	1303.29877
482.333	1464.04112
482.543	1425.97019
482.752	1345.59879
482.961	1491.53678
483.171	1645.93217
483.38	1514.80227
483.589	1468.27123
483.799	1645.93217
484.008	1815.1174
484.217	1576.13799
484.426	1861.63889
484.636	1700.91971
484.845	2005.41636
485.054	1736.87199
485.263	1903.92909
485.472	1793.97054
485.682	2058.26851
485.891	1910.27244
486.1	1971.58881
486.309	1996.95962
486.518	2252.72373
486.727	2134.36775
486.936	2390.06549
487.146	2128.02652
487.355	2411.19126
487.564	2252.72373
487.773	2438.65318
487.982	2314.00433
488.191	2567.48805
488.4	2411.19126
488.609	2464.00104
488.818	2504.1319
489.027	2609.71958
489.236	2651.94622
489.445	2594.93909
489.654	2632.94484
489.863	2987.45835
490.072	2694.16783
490.281	2782.81627
490.49	2808.14004
490.698	2968.47671
490.907	2993.7853
491.116	3448.94437
491.325	2955.8216
491.534	3038.07007
491.743	3078.13139
491.952	2995.89425
492.16	3016.98293
492.369	3307.8445
492.578	3307.8445
492.787	3263.60317
492.996	3284.67141
493.204	3331.01553
493.413	3408.939
493.622	3524.72621
493.831	3549.98156
494.039	3714.07577
494.248	3440.52272
494.457	3707.76659
494.665	3482.62809
494.874	3743.5163
495.083	3592.06791
495.291	3743.5163
495.5	3730.89939
495.709	3896.96548
495.917	3777.15797
496.126	4012.50744
496.335	3764.54293
496.543	4073.40465
496.752	4146.87803
496.96	4125.88825
497.169	4071.30504
497.377	4130.08637
497.586	4079.70337
497.794	4281.16258
498.003	4209.83474
498.211	4283.26008
498.42	4239.20801
498.628	4329.39972
498.837	4151.07574
499.045	4409.07079
499.254	4216.12936
499.462	4574.60154
499.671	4461.46881
499.879	4457.27747
500.087	4379.72194
500.296	4763.01153
500.504	4455.18177
500.713	4574.60154
500.921	4670.92272
501.129	4520.13828
501.338	4658.36178
501.546	4955.4187
501.754	4706.50767
501.962	5016.02855
502.171	4788.11906
502.379	4886.42533
502.587	4995.13079
502.795	4926.15184
503.004	4884.33424
503.212	5151.8076
503.42	5110.03987
503.628	5089.15252
503.837	5064.08464
504.045	5093.33017
504.253	5118.39416
504.461	5300.00777
504.669	5030.65561
504.877	5356.33465
505.085	5285.40172
505.294	5360.50633
505.502	5222.79137
505.71	5571.05403
505.918	5208.17927
506.126	5402.21799
506.334	5103.77391
506.542	5510.6243
506.75	5448.08996
506.958	5758.46828
507.166	5556.46936
507.374	5635.6294
507.582	5518.96062
507.79	5783.44241
507.998	5843.78251
508.206	5922.81882
508.414	5518.96062
508.622	5835.46092
508.83	5812.57459
509.037	5941.53295
509.245	5662.70265
509.453	6066.24507
509.661	5868.74503
509.869	6032.9968
510.077	5962.3242
510.285	5997.6639
510.492	6012.21357
510.7	6300.88976
510.908	5987.27058
511.116	6155.56997
511.324	6030.91858
511.531	6213.71167
511.739	6068.32289
511.947	6325.7902
512.155	6155.56997
512.362	6354.83647
512.57	6344.46333
512.778	6234.4721
512.985	6176.33697
513.193	6278.06139
513.401	6460.60923
513.608	6441.94784
513.816	6367.28347
514.024	6460.60923
514.231	6383.87816
514.439	6665.76056
514.646	6302.96492
514.854	6508.29088
515.061	6491.70735
515.269	6576.68226
515.477	6551.81558
515.684	6529.0182
515.892	6371.43228
516.099	6957.5574
516.307	6990.64058
516.514	6814.81982
516.722	6785.84537
516.929	6920.33191
517.136	7040.25454
517.344	6967.89651
517.551	7005.11265
517.759	7056.78965
517.966	7062.98995
518.173	6963.76093
518.381	7106.38639
518.588	7166.29864
518.796	7158.036
519.003	7209.67171
519.21	7081.58963
519.418	7294.32436
519.625	7079.52309
519.832	7284.00285
520.039	7253.03502
520.247	7546.00032
520.454	7319.09375
520.661	7690.25995
520.868	7294.32436
521.076	7774.70671
521.283	7444.95615
521.49	7393.383
521.697	7541.87708
521.904	7601.65568
522.112	7286.0672
522.319	7832.35744
522.526	7564.55384
522.733	7945.55262
522.94	7630.50789
523.147	7887.93379
523.354	7863.23505
523.561	8231.35321
523.768	7857.0599
523.975	7896.16604
524.183	7813.82863
524.39	7962.01218
524.597	7809.71089
524.804	7955.84
525.011	8097.75387
525.218	8036.06405
525.425	7962.01218
525.632	8216.96963
525.838	8266.28074
526.045	8210.80494
526.252	8192.3098
526.459	8444.93913
526.666	8046.34695
526.873	8531.13582
527.08	8488.04168
527.287	8438.78093
527.494	8348.44079
527.701	8736.23243
527.907	8395.66871
528.114	8643.96201
528.321	8405.9343
528.528	8588.5817
528.735	8539.34328
528.941	8695.22797
529.148	8613.19686
529.355	8791.57682
529.562	8631.65645
529.768	9016.91829
529.975	8557.80896
530.182	8924.7592
530.388	8750.58225
530.595	8947.29028
530.802	8830.51492
531.008	9446.53482
531.215	9090.62002
531.422	9143.83511
531.628	8932.95257
531.835	9004.63247
532.042	8982.10683
532.248	9315.68231
532.455	9223.63609
532.661	9413.82797
532.868	9184.76192
533.074	9481.28133
533.281	9358.62569
533.487	9471.06225
533.694	9285.004
533.9	9577.32115
534.107	9197.03863
534.313	9327.95259
534.52	9338.17737
534.726	9626.34931
534.933	9671.28389
535.139	9483.3251
535.345	9546.67395
535.552	9659.02975
535.758	9677.41076
535.965	9767.25556
536.171	9636.56237
536.377	9944.81756
536.584	9852.98918
536.79	9685.57969
536.996	9887.68341
537.203	9806.0431
537.409	9773.38027
537.615	9981.54063
537.821	9965.21985
538.028	10236.43502
538.234	10134.5035
538.44	10211.97459
538.646	10112.07392
538.853	10283.31205
539.059	10161.00901
539.265	10244.58806
539.471	10199.74363
539.677	10107.99563
539.883	10191.58939
540.09	10283.31205
540.296	10324.06889
540.502	10670.29243
540.708	10421.8637
540.914	10633.6507
541.12	10324.06889
541.326	10550.17405
541.532	10645.86505
541.738	10527.7743
541.944	10542.02887
542.15	10947.01619
542.356	10493.15349
542.562	10450.38151
542.768	10694.71805
542.974	10873.78677
543.18	10664.18575
543.386	10947.01619
543.592	10759.84456
543.798	10953.11798
544.004	10751.70441
544.21	11085.2988
544.415	10869.71804
544.621	11215.40135
544.827	11073.09944
545.033	11396.25469
545.239	11264.17872
545.445	11325.14213
545.651	11125.96053
545.856	11325.14213
546.062	11099.53089
546.268	11461.26133
546.474	11292.62945
546.679	11306.85406
546.885	11138.15821
547.091	11245.8879
547.297	11111.72941
547.502	11312.95018
547.708	11243.85553
547.914	11418.60185
548.119	11540.47488
548.325	11599.368
548.531	11489.69863
548.736	11686.6781
548.942	11512.04091
549.147	11442.97922
549.353	11532.35108
549.559	11804.4192
549.764	11725.2517
549.97	11914.01435
550.175	11706.98039
550.381	11997.20945
550.586	11731.34198
550.792	11987.06443
550.997	11794.27025
551.203	11920.10226
551.408	11962.71557
551.614	12110.82026
551.819	11871.39691
552.025	12214.26648
552.23	12043.87399
552.435	12051.98914
552.641	11905.89702
552.846	12390.6902
553.052	12337.97142
553.257	12317.69372
553.462	12544.76541
553.668	12542.73835
553.873	12157.47488
554.078	12299.4432
554.283	12447.45916
554.489	12556.92766
554.694	12455.56859
554.899	12698.80414
555.105	12696.77754
555.31	12571.11666
555.515	12690.6977
555.72	12465.70522
555.925	12230.49159
556.131	12469.75983
556.336	12475.8417
556.541	12787.96878
556.746	12644.08387
556.951	12662.32444
557.156	12394.7453
557.361	13004.75653
557.567	12958.16237
557.772	13227.56263
557.977	12858.8874
558.182	13045.27103
558.387	12769.73146
558.592	13148.57422
558.797	13138.447
559.002	13225.53737
559.207	12921.69549
559.412	13213.38572
559.617	13097.93695
559.822	13334.89515
560.027	13118.19221
560.232	13132.37061
560.437	12970.31763
560.642	13154.6505
560.847	12984.49853
561.051	13363.24516
561.256	13178.95519
561.461	13294.39371
561.666	13292.3686
561.871	13391.59439
562.076	13128.31966
562.281	13413.86823
562.485	12789.99512
562.69	13142.4979
562.895	13156.67591
563.1	13059.45064
563.305	13138.447
563.509	13575.84597
563.714	13466.51362
563.919	13679.0949
564.123	13701.36315
564.328	13721.60667
564.533	13642.6551
564.737	13675.04609
564.942	13670.99726
565.147	14094.03662
565.351	13664.92399
565.556	13616.33679
565.761	13608.23874
565.965	13824.84388
566.17	13681.1193
566.374	13670.99726
566.579	13681.1193
566.784	13778.28689
566.988	13984.74574
567.193	14029.2725
567.397	13883.544
567.602	14193.20229
567.806	13567.74764
568.011	13747.92279
568.215	13654.80182
568.42	14055.58321
568.624	14144.63199
568.828	13883.544
569.033	13869.37522
569.237	14031.29641
569.442	14067.72648
569.646	13883.544
569.85	13952.36189
570.055	14328.78844
570.259	14089.98894
570.463	14705.15563
570.668	14241.77143
570.872	14043.43985
571.076	14239.74774
571.281	14164.86976
571.485	14472.46092
571.689	14737.52945
571.893	14207.36841
572.098	14733.48274
572.302	14387.47251
572.506	14630.29025
572.71	14367.23678
572.914	14680.87511
573.119	14638.38387
573.323	14929.7452
573.527	14856.90621
573.731	14782.04312
573.935	14958.07131
574.139	15126.00343
574.343	14484.60191
574.547	14844.76631
574.751	14603.98586
574.955	14903.44231
575.159	14933.79179
575.364	14907.48891
575.568	14782.04312
575.772	14909.51222
575.976	14767.87972
576.18	14699.08551
576.383	14856.90621
576.587	15223.12043
576.791	14873.09272
576.995	15087.56126
577.199	14875.11603
577.403	15117.91034
577.607	15261.56262
577.811	15352.61023
578.015	15089.58453
578.219	15010.67673
578.422	15077.44489
578.626	15593.38477
578.83	15241.32988
579.034	15275.72555
579.238	15350.58694
579.442	15293.93505
579.645	15188.72482
579.849	15498.28798
580.053	15364.74995
580.257	15300.00488
580.46	15380.93628
580.664	15824.05273
580.868	15453.77506
581.071	15789.65406
581.275	15589.33807
581.479	15949.50961
581.682	15542.80118
581.886	15648.01558
582.09	15615.6417
582.293	15775.48999
582.497	15605.5249
582.7	15832.14658
582.904	15757.27912
583.107	15654.08571
583.311	15522.56787
583.515	15787.63062
583.718	15955.58023
583.922	16135.68106
584.125	16161.98893
584.329	15706.69381
584.532	16190.3208
584.735	16226.74798
584.939	16004.14561
585.142	15953.55669
585.346	15868.56915
585.549	16034.49938
585.753	15989.98062
585.956	16184.24966
586.159	16277.34221
586.363	16157.94155
586.566	16174.13112
586.769	16354.24763
586.973	16378.53411
587.176	16334.0091
587.379	16414.96436
587.582	16740.84317
587.786	16329.96142
587.989	16848.13312
588.192	16465.56301
588.395	16582.95688
588.599	16437.22761
588.802	16271.27085
589.005	16352.22376
589.208	16589.02917
589.411	16653.80156
589.615	16526.28308
589.818	16929.11134
590.021	16783.35346
590.224	16659.87409
590.427	17004.01991
590.63	16528.30711
590.833	16876.47503
591.036	16724.64905
591.239	16740.84317
591.442	16795.49945
591.645	17093.10516
591.848	17040.46324
592.051	17020.21683
592.254	17105.25357
592.457	17388.74581
592.66	17042.48789
592.863	17287.49195
593.066	17072.85805
593.269	17510.2606
593.472	17137.6498
593.675	17325.96753
593.878	17253.06734
594.081	17093.10516
594.284	16979.72484
594.486	17115.37731
594.689	17327.99259
594.892	17062.73459
595.095	17202.44446
595.298	17615.58266
595.5	17455.57756
595.703	17639.889
595.906	17425.19907
596.109	17536.5903
596.311	17307.74212
596.514	17283.44195
596.717	17496.0833
596.92	17530.51417
597.122	17680.40061
597.325	17668.24699
597.528	17801.94347
597.73	17862.71948
597.933	17737.11911
598.136	17783.71127
598.338	17686.47747
598.541	18065.32888
598.743	17919.44657
598.946	17690.52872
599.148	17860.69357
599.351	17757.37635
599.554	17889.05672
599.756	17826.25351
599.959	17917.42056
600.161	17957.94151
600.363	17909.31653
600.566	18099.77602
600.768	18128.14503
600.971	18180.83224
601.173	18235.5485
601.376	18130.17142
601.578	18531.46891
601.78	18351.0695
601.983	18328.77502
602.185	18474.71078
602.388	18413.90182
602.59	18219.336
602.792	18162.59408
602.995	18069.38143
603.197	18304.4543
603.399	18521.33331
603.601	18231.49535
603.804	18120.03953
604.006	18184.8852
604.208	18456.46773
604.41	18197.04419
604.613	18377.41809
604.815	18472.68376
605.017	18786.91822
605.219	18685.54201
605.421	18563.90349
605.623	18253.78785
605.826	18819.3607
606.028	18582.14837
606.23	18541.60461
606.432	18501.0624
606.634	18882.22091
606.836	18618.63908
607.038	18667.29533
607.24	18638.91225
607.442	18709.8714
607.644	18768.66978
607.846	18823.41609
608.048	18608.50265
608.25	18847.74871
608.452	18746.36655
608.654	18924.80582
608.856	18608.50265
609.058	18957.25265
609.26	18663.24056
609.462	18920.75004
609.664	18620.66638
609.866	18691.6243
610.067	18620.66638
610.269	19085.02209
610.471	18553.76758
610.673	18715.95384
610.875	18823.41609
611.077	19172.23907
611.278	19048.5149
611.48	19164.12555
611.682	18705.81646
611.884	19373.06979
612.085	18863.97078
612.287	19131.6721
612.489	19030.26179
612.69	19344.66703
612.892	18983.61646
613.094	19137.75704
613.295	18752.4492
613.497	19119.50232
613.699	18880.1931
613.9	19036.34612
614.102	19190.49475
614.304	19194.55161
614.505	19062.71198
614.707	19383.21383
614.908	18758.53189
615.11	19160.06881
615.311	19298.00712
615.513	18888.30436
615.714	19070.82469
615.916	19239.17816
616.117	18863.97078
616.319	18799.08404
616.52	18750.42165
616.722	19153.98373
616.923	18930.88952
617.124	18936.97326
617.326	19070.82469
617.527	19012.00901
617.729	19206.72229
617.93	19283.80671
618.131	19210.77922
618.333	19145.87035
618.534	19149.92704
618.735	19415.67544
618.937	19028.23369
619.138	18894.38785
619.339	19060.68382
619.54	19160.06881
619.742	18920.75004
619.943	18904.52707
620.144	18644.99427
620.345	19328.43725
620.546	19541.47425
620.748	19395.38681
620.949	19125.58719
621.15	19433.93557
621.351	19472.48583
621.552	19525.24125
621.753	19336.55211
621.954	19815.44651
622.155	19271.63509
622.356	19397.41565
622.558	19295.97848
622.759	19415.67544
622.96	19162.09718
623.161	19636.84853
623.362	19421.76211
623.563	19525.24125
623.764	19608.43821
623.965	19484.65991
624.166	19577.99948
624.366	19515.09575
624.567	19541.47425
624.768	19685.55385
624.969	19356.83954
625.17	19474.51483
625.371	19874.30978
625.572	19685.55385
625.773	19539.44511
625.973	19983.92666
626.174	19894.60828
626.375	19894.60828
626.576	19740.35022
626.777	19866.1905
626.977	19594.23335
627.178	19381.18501
627.379	19651.054
627.58	19752.52761
627.78	19586.11638
627.981	19854.0117
628.182	19837.77354
628.382	19620.61396
628.583	19655.11275
628.784	19456.25396
628.984	19295.97848
629.185	19882.42913
629.386	19517.12484
629.586	19823.56537
629.787	19610.46749
629.987	19758.61636
630.188	19553.64918
630.388	19529.29947
630.589	19450.16707
630.79	19791.09033
630.99	19732.23205
631.191	19845.89259
631.391	20227.56364
631.591	20221.47198
631.792	19939.26645
631.992	20103.70727
632.193	20077.31368
632.393	19728.17299
632.594	19787.03102
632.794	19778.91246
632.994	20059.0416
633.195	19983.92666
633.395	19774.85321
633.595	19782.97174
633.796	19693.67164
633.996	20008.28763
634.196	19886.48883
634.397	20247.86945
634.597	19782.97174
634.797	20418.45489
634.997	20197.1057
635.198	20136.19267
635.398	19912.87728
635.598	20300.66654
635.798	20154.46619
635.998	20225.53308
636.199	20335.18925
636.399	20428.60971
636.599	19987.98678
636.799	20404.2383
636.999	19677.43613
637.199	19918.96703
637.399	19874.30978
637.599	20253.96128
637.799	19870.25013
637.999	20471.26114
638.199	20371.74403
638.399	20223.50253
638.599	19953.4763
638.799	20635.79104
638.999	20623.6027
639.199	20591.1012
639.399	20587.03858
639.599	20448.91968
639.799	20182.89233
639.999	20361.58978
640.199	20172.74004
640.399	20138.22305
640.599	19923.02688
640.799	20706.89268
640.998	20712.98734
641.198	20288.48235
641.398	20201.16671
641.598	20286.45166
641.798	20306.7587
641.997	20501.72757
642.197	20361.58978
642.397	20660.16817
642.597	20085.43471
642.796	20702.82959
642.996	20463.13691
643.196	20784.09451
643.395	20524.07022
643.595	21023.86455
643.795	20658.13672
643.994	20816.60233
644.194	20782.0628
644.394	21021.83236
644.593	20408.30016
644.793	20942.58014
644.992	20721.11362
645.192	20875.52546
645.392	20739.39798
645.591	20747.52447
645.791	20857.2386
645.99	20747.52447
646.19	20694.70347
646.389	21021.83236
646.589	20914.13215
646.788	21090.92912
646.987	20749.55611
647.187	21007.60714
647.386	21005.57498
647.586	21088.89679
647.785	20739.39798
647.984	21190.51804
648.184	21007.60714
648.383	20914.13215
648.582	21019.80017
648.782	20853.1749
648.981	20753.61939
649.18	21074.67063
649.38	21198.64818
649.579	21296.21489
649.778	21206.77838
649.977	21418.18633
650.177	20690.64043
650.376	20818.6341
650.575	20656.10528
650.774	20861.30232
650.973	20780.0311
651.173	21003.54283
651.372	20847.07938
651.571	21094.99378
651.77	21007.60714
651.969	20997.44639
652.168	20932.42005
652.367	21204.74582
652.566	21168.16049
652.765	21117.34971
652.964	21397.85675
653.163	21802.4897
653.362	21582.87055
653.561	21452.74752
653.76	21186.45299
653.959	21527.97292
654.158	21281.98583
654.357	21379.56048
654.556	21023.86455
654.755	21373.46179
654.954	20922.26007
655.153	20719.08204
655.352	21017.76799
655.551	21119.3821
655.749	21182.38796
655.948	21113.28496
656.147	21149.86832
656.346	21298.24763
656.545	20966.96477
656.743	21255.56096
656.942	21135.6413
657.141	21538.13893
657.34	21231.16938
657.538	21306.37862
657.737	21351.10025
657.936	21446.6484
658.135	21133.60889
658.333	21322.64081
658.532	21267.75697
658.731	21497.47548
658.929	21115.31734
659.128	21381.59338
659.326	21137.67372
659.525	21733.34543
659.724	20952.74033
659.922	21420.21931
660.121	20991.35
660.319	21314.50968
660.518	21097.02612
660.716	21227.10417
660.915	21078.73523
661.113	21515.77384
661.312	21601.1704
661.51	21597.10374
661.709	21580.83726
661.907	21647.93814
662.105	21422.25229
662.304	21763.8497
662.502	21544.23859
662.701	21822.8271
662.899	21877.74001
663.097	21818.75959
663.296	21487.30987
663.494	21448.68144
663.692	21302.31312
663.891	21517.80701
664.089	21286.05126
664.287	21544.23859
664.485	21365.33027
664.684	21629.63747
664.882	21426.31827
665.08	21660.13876
665.278	21221.00639
665.476	21621.50395
665.675	21265.72429
665.873	21284.01854
666.071	21532.03931
666.269	21743.51342
666.467	21513.74067
666.665	21894.01104
666.863	21237.26722
667.061	21694.70794
667.259	21761.81605
667.457	21753.68151
667.655	21633.70426
667.853	21586.93716
668.051	21715.04329
668.249	21564.57102
668.447	21414.12038
668.645	21308.41138
668.843	21227.10417
669.041	21497.47548
669.239	21273.85503
669.437	21389.72504
669.635	21621.50395
669.833	21682.50692
670.031	21501.54176
670.229	21294.18215
670.426	21527.97292
670.624	21387.69212
670.822	21389.72504
671.02	21485.27676
671.218	21456.81362
671.415	21397.85675
671.613	21141.73857
671.811	21428.35127
672.009	21483.24365
672.206	21588.97047
672.404	21639.80447
672.602	21418.18633
672.799	21466.97894
672.997	21597.10374
673.195	21509.67435
673.392	21820.79334
673.59	21190.51804
673.788	21271.82234
673.985	21326.70639
674.183	21621.50395
674.38	21493.40922
674.578	21479.17745
674.775	21643.87129
674.973	21605.23708
675.17	21475.11126
675.368	21324.6736
675.565	21367.36314
675.763	21851.30011
675.96	21405.98854
676.158	21513.74067
676.355	20853.1749
676.553	21554.40475
676.75	21129.54407
676.947	21765.88335
677.145	21515.77384
677.342	21719.1104
677.539	21198.64818
677.737	21481.21055
677.934	21432.41727
678.131	21635.73766
678.329	21430.38427
678.526	21340.93607
678.723	21595.07042
678.92	21668.27258
679.118	21458.84668
679.315	21422.25229
679.512	21552.37151
679.709	21595.07042
679.906	21464.94587
680.104	21369.39602
680.301	21316.54246
680.498	21137.67372
680.695	21101.0908
680.892	20769.87267
681.089	21082.79984
681.286	21094.99378
681.483	20733.30316
681.68	21239.29984
681.877	21031.99335
682.075	21432.41727
682.272	21127.51167
682.469	21513.74067
682.665	20938.51609
682.862	21182.38796
683.059	21046.21891
683.256	21011.67147
683.453	21072.63834
683.65	21208.81094
683.847	21064.50921
684.044	21186.45299
684.241	20812.53879
684.438	21383.62629
684.635	20617.50859
684.831	20871.46169
685.028	21092.96145
685.225	20997.44639
685.422	20670.32549
685.619	21082.79984
685.815	20660.16817
686.012	20938.51609
686.209	20609.38316
686.405	21105.15551
686.602	20548.44459
686.799	20731.27156
686.996	20440.79565
687.192	20558.60076
687.389	20314.88163
687.586	20463.13691
687.782	20723.1452
687.979	20800.34829
688.175	20379.86749
688.372	20647.97953
688.568	20820.66588
688.765	20639.85386
688.962	20310.82015
689.158	20325.03538
689.355	20582.97599
689.551	20585.00728
689.748	20457.04379
689.944	20589.06989
690.14	20723.1452
690.337	20609.38316
690.533	20589.06989
690.73	20343.31241
690.926	20560.63201
691.123	20375.80575
691.319	20272.23699
691.515	20481.41651
691.712	20513.91441
691.908	20284.42098
692.104	20475.32327
692.301	20530.16375
692.497	20193.04472
692.693	20611.41451
692.889	20392.05282
693.086	20276.2983
693.282	20725.17678
693.478	20418.45489
693.674	20142.28381
693.87	20532.19494
694.067	20361.58978
694.263	20170.70959
694.459	20174.77049
694.655	20568.75703
694.851	20065.13226
695.047	20428.60971
695.243	20085.43471
695.439	19967.68635
695.635	19681.49499
695.831	19561.76588
696.027	20052.95099
696.224	20006.25753
696.42	19845.89259
696.615	20126.04087
696.811	20243.80826
697.007	20065.13226
697.203	19985.95672
697.399	19722.08443
697.595	19856.04149
697.791	19935.20653
697.987	20067.16248
698.183	20390.02192
698.379	19900.69791
698.575	20061.07182
698.77	20168.67915
698.966	20117.9195
699.162	20182.89233
699.358	20416.42393
699.554	20052.95099
699.749	20371.74403
699.945	19992.04692
700.141	20223.50253
700.337	20182.89233
700.532	20359.55895
700.728	20162.58786
700.924	20197.1057
701.119	19685.55385
701.315	19809.35741
701.511	19533.35771
701.706	19890.54854
701.902	19373.06979
702.097	19803.26834
702.293	19823.56537
702.489	19858.07128
702.684	19795.14965
702.88	19772.82359
703.075	19661.20089
703.271	19886.48883
703.466	19687.58329
703.662	19738.32067
703.857	19888.51868
704.053	20144.31419
704.248	20099.64667
704.443	20008.28763
704.639	19709.90742
704.834	20057.01139
705.03	20061.07182
705.225	20211.31929
705.42	20219.44143
705.616	20067.16248
705.811	19929.11669
706.006	19902.72779
706.202	19667.28908
706.397	19385.24265
706.592	19795.14965
706.787	19504.95037
706.983	19669.31848
707.178	20455.01276
707.373	19941.29641
707.568	19614.52606
707.763	19651.054
707.959	19923.02688
708.154	19715.9959
708.349	19886.48883
708.544	19555.67835
708.739	19880.39928
708.934	19612.49677
709.129	19813.4168
709.324	19513.06667
709.519	19912.87728
709.714	19427.84882
709.909	20008.28763
710.104	19162.09718
710.299	19669.31848
710.494	19644.96592
710.689	19888.51868
710.884	19454.22499
711.079	19762.67555
711.274	19744.40934
711.469	19715.9959
711.664	19509.00851
711.859	19693.67164
712.054	19537.41597
712.249	19724.11394
712.443	19119.50232
712.638	19559.7367
712.833	19340.60956
713.028	19371.04099
713.223	19125.58719
713.417	19324.37985
713.612	19399.4445
713.807	19527.27036
714.002	19478.57285
714.196	19458.28293
714.391	18967.39249
714.586	19227.00709
714.78	19172.23907
714.975	19304.09307
715.17	18973.47645
715.364	19194.55161
715.559	19218.89312
715.754	19137.75704
715.948	18987.67249
716.143	18740.28394
716.337	18815.30534
716.532	19233.09261
716.726	18837.61005
716.921	19001.86872
717.115	18833.55461
717.31	18987.67249
717.504	19087.05031
717.699	19425.81992
717.893	18847.74871
718.088	19123.5589
718.282	19383.21383
718.476	19166.15392
718.671	18709.8714
718.865	19024.1775
719.059	18835.58233
719.254	19022.14941
719.448	18756.50432
719.642	19243.23522
719.837	18118.01316
720.031	18728.11882
720.225	18385.52548
720.419	18630.80294
720.614	18328.77502
720.808	18705.81646
721.002	18083.56547
721.196	18707.84393
721.39	18430.11721
721.585	19054.59934
721.779	18582.14837
721.973	18756.50432
722.167	18162.59408
722.361	18385.52548
722.555	18722.03631
722.749	18949.14084
722.943	18649.04898
723.137	18499.03533
723.331	18120.03953
723.525	18300.4009
723.719	18259.8677
723.913	18572.01229
724.107	18004.54235
724.301	18567.95788
724.495	18162.59408
724.689	18261.89433
724.883	18207.17677
725.077	18448.35981
725.271	18225.41566
725.465	18318.64132
725.659	18087.61809
725.853	18156.51476
726.046	18318.64132
726.24	18263.92096
726.434	17650.01678
726.628	18466.60272
726.822	18138.277
727.015	18655.13106
727.209	18249.73464
727.403	18393.63293
727.596	18320.66806
727.79	18442.27891
727.984	18434.1711
728.177	18403.76733
728.371	18128.14503
728.565	18604.4481
728.758	18257.84108
728.952	18306.48101
729.146	18150.43547
729.339	18955.22469
729.533	18640.93959
729.726	18766.64219
729.92	18306.48101
730.113	18663.24056
730.307	18359.17669
730.5	18620.66638
730.694	18002.51619
730.887	18397.68668
731.081	18375.39126
731.274	18415.92873
731.468	18156.51476
731.661	17876.901
731.854	17915.39454
732.048	18413.90182
732.241	17951.86328
732.435	18434.1711
732.628	18205.15025
732.821	17870.82319
733.014	18140.3034
733.208	18012.64703
733.401	18130.17142
733.594	17992.38543
733.788	17803.96929
733.981	17923.49861
734.174	18243.65484
734.367	18217.30945
734.56	18245.68144
734.754	18497.00826
734.947	18276.0808
735.14	18215.28291
735.333	18192.99118
735.526	17878.92695
735.719	17739.14482
735.912	18036.96143
736.105	17885.0048
736.298	17899.18658
736.491	17729.0163
736.684	17696.60563
736.877	17862.71948
737.07	17828.27936
737.263	17737.11911
737.456	17803.96929
737.649	17990.35929
737.842	17828.27936
738.035	17777.63393
738.228	17514.31129
738.421	17404.94714
738.614	17690.52872
738.807	17769.53085
739	17445.45132
739.192	17520.38735
739.385	18063.30261
739.578	18053.17132
739.771	17998.46387
739.964	17714.83653
740.156	17951.86328
740.349	17415.07307
740.542	18115.9868
740.735	17435.32515
740.927	17643.9401
741.12	17487.98205
741.313	17469.75442
741.505	17931.60273
741.698	17828.27936
741.891	17348.24336
742.083	17805.99511
742.276	18032.909
742.468	17712.81086
742.661	17660.14464
742.854	17755.35061
743.046	17441.40084
743.239	17453.5523
743.431	17799.91766
743.624	17885.0048
743.816	17601.40419
744.009	18006.56852
744.201	17731.042
744.393	17599.3787
744.586	17419.12346
744.778	17613.55716
744.971	17749.27341
745.163	17787.76284
745.355	17315.84227
745.548	17307.74212
745.74	17149.79858
745.932	17344.19318
746.125	17453.5523
746.317	17498.10862
746.509	17161.94746
746.702	17421.14866
746.894	17469.75442
747.086	17437.35038
747.278	17323.94247
747.471	17074.88275
747.663	17206.49422
747.855	17344.19318
748.047	16914.93986
748.239	17321.91741
748.431	17222.69339
748.623	17710.78519
748.815	17291.54196
749.008	17508.23527
749.2	17562.92055
749.392	17447.47656
749.584	16797.52379
749.776	17188.27038
749.968	16850.15753
750.16	17222.69339
750.352	17293.56696
750.544	17230.79304
750.736	17431.27471
750.928	17198.3947
751.12	17165.9971
751.311	17135.62502
751.503	17161.94746
751.695	16949.35654
751.887	16963.52834
752.079	17044.51255
752.271	16724.64905
752.463	16659.87409
752.654	16842.05992
752.846	17103.22883
753.038	17012.11835
753.23	16906.84192
753.421	16736.79463
753.613	16317.81841
753.805	16858.25518
753.997	16850.15753
754.188	16844.08432
754.38	16886.59727
754.572	16582.95688
754.763	16961.50379
754.955	16667.97083
755.146	16886.59727
755.338	16637.60825
755.53	16414.96436
755.721	16892.67064
755.913	16678.09181
756.104	16599.14971
756.296	16864.32844
756.487	16530.33115
756.679	16556.64383
756.87	16376.51023
757.062	16536.40328
757.253	16465.56301
757.445	16767.15894
757.636	16510.09088
757.827	16680.11601
758.019	16412.94044
758.21	16423.06006
758.401	16421.03613
758.593	16485.80282
758.784	16222.70049
758.975	16295.55641
759.167	16232.81923
759.358	16356.27149
759.549	16036.52298
759.74	15898.92158
759.932	15809.88853
760.123	15599.45483
760.314	15951.53315
760.505	16155.91786
760.696	15911.06264
760.888	16076.99522
761.079	15805.84163
761.27	15801.79473
761.461	15625.75851
761.652	15959.62731
761.843	15854.40477
762.034	15340.47051
762.225	15508.40459
762.416	16079.01885
762.607	15947.48607
762.798	15925.22726
762.989	15846.31087
763.18	15874.63961
763.371	15856.42825
763.562	15429.4954
763.753	15757.27912
763.944	16028.4286
764.135	15836.19352
764.326	16056.75903
764.517	15561.01122
764.708	15702.64701
764.899	15380.93628
765.089	15457.82168
765.28	15235.26006
765.471	15763.3494
765.662	15585.29137
765.853	15427.4721
766.043	15154.32922
766.234	15405.21581
766.425	15065.30524
766.615	15490.1947
766.806	15362.72667
766.997	15520.54454
767.187	15382.95957
767.378	15344.51708
767.569	15457.82168
767.759	15571.12794
767.95	15229.19025
768.141	15447.70514
768.331	15425.4488
768.522	15024.8397
768.712	15253.46952
768.903	15275.72555
769.093	15295.95832
769.284	15364.74995
769.474	15148.2594
769.665	15010.67673
769.855	14871.0694
770.046	15028.88626
770.236	14846.78963
770.426	14988.42062
770.617	14887.25587
770.807	15039.00265
770.998	14755.73964
771.188	15036.97937
771.378	14644.45407
771.569	14871.0694
771.759	14804.29981
771.949	14703.13226
772.139	14725.3893
772.33	14272.12658
772.52	14330.81205
772.71	14529.11847
772.9	14328.78844
773.09	14409.73164
773.281	14502.81331
773.471	14529.11847
773.661	14452.22582
773.851	14359.14244
774.041	14385.44895
774.231	14207.36841
774.421	14037.36814
774.611	14371.28394
774.802	14098.0843
774.992	14077.84581
775.182	13948.31387
775.372	13697.3144
775.562	13869.37522
775.752	13903.78488
775.942	13656.82626
776.131	14021.17681
776.321	13644.67956
776.511	13851.15802
776.701	13826.86806
776.891	13828.89224
777.081	14039.39205
777.271	14007.00927
777.461	14031.29641
777.651	13932.12165
777.84	14057.6071
778.03	13715.53365
778.22	13361.22019
778.41	13713.5093
778.599	13598.11609
778.789	13964.50591
778.979	14098.0843
779.169	13964.50591
779.358	13644.67956
779.548	14132.48923
779.738	13624.4348
779.927	13873.42345
780.117	13806.62611
780.307	14112.25111
780.496	13555.60003
780.686	13697.3144
780.875	13577.87054
781.065	13786.38387
781.254	13545.47693
781.444	13515.10709
781.633	13592.04247
781.823	13628.48378
782.012	13608.23874
782.202	13626.45929
782.391	13523.20579
782.581	13405.7687
782.77	13300.46903
782.96	13272.11721
783.149	13077.68121
783.338	13296.41882
783.528	13199.2086
783.717	13237.68885
783.906	13419.94283
784.096	13110.09016
784.285	13031.09118
784.474	12915.61751
784.663	13073.63001
784.853	12789.99512
785.042	12721.09634
785.231	13041.21967
785.42	12915.61751
785.61	13029.06547
785.799	12692.72432
785.988	12935.87725
786.177	12447.45916
786.366	12670.43121
786.555	12911.5655
786.744	12834.5732
786.933	12429.21257
787.122	12725.1494
787.312	12619.76235
787.501	12344.05459
787.69	12394.7453
787.879	13025.01403
788.068	12408.93794
788.257	12575.1706
788.445	12384.6075
788.634	12717.04327
788.823	12287.27587
789.012	12696.77754
789.201	12773.78423
789.39	12423.13025
789.579	12473.81441
789.768	12589.35921
789.957	12291.33167
790.145	12455.56859
790.334	12597.46685
790.523	12569.08968
790.712	12279.16417
790.9	12423.13025
791.089	12246.71625
791.278	12311.61028
791.467	12181.81484
791.655	12283.22003
791.844	11745.55232
792.033	12273.08032
792.221	11642.0099
792.41	11924.16082
792.599	11570.93781
792.787	11964.74468
792.976	12037.78755
793.164	12064.16163
793.353	12120.96291
793.541	12224.40723
793.73	11980.97732
793.918	12358.24842
794.107	11759.76223
794.295	11810.50846
794.484	11980.97732
794.672	11972.86106
794.861	12064.16163
795.049	11940.39476
795.238	11987.06443
795.426	12161.53161
795.614	12118.9344
795.803	11950.5407
795.991	11796.30006
796.179	11560.78373
796.368	11690.73863
796.556	11682.61753
796.744	11682.61753
796.932	11899.80894
797.121	11505.94767
797.309	11918.07296
797.497	11824.71644
797.685	11771.94182
797.874	11654.19257
798.062	11676.52662
798.25	11585.15313
798.438	11591.24527
798.626	11721.19147
798.814	11398.2863
799.002	11459.23003
799.19	11790.21061
799.378	11745.55232
799.566	11721.19147
799.755	11426.72779
799.943	11737.43217
800.131	11609.5212
800.318	11524.22712
800.506	11365.77937
800.694	11440.94782
800.882	11278.40433
801.07	11227.59625
801.258	11329.20603
801.446	11434.85358
801.634	11288.56518
801.822	11351.55679
802.01	11069.0329
802.197	11477.51145
802.385	11485.63627
802.573	11406.41263
802.761	11485.63627
802.949	11424.69632
803.136	11329.20603
803.324	11373.90634
803.512	11522.19611
803.699	11562.81457
803.887	11392.19144
804.075	11564.84539
804.262	11455.16738
804.45	11662.31417
804.638	11239.79077
804.825	11361.71582
805.013	11245.8879
805.201	11465.32392
805.388	11369.84287
805.576	11176.78168
805.763	11239.79077
805.951	11062.933
806.138	11284.50087
806.326	11274.33992
806.513	11046.66614
806.701	11416.57033
806.888	11288.56518
807.075	11345.46125
807.263	11030.39858
807.45	11414.53881
807.638	11469.38647
807.825	11692.76888
808.012	11205.23864
808.2	11609.5212
808.387	11475.48022
808.574	11686.6781
808.761	11623.73529
808.949	11816.59765
809.136	11637.94894
809.323	11792.24044
809.51	11554.69118
809.698	11601.39866
809.885	11426.72779
810.072	11711.04074
810.259	11593.27597
810.446	11469.38647
810.633	11516.10302
810.82	11601.39866
811.008	11654.19257
811.195	11552.6603
811.382	11144.25691
811.569	11524.22712
811.756	11284.50087
811.943	11572.9686
812.13	11440.94782
812.317	11597.33733
812.504	11365.77937
812.691	11639.97943
812.878	11424.69632
813.064	11457.19871
813.251	11213.36883
813.438	11516.10302
813.625	10814.78556
813.812	11489.69863
813.999	11209.30376
814.186	11373.90634
814.372	11117.82853
814.559	11495.79209
814.746	11292.62945
814.933	11270.27547
815.12	11241.82316
815.306	11345.46125
815.493	11046.66614
815.68	11182.87977
815.866	11211.3363
816.053	11408.44419
816.24	10957.18578
816.426	10849.37366
816.613	10940.9143
816.799	11087.33199
816.986	11237.75838
817.173	11266.21098
817.359	11272.3077
817.546	11292.62945
817.732	10924.6421
817.919	11274.33992
818.105	10955.15189
818.292	10977.52412
818.478	11272.3077
818.665	11465.32392
818.851	11095.46464
819.037	11182.87977
819.224	11195.07568
819.41	11191.01042
819.597	11193.04305
819.783	11392.19144
819.969	11239.79077
820.156	11422.66484
820.342	11245.8879
820.528	11266.21098
820.714	11052.7663
820.901	11447.04198
821.087	11337.33372
821.273	11481.57388
821.459	11333.2699
821.646	11457.19871
821.832	11101.56401
822.018	11382.03315
822.204	10993.79398
822.39	10999.895
822.576	10810.71615
822.762	11012.09673
822.948	10711.00083
823.134	10804.61195
823.32	10635.68646
823.507	10875.82112
823.693	10597.00499
823.879	10875.82112
824.065	10658.07896
824.25	10649.9364
824.436	10780.19408
824.622	10539.99254
824.808	10548.13778
824.994	10776.12427
825.18	10806.6467
825.366	10711.00083
825.552	10568.49999
825.738	10735.42355
825.923	10719.14193
826.109	10812.75086
826.295	10491.11686
826.481	10676.399
826.667	10721.17718
826.852	10749.66935
827.038	10474.82333
827.224	10755.77451
827.409	10405.56666
827.595	10466.67626
827.781	10156.93139
827.966	10352.59552
828.152	10138.58142
828.338	10138.58142
828.523	10214.01303
828.709	10377.04484
828.894	10120.23032
829.08	10199.74363
829.266	10165.08657
829.451	10238.4733
829.637	10020.29879
829.822	10142.65929
830.008	10112.07392
830.193	10110.03478
830.378	9908.08978
830.564	10114.11304
830.749	10285.35002
830.935	10438.1599
831.12	10207.89766
831.305	10299.61543
831.491	9818.29066
831.676	10313.88018
831.861	9889.72411
832.047	9867.27556
832.232	9822.37306
832.417	9830.53769
832.602	9948.89814
832.788	10040.69575
832.973	10095.76043
833.158	10073.32792
833.343	9920.3329
833.528	9955.01889
833.714	9661.07215
833.899	9965.21985
834.084	9728.46257
834.269	10075.36731
834.454	9883.60195
834.639	10006.02007
834.824	9791.75358
835.009	9755.00574
835.194	9783.58782
835.379	9712.12703
835.564	9610.00759
835.749	9852.98918
835.934	9716.21101
836.119	9605.922
836.304	9528.28393
836.489	9683.53748
836.674	9462.8867
836.859	9636.56237
837.044	9573.23506
837.228	9593.66487
837.413	9479.23754
837.598	9799.91911
837.783	9507.84905
837.968	9969.30013
838.152	9683.53748
838.337	9605.922
838.522	9571.19199
838.707	9499.67466
838.891	9188.85423
839.076	9350.44656
839.261	9207.26877
839.445	9364.75987
839.63	9389.29509
839.815	9528.28393
839.999	9143.83511
840.184	9401.56182
840.368	9434.27024
840.553	9495.58736
840.737	9454.71089
840.922	8926.80757
841.106	8947.29028
841.291	9272.73162
841.475	8922.71082
841.66	9133.60234
841.844	8734.18238
842.029	8816.17007
842.213	8703.42945
842.397	9111.08874
842.582	8719.83153
842.766	8842.80981
842.951	8611.1457
843.135	8637.80931
843.319	8457.255
843.504	8654.21613
843.688	8520.87607
843.872	8756.7319
844.056	8785.4281
844.241	8680.87467
844.425	8596.78705
844.609	8619.35022
844.793	8721.88171
844.977	8756.7319
845.161	8410.0404
845.346	8703.42945
845.53	8604.9921
845.714	8524.98003
845.898	8194.36489
846.082	8621.40131
846.266	8555.7573
846.45	8471.62265
846.634	8401.82812
846.818	8446.99182
847.002	8371.02934
847.186	8290.93205
847.37	8424.41114
847.554	8303.25664
847.738	8416.1994
847.922	8225.18894
848.106	8309.41867
848.29	8208.75
848.473	8190.25468
848.657	8346.38717
848.841	8219.02449
849.025	8093.64178
849.209	7929.09174
849.392	7809.71089
849.576	7889.99188
849.76	8003.15537
849.944	8007.26924
850.127	7906.45588
850.311	7902.34001
850.495	8194.36489
850.678	8167.64711
850.862	8260.11747
851.046	7964.06953
851.229	8083.3612
851.413	7764.41021
851.596	7838.53334
851.78	7772.64745
851.964	8161.48099
852.147	7768.52888
852.331	8001.0984
852.514	7908.51379
852.698	7805.59306
852.881	7302.58118
853.065	7624.32562
853.248	7589.28917
853.431	7642.87185
853.615	7698.50021
853.798	7966.12687
853.982	7710.85998
854.165	7871.46829
854.348	7515.07392
854.532	7517.13583
854.715	7492.39149
854.898	7805.59306
855.081	7228.25718
855.265	7702.62022
855.448	7488.26713
855.631	7642.87185
855.814	7414.01389
855.997	7546.00032
856.181	7265.42274
856.364	7640.81124
856.547	7302.58118
856.73	7513.01199
856.913	7335.60492
857.096	7248.9056
857.279	7325.2856
857.462	7414.01389
857.645	7327.34951
857.828	7381.00343
858.011	7418.13981
858.194	7517.13583
858.377	7031.98644
858.56	7370.68651
858.743	7091.92201
858.926	7294.32436
859.109	6976.1674
859.292	7238.58166
859.475	6928.60488
859.658	6899.64792
859.841	6740.30503
860.023	6889.30508
860.206	6680.25765
860.389	6974.09971
860.572	6516.58208
860.755	7029.91936
860.937	6717.53071
861.12	7005.11265
861.303	6727.88302
861.486	6802.40275
861.668	6624.3341
861.851	6632.62013
862.034	6671.97374
862.216	6754.79634
862.399	6541.45348
862.581	6686.47034
862.764	6466.82927
862.947	6808.61139
863.129	6431.5796
863.312	6506.21802
863.494	6470.97585
863.677	6707.17783
863.859	6611.90436
864.042	6727.88302
864.224	6275.98595
864.406	6273.91048
864.589	6165.95376
864.771	6504.14513
864.954	5943.61218
865.136	6483.41503
865.318	6103.64218
865.501	6159.72356
865.683	6261.45717
865.865	6373.50665
866.048	6143.10864
866.23	6381.80391
866.412	6095.33237
866.594	6134.80062
866.777	6095.33237
866.959	6458.53583
867.141	6087.02218
867.323	6045.46561
867.505	6064.16723
867.687	6047.54366
867.869	5902.02309
868.052	6091.17732
868.234	5962.3242
868.416	6089.09977
868.598	5958.16614
868.78	6097.40986
868.962	6087.02218
869.144	6149.33941
869.326	5721.00072
869.508	5868.74503
869.69	5735.57235
869.872	6136.87766
870.054	5689.77191
870.236	6238.62391
870.417	5887.46468
870.599	6195.02527
870.781	5750.14282
870.963	6111.95161
871.145	5954.00798
871.327	5756.38695
871.508	6016.3704
871.69	6005.97814
871.872	5781.36136
872.054	5889.54452
872.235	5556.46936
872.417	5818.8166
872.599	5845.86285
872.78	6161.80032
872.962	5827.13895
873.144	5693.93606
873.325	5862.50472
873.507	5914.50081
873.689	5810.49387
873.87	5652.29033
874.052	5593.97046
874.233	5785.52343
874.415	5656.45533
874.596	5727.24584
874.778	5504.37182
874.959	5593.97046
875.141	5466.85249
875.322	6026.76208
875.503	5525.2126
875.685	5856.26419
875.866	5656.45533
876.048	5635.6294
876.229	5631.46393
876.41	5504.37182
876.592	5400.13263
876.773	5698.10011
876.954	5598.13678
877.136	5600.2199
877.317	5462.6832
877.498	5596.05363
877.679	5362.59214
877.86	5546.05103
878.042	5222.79137
878.223	5760.54959
878.404	5718.91896
878.585	5773.03693
878.766	5579.38761
878.947	5785.52343
879.128	5693.93606
879.309	5735.57235
879.49	5752.22422
879.672	5770.95577
879.853	5404.30333
880.034	5546.05103
880.215	5485.61311
880.396	5623.13271
880.576	5579.38761
880.757	5922.81882
880.938	5687.6898
881.119	5764.71213
881.3	5648.12524
881.481	5829.21948
881.662	5685.60767
881.843	5947.77057
882.023	5768.87458
882.204	6064.16723
882.385	5568.97057
882.566	5852.10373
882.747	5779.28029
882.927	5947.77057
883.108	5879.14507
883.289	5868.74503
883.469	5710.59171
883.65	5587.72081
883.831	5589.80405
884.011	5902.02309
884.192	5668.94976
884.373	5958.16614
884.553	5737.65391
884.734	5918.65986
884.914	5718.91896
885.095	5827.13895
885.275	5652.29033
885.456	5831.29998
885.636	5560.63652
885.817	5993.50664
885.997	5951.92887
886.178	6089.09977
886.358	5904.10277
886.538	6003.89961
886.719	5712.67356
886.899	5835.46092
887.08	5739.73546
887.26	5710.59171
887.44	5652.29033
887.621	5902.02309
887.801	5593.97046
887.981	5593.97046
888.161	5489.78187
888.342	5579.38761
888.522	5433.49557
888.702	5718.91896
888.882	5795.9282
889.062	5839.62176
889.242	5729.32751
889.423	5633.54668
889.603	5700.1821
889.783	5910.34167
889.963	5429.32553
890.143	5791.76636
890.323	5387.61998
890.503	5671.03208
890.683	5629.38116
890.863	5779.28029
891.043	5735.57235
891.223	5714.75538
891.403	5462.6832
891.583	5691.854
891.763	5347.99101
891.943	5745.97994
892.122	5410.55919
892.302	5770.95577
892.482	5587.72081
892.662	5691.854
892.842	5485.61311
893.022	5883.30492
893.201	5660.62023
893.381	5671.03208
893.561	5410.55919
893.741	5560.63652
893.92	5514.79251
894.1	5510.6243
894.28	5072.44097
894.459	5277.05489
894.639	5304.18072
894.819	5318.7853
894.998	5181.03947
895.178	5493.95055
895.357	5268.70768
895.537	5295.83473
895.716	5231.14064
895.896	5479.35978
896.075	5237.40234
896.255	5322.95782
896.434	5293.74818
896.614	5377.19212
896.793	5001.40036
896.973	5291.6616
897.152	4894.7895
897.331	5208.17927
897.511	5018.1182
897.69	5245.75094
897.87	5103.77391
898.049	4965.87005
898.228	5053.6387
898.407	4850.87356
898.587	4794.39543
898.766	5191.47832
898.945	4811.13142
899.124	5032.7451
899.304	4928.24248
899.483	4944.96676
899.662	4838.3243
899.841	4721.1584
900.02	4453.08604
900.199	4735.80802
900.378	4576.69598
900.557	4679.29623
900.737	4840.4159
900.916	4961.68958
901.095	4520.13828
901.274	4660.45532
901.453	4365.04592
901.632	4553.65591
901.811	4327.30269
901.989	4490.8057
902.168	4442.6071
902.347	4794.39543
902.526	4331.49673
902.705	4490.8057
902.884	4335.69068
903.063	4643.70632
903.242	4230.81608
903.42	4490.8057
903.599	4216.12936
903.778	4459.37315
903.957	4098.59841
904.135	4216.12936
904.314	3821.30506
904.493	4104.89638
904.672	3930.58401
904.85	4086.0019
905.029	3796.07921
905.207	3987.30353
905.386	3785.56761
905.565	4041.90826
905.743	3999.90585
905.922	4090.20082
906.1	3846.52806
906.279	3718.28179
906.457	3644.66532
906.636	3970.49929
906.814	3629.93923
906.993	3810.79464
907.171	3446.83899
907.35	3659.39049
907.528	3516.30717
907.707	3701.45724
907.885	3274.1375
908.063	3381.56321
908.242	3213.03254
908.42	3459.47103
908.598	3200.38839
908.777	3531.04029
908.955	3111.86285
909.133	3528.93562
909.311	2751.1588
909.49	3090.78116
909.668	2938.9473
909.846	3149.80586
910.024	3196.17354
910.202	3187.74364
910.38	2909.415
910.559	3170.88306
910.737	3120.29508
910.915	3368.92723
911.093	3120.29508
911.271	3381.56321
911.449	3263.60317
911.627	3571.02567
911.805	3215.13984
911.983	3290.99155
912.161	3246.74736
912.339	3472.10242
912.517	3337.33454
912.695	3406.83328
912.872	3229.89049
913.05	3474.20759
913.228	3274.1375
913.406	3493.1533
913.584	3499.46821
913.762	3432.10079
913.939	3238.31906
914.117	3392.09272
914.295	3033.85277
914.473	3499.46821
914.65	3238.31906
914.828	3331.01553
915.006	3234.10481
915.184	3432.10079
915.361	3139.26666
915.539	3259.38932
915.716	3113.97093
915.894	3149.80586
916.072	3213.03254
916.249	3482.62809
916.427	3191.95862
916.604	3356.29062
916.782	2985.34934
916.959	3164.56007
917.137	3113.97093
917.314	3274.1375
917.492	2966.36756
917.669	3200.38839
917.847	2884.09933
918.024	3299.41816
918.201	2782.81627
918.379	3025.41797
918.556	2820.80118
918.733	3061.26415
918.911	2841.90197
919.088	3054.93868
919.265	2749.0482
919.442	3031.74409
919.62	2616.05389
919.797	3019.09171
919.974	2546.3705
920.151	3027.52669
920.328	2597.05063
920.506	2911.52454
920.683	2689.9459
920.86	2590.71599
921.037	2559.04117
921.214	2869.3309
921.391	2468.22553
921.568	2706.83332
921.745	2651.94622
921.922	2922.07205
922.099	2765.93266
922.276	2850.3419
922.453	2499.90779
922.63	2580.15801
922.807	2466.11329
922.984	2654.05742
923.161	2421.75375
923.338	2529.47561
923.514	2362.60046
923.691	2491.45944
923.868	2339.35948
924.045	2430.20355
924.222	2396.40333
924.399	2578.04638
924.575	2297.10012
924.752	2455.55193
924.929	2318.23028
925.105	2537.92315
925.282	2229.47736
925.459	2390.06549
925.635	2292.87398
925.812	2480.89874
925.989	2182.98144
926.165	2352.03652
926.342	2094.20547
926.518	2318.23028
926.695	2039.24223
926.871	2267.51632
927.048	2039.24223
927.224	2117.45765
927.401	1984.27433
927.577	2039.24223
927.754	1874.32617
927.93	2199.88952
928.107	1963.13168
928.283	1912.38688
928.459	1958.90308
928.636	2045.58438
928.812	1880.66974
928.988	1929.30218
929.165	1709.37915
929.341	1791.85583
929.517	1557.10288
929.693	1734.75718
929.87	1523.26242
930.046	1836.26381
930.222	1480.96153
930.398	1694.57509
930.574	1480.96153
930.751	1694.57509
930.927	1351.94384
931.103	1624.78266
931.279	1548.64279
931.455	1531.72256
931.631	1373.09412
931.807	1559.2179
931.983	1398.47458
932.159	1514.80227
932.335	1402.70467
932.511	1461.92607
932.687	1265.22943
932.863	1525.37746
933.039	1269.45932
933.215	1508.45714
933.391	1222.93113
933.566	1282.14905
933.742	1313.87371
933.918	1315.9887
934.094	948.03341
934.27	1112.96198
934.445	1007.23431
934.621	1203.89729
934.797	1036.83665
934.973	1098.15931
935.148	867.69844
935.324	964.94741
935.5	719.74618
935.675	825.42165
935.851	745.10599
936.027	804.2846
936.202	637.33786
936.378	829.64917
936.553	660.57945
936.729	666.91831
936.904	540.16233
937.08	690.1617
937.255	525.37723
937.431	474.69081
937.606	364.90064
937.782	535.93795
937.957	512.70485
938.133	432.45872
938.308	297.36
938.483	335.34939
938.659	331.12806
938.834	354.34623
939.009	288.91871
939.185	390.23295
939.36	280.47771
939.535	350.12459
939.71	305.80158
939.886	318.4645
940.061	238.27725
940.236	293.13931
940.411	301.58075
940.586	229.83807
940.761	301.58075
940.937	288.91871
941.112	314.24345
941.287	293.13931
941.462	305.80158
941.637	223.5089
941.812	208.74152
941.987	217.1799
942.162	219.28955
942.337	183.42829
942.512	189.75633
942.687	181.31899
942.862	172.88198
943.037	105.39804
943.212	242.49695
943.386	191.86571
943.561	196.08454
943.736	250.93658
943.911	189.75633
944.086	200.30345
944.26	153.89993
944.435	189.75633
944.61	196.08454
944.785	103.28953
944.959	130.70195
945.134	204.52245
945.309	153.89993
945.483	198.19399
945.658	126.48442
945.833	124.37568
946.007	137.02842
946.182	128.59318
946.357	124.37568
946.531	156.00896
946.706	94.85568
946.88	206.63197
947.055	196.08454
947.229	151.79091
947.404	162.33619
947.578	160.22709
947.752	134.91958
947.927	189.75633
948.101	63.23193
948.276	156.00896
948.45	179.20971
948.624	158.11802
948.799	183.42829
948.973	170.77278
949.147	105.39804
949.321	276.25732
949.496	181.31899
949.67	206.63197
949.844	145.464
950.018	255.15652
950.193	170.77278
950.367	166.55444
950.541	185.53762
950.715	96.96411
950.889	257.26651
951.063	206.63197
951.237	139.13728
951.411	238.27725
951.585	162.33619
951.759	265.70668
951.933	234.05762
952.107	246.71673
952.281	170.77278
952.455	183.42829
952.629	189.75633
952.803	193.97512
952.977	137.02842
953.151	221.39921
953.325	122.26697
953.499	179.20971
953.672	170.77278
953.846	162.33619
954.02	124.37568
954.194	229.83807
954.368	183.42829
954.541	269.92688
954.715	234.05762
954.889	242.49695
955.062	174.9912
955.236	145.464
955.41	229.83807
955.583	206.63197
955.757	212.96067
955.93	170.77278
956.104	223.5089
956.278	204.52245
956.451	221.39921
956.625	193.97512
956.798	158.11802
956.972	221.39921
957.145	122.26697
957.319	221.39921
957.492	208.74152
957.665	158.11802
957.839	183.42829
958.012	219.28955
958.185	255.15652
958.359	170.77278
958.532	212.96067
958.705	240.38709
958.879	215.07028
959.052	217.1799
959.225	212.96067
959.398	179.20971
959.572	225.6186
959.745	229.83807
959.918	137.02842
960.091	132.81075
960.264	130.70195
960.438	212.96067
960.611	120.15828
960.784	204.52245
960.957	147.57295
961.13	177.10045
961.303	204.52245
961.476	183.42829
961.649	189.75633
961.822	189.75633
961.995	115.94096
962.168	153.89993
962.341	149.68192
962.514	221.39921
962.686	111.72373
962.859	128.59318
963.032	158.11802
963.205	158.11802
963.378	153.89993
963.551	130.70195
963.723	187.64696
963.896	170.77278
964.069	179.20971
964.242	196.08454
964.414	145.464
964.587	147.57295
964.76	111.72373
964.932	234.05762
965.105	139.13728
965.278	162.33619
965.45	90.63889
965.623	158.11802
965.795	189.75633
965.968	174.9912
966.14	204.52245
966.313	183.42829
966.485	172.88198
966.658	145.464
966.83	141.24617
967.003	187.64696
967.175	151.79091
967.348	187.64696
967.52	189.75633
967.692	162.33619
967.865	111.72373
968.037	149.68192
968.209	187.64696
968.382	191.86571
968.554	109.61514
968.726	128.59318
968.898	160.22709
969.071	120.15828
969.243	77.98905
969.415	37.93663
969.587	128.59318
969.759	132.81075
969.932	99.07256
970.104	128.59318
970.276	141.24617
970.448	196.08454
970.62	54.79979
970.792	134.91958
970.964	99.07256
971.136	212.96067
971.308	217.1799
971.48	137.02842
971.652	153.89993
971.824	145.464
971.996	54.79979
972.168	179.20971
972.339	170.77278
972.511	107.50658
972.683	196.08454
972.855	69.55627
973.027	120.15828
973.199	56.90779
973.37	143.35507
973.542	107.50658
973.714	132.81075
973.886	177.10045
974.057	132.81075
974.229	82.20557
974.401	141.24617
974.572	21.07496
974.744	92.74727
974.915	37.93663
975.087	99.07256
975.259	71.66443
975.43	88.53052
975.602	82.20557
975.773	54.79979
975.945	84.31387
976.116	65.34002
976.288	103.28953
976.459	73.77262
976.63	71.66443
976.802	94.85568
976.973	103.28953
977.145	94.85568
977.316	128.59318
977.487	71.66443
977.659	61.12386
977.83	61.12386
978.001	27.39791
978.172	69.55627
978.344	54.79979
978.515	113.83233
978.686	111.72373
978.857	29.5056
979.028	27.39791
979.2	31.61332
979.371	27.39791
979.542	103.28953
979.713	44.26014
979.884	162.33619
980.055	63.23193
980.226	96.96411
980.397	-2.10736
980.568	94.85568
980.739	37.93663
980.91	90.63889
981.081	86.42218
981.252	94.85568
981.423	54.79979
981.594	77.98905
981.765	94.85568
981.936	48.47593
982.106	111.72373
982.277	84.31387
982.448	52.69182
982.619	52.69182
982.79	107.50658
982.96	-29.50088
983.131	132.81075
983.302	27.39791
983.472	105.39804
983.643	118.04961
983.814	59.01582
983.984	80.0973
984.155	44.26014
984.326	113.83233
984.496	-6.32202
984.667	77.98905
984.837	29.5056
985.008	80.0973
985.178	94.85568
985.349	101.18103
985.519	14.75222
985.69	46.36803
985.86	65.34002
986.031	-4.2147
986.201	107.50658
986.371	90.63889
986.542	29.5056
986.712	61.12386
986.882	61.12386
987.053	2.10739
987.223	-6.32202
987.393	18.96735
987.563	56.90779
987.734	10.53718
987.904	52.69182
988.074	31.61332
988.244	46.36803
988.414	86.42218
988.585	54.79979
988.755	61.12386
988.925	8.4297
989.095	44.26014
989.265	-29.50088
989.435	31.61332
989.605	27.39791
989.775	71.66443
989.945	10.53718
990.115	103.28953
990.285	10.53718
990.455	27.39791
990.625	69.55627
990.795	77.98905
990.965	35.82884
991.134	54.79979
991.304	69.55627
991.474	77.98905
991.644	128.59318
991.814	61.12386
991.984	54.79979
992.153	46.36803
992.323	86.42218
992.493	-2.10736
992.662	69.55627
992.832	69.55627
993.002	4.2148
993.171	14.75222
993.341	-18.9654
993.511	124.37568
993.68	63.23193
993.85	90.63889
994.019	65.34002
994.189	52.69182
994.358	35.82884
994.528	14.75222
994.697	4.2148
994.867	21.07496
995.036	4.2148
995.206	80.0973
995.375	86.42218
995.544	2.10739
995.714	90.63889
995.883	54.79979
996.052	12.64469
996.222	10.53718
996.391	10.53718
996.56	96.96411
996.73	-31.6079
996.899	31.61332
997.068	21.07496
997.237	-4.2147
997.406	-10.53658
997.576	-4.2147
997.745	77.98905
997.914	88.53052
998.083	18.96735
998.252	-42.14263
998.421	61.12386
998.59	-0
998.759	-0
998.928	-33.71489
999.097	29.5056
999.266	-14.75104
999.435	-14.75104
999.604	-40.03573
999.773	21.07496
999.942	23.18258
1000.111	-33.71489
1000.28	-21.07254
1000.448	-46.35635
1000.617	-18.9654
1000.786	52.69182
1000.955	35.82884
1001.124	-56.89021
1001.292	80.0973
1001.461	-25.28676
1001.63	35.82884
1001.798	86.42218
1001.967	84.31387
1002.136	-4.2147
1002.304	37.93663
1002.473	-18.9654
1002.642	37.93663
1002.81	21.07496
1002.979	113.83233
1003.147	105.39804
1003.316	-65.31684
1003.484	35.82884
1003.653	73.77262
1003.821	-29.50088
1003.99	86.42218
1004.158	-31.6079
1004.327	48.47593
1004.495	-14.75104
1004.663	4.2148
1004.832	48.47593
1005	6.32224
1005.168	29.5056
1005.337	18.96735
1005.505	69.55627
1005.673	2.10739
1005.842	48.47593
1006.01	-23.17966
1006.178	-44.2495
1006.346	-21.07254
1006.514	27.39791
1006.683	27.39791
1006.851	56.90779
1007.019	2.10739
1007.187	44.26014
1007.355	40.04444
1007.523	-14.75104
1007.691	-8.42931
1007.859	-50.56997
1008.027	-12.64382
1008.195	-12.64382
1008.363	48.47593
1008.531	35.82884
1008.699	21.07496
1008.867	-12.64382
1009.035	21.07496
1009.203	-29.50088
1009.37	-31.6079
1009.538	14.75222
1009.706	-6.32202
1009.874	2.10739
1010.042	-14.75104
1010.209	12.64469
1010.377	-14.75104
1010.545	77.98905
1010.713	37.93663
1010.88	-29.50088
1011.048	2.10739
1011.216	-10.53658
1011.383	-4.2147
1011.551	61.12386
1011.718	33.72107
1011.886	54.79979
1012.054	-40.03573
1012.221	23.18258
1012.389	44.26014
1012.556	-44.2495
1012.724	2.10739
1012.891	31.61332
1013.058	14.75222
1013.226	27.39791
1013.393	4.2148
1013.561	29.5056
1013.728	37.93663
1013.895	18.96735
1014.063	-27.39383
1014.23	18.96735
1014.397	71.66443
1014.565	12.64469
1014.732	10.53718
1014.899	-37.92881
1015.066	35.82884
1015.233	27.39791
1015.401	18.96735
1015.568	61.12386
1015.735	52.69182
1015.902	-2.10736
1016.069	12.64469
1016.236	27.39791
1016.403	-31.6079
1016.57	-56.89021
1016.737	23.18258
1016.904	12.64469
1017.071	-23.17966
1017.238	18.96735
1017.405	-12.64382
1017.572	-46.35635
1017.739	-18.9654
1017.906	-6.32202
1018.073	-31.6079
1018.24	63.23193
1018.407	61.12386
1018.573	-4.2147
1018.74	46.36803
1018.907	-8.42931
1019.074	61.12386
1019.241	44.26014
1019.407	-10.53658
1019.574	-82.16888
1019.741	-40.03573
1019.907	-6.32202
1020.074	40.04444
1020.241	18.96735
1020.407	27.39791
1020.574	4.2148
1020.74	-54.78349
1020.907	8.4297
1021.073	44.26014
1021.24	-37.92881
1021.406	-56.89021
1021.573	23.18258
1021.739	-8.42931
1021.906	-29.50088
1022.072	29.5056
1022.239	-29.50088
1022.405	10.53718
1022.571	29.5056
1022.738	-61.10358
1022.904	27.39791
1023.07	-33.71489
1023.237	10.53718
1023.403	2.10739
1023.569	-29.50088
1023.735	52.69182
1023.902	-23.17966
1024.068	2.10739
1024.234	-48.46317
1024.4	96.96411
1024.566	63.23193
1024.732	35.82884
1024.898	18.96735
1025.065	18.96735
1025.231	6.32224
1025.397	33.72107
1025.563	-6.32202
1025.729	-31.6079
1025.895	2.10739
1026.061	6.32224
1026.227	-42.14263
1026.392	-4.2147
1026.558	29.5056
1026.724	-4.2147
1026.89	37.93663
1027.056	-37.92881
1027.222	4.2148
1027.388	-8.42931
1027.553	18.96735
1027.719	-56.89021
1027.885	31.61332
1028.051	90.63889
1028.216	-48.46317
1028.382	12.64469
1028.548	31.61332
1028.713	-40.03573
1028.879	103.28953
1029.045	50.58386
1029.21	-14.75104
1029.376	-27.39383
1029.541	84.31387
1029.707	-4.2147
1029.873	-29.50088
1030.038	-35.82187
1030.204	-27.39383
1030.369	12.64469
1030.534	67.44814
1030.7	54.79979
1030.865	16.85977
1031.031	-2.10736
1031.196	-12.64382
1031.361	-23.17966
1031.527	-6.32202
1031.692	46.36803
1031.857	35.82884
1032.023	-23.17966
1032.188	-18.9654
1032.353	27.39791
1032.518	-0
1032.684	-6.32202
1032.849	-40.03573
1033.014	-2.10736
1033.179	42.15228
1033.344	65.34002
1033.509	-8.42931
1033.674	-48.46317
1033.839	-18.9654
1034.004	8.4297
1034.17	-21.07254
1034.335	27.39791
1034.5	10.53718
1034.664	-48.46317
1034.829	18.96735
1034.994	-2.10736
1035.159	-12.64382
1035.324	-46.35635
1035.489	-27.39383
1035.654	18.96735
1035.819	21.07496
1035.984	86.42218
1036.148	-23.17966
1036.313	10.53718
1036.478	-37.92881
1036.643	40.04444
1036.807	18.96735
1036.972	-21.07254
1037.137	-31.6079
1037.301	46.36803
1037.466	-6.32202
1037.631	16.85977
1037.795	27.39791
1037.96	21.07496
1038.124	6.32224
1038.289	-33.71489
1038.454	-14.75104
1038.618	-4.2147
1038.783	-8.42931
1038.947	14.75222
1039.111	-48.46317
1039.276	40.04444
1039.44	4.2148
1039.605	-14.75104
1039.769	-69.53
1039.933	67.44814
1040.098	-6.32202
1040.262	12.64469
1040.426	27.39791
1040.591	-12.64382
1040.755	4.2148
1040.919	44.26014
1041.083	-2.10736
1041.248	14.75222
1041.412	8.4297
1041.576	46.36803
1041.74	-40.03573
1041.904	-2.10736
1042.068	46.36803
1042.232	75.88082
1042.397	69.55627
1042.561	12.64469
1042.725	-10.53658
1042.889	56.90779
1043.053	-12.64382
1043.217	-21.07254
1043.381	44.26014
1043.544	-4.2147
1043.708	52.69182
1043.872	-48.46317
1044.036	27.39791
1044.2	46.36803
1044.364	10.53718
1044.528	52.69182
1044.691	-2.10736
1044.855	35.82884
1045.019	-12.64382
1045.183	-37.92881
1045.346	31.61332
1045.51	10.53718
1045.674	-46.35635
1045.837	128.59318
1046.001	-18.9654
1046.165	-6.32202
1046.328	2.10739
1046.492	-31.6079
1046.655	10.53718
1046.819	-40.03573
1046.983	-44.2495
1047.146	-2.10736
1047.31	-67.42343
1047.473	-31.6079
1047.636	-48.46317
1047.8	35.82884
1047.963	-12.64382
1048.127	23.18258
1048.29	61.12386
