Data from mixed_try1_USB4F045381__23__00088.txt Node

Date: Thu Apr 03 19:53:11 EDT 2025
User: mmckonesweet
Spectrometer: USB4F04538
Trigger mode: 4
Integration Time (sec): 2.700000E-3
Scans to average: 1
Electric dark correction enabled: true
Nonlinearity correction enabled: true
Boxcar width: 0
XAxis mode: Wavelengths
Number of Pixels in Spectrum: 3648
>>>>>Begin Spectral Data<<<<<
345.52	30.20817
345.736	30.20817
345.952	30.20817
346.168	7.02472
346.384	0.70246
346.6	-16.15583
346.816	-24.5844
347.032	28.10047
347.248	-43.54722
347.464	-16.15583
347.68	11.23968
347.896	47.07066
348.112	9.13219
348.328	-37.2265
348.544	44.96277
348.76	-24.5844
348.975	21.7775
349.191	4.91728
349.407	2.80986
349.623	-54.08124
349.839	-24.5844
350.055	0.70246
350.27	11.23968
350.486	17.5623
350.702	38.63923
350.918	30.20817
351.133	-39.33343
351.349	4.91728
351.565	15.45473
351.781	-24.5844
351.996	76.58356
352.212	-39.33343
352.428	-16.15583
352.644	-51.97449
352.859	-3.51226
353.075	-3.51226
353.291	13.34719
353.506	17.5623
353.722	0.70246
353.938	51.28651
354.153	-66.72124
354.369	-26.69148
354.584	-16.15583
354.8	-18.26301
355.016	-45.65407
355.231	-26.69148
355.447	-7.72688
355.662	-16.15583
355.878	53.39447
356.093	76.58356
356.309	44.96277
356.524	-77.25387
356.74	-64.61464
356.955	72.36716
357.171	47.07066
357.386	25.99279
357.602	-39.33343
357.817	-7.72688
358.033	-30.90556
358.248	34.42366
358.464	-7.72688
358.679	-39.33343
358.895	-14.04863
359.11	-58.29468
359.325	2.80986
359.541	-49.86771
359.756	-24.5844
359.972	-45.65407
360.187	-49.86771
360.402	-33.01256
360.618	-24.5844
360.833	-24.5844
361.048	-37.2265
361.264	-7.72688
361.479	-5.61958
361.694	95.55848
361.909	34.42366
362.125	-3.51226
362.34	112.42659
362.555	-22.47729
362.77	25.99279
362.986	-3.51226
363.201	42.8549
363.416	9.13219
363.631	-41.44034
363.847	11.23968
364.062	36.53143
364.277	-22.47729
364.492	-24.5844
364.707	-20.37016
364.922	25.99279
365.138	-37.2265
365.353	44.96277
365.568	36.53143
365.783	-11.94141
365.998	68.15085
366.213	-11.94141
366.428	-43.54722
366.643	51.28651
366.858	-11.94141
367.073	-16.15583
367.288	17.5623
367.503	-11.94141
367.718	66.04272
367.933	-26.69148
368.148	-11.94141
368.363	-28.79853
368.578	11.23968
368.793	2.80986
369.008	9.13219
369.223	-119.37791
369.438	-11.94141
369.653	4.91728
369.868	-28.79853
370.083	38.63923
370.298	-24.5844
370.513	-26.69148
370.728	34.42366
370.943	21.7775
371.157	13.34719
371.372	-58.29468
371.587	-16.15583
371.802	17.5623
372.017	-66.72124
372.232	4.91728
372.446	42.8549
372.661	30.20817
372.876	25.99279
373.091	51.28651
373.306	36.53143
373.52	30.20817
373.735	-24.5844
373.95	17.5623
374.165	-14.04863
374.379	61.82655
374.594	-45.65407
374.809	40.74705
375.023	25.99279
375.238	-20.37016
375.453	110.318
375.667	38.63923
375.882	-24.5844
376.097	59.7185
376.311	76.58356
376.526	0.70246
376.741	11.23968
376.955	19.66988
377.17	85.01664
377.384	17.5623
377.599	51.28651
377.813	25.99279
378.028	-20.37016
378.242	-70.93437
378.457	51.28651
378.672	-5.61958
378.886	-39.33343
379.101	51.28651
379.315	2.80986
379.53	-33.01256
379.744	-64.61464
379.958	17.5623
380.173	-14.04863
380.387	-7.72688
380.602	15.45473
380.816	-47.7609
381.031	13.34719
381.245	42.8549
381.459	-35.11954
381.674	17.5623
381.888	-16.15583
382.103	-30.90556
382.317	-37.2265
382.531	70.25899
382.746	-87.78586
382.96	23.88513
383.174	38.63923
383.388	-16.15583
383.603	-14.04863
383.817	2.80986
384.031	0.70246
384.246	57.61047
384.46	-33.01256
384.674	-28.79853
384.888	-28.79853
385.103	9.13219
385.317	25.99279
385.531	-20.37016
385.745	9.13219
385.959	80.80005
386.174	0.70246
386.388	44.96277
386.602	-1.40491
386.816	34.42366
387.03	2.80986
387.244	-62.50801
387.458	-9.83416
387.672	30.20817
387.887	4.91728
388.101	59.7185
388.315	-66.72124
388.529	-58.29468
388.743	-24.5844
388.957	-3.51226
389.171	34.42366
389.385	0.70246
389.599	-1.40491
389.813	-11.94141
390.027	-16.15583
390.241	-14.04863
390.455	9.13219
390.669	-5.61958
390.883	-14.04863
391.097	-41.44034
391.311	-39.33343
391.525	61.82655
391.738	36.53143
391.952	7.02472
392.166	-16.15583
392.38	9.13219
392.594	93.45007
392.808	28.10047
393.022	30.20817
393.236	36.53143
393.449	28.10047
393.663	-1.40491
393.877	-56.18797
394.091	34.42366
394.305	2.80986
394.518	-3.51226
394.732	32.3159
394.946	17.5623
395.16	-45.65407
395.373	51.28651
395.587	-16.15583
395.801	-7.72688
396.015	23.88513
396.228	44.96277
396.442	34.42366
396.656	17.5623
396.869	25.99279
397.083	47.07066
397.297	-39.33343
397.51	-30.90556
397.724	-35.11954
397.938	7.02472
398.151	-33.01256
398.365	-16.15583
398.578	-20.37016
398.792	-33.01256
399.005	-94.10474
399.219	70.25899
399.433	66.04272
399.646	13.34719
399.86	4.91728
400.073	9.13219
400.287	-28.79853
400.5	-39.33343
400.714	30.20817
400.927	-26.69148
401.141	44.96277
401.354	-16.15583
401.567	-33.01256
401.781	-11.94141
401.994	38.63923
402.208	-28.79853
402.421	-62.50801
402.635	-51.97449
402.848	55.50246
403.061	4.91728
403.275	4.91728
403.488	42.8549
403.701	19.66988
403.915	76.58356
404.128	-20.37016
404.341	-49.86771
404.555	-24.5844
404.768	-41.44034
404.981	-18.26301
405.195	-56.18797
405.408	-7.72688
405.621	11.23968
405.834	34.42366
406.048	11.23968
406.261	38.63923
406.474	87.12496
406.687	9.13219
406.9	-16.15583
407.114	-16.15583
407.327	-20.37016
407.54	19.66988
407.753	-9.83416
407.966	-5.61958
408.179	61.82655
408.392	0.70246
408.605	23.88513
408.819	4.91728
409.032	-30.90556
409.245	95.55848
409.458	-7.72688
409.671	17.5623
409.884	82.90833
410.097	-24.5844
410.31	13.34719
410.523	9.13219
410.736	25.99279
410.949	-7.72688
411.162	0.70246
411.375	-24.5844
411.588	9.13219
411.801	0.70246
412.014	34.42366
412.227	9.13219
412.44	-5.61958
412.653	-30.90556
412.865	-1.40491
413.078	-87.78586
413.291	95.55848
413.504	-24.5844
413.717	51.28651
413.93	51.28651
414.143	21.7775
414.356	25.99279
414.568	-41.44034
414.781	4.91728
414.994	2.80986
415.207	-22.47729
415.42	-26.69148
415.632	11.23968
415.845	0.70246
416.058	-11.94141
416.271	51.28651
416.483	38.63923
416.696	21.7775
416.909	110.318
417.121	34.42366
417.334	59.7185
417.547	34.42366
417.759	-24.5844
417.972	34.42366
418.185	9.13219
418.397	-79.36032
418.61	2.80986
418.823	-7.72688
419.035	0.70246
419.248	68.15085
419.46	13.34719
419.673	-7.72688
419.885	21.7775
420.098	51.28651
420.311	32.3159
420.523	68.15085
420.736	68.15085
420.948	-1.40491
421.161	-28.79853
421.373	-11.94141
421.586	61.82655
421.798	-7.72688
422.01	-3.51226
422.223	95.55848
422.435	21.7775
422.648	68.15085
422.86	36.53143
423.073	-39.33343
423.285	-24.5844
423.497	17.5623
423.71	-3.51226
423.922	-56.18797
424.134	-30.90556
424.347	40.74705
424.559	-28.79853
424.771	42.8549
424.984	9.13219
425.196	2.80986
425.408	-24.5844
425.621	-5.61958
425.833	28.10047
426.045	-39.33343
426.257	51.28651
426.47	61.82655
426.682	13.34719
426.894	-43.54722
427.106	-24.5844
427.318	51.28651
427.531	51.28651
427.743	59.7185
427.955	9.13219
428.167	36.53143
428.379	19.66988
428.591	23.88513
428.804	0.70246
429.016	25.99279
429.228	28.10047
429.44	36.53143
429.652	-16.15583
429.864	108.20943
430.076	-7.72688
430.288	0.70246
430.5	36.53143
430.712	11.23968
430.924	0.70246
431.136	-20.37016
431.348	76.58356
431.56	-24.5844
431.772	36.53143
431.984	-7.72688
432.196	-5.61958
432.408	9.13219
432.62	53.39447
432.832	57.61047
433.044	25.99279
433.256	-33.01256
433.468	9.13219
433.679	114.5352
433.891	34.42366
434.103	28.10047
434.315	-91.99847
434.527	36.53143
434.739	-7.72688
434.95	34.42366
435.162	11.23968
435.374	34.42366
435.586	36.53143
435.798	-20.37016
436.009	-20.37016
436.221	30.20817
436.433	74.47535
436.645	36.53143
436.856	-9.83416
437.068	9.13219
437.28	-24.5844
437.491	-16.15583
437.703	30.20817
437.915	42.8549
438.126	0.70246
438.338	-43.54722
438.55	7.02472
438.761	25.99279
438.973	40.74705
439.184	17.5623
439.396	28.10047
439.608	53.39447
439.819	51.28651
440.031	4.91728
440.242	17.5623
440.454	-7.72688
440.665	47.07066
440.877	53.39447
441.088	49.17857
441.3	0.70246
441.511	47.07066
441.723	28.10047
441.934	-20.37016
442.146	17.5623
442.357	2.80986
442.569	-49.86771
442.78	-3.51226
442.991	-7.72688
443.203	13.34719
443.414	80.80005
443.626	101.88386
443.837	51.28651
444.048	-22.47729
444.26	87.12496
444.471	-5.61958
444.682	55.50246
444.894	9.13219
445.105	17.5623
445.316	21.7775
445.528	-24.5844
445.739	76.58356
445.95	51.28651
446.161	-16.15583
446.373	19.66988
446.584	-14.04863
446.795	44.96277
447.006	112.42659
447.217	61.82655
447.429	34.42366
447.64	38.63923
447.851	11.23968
448.062	25.99279
448.273	17.5623
448.484	59.7185
448.695	11.23968
448.907	30.20817
449.118	59.7185
449.329	17.5623
449.54	-7.72688
449.751	38.63923
449.962	42.8549
450.173	-7.72688
450.384	9.13219
450.595	0.70246
450.806	0.70246
451.017	17.5623
451.228	-7.72688
451.439	61.82655
451.65	-7.72688
451.861	-24.5844
452.072	9.13219
452.283	2.80986
452.494	11.23968
452.705	-7.72688
452.915	-60.40135
453.126	-33.01256
453.337	87.12496
453.548	-5.61958
453.759	57.61047
453.97	144.05805
454.181	15.45473
454.391	61.82655
454.602	61.82655
454.813	19.66988
455.024	7.02472
455.235	63.93463
455.445	-5.61958
455.656	47.07066
455.867	108.20943
456.078	11.23968
456.288	101.88386
456.499	2.80986
456.71	-16.15583
456.921	34.42366
457.131	34.42366
457.342	68.15085
457.553	97.66692
457.763	53.39447
457.974	93.45007
458.184	129.2961
458.395	-22.47729
458.606	51.28651
458.816	-5.61958
459.027	70.25899
459.237	-66.72124
459.448	49.17857
459.659	61.82655
459.869	38.63923
460.08	17.5623
460.29	112.42659
460.501	89.23331
460.711	44.96277
460.922	55.50246
461.132	101.88386
461.343	89.23331
461.553	34.42366
461.764	129.2961
461.974	9.13219
462.184	61.82655
462.395	47.07066
462.605	61.82655
462.816	51.28651
463.026	72.36716
463.236	0.70246
463.447	0.70246
463.657	59.7185
463.867	85.01664
464.078	34.42366
464.288	57.61047
464.498	4.91728
464.709	0.70246
464.919	70.25899
465.129	59.7185
465.339	103.99236
465.55	76.58356
465.76	68.15085
465.97	38.63923
466.18	68.15085
466.391	78.6918
466.601	61.82655
466.811	47.07066
467.021	93.45007
467.231	95.55848
467.441	85.01664
467.651	70.25899
467.862	95.55848
468.072	82.90833
468.282	137.73137
468.492	127.18734
468.702	61.82655
468.912	53.39447
469.122	34.42366
469.332	169.36666
469.542	112.42659
469.752	135.62252
469.962	55.50246
470.172	110.318
470.382	68.15085
470.592	137.73137
470.802	106.10089
471.012	160.93012
471.222	131.40488
471.432	118.75249
471.642	188.35008
471.852	139.84024
472.062	146.16698
472.272	118.75249
472.482	150.38492
472.691	211.55428
472.901	203.11611
473.111	209.44471
473.321	186.24073
473.531	247.42003
473.741	205.22562
473.95	257.96985
474.16	171.47585
474.37	177.80353
474.58	207.33515
474.79	219.99277
474.999	228.43158
475.209	175.69428
475.419	211.55428
475.628	300.17382
475.838	266.41005
476.048	228.43158
476.258	264.29997
476.467	317.05747
476.677	380.38121
476.886	241.09037
477.096	420.4941
477.306	346.60661
477.515	281.18111
477.725	384.60334
477.935	329.72097
478.144	329.72097
478.354	416.27141
478.563	452.16626
478.773	371.93715
478.982	397.27012
479.192	477.5065
479.401	414.16009
479.611	331.83161
479.82	471.17124
480.03	515.52089
480.239	526.08127
480.449	441.60848
480.658	526.08127
480.868	559.87685
481.077	642.26777
481.287	458.50112
481.496	559.87685
481.705	671.84861
481.915	600.01358
482.124	667.62264
482.333	638.04213
482.543	692.97918
482.752	796.53458
482.961	752.15065
483.171	703.54489
483.38	663.39671
483.589	900.11294
483.799	855.71966
484.008	790.19376
484.217	800.76185
484.426	887.42878
484.636	847.26422
484.845	1039.65598
485.054	1007.93912
485.263	1031.19802
485.472	895.88486
485.682	1031.19802
485.891	1086.17637
486.1	1069.25957
486.309	1136.92868
486.518	1172.87977
486.727	1067.14499
486.936	1096.74954
487.146	1166.53538
487.355	1284.969
487.564	1200.37253
487.773	1392.83446
487.982	1312.46372
488.191	1361.10895
488.4	1327.2687
488.609	1409.75482
488.818	1401.29464
489.027	1511.2772
489.236	1557.80789
489.445	1462.63109
489.654	1488.0117
489.863	1640.29233
490.072	1589.533
490.281	1741.80654
490.49	1633.94748
490.698	1792.56073
490.907	1642.40727
491.116	1767.18392
491.325	1665.6715
491.534	1801.01954
491.743	1860.22919
491.952	1784.10186
492.16	1963.83644
492.369	1944.80755
492.578	1877.14554
492.787	1938.46448
492.996	2135.07233
493.204	2080.11279
493.413	2054.74517
493.622	2107.5932
493.831	2164.66374
494.039	2202.70749
494.248	2097.02396
494.457	2124.50359
494.665	2225.95509
494.874	2411.89543
495.083	2375.98107
495.291	2534.40336
495.5	2473.15405
495.709	2490.05136
495.917	2272.44708
496.126	2739.19853
496.335	2544.96262
496.543	2663.20581
496.752	2367.5302
496.96	2644.20504
497.169	2563.96854
497.377	2675.87243
497.586	2608.31194
497.794	2690.64956
498.003	2623.09188
498.211	2722.31272
498.42	2705.42607
498.628	2903.78948
498.837	2680.09453
499.045	2823.6147
499.254	2722.31272
499.462	2960.7431
499.671	2926.9941
499.879	2992.37932
500.087	2920.66574
500.296	3013.46825
500.504	3011.35943
500.713	3163.15494
500.921	3099.91676
501.129	3070.4007
501.338	3129.42971
501.546	3205.30563
501.754	3190.55363
501.962	3316.97273
502.171	3190.55363
502.379	3342.24921
502.587	3228.4857
502.795	3363.31104
503.004	3247.44971
503.212	3445.43539
503.42	3312.75974
503.628	3489.64495
503.837	3407.53519
504.045	3523.32305
504.253	3624.32905
504.461	3519.11355
504.669	3472.80415
504.877	3737.90887
505.085	3599.08158
505.294	3727.39457
505.502	3582.24843
505.71	3895.5646
505.918	3660.09166
506.126	3889.26051
506.334	3708.46762
506.542	3931.28434
506.75	3800.98446
506.958	3784.16602
507.166	3746.31997
507.374	4124.48886
507.582	4013.20751
507.79	4162.2692
507.998	3952.29323
508.206	4053.10751
508.414	4006.90683
508.622	4128.68701
508.83	4200.04272
509.037	4216.82876
509.245	4042.60823
509.453	4229.41739
509.661	4155.97295
509.869	4235.71141
510.077	4072.00491
510.285	4522.93163
510.492	4328.0017
510.7	4468.45417
510.908	4111.8939
511.116	4617.18413
511.324	4514.55145
511.531	4365.7448
511.739	4290.2516
511.947	4460.0717
512.155	4510.36123
512.362	4432.82625
512.57	4422.34625
512.778	4554.35413
512.985	4460.0717
513.193	4516.64653
513.401	4499.88529
513.608	4627.65384
513.816	4656.96606
514.024	4698.83303
514.231	4650.68524
514.439	4769.98617
514.646	4753.24661
514.854	4912.21366
515.061	4757.43164
515.269	5008.36631
515.477	4740.69099
515.684	4912.21366
515.892	4778.35541
516.099	4924.75806
516.307	5002.09697
516.514	4920.57669
516.722	4885.03127
516.929	5269.4033
517.136	4933.12055
517.344	4983.2877
517.551	5068.95921
517.759	5162.94409
517.966	5119.09033
518.173	5142.06262
518.381	5181.73541
518.588	5183.82322
518.796	5167.1201
519.003	5432.10556
519.21	5409.16902
519.418	5430.02054
519.625	5217.22499
519.832	5502.98235
520.039	5258.96881
520.247	5384.14409
520.454	5563.41458
520.661	5677.97298
520.868	5590.49846
521.076	5682.13739
521.283	5573.83193
521.49	5813.26816
521.697	5492.561
521.904	5784.13608
522.112	5602.99737
522.319	5994.19953
522.526	5734.18462
522.733	5784.13608
522.94	5761.24335
523.147	5883.99822
523.354	5767.48711
523.561	6120.95307
523.768	6091.86984
523.975	5981.72723
524.183	5725.85806
524.39	6050.31436
524.597	6077.32649
524.804	6210.25137
525.011	6135.49297
525.218	6137.57
525.425	6233.08815
525.632	5960.93819
525.838	6071.09328
526.045	6266.30022
526.252	6172.87597
526.459	6598.09257
526.666	6459.22697
526.873	6386.6438
527.08	6434.34452
527.287	6523.49114
527.494	6386.6438
527.701	6724.43231
527.907	6482.03294
528.114	6488.25226
528.321	6465.44705
528.528	6699.58535
528.735	6697.51462
528.941	6689.23147
529.148	6382.49533
529.355	6676.80607
529.562	6453.00667
529.768	6858.96279
529.975	6457.15356
530.182	6709.93865
530.388	6720.29138
530.595	6662.30871
530.802	6720.29138
531.008	7102.94259
531.215	6921.02134
531.422	7028.5413
531.628	6780.32592
531.835	6935.49874
532.042	6749.27597
532.248	7226.88054
532.455	7065.74557
532.661	7297.07667
532.868	6997.53218
533.074	7235.14023
533.281	7251.65855
533.487	7453.89412
533.694	7251.65855
533.9	7507.5134
534.107	7088.47795
534.313	7346.61159
534.52	7330.10135
534.726	7458.0192
534.933	7464.20665
535.139	7602.34268
535.345	7532.25585
535.552	7622.95176
535.758	7406.44949
535.965	7517.82313
536.171	7493.07888
536.377	7641.49811
536.584	7433.26743
536.79	7631.1948
536.996	7752.74022
537.203	7573.48639
537.409	7594.09846
537.615	7839.21954
537.821	7878.32908
538.028	7876.27087
538.234	7841.27812
538.44	7952.41093
538.646	7993.55602
538.853	8129.27721
539.059	7855.68762
539.265	8357.33959
539.471	7981.21335
539.677	8096.38318
539.883	8234.09283
540.09	7993.55602
540.296	8110.77495
540.502	8182.71909
540.708	8279.29151
540.914	8371.7138
541.12	8338.85707
541.326	8546.1826
541.532	8137.49992
541.738	8408.67171
541.944	8570.80241
542.15	8519.50807
542.356	8384.0338
542.562	8654.89972
542.768	8371.7138
542.974	8478.46406
543.18	8431.25401
543.386	8663.10266
543.592	8757.41519
543.798	8782.01207
544.004	8679.50764
544.21	8671.3053
544.415	8784.0617
544.621	8929.5387
544.827	8646.69649
545.033	9054.45439
545.239	8995.0764
545.445	9158.8424
545.651	8751.26556
545.856	9052.40712
546.062	9029.88597
546.268	9134.28454
546.474	8695.91144
546.679	8745.11576
546.885	8820.95179
547.091	8935.68363
547.297	8947.97301
547.502	9244.77563
547.708	9062.64331
547.914	9179.3054
548.119	8921.34522
548.325	9306.13835
548.531	8968.45389
548.736	9259.09494
548.942	8990.98082
549.147	9122.00468
549.353	9469.69968
549.559	9616.81676
549.764	8898.81166
549.97	9430.86331
550.175	9518.74785
550.381	9884.2822
550.586	9281.59506
550.792	9641.32834
550.997	9498.31223
551.203	9524.87822
551.408	9330.67924
551.614	9563.70061
551.819	9769.97767
552.025	9923.05352
552.23	9698.51334
552.435	9792.43405
552.641	9853.6695
552.846	9851.62853
553.052	10043.41523
553.257	10114.79274
553.462	10114.79274
553.668	9861.83321
553.873	9978.14054
554.078	10361.42466
554.283	10059.73162
554.489	10186.1531
554.694	10269.72524
554.899	10212.65407
555.105	10098.47941
555.31	10279.9154
555.515	10133.14418
555.72	10188.19172
555.925	10339.01173
556.131	10518.27091
556.336	9986.30068
556.541	10430.69091
556.746	10595.64767
556.951	10449.02358
557.156	10375.68659
557.361	10681.14848
557.567	10389.94789
557.772	10677.0775
557.977	10345.12451
558.182	10697.4319
558.387	10601.75559
558.592	10548.81654
558.797	10373.64921
559.002	10727.96124
559.207	10363.46212
559.412	10786.97699
559.617	10558.99778
559.822	10803.25545
560.027	10624.15035
560.232	10758.48788
560.437	10597.68365
560.642	10815.46379
560.847	10870.39616
561.051	10776.80258
561.256	10839.87923
561.461	11057.51079
561.666	10760.52289
561.871	10894.80784
562.076	11016.84174
562.281	11303.4673
562.485	10827.67172
562.69	11055.47745
562.895	10754.41781
563.1	11224.20881
563.305	11039.21026
563.509	11248.5977
563.714	10805.2902
563.919	11234.37103
564.123	11051.41072
564.328	11297.37104
564.533	11132.73707
564.737	11118.5062
564.942	11067.67737
565.147	11346.13854
565.351	11368.48838
565.556	11358.32951
565.761	11327.8514
565.965	11360.3613
566.17	10994.47188
566.374	11222.17634
566.579	11205.91616
566.784	11256.727
566.988	11463.96973
567.193	11547.2446
567.397	11492.40685
567.602	11685.32458
567.806	11415.21599
568.011	11746.22899
568.215	11662.99096
568.42	11522.87311
568.624	11417.24751
568.828	11673.14274
569.033	11669.08206
569.237	11985.71174
569.442	11973.53742
569.646	11815.2445
569.85	11851.77813
570.055	11916.72009
570.259	11827.42268
570.463	11738.10886
570.668	11817.27422
570.872	11622.38159
571.076	11551.30638
571.281	12062.80914
571.485	11857.8668
571.689	12060.78041
571.893	11892.36785
572.098	11955.2754
572.302	12054.69416
572.506	12139.89535
572.71	12068.8953
572.914	12452.18967
573.119	12141.92378
573.323	12101.35362
573.527	12255.50441
573.731	12216.9707
573.935	12393.39361
574.139	12517.06167
574.343	12241.30808
574.547	12326.48081
574.751	12263.61643
574.955	12525.17021
575.159	12081.0674
575.364	12348.78591
575.568	12206.82981
575.772	12612.3306
575.976	12168.29277
576.18	12294.03553
576.383	12486.65375
576.587	12644.75946
576.791	12415.69622
576.995	12756.22203
577.199	12687.31999
577.403	12604.22314
577.607	12752.16916
577.811	12910.21482
578.015	12492.73545
578.219	12910.21482
578.422	12719.74532
578.626	12798.77586
578.83	12577.87322
579.034	13043.92058
579.238	12810.93364
579.442	13137.0967
579.645	12968.96706
579.849	12902.11072
580.053	13108.73981
580.257	12883.87618
580.46	12857.53663
580.664	13047.97192
580.868	13173.5542
581.071	13380.1198
581.275	13110.76534
581.479	13220.13666
581.682	13143.17305
581.886	13311.26951
582.09	13199.88371
582.293	13473.26284
582.497	12991.25125
582.7	13414.54319
582.904	13145.19849
583.107	13329.49505
583.311	13193.80774
583.515	13440.86619
583.718	13230.26296
583.922	13396.31918
584.125	13153.30022
584.329	13424.6675
584.532	13278.86772
584.735	13491.48553
584.939	13438.84137
585.142	13934.82037
585.346	13337.59518
585.549	13566.39791
585.753	13517.80666
585.956	13689.89167
586.159	13481.36185
586.363	13691.91606
586.566	13756.69471
586.769	13422.64264
586.973	13847.78444
587.176	13677.7453
587.379	13712.15973
587.582	13758.71899
587.786	13633.20757
587.989	14052.21006
588.192	14060.3056
588.395	14019.82753
588.599	14070.42498
588.802	14062.32948
589.005	13671.67206
589.208	14442.78273
589.411	14246.49337
589.615	14023.87538
589.818	14052.21006
590.021	14100.78275
590.224	14042.09059
590.427	14074.47271
590.63	14236.37492
590.833	14448.85329
591.036	13934.82037
591.239	14282.91942
591.442	14242.446
591.645	14351.72261
591.848	14355.76979
592.051	14493.37038
592.254	14104.83042
592.457	14513.6052
592.66	14414.45325
592.863	14667.38588
593.066	14562.16824
593.269	14635.01153
593.472	14606.68376
593.675	14811.04425
593.878	14695.71322
594.081	15015.39772
594.284	14794.85759
594.486	14813.06758
594.689	14570.26201
594.892	14703.80672
595.095	14863.65059
595.298	14756.41409
595.5	14780.69422
595.703	14881.86039
595.906	14724.04039
596.109	15130.72439
596.311	14746.29733
596.514	14857.58065
596.717	15031.58396
596.92	15185.3527
597.122	15152.98037
597.325	14948.62928
597.528	15051.81674
597.73	15290.56292
597.933	15122.63131
598.136	15225.81812
598.338	14942.5594
598.541	15213.67849
598.743	15254.14395
598.946	15104.42186
599.148	15211.65522
599.351	15140.84075
599.554	15456.47281
599.756	15157.02691
599.959	15515.14901
600.161	15282.46981
600.363	15363.40109
600.566	15677.01737
600.768	15561.68567
600.971	15846.98536
601.173	15705.34487
601.376	15875.31411
601.578	15399.82035
601.78	15614.29279
601.983	15668.92383
602.185	15670.94721
602.388	15610.24607
602.59	15745.81306
602.792	15468.61267
602.995	15784.25822
603.197	15662.85368
603.399	15865.19667
603.601	15587.98917
603.804	15612.26943
604.006	15450.40288
604.208	15721.5321
604.41	15359.35452
604.613	15715.46188
604.815	15759.97702
605.017	15915.78417
605.219	15824.72722
605.421	15666.90044
605.623	15960.30183
605.826	15940.06645
606.028	15490.86914
606.23	15869.24364
606.432	15792.35198
606.634	16069.57527
606.836	15962.32537
607.038	16399.4477
607.24	15938.04292
607.442	16071.59889
607.644	15891.50208
607.846	16310.39772
608.048	16369.08933
608.25	16045.29192
608.452	15970.41957
608.654	16164.68719
608.856	16004.82014
609.058	16116.11897
609.26	16365.04158
609.462	16027.07954
609.664	16413.61508
609.866	16120.16628
610.067	16166.71089
610.269	16492.54947
610.471	16140.40296
610.673	16348.85067
610.875	16221.35133
611.077	16360.99384
611.278	16203.13771
611.48	16010.89087
611.682	16174.80569
611.884	16603.87264
612.085	16334.68371
612.287	16496.59748
612.489	16427.78257
612.69	16508.74153
612.892	16150.52136
613.094	16591.72798
613.295	15980.53734
613.497	16138.37929
613.699	16298.25483
613.9	16472.30959
614.102	16733.42085
614.304	16415.639
614.505	16701.0329
614.707	16765.8094
614.908	16389.32819
615.11	16674.71814
615.311	16231.47006
615.513	16399.4477
615.714	16265.87409
615.916	16607.92088
616.117	16417.66292
616.319	16356.94611
616.52	16292.1834
616.722	16609.945
616.923	16573.51113
617.124	16528.98179
617.326	16456.11783
617.527	16860.9544
617.729	16642.33128
617.93	16707.1056
618.131	16547.19821
618.333	16862.97882
618.534	16777.95527
618.735	16773.90664
618.937	16613.99326
619.138	16650.42794
619.339	16658.52464
619.54	16624.11393
619.742	16350.87452
619.943	16877.14985
620.144	16802.24727
620.345	16731.39658
620.546	16775.93095
620.748	16925.73717
620.949	16409.56725
621.15	17421.82373
621.351	16858.92998
621.552	16893.34546
621.753	16852.85674
621.954	16964.20319
622.155	16828.564
622.356	16933.8352
622.558	17114.02748
622.759	16982.42427
622.96	16974.32599
623.161	16583.63158
623.362	16889.29654
623.563	16814.3934
623.764	17103.90374
623.965	17020.89171
624.166	17057.33545
624.366	17063.40949
624.567	16800.22292
624.768	17026.9656
624.969	16802.24727
625.17	17336.76788
625.371	17112.00272
625.572	16832.61276
625.773	17310.44216
625.973	17265.89209
626.174	16836.66154
626.375	17083.65648
626.576	17152.49832
626.777	17170.72171
626.977	16915.61469
627.178	17375.24486
627.379	16782.00391
627.58	17026.9656
627.78	16909.54123
627.981	17294.24197
628.182	17397.52151
628.382	17553.4686
628.583	17589.92649
628.784	17361.069
628.984	17049.23676
629.185	17636.51309
629.386	17192.99505
629.586	17820.85123
629.787	17413.72294
629.987	17182.87076
630.188	17261.84216
630.388	17077.58235
630.589	16925.73717
630.79	16917.63918
630.99	16871.07654
631.191	17241.59266
631.391	17075.55765
631.591	17047.2121
631.792	17340.81804
631.992	17460.30316
632.193	17498.78372
632.393	17436.00023
632.594	17377.26999
632.794	17352.96858
632.994	17294.24197
633.195	17043.16278
633.395	17239.56772
633.595	17304.36707
633.796	17547.39239
633.996	17938.35621
634.196	17569.67198
634.397	17622.33438
634.597	17097.82953
634.797	17790.4639
634.997	17614.23233
635.198	17646.64084
635.398	17452.20213
635.598	17989.00853
635.798	17668.92219
635.998	17634.48755
636.199	17549.41779
636.399	18005.21774
636.599	17709.43475
636.799	17504.85971
636.999	17387.39571
637.199	17304.36707
637.399	17423.84893
637.599	17747.92293
637.799	17646.64084
637.999	17845.16165
638.199	17541.31621
638.399	17776.28341
638.599	17593.97743
638.799	17796.54131
638.999	18015.34861
639.199	17756.02585
639.399	17326.64255
639.599	17802.61874
639.799	17261.84216
639.999	17845.16165
640.199	17737.79434
640.399	17818.82539
640.599	17470.42951
640.799	18594.98755
640.998	17989.00853
641.198	18248.38357
641.398	18011.29625
641.598	18171.37538
641.798	18203.79923
641.997	17970.77344
642.197	17778.30919
642.397	18175.42831
642.597	17751.97438
642.796	17877.57632
642.996	17899.86191
643.196	18400.38919
643.395	18037.63684
643.595	17999.13926
643.795	18045.74176
643.994	18017.37479
644.194	18268.64977
644.394	18428.76592
644.593	18215.95842
644.793	18489.57571
644.992	18416.60437
645.192	18355.79868
645.392	17830.98051
645.591	18290.94302
645.791	18209.87881
645.99	18236.22403
646.19	18203.79923
646.389	18175.42831
646.589	18517.9548
646.788	17991.03467
646.987	18163.26956
647.187	18374.04003
647.386	18195.69318
647.586	18590.93306
647.785	18220.01151
647.984	18288.91634
648.184	18191.64018
648.383	18317.29017
648.582	18621.34215
648.782	18740.95978
648.981	18110.58318
649.18	18639.58803
649.38	18580.79689
649.579	18574.71523
649.778	18700.4099
649.977	18803.81522
650.177	18542.28033
650.376	18669.99852
650.575	18321.34363
650.774	18440.9276
650.973	18736.90472
651.173	18570.66082
651.372	18864.6467
651.571	18629.45139
651.77	18755.15261
651.969	18740.95978
652.168	18489.57571
652.367	18376.06687
652.566	18211.90534
652.765	19020.79735
652.964	18769.34564
653.163	18791.64936
653.362	18828.14738
653.561	18779.48363
653.76	18913.31448
653.959	18968.06849
654.158	19223.62626
654.357	18621.34215
654.556	18570.66082
654.755	18807.87054
654.954	18848.42462
655.153	18783.53886
655.352	18996.46061
655.551	18909.25874
655.749	19467.07517
655.948	19087.72638
656.147	19172.9152
656.346	19270.2827
656.545	19130.31989
656.743	19181.0288
656.942	19034.99405
657.141	19126.26329
657.34	19103.95227
657.538	19256.08268
657.737	19077.58534
657.936	19028.90972
658.135	18753.12505
658.333	19024.85353
658.532	19045.13467
658.731	19067.44439
658.929	18566.60641
659.128	18943.73301
659.326	19057.30355
659.525	18992.40454
659.724	19162.7733
659.922	19130.31989
660.121	18870.73005
660.319	18955.90068
660.518	19008.62891
660.716	19229.71176
660.915	19158.71657
661.113	19485.33625
661.312	19239.85434
661.51	19280.42569
661.709	19079.61354
661.907	19276.36848
662.105	18866.67448
662.304	19323.02738
662.502	18968.06849
662.701	19367.65968
662.899	18773.40082
663.097	19513.74303
663.296	19272.31129
663.494	19600.99754
663.692	19176.97199
663.891	19645.64237
664.089	18998.48865
664.287	19361.57334
664.485	19189.14246
664.684	19568.52985
664.882	19217.5408
665.08	19463.0172
665.278	19341.28581
665.476	19189.14246
665.675	19095.83929
665.873	19164.80167
666.071	19239.85434
666.269	19296.65469
666.467	19239.85434
666.665	18921.426
666.863	18886.95248
667.061	19284.48292
667.259	18888.9803
667.457	19394.03425
667.655	19010.65697
667.853	19456.93028
668.051	19243.9114
668.249	19284.48292
668.447	19105.98053
668.645	19430.55404
668.843	19105.98053
669.041	19053.24724
669.239	18530.11749
669.437	18913.31448
669.635	19057.30355
669.833	19272.31129
670.031	18984.29246
670.229	19256.08268
670.426	18964.01253
670.624	19284.48292
670.822	18801.78757
671.02	19286.51153
671.218	19264.19695
671.415	19314.91263
671.613	18992.40454
671.811	19223.62626
672.009	19284.48292
672.206	19191.17089
672.404	19150.60315
672.602	19272.31129
672.799	19099.89577
672.997	19552.2964
673.195	18844.36914
673.392	19426.49622
673.59	19091.78283
673.788	19053.24724
673.985	18501.73809
674.183	19022.82544
674.38	19101.92402
674.578	19456.93028
674.775	18897.09163
674.973	18925.48178
675.17	18964.01253
675.368	18957.92863
675.565	19215.51232
675.763	19343.31454
675.96	19243.9114
676.158	19371.71726
676.355	18830.17509
676.553	18966.04051
676.75	18909.25874
676.947	19081.64174
677.145	18951.84477
677.342	18844.36914
677.539	18822.06429
677.737	18872.75784
677.934	18781.51124
678.131	18984.29246
678.329	19089.75461
678.526	19296.65469
678.723	19481.2782
678.92	19509.68487
679.118	19045.13467
679.315	19101.92402
679.512	19270.2827
679.709	18994.43258
679.906	18955.90068
680.104	19112.06531
680.301	18850.45237
680.498	18513.9006
680.695	18815.98123
680.892	18840.31368
681.089	18732.84968
681.286	19043.10654
681.483	18811.92588
681.68	18925.48178
681.877	18905.20302
682.075	18874.78563
682.272	18655.80685
682.469	19112.06531
682.665	19063.38804
682.862	19357.5158
683.059	18838.28595
683.256	19085.69817
683.453	18805.84288
683.65	18824.09198
683.847	18996.46061
684.044	18925.48178
684.241	18886.95248
684.438	18961.98456
684.635	18712.5747
684.831	19132.3482
685.028	18745.01486
685.225	18895.06379
685.422	18532.14462
685.619	18704.46482
685.815	18994.43258
686.012	19095.83929
686.209	18799.75992
686.405	18759.20774
686.602	18870.73005
686.799	18657.83422
686.996	18542.28033
687.192	18884.92466
687.389	18282.83633
687.586	18513.9006
687.782	18592.9603
687.979	18893.03596
688.175	18720.68464
688.372	18947.78888
688.568	18745.01486
688.765	18911.28661
688.962	18629.45139
689.158	18785.56648
689.355	18588.90582
689.551	18501.73809
689.748	18384.17425
689.944	18185.5607
690.14	18461.19738
690.337	18398.36231
690.533	18424.71206
690.73	18495.65688
690.926	18444.98153
691.123	18471.33241
691.319	18678.10814
691.515	18974.15245
691.712	18542.28033
691.908	18499.71102
692.104	18305.12987
692.301	18586.87858
692.497	18297.02308
692.693	18540.25318
692.889	18294.99639
693.086	18426.73899
693.282	18201.77271
693.478	18560.52484
693.674	18284.863
693.87	18378.09371
694.067	18299.04977
694.263	18244.33037
694.459	18207.85228
694.655	18327.42386
694.851	18238.25061
695.047	18205.82575
695.243	18278.78301
695.439	18378.09371
695.635	18165.29601
695.831	18197.71969
696.027	18027.50577
696.224	18108.55683
696.42	18228.11774
696.615	18394.30856
696.811	18159.21668
697.007	18149.08453
697.203	17968.74733
697.399	18076.13572
697.595	18201.77271
697.791	17991.03467
697.987	18274.7297
698.183	18179.48126
698.379	18217.98496
698.575	18369.98637
698.77	18068.03058
698.966	18068.03058
699.162	18173.40184
699.358	18228.11774
699.554	18183.53421
699.749	18222.03806
699.945	18161.24312
700.141	18102.4778
700.337	17934.30412
700.532	18236.22403
700.728	17901.88789
700.924	18106.53048
701.119	18031.55819
701.315	17871.4985
701.511	17549.41779
701.706	17962.66905
701.902	17644.61529
702.097	17804.64456
702.293	17749.94865
702.489	18072.08314
702.684	18019.40098
702.88	18082.2146
703.075	18023.45337
703.271	17879.60226
703.466	18140.97887
703.662	17727.66584
703.857	17889.73204
704.053	17970.77344
704.248	18134.89967
704.443	17958.61687
704.639	18382.1474
704.834	18207.85228
705.03	18086.26721
705.225	18003.19157
705.42	17930.25204
705.616	17920.12191
705.811	17833.00638
706.006	17995.08695
706.202	17812.74787
706.397	18043.71552
706.592	17683.10144
706.787	18003.19157
706.983	17745.8972
707.178	18238.25061
707.373	18035.61062
707.568	18094.37248
707.763	17784.38653
707.959	18047.768
708.154	17835.03225
708.349	17758.05159
708.544	18076.13572
708.739	18086.26721
708.934	17780.33496
709.129	17689.1783
709.324	17525.11319
709.519	17820.85123
709.714	17598.02838
709.909	17551.44319
710.104	17124.15128
710.299	17535.24005
710.494	17444.10116
710.689	17903.91388
710.884	17737.79434
711.079	17895.80995
711.274	17918.09589
711.469	18205.82575
711.664	17488.65715
711.859	17991.03467
712.054	17557.51943
712.249	18169.34892
712.443	17849.21344
712.638	17895.80995
712.833	17715.51175
713.028	17845.16165
713.223	17409.67256
713.417	17699.30649
713.612	17326.64255
713.807	17577.77374
714.002	17833.00638
714.196	17650.69197
714.391	17397.52151
714.586	17484.60654
714.78	17468.40424
714.975	17413.72294
715.17	17350.94348
715.364	17701.33213
715.559	17713.48608
715.754	17480.55595
715.948	17271.96702
716.143	17235.51787
716.337	17508.91038
716.532	17877.57632
716.726	17466.37896
716.921	17500.80905
717.115	17409.67256
717.31	17464.35369
717.504	17377.26999
717.699	17261.84216
717.893	17312.4672
718.088	17837.05812
718.282	17535.24005
718.476	17338.79296
718.671	17097.82953
718.865	17699.30649
719.059	17020.89171
719.254	17261.84216
719.448	16903.46779
719.642	16927.76167
719.837	16996.59637
720.031	17243.61759
720.225	16923.71267
720.419	17225.39327
720.614	16950.03139
720.808	17233.49294
721.002	16933.8352
721.196	16788.07689
721.39	16749.61505
721.585	16749.61505
721.779	16935.85971
721.973	16836.66154
722.167	16512.78957
722.361	16468.26164
722.555	16437.90226
722.749	16640.30712
722.943	16790.10122
723.137	16490.52548
723.331	16599.82441
723.525	16988.49801
723.719	16788.07689
723.913	16948.00685
724.107	16875.12541
724.301	16816.41776
724.495	16731.39658
724.689	16869.05211
724.883	16622.08979
725.077	16674.71814
725.271	16664.59719
725.465	16782.00391
725.659	16624.11393
725.853	16725.3238
726.046	16581.60748
726.24	16678.76654
726.434	16229.44631
726.628	16705.08136
726.822	16259.80275
727.015	16662.573
727.209	16636.25881
727.403	16808.32032
727.596	16674.71814
727.79	16881.19873
727.984	16911.56571
728.177	17397.52151
728.371	17081.63176
728.565	17018.86708
728.758	16699.00868
728.952	16919.66367
729.146	16846.78352
729.339	16820.4665
729.533	16844.75912
729.726	16593.75208
729.92	16638.28297
730.113	16670.66975
730.307	16520.88566
730.5	16666.62137
730.694	16585.65567
730.887	16591.72798
731.081	16618.04152
731.274	16747.59076
731.468	16385.2804
731.661	16514.81359
731.854	16381.23263
732.048	16458.14179
732.241	16261.82653
732.435	16241.58884
732.628	16397.42379
732.821	16577.5593
733.014	16409.56725
733.208	16743.5422
733.401	16650.42794
733.594	16757.7122
733.788	16450.04595
733.981	16782.00391
734.174	16721.2753
734.367	16755.68791
734.56	16456.11783
734.754	16684.83916
734.947	16547.19821
735.14	16747.59076
735.333	16658.52464
735.526	16377.18485
735.719	15966.37247
735.912	16221.35133
736.105	16237.54132
736.298	16166.71089
736.491	16229.44631
736.684	16146.474
736.877	16288.1358
737.07	16025.05595
737.263	15966.37247
737.456	16245.63636
737.649	16126.23727
737.842	16122.18994
738.035	16158.61611
738.228	15895.54908
738.421	16354.92225
738.614	16330.63603
738.807	16360.99384
739	16397.42379
739.192	16401.4716
739.385	16150.52136
739.578	16190.99538
739.771	16282.0644
739.964	16239.56508
740.156	16601.84853
740.349	16085.76429
740.542	16417.66292
740.735	15952.20766
740.927	16197.06654
741.12	15938.04292
741.313	15784.25822
741.505	16152.54505
741.698	15974.46667
741.891	15970.41957
742.083	16112.07165
742.276	15851.03231
742.468	15929.94881
742.661	15881.38459
742.854	15990.65515
743.046	15604.176
743.239	15849.00883
743.431	16195.04281
743.624	16247.66013
743.816	16077.66976
744.009	16278.01681
744.201	15849.00883
744.393	15822.70376
744.586	15978.51378
744.778	16134.33194
744.971	15695.22789
745.163	16010.89087
745.355	15863.17319
745.548	15590.01252
745.74	15600.12928
745.932	16043.26831
746.125	15917.80769
746.317	15881.38459
746.509	15812.58647
746.702	16120.16628
746.894	16124.21361
747.086	16273.96923
747.278	16061.48079
747.471	15587.98917
747.663	15836.86801
747.855	15674.99398
748.047	15816.63338
748.239	16045.29192
748.431	15697.25128
748.623	16158.61611
748.815	15840.91494
749.008	16193.01909
749.2	16340.75525
749.392	16018.98519
749.584	15780.21134
749.776	15925.90176
749.968	15954.2312
750.16	16302.30245
750.352	16002.79656
750.544	16045.29192
750.736	15567.7557
750.928	16006.84371
751.12	15733.67256
751.311	15592.03587
751.503	15557.63899
751.695	15677.01737
751.887	15545.49896
752.079	15936.01939
752.271	15484.79919
752.463	15563.70901
752.654	15446.35627
752.846	15626.43297
753.038	15418.03003
753.23	15416.00673
753.421	15229.86467
753.613	15112.51495
753.805	15557.63899
753.997	15478.72924
754.188	15723.55551
754.38	15707.36827
754.572	15557.63899
754.763	15365.42438
754.955	15418.03003
755.146	15616.31615
755.338	15407.91354
755.53	15446.35627
755.721	15173.21307
755.913	15450.40288
756.104	15349.23808
756.296	15199.51559
756.487	15090.25895
756.679	15312.81899
756.87	15031.58396
757.062	14966.83889
757.253	15422.07663
757.445	15029.56068
757.636	15355.30794
757.827	15179.28289
758.019	15163.09672
758.21	15454.4495
758.401	15088.23568
758.593	14784.7409
758.784	14766.53082
758.975	14958.74574
759.167	15011.35116
759.358	15003.25803
759.549	14910.18665
759.74	14827.23086
759.932	14724.04039
760.123	14675.47942
760.314	14632.98812
760.505	14796.88092
760.696	14503.4878
760.888	14651.19873
761.079	14288.99038
761.27	14548.00409
761.461	14610.73059
761.652	14740.22726
761.843	14523.72256
762.034	14537.88681
762.225	14319.34489
762.416	14784.7409
762.607	14361.84056
762.798	14806.99759
762.989	14458.97087
763.18	14493.37038
763.371	14596.56664
763.562	14653.22213
763.753	14394.21772
763.944	14600.61349
764.135	14384.0999
764.326	14845.44075
764.517	14639.05834
764.708	14460.99438
764.899	14019.82753
765.089	14121.02099
765.28	14080.54429
765.471	14373.98204
765.662	14297.08495
765.853	14052.21006
766.043	13866.00168
766.234	14295.06131
766.425	14068.40111
766.615	13908.50771
766.806	14179.71066
766.997	13884.2187
767.187	13746.57326
767.378	14015.77967
767.569	13961.13259
767.759	14373.98204
767.95	14175.66315
768.141	14072.44885
768.331	13930.7723
768.522	13756.69471
768.712	13987.44437
768.903	13841.71197
769.093	13780.98589
769.284	13918.62802
769.474	13770.86462
769.665	13588.66821
769.855	13853.85688
770.046	13760.74327
770.236	13580.56997
770.426	13473.26284
770.617	13623.08513
770.807	13503.63382
770.998	13991.4923
771.188	13523.88068
771.378	13307.21935
771.569	13566.39791
771.759	13297.09386
771.949	13299.11897
772.139	13345.69525
772.33	13517.80666
772.52	13388.21952
772.71	13436.81654
772.9	13333.54512
773.09	13398.34409
773.281	13560.32412
773.471	13246.46483
773.661	13323.41991
773.851	13191.7824
774.041	13319.36979
774.231	13274.81742
774.421	13045.94625
774.611	12999.35445
774.802	12906.16278
774.992	13064.17712
775.182	12993.27706
775.372	13116.84187
775.562	12875.7718
775.752	13078.35641
775.942	12762.3013
776.131	12902.11072
776.321	12598.14248
776.511	12849.43197
776.701	12681.24008
776.891	13021.63781
777.081	13147.22393
777.271	13110.76534
777.461	12855.51048
777.651	12966.94119
777.84	12658.94659
778.03	12790.67056
778.22	12918.31884
778.41	12960.86356
778.599	12407.58627
778.789	12825.11747
778.979	12942.63039
779.169	12523.14308
779.358	12636.65239
779.548	12740.01039
779.738	12521.11595
779.927	12271.72835
780.117	12535.30573
780.307	12352.84129
780.496	12362.97962
780.686	12525.17021
780.875	12506.92586
781.065	12478.54473
781.254	12377.17301
781.444	12606.25001
781.633	12431.9158
781.823	12628.54522
782.012	12431.9158
782.202	12452.18967
782.391	12393.39361
782.581	12367.03491
782.77	12277.81221
782.96	12403.53126
783.149	12166.26443
783.338	12375.1454
783.528	12261.58844
783.717	12247.39226
783.906	11855.83725
784.096	12103.3822
784.285	12111.49645
784.474	12064.83787
784.663	12221.027
784.853	11837.57093
785.042	11985.71174
785.231	11997.88577
785.42	11910.63214
785.61	12010.05952
785.799	11959.33369
785.988	12010.05952
786.177	11734.04874
786.366	12111.49645
786.555	11636.59528
786.744	11563.49151
786.933	11579.73782
787.122	12030.34846
787.312	11518.81107
787.501	11528.96611
787.69	11472.09481
787.879	11626.44269
788.068	11400.99509
788.257	11354.26589
788.445	11128.67116
788.634	11474.12606
788.823	11394.90027
789.012	11683.2943
789.201	11600.04488
789.39	11669.08206
789.579	11329.88335
789.768	11443.65635
789.957	11382.71037
790.145	11591.92217
790.334	11514.74898
790.523	11266.88839
790.712	11279.08173
790.9	11520.8421
791.089	11079.87691
791.278	11504.59361
791.467	11376.61529
791.655	11463.96973
791.844	11295.33894
792.033	11449.75046
792.221	10931.42227
792.41	11344.10667
792.599	10974.13448
792.787	11311.59549
792.976	11191.68796
793.164	11088.00972
793.353	11356.2977
793.541	11384.74205
793.73	11193.7206
793.918	11240.46824
794.107	11024.9759
794.295	11236.40344
794.484	11079.87691
794.672	11047.34394
794.861	11045.31054
795.049	11279.08173
795.238	11092.07605
795.426	11124.60521
795.614	10833.77553
795.803	11083.94333
795.991	10719.82035
796.179	10778.83748
796.368	10719.82035
796.556	10681.14848
796.744	10660.7931
796.932	11088.00972
797.121	10752.38276
797.309	10656.72188
797.497	10416.43145
797.685	10988.37078
797.874	10831.74094
798.062	10707.60865
798.25	10477.53898
798.438	10856.15525
798.626	10508.08841
798.814	10609.89931
799.002	10538.63498
799.19	10650.61496
799.378	10530.4895
799.566	10707.60865
799.755	10432.72793
799.943	10424.57979
800.131	10259.53474
800.318	10654.68625
800.506	10326.78583
800.694	10361.42466
800.882	10312.52166
801.07	10385.8733
801.258	10540.67131
801.446	10675.04199
801.634	10477.53898
801.822	10721.85559
802.01	10719.82035
802.197	10803.25545
802.385	10677.0775
802.573	10793.0815
802.761	10288.06729
802.949	10599.71963
803.136	10508.08841
803.324	10693.36112
803.512	10815.46379
803.699	11096.14235
803.887	11047.34394
804.075	10994.47188
804.262	10786.97699
804.45	10752.38276
804.638	10526.41669
804.825	10848.01733
805.013	10717.78509
805.201	10709.64396
805.388	10451.06047
805.576	10668.9354
805.763	10457.17109
805.951	10577.32323
806.138	10579.35933
806.326	10516.23444
806.513	10412.3572
806.701	10326.78583
806.888	10459.20794
807.075	10379.76132
807.263	10304.37042
807.45	10544.74395
807.638	10420.50564
807.825	10736.10194
808.012	10652.65061
808.2	10658.7575
808.387	10420.50564
808.574	10697.4319
808.761	10432.72793
808.949	10827.67172
809.136	10349.19963
809.323	10561.03399
809.51	10636.36504
809.698	10660.7931
809.885	10583.43149
810.072	10603.79154
810.259	10656.72188
810.446	10760.52289
810.633	10646.54362
810.82	10579.35933
811.008	10422.54272
811.195	10607.8634
811.382	10567.14255
811.569	10789.01184
811.756	10385.8733
811.943	10571.21486
812.13	10424.57979
812.317	10249.3439
812.504	10336.97412
812.691	10477.53898
812.878	10656.72188
813.064	10681.14848
813.251	10587.5036
813.438	10786.97699
813.625	10310.48387
813.812	10418.46855
813.999	10243.22923
814.186	10536.59863
814.372	10532.52589
814.559	10391.98516
814.746	10253.42028
814.933	10438.83889
815.12	10504.01532
815.306	10571.21486
815.493	10636.36504
815.68	10762.55789
815.866	10451.06047
816.053	10650.61496
816.24	10532.52589
816.426	10436.80192
816.613	10459.20794
816.799	10561.03399
816.986	10420.50564
817.173	10662.8287
817.359	10410.32005
817.546	10532.52589
817.732	10208.57715
817.919	10359.38719
818.105	10279.9154
818.292	10506.05187
818.478	10277.8774
818.665	10379.76132
818.851	10200.42314
819.037	10432.72793
819.224	10153.53334
819.41	10353.27469
819.597	10169.84366
819.783	10265.64908
819.969	10239.15272
820.156	10497.90558
820.342	10497.90558
820.528	10428.65388
820.714	10184.11447
820.901	10556.96156
821.087	10020.97871
821.273	10528.4531
821.459	10220.80775
821.646	10485.68577
821.832	10408.28289
822.018	10811.39439
822.204	10155.57217
822.39	10394.02243
822.576	10131.10519
822.762	10102.55783
822.948	10025.05821
823.134	10118.87094
823.32	10016.89916
823.507	10457.17109
823.693	10106.63619
823.879	10147.41673
824.065	10159.64981
824.25	10137.22212
824.436	9945.49766
824.622	10116.83185
824.808	9906.7294
824.994	10029.13765
825.18	9792.43405
825.366	10175.95981
825.552	9837.34136
825.738	9959.77938
825.923	9745.47772
826.109	10228.96121
826.295	9827.13579
826.481	10059.73162
826.667	9706.68163
826.852	9849.58755
827.038	9671.96466
827.224	9861.83321
827.409	9788.35121
827.595	9645.41338
827.781	9502.39948
827.966	9823.05346
828.152	9537.13854
828.338	9774.06079
828.523	9510.57379
828.709	9780.18535
828.894	9434.95162
829.08	9592.30293
829.266	9314.31891
829.451	9725.05941
829.637	9453.34823
829.822	9430.86331
830.008	9302.04797
830.193	9330.67924
830.378	9232.50128
830.564	9306.13835
830.749	9191.58239
830.935	9436.99575
831.12	9765.8945
831.305	9402.24329
831.491	9150.65672
831.676	9164.98148
831.861	9132.23794
832.047	9306.13835
832.232	9185.44397
832.417	9412.46509
832.602	9226.36388
832.788	9328.63426
832.973	9449.26021
833.158	9371.57545
833.343	9289.77643
833.528	9185.44397
833.714	9156.796
833.899	9179.3054
834.084	8960.26175
834.269	9056.50165
834.454	8695.91144
834.639	9128.14469
834.824	9044.21786
835.009	9183.3978
835.194	9283.64043
835.379	9136.33112
835.564	8968.45389
835.749	9275.45887
835.934	9218.18044
836.119	9347.03851
836.304	9152.70316
836.489	9132.23794
836.674	8956.16557
836.859	9040.12312
837.044	8810.70513
837.228	9103.58374
837.413	8591.31685
837.598	9216.13454
837.783	9003.26734
837.968	8958.21367
838.152	8634.39108
838.337	8890.6171
838.522	8529.76788
838.707	8950.02118
838.891	8624.13606
839.076	8617.98282
839.261	8398.40625
839.445	8681.55818
839.63	8392.24675
839.815	8443.57066
839.999	8420.98962
840.184	8585.16272
840.368	8462.04432
840.553	8669.25467
840.737	8564.64772
840.922	8525.66401
841.106	8314.21124
841.291	8433.30684
841.475	8061.42762
841.66	8542.07904
841.844	8137.49992
842.029	8453.834
842.213	8005.89796
842.397	8207.38003
842.582	8026.46623
842.766	8160.11071
842.951	7972.9845
843.135	8073.76554
843.319	7956.5258
843.504	8106.66312
843.688	8116.94255
843.872	8289.5626
844.056	8439.46518
844.241	8406.61865
844.425	8135.44427
844.609	8201.21507
844.793	7968.86995
844.977	8047.03246
845.161	7771.2746
845.346	8195.04992
845.53	7935.9506
845.714	8160.11071
845.898	7929.77763
846.082	8431.25401
846.266	8108.71905
846.45	8234.09283
846.634	7995.61306
846.818	8168.33222
847.002	8170.38755
847.186	7999.72708
847.37	8162.16612
847.554	8320.37296
847.738	8042.91938
847.922	8135.44427
848.106	7956.5258
848.29	7948.29597
848.473	7942.12337
848.657	7833.04366
848.841	7664.16354
849.025	7631.1948
849.209	7449.76895
849.392	7556.99521
849.576	7660.04274
849.76	7559.05668
849.944	7367.24742
850.127	7738.32341
850.311	7445.6437
850.495	7554.93371
850.678	7406.44949
850.862	7622.95176
851.046	7367.24742
851.229	7532.25585
851.413	7340.42041
851.596	7542.56429
851.78	7261.98179
851.964	7445.6437
852.147	7303.26923
852.331	7389.94431
852.514	7088.47795
852.698	7408.51253
852.881	7043.01049
853.065	7284.69097
853.248	7162.85592
853.431	7268.17546
853.615	7045.07743
853.798	7090.54439
853.982	6980.99191
854.165	7080.21194
854.348	6995.46472
854.532	7241.33477
854.715	6809.30123
854.898	7005.80177
855.081	6738.92485
855.265	7162.85592
855.448	6972.72124
855.631	6945.83905
855.814	6846.54863
855.997	6769.97651
856.181	6790.67475
856.364	6892.06322
856.547	6887.92599
856.73	6801.02302
856.913	6581.51706
857.096	7047.14434
857.279	6747.20579
857.462	6945.83905
857.645	6774.11634
857.828	6707.86804
858.011	6593.94883
858.194	6666.45093
858.377	6877.5825
858.56	6827.92585
858.743	6635.38205
858.926	6473.74018
859.109	6428.12339
859.292	6432.27083
859.475	6390.79218
859.658	6328.55671
859.841	6058.62621
860.023	6260.07341
860.206	6133.41591
860.389	6399.08865
860.572	6091.86984
860.755	6224.78419
860.937	5992.12087
861.12	6274.6023
861.303	5983.80601
861.486	6112.64405
861.668	6077.32649
861.851	6069.01549
862.034	5911.03486
862.216	6197.79375
862.399	6033.68953
862.581	6133.41591
862.764	5902.71632
862.947	6216.47986
863.129	6046.15829
863.312	6141.72399
863.494	6012.90638
863.677	6123.03027
863.859	5965.09618
864.042	6025.37655
864.224	5892.31761
864.406	6158.33904
864.589	5769.56831
864.771	6079.40418
864.954	5859.03779
865.136	5863.19809
865.318	5725.85806
865.501	5969.25409
865.683	5723.77636
865.865	5921.43251
866.048	5507.15073
866.23	5625.90982
866.412	5463.37809
866.594	5636.32363
866.777	5548.82931
866.959	5500.89813
867.141	5440.44542
867.323	5575.91533
867.505	5444.61521
867.687	5584.24869
867.869	5350.77226
868.052	5625.90982
868.234	5258.96881
868.416	5625.90982
868.598	5667.56153
868.78	5609.2465
868.962	5675.89074
869.144	5759.16205
869.326	5682.13739
869.508	5742.51081
869.69	5500.89813
869.872	5557.16389
870.054	5482.13906
870.236	5486.30791
870.417	5288.18391
870.599	5502.98235
870.781	5484.2235
870.963	5590.49846
871.145	5334.0841
871.327	5367.45893
871.508	5419.59507
871.69	5659.23194
871.872	5469.63196
872.054	5498.81388
872.235	5129.53263
872.417	5334.0841
872.599	4987.4677
872.78	5375.8017
872.962	5173.38395
873.144	5261.05575
873.325	5167.1201
873.507	5361.2016
873.689	5250.62079
873.87	5394.57155
874.052	5258.96881
874.233	5425.85042
874.415	5233.92364
874.596	5348.68633
874.778	4983.2877
874.959	5281.92392
875.141	5221.3998
875.322	5334.0841
875.503	5091.93763
875.685	5379.97294
875.866	5162.94409
876.048	5123.26732
876.229	4979.10761
876.41	5252.70783
876.592	5066.87012
876.773	5129.53263
876.954	4912.21366
877.136	5035.53105
877.317	4920.57669
877.498	5183.82322
877.679	4744.87628
877.86	5087.75995
878.042	5033.44159
878.223	5236.01087
878.404	5213.0501
878.585	5229.74912
878.766	5079.40429
878.947	5162.94409
879.128	5004.18677
879.309	5204.70003
879.49	4816.01248
879.672	5187.99877
879.853	5058.51355
880.034	5231.83639
880.215	5154.59178
880.396	5135.79773
880.576	4903.85026
880.757	5167.1201
880.938	4995.82742
881.119	5208.87511
881.3	5252.70783
881.481	5457.12401
881.662	5238.09807
881.843	5436.27554
882.023	5338.25628
882.204	5421.68021
882.385	5361.2016
882.566	5461.29342
882.747	5133.70939
882.927	5265.22957
883.108	5215.13756
883.289	5313.22178
883.469	5102.38144
883.65	5313.22178
883.831	5329.91182
884.011	5461.29342
884.192	5087.75995
884.373	5300.70327
884.553	5043.88864
884.734	5062.69188
884.914	5165.03211
885.095	5417.50991
885.275	5227.66182
885.456	5430.02054
885.636	5386.22963
885.817	5563.41458
885.997	5284.01061
886.178	5327.82565
886.358	5127.44422
886.538	5550.91299
886.719	5225.5745
886.899	5550.91299
887.08	5240.18525
887.26	5642.57164
887.44	5050.1566
887.621	5334.0841
887.801	5227.66182
887.981	5634.24092
888.161	5294.4437
888.342	5584.24869
888.522	5327.82565
888.702	5502.98235
888.882	5373.71604
889.062	5555.08028
889.242	5106.5588
889.423	5152.50365
889.603	5114.91325
889.783	5457.12401
889.963	5177.55973
890.143	5480.0546
890.323	5233.92364
890.503	5342.42837
890.683	5154.59178
890.863	5390.40064
891.043	5206.78758
891.223	5388.31515
891.403	5121.17884
891.583	5311.13542
891.763	5041.79928
891.943	5236.01087
892.122	5112.82467
892.302	5586.33197
892.482	5083.58217
892.662	5325.73945
892.842	5066.87012
893.022	5183.82322
893.201	5066.87012
893.381	5252.70783
893.561	5087.75995
893.741	5415.42472
893.92	4920.57669
894.1	5206.78758
894.28	4956.11547
894.459	5217.22499
894.639	4795.09279
894.819	5031.35211
894.998	4882.94016
895.178	5217.22499
895.357	4776.26313
895.537	4809.73681
895.716	5052.24587
895.896	5221.3998
896.075	4908.032
896.255	4954.02514
896.434	4684.18062
896.614	4891.30447
896.793	4717.67023
896.973	4765.80142
897.152	4592.05454
897.331	4866.21043
897.511	4841.1131
897.69	4849.47924
897.87	4799.27691
898.049	4717.67023
898.228	4489.4088
898.407	4573.20523
898.587	4682.08732
898.766	4822.28794
898.945	4424.44229
899.124	4583.67729
899.304	4615.09012
899.483	4539.69092
899.662	4407.67333
899.841	4522.93163
900.02	4338.4866
900.199	4449.59312
900.378	4218.92691
900.557	4340.58351
900.737	4302.83574
900.916	4359.45477
901.095	4231.51542
901.274	4099.29819
901.453	4078.30367
901.632	4078.30367
901.811	4059.40683
901.989	4233.61343
902.168	3952.29323
902.347	4231.51542
902.526	4002.70627
902.705	4158.07172
902.884	3910.27343
903.063	4214.73058
903.242	3826.20976
903.42	4325.90466
903.599	4065.70596
903.778	4072.00491
903.957	3704.26141
904.135	3908.17223
904.314	3718.98279
904.493	3796.77997
904.672	3622.2252
904.85	3847.22866
905.029	3573.83141
905.207	3733.70321
905.386	3413.85229
905.565	3828.31174
905.743	3550.68306
905.922	3483.32978
906.1	3415.95795
906.279	3546.47403
906.457	3161.04723
906.636	3510.69431
906.814	3329.61128
906.993	3085.15911
907.171	3245.34267
907.35	3312.75974
907.528	2975.50709
907.707	3270.6261
907.885	2910.11818
908.063	3085.15911
908.242	3026.12088
908.42	3186.33863
908.598	3040.88158
908.777	3072.50909
908.955	2815.17407
909.133	3146.29284
909.311	2916.44676
909.49	3038.77295
909.668	2876.36358
909.846	2943.86907
910.024	2703.31517
910.202	2853.15516
910.38	2743.41985
910.559	2832.05511
910.737	2840.4953
910.915	2969.17975
911.093	2798.29214
911.271	3099.91676
911.449	2874.25379
911.627	2990.27035
911.805	2713.8695
911.983	2886.91229
912.161	2893.24134
912.339	2901.67988
912.517	2967.07061
912.695	3346.46172
912.872	3038.77295
913.05	3123.10576
913.228	2916.44676
913.406	3152.61625
913.584	3045.09878
913.762	3078.83417
913.939	2827.83493
914.117	2908.00863
914.295	2836.27523
914.473	3080.9425
914.65	3080.9425
914.828	3196.87602
915.006	2857.375
915.184	3072.50909
915.361	2732.86645
915.539	3085.15911
915.716	2986.05235
915.894	2967.07061
916.072	2829.94503
916.249	2933.32232
916.427	2977.61617
916.604	3007.14173
916.782	3053.533
916.959	3118.88972
917.137	2751.86233
917.314	3173.69323
917.492	3019.79463
917.669	2986.05235
917.847	2699.09336
918.024	2834.16518
918.201	2658.98351
918.379	2726.53425
918.556	2639.98251
918.733	2741.3092
918.911	2519.61992
919.088	2882.69285
919.265	2665.31695
919.442	2743.41985
919.62	2487.93923
919.797	2895.351
919.974	2574.52697
920.151	2646.31629
920.328	2511.17199
920.506	2713.8695
920.683	2447.80676
920.86	2392.88232
921.037	2350.62798
921.214	2443.58206
921.391	2088.56844
921.568	2468.92961
921.745	2333.72512
921.922	2473.15405
922.099	2242.86177
922.276	2291.46525
922.453	2217.50153
922.63	2420.34543
922.807	2185.79949
922.984	2359.07917
923.161	2225.95509
923.338	2365.41746
923.514	2181.57241
923.691	2384.43178
923.868	2437.24492
924.045	2168.89096
924.222	2168.89096
924.399	2219.61494
924.575	2020.92009
924.752	2223.84171
924.929	2008.23524
925.105	2067.42911
925.282	1872.91648
925.459	2126.61735
925.635	1889.83259
925.812	2158.32286
925.989	1879.26006
926.165	2088.56844
926.342	1784.10186
926.518	2113.93465
926.695	1881.37458
926.871	1957.49353
927.048	1822.16625
927.224	1796.79014
927.401	1485.89665
927.577	1794.67544
927.754	1504.93207
927.93	1737.57693
928.107	1526.08247
928.283	1809.47828
928.459	1593.76299
928.636	1610.68286
928.812	1481.66655
928.988	1727.00283
929.165	1433.02036
929.341	1676.24605
929.517	1581.073
929.693	1614.91281
929.87	1595.87798
930.046	1667.78642
930.222	1445.71067
930.398	1606.4529
930.574	1403.40968
930.751	1636.06243
930.927	1344.18878
931.103	1610.68286
931.279	1449.94078
931.455	1504.93207
931.631	1312.46372
931.807	1314.57871
931.983	1181.33902
932.159	1369.56906
932.335	1122.12565
932.511	1261.70453
932.687	1090.40563
932.863	1284.969
933.039	1024.85461
933.215	1308.23374
933.391	1126.35506
933.566	1284.969
933.742	1107.32284
933.918	1191.91316
934.094	1037.54148
934.27	1033.3125
934.445	855.71966
934.621	1105.20817
934.797	834.58132
934.973	938.16712
935.148	794.42096
935.324	946.62393
935.5	760.60439
935.675	906.45513
935.851	777.51236
936.027	733.13033
936.202	583.11332
936.378	547.20309
936.553	498.62502
936.729	642.26777
936.904	532.41767
937.08	616.91466
937.255	481.73009
937.431	490.17744
937.606	532.41767
937.782	515.52089
937.957	384.60334
938.133	431.05109
938.308	321.27857
938.483	388.82553
938.659	323.38914
938.834	317.05747
939.009	308.61551
939.185	329.72097
939.36	238.98052
939.535	298.06345
939.71	247.42003
939.886	255.85985
940.061	274.85054
940.236	192.56884
940.411	228.43158
940.586	281.18111
940.761	194.67826
940.937	266.41005
941.112	188.35008
941.287	217.88312
941.462	188.35008
941.637	236.87069
941.812	213.66387
941.987	312.83645
942.162	177.80353
942.337	101.88386
942.512	211.55428
942.687	198.89714
942.862	215.77348
943.037	232.6511
943.212	165.14835
943.386	114.5352
943.561	222.10244
943.736	146.16698
943.911	122.96987
944.086	203.11611
944.26	146.16698
944.435	137.73137
944.61	80.80005
944.785	163.03922
944.959	112.42659
945.134	169.36666
945.309	171.47585
945.483	78.6918
945.658	213.66387
945.833	198.89714
946.007	118.75249
946.182	228.43158
946.357	131.40488
946.531	186.24073
946.706	76.58356
946.88	179.9128
947.055	57.61047
947.229	116.64384
947.404	129.2961
947.578	207.33515
947.752	129.2961
947.927	201.00661
948.101	42.8549
948.276	160.93012
948.45	203.11611
948.624	156.71198
948.799	87.12496
948.973	253.74986
949.147	190.45945
949.321	177.80353
949.496	186.24073
949.67	224.21213
949.844	241.09037
950.018	122.96987
950.193	137.73137
950.367	238.98052
950.541	196.78769
950.715	120.86117
950.889	95.55848
951.063	186.24073
951.237	129.2961
951.411	241.09037
951.585	190.45945
951.759	148.27594
951.933	175.69428
952.107	211.55428
952.281	207.33515
952.455	146.16698
952.629	144.05805
952.803	211.55428
952.977	169.36666
953.151	266.41005
953.325	211.55428
953.499	232.6511
953.672	152.49392
953.846	291.73244
954.02	169.36666
954.194	179.9128
954.368	213.66387
954.541	194.67826
954.715	135.62252
954.889	179.9128
955.062	144.05805
955.236	203.11611
955.41	249.52996
955.583	192.56884
955.757	169.36666
955.93	163.03922
956.104	89.23331
956.278	120.86117
956.451	171.47585
956.625	253.74986
956.798	194.67826
956.972	171.47585
957.145	152.49392
957.319	160.93012
957.492	154.60294
957.665	144.05805
957.839	201.00661
958.012	247.42003
958.185	173.58505
958.359	238.98052
958.532	245.31013
958.705	209.44471
958.879	141.94913
959.052	156.71198
959.225	169.36666
959.398	236.87069
959.572	209.44471
959.745	260.07987
959.918	203.11611
960.091	194.67826
960.264	163.03922
960.438	192.56884
960.611	184.1314
960.784	135.62252
960.957	188.35008
961.13	135.62252
961.303	139.84024
961.476	209.44471
961.649	160.93012
961.822	175.69428
961.995	87.12496
962.168	169.36666
962.341	156.71198
962.514	188.35008
962.686	139.84024
962.859	213.66387
963.032	255.85985
963.205	118.75249
963.378	131.40488
963.551	222.10244
963.723	95.55848
963.896	163.03922
964.069	122.96987
964.242	118.75249
964.414	146.16698
964.587	203.11611
964.76	118.75249
964.932	80.80005
965.105	169.36666
965.278	177.80353
965.45	152.49392
965.623	156.71198
965.795	118.75249
965.968	93.45007
966.14	156.71198
966.313	169.36666
966.485	21.7775
966.658	173.58505
966.83	165.14835
967.003	219.99277
967.175	154.60294
967.348	112.42659
967.52	156.71198
967.692	101.88386
967.865	182.02209
968.037	169.36666
968.209	122.96987
968.382	118.75249
968.554	131.40488
968.726	213.66387
968.898	101.88386
969.071	93.45007
969.243	160.93012
969.415	158.82104
969.587	118.75249
969.759	55.50246
969.932	173.58505
970.104	68.15085
970.276	51.28651
970.448	135.62252
970.62	85.01664
970.792	101.88386
970.964	129.2961
971.136	141.94913
971.308	127.18734
971.48	144.05805
971.652	68.15085
971.824	106.10089
971.996	148.27594
972.168	85.01664
972.339	114.5352
972.511	146.16698
972.683	127.18734
972.855	17.5623
973.027	95.55848
973.199	131.40488
973.37	175.69428
973.542	59.7185
973.714	55.50246
973.886	78.6918
974.057	57.61047
974.229	112.42659
974.401	114.5352
974.572	160.93012
974.744	78.6918
974.915	135.62252
975.087	93.45007
975.259	122.96987
975.43	49.17857
975.602	120.86117
975.773	25.99279
975.945	53.39447
976.116	144.05805
976.288	19.66988
976.459	120.86117
976.63	28.10047
976.802	68.15085
976.973	131.40488
977.145	112.42659
977.316	156.71198
977.487	129.2961
977.659	38.63923
977.83	61.82655
978.001	68.15085
978.172	38.63923
978.344	131.40488
978.515	40.74705
978.686	150.38492
978.857	25.99279
979.028	169.36666
979.2	114.5352
979.371	42.8549
979.542	85.01664
979.713	93.45007
979.884	114.5352
980.055	129.2961
980.226	25.99279
980.397	53.39447
980.568	112.42659
980.739	40.74705
980.91	106.10089
981.081	118.75249
981.252	25.99279
981.423	89.23331
981.594	36.53143
981.765	9.13219
981.936	57.61047
982.106	44.96277
982.277	68.15085
982.448	114.5352
982.619	97.66692
982.79	59.7185
982.96	57.61047
983.131	144.05805
983.302	68.15085
983.472	139.84024
983.643	135.62252
983.814	101.88386
983.984	4.91728
984.155	4.91728
984.326	30.20817
984.496	66.04272
984.667	9.13219
984.837	38.63923
985.008	70.25899
985.178	13.34719
985.349	120.86117
985.519	40.74705
985.69	28.10047
985.86	70.25899
986.031	139.84024
986.201	38.63923
986.371	101.88386
986.542	-16.15583
986.712	129.2961
986.882	28.10047
987.053	-7.72688
987.223	25.99279
987.393	53.39447
987.563	91.34168
987.734	21.7775
987.904	36.53143
988.074	21.7775
988.244	-3.51226
988.414	120.86117
988.585	25.99279
988.755	103.99236
988.925	-5.61958
989.095	66.04272
989.265	59.7185
989.435	70.25899
989.605	0.70246
989.775	-14.04863
989.945	51.28651
990.115	72.36716
990.285	66.04272
990.455	171.47585
990.625	85.01664
990.795	7.02472
990.965	36.53143
991.134	110.318
991.304	97.66692
991.474	-3.51226
991.644	40.74705
991.814	19.66988
991.984	-16.15583
992.153	51.28651
992.323	36.53143
992.493	42.8549
992.662	70.25899
992.832	76.58356
993.002	-33.01256
993.171	51.28651
993.341	34.42366
993.511	53.39447
993.68	19.66988
993.85	-5.61958
994.019	30.20817
994.189	36.53143
994.358	36.53143
994.528	68.15085
994.697	44.96277
994.867	59.7185
995.036	2.80986
995.206	40.74705
995.375	51.28651
995.544	-33.01256
995.714	2.80986
995.883	59.7185
996.052	51.28651
996.222	36.53143
996.391	17.5623
996.56	-7.72688
996.73	-3.51226
996.899	-24.5844
997.068	4.91728
997.237	11.23968
997.406	95.55848
997.576	59.7185
997.745	17.5623
997.914	63.93463
998.083	59.7185
998.252	17.5623
998.421	-5.61958
998.59	-60.40135
998.759	2.80986
998.928	101.88386
999.097	25.99279
999.266	9.13219
999.435	-3.51226
999.604	-62.50801
999.773	59.7185
999.942	68.15085
1000.111	112.42659
1000.28	0.70246
1000.448	61.82655
1000.617	21.7775
1000.786	-5.61958
1000.955	34.42366
1001.124	87.12496
1001.292	-11.94141
1001.461	44.96277
1001.63	-3.51226
1001.798	32.3159
1001.967	9.13219
1002.136	47.07066
1002.304	89.23331
1002.473	25.99279
1002.642	-24.5844
1002.81	19.66988
1002.979	68.15085
1003.147	59.7185
1003.316	63.93463
1003.484	34.42366
1003.653	101.88386
1003.821	9.13219
1003.99	55.50246
1004.158	4.91728
1004.327	17.5623
1004.495	38.63923
1004.663	-41.44034
1004.832	-22.47729
1005	51.28651
1005.168	-7.72688
1005.337	38.63923
1005.505	82.90833
1005.673	44.96277
1005.842	34.42366
1006.01	17.5623
1006.178	42.8549
1006.346	42.8549
1006.514	34.42366
1006.683	28.10047
1006.851	-3.51226
1007.019	51.28651
1007.187	57.61047
1007.355	25.99279
1007.523	17.5623
1007.691	34.42366
1007.859	21.7775
1008.027	19.66988
1008.195	9.13219
1008.363	85.01664
1008.531	7.02472
1008.699	0.70246
1008.867	-16.15583
1009.035	28.10047
1009.203	34.42366
1009.37	-22.47729
1009.538	38.63923
1009.706	17.5623
1009.874	-18.26301
1010.042	9.13219
1010.209	51.28651
1010.377	-37.2265
1010.545	-24.5844
1010.713	21.7775
1010.88	21.7775
1011.048	47.07066
1011.216	13.34719
1011.383	19.66988
1011.551	11.23968
1011.718	7.02472
1011.886	38.63923
1012.054	-16.15583
1012.221	4.91728
1012.389	34.42366
1012.556	55.50246
1012.724	-47.7609
1012.891	-104.63569
1013.058	0.70246
1013.226	17.5623
1013.393	25.99279
1013.561	17.5623
1013.728	51.28651
1013.895	9.13219
1014.063	53.39447
1014.23	9.13219
1014.397	63.93463
1014.565	-14.04863
1014.732	28.10047
1014.899	11.23968
1015.066	-5.61958
1015.233	7.02472
1015.401	23.88513
1015.568	49.17857
1015.735	51.28651
1015.902	-11.94141
1016.069	-41.44034
1016.236	70.25899
1016.403	34.42366
1016.57	-49.86771
1016.737	-16.15583
1016.904	47.07066
1017.071	-20.37016
1017.238	0.70246
1017.405	47.07066
1017.572	-62.50801
1017.739	28.10047
1017.906	34.42366
1018.073	-7.72688
1018.24	11.23968
1018.407	93.45007
1018.573	61.82655
1018.74	19.66988
1018.907	53.39447
1019.074	-49.86771
1019.241	34.42366
1019.407	-26.69148
1019.574	-20.37016
1019.741	-16.15583
1019.907	42.8549
1020.074	78.6918
1020.241	-11.94141
1020.407	25.99279
1020.574	17.5623
1020.74	99.77538
1020.907	-5.61958
1021.073	72.36716
1021.24	-7.72688
1021.406	21.7775
1021.573	-30.90556
1021.739	21.7775
1021.906	47.07066
1022.072	4.91728
1022.239	21.7775
1022.405	44.96277
1022.571	4.91728
1022.738	44.96277
1022.904	76.58356
1023.07	30.20817
1023.237	-24.5844
1023.403	93.45007
1023.569	51.28651
1023.735	47.07066
1023.902	-7.72688
1024.068	44.96277
1024.234	-20.37016
1024.4	141.94913
1024.566	-39.33343
1024.732	19.66988
1024.898	4.91728
1025.065	28.10047
1025.231	-49.86771
1025.397	21.7775
1025.563	38.63923
1025.729	49.17857
1025.895	-39.33343
1026.061	-30.90556
1026.227	38.63923
1026.392	47.07066
1026.558	-45.65407
1026.724	13.34719
1026.89	2.80986
1027.056	70.25899
1027.222	2.80986
1027.388	34.42366
1027.553	55.50246
1027.719	-70.93437
1027.885	-7.72688
1028.051	-41.44034
1028.216	0.70246
1028.382	-45.65407
1028.548	-18.26301
1028.713	36.53143
1028.879	72.36716
1029.045	9.13219
1029.21	-7.72688
1029.376	-16.15583
1029.541	-30.90556
1029.707	34.42366
1029.873	9.13219
1030.038	36.53143
1030.204	30.20817
1030.369	13.34719
1030.534	25.99279
1030.7	49.17857
1030.865	47.07066
1031.031	-20.37016
1031.196	4.91728
1031.361	-45.65407
1031.527	34.42366
1031.692	30.20817
1031.857	25.99279
1032.023	-37.2265
1032.188	9.13219
1032.353	99.77538
1032.518	9.13219
1032.684	-20.37016
1032.849	9.13219
1033.014	28.10047
1033.179	-41.44034
1033.344	53.39447
1033.509	9.13219
1033.674	28.10047
1033.839	-22.47729
1034.004	17.5623
1034.17	-39.33343
1034.335	47.07066
1034.5	-30.90556
1034.664	57.61047
1034.829	11.23968
1034.994	9.13219
1035.159	47.07066
1035.324	25.99279
1035.489	0.70246
1035.654	-14.04863
1035.819	38.63923
1035.984	-14.04863
1036.148	-62.50801
1036.313	9.13219
1036.478	-16.15583
1036.643	70.25899
1036.807	4.91728
1036.972	34.42366
1037.137	-11.94141
1037.301	0.70246
1037.466	25.99279
1037.631	51.28651
1037.795	9.13219
1037.96	34.42366
1038.124	-3.51226
1038.289	-33.01256
1038.454	87.12496
1038.618	-24.5844
1038.783	51.28651
1038.947	15.45473
1039.111	17.5623
1039.276	-16.15583
1039.44	-7.72688
1039.605	9.13219
1039.769	-35.11954
1039.933	-39.33343
1040.098	47.07066
1040.262	0.70246
1040.426	-20.37016
1040.591	13.34719
1040.755	44.96277
1040.919	-41.44034
1041.083	36.53143
1041.248	-39.33343
1041.412	68.15085
1041.576	36.53143
1041.74	-16.15583
1041.904	-28.79853
1042.068	11.23968
1042.232	70.25899
1042.397	59.7185
1042.561	25.99279
1042.725	-16.15583
1042.889	34.42366
1043.053	11.23968
1043.217	-41.44034
1043.381	51.28651
1043.544	21.7775
1043.708	11.23968
1043.872	30.20817
1044.036	21.7775
1044.2	11.23968
1044.364	-3.51226
1044.528	59.7185
1044.691	13.34719
1044.855	78.6918
1045.019	61.82655
1045.183	21.7775
1045.346	28.10047
1045.51	30.20817
1045.674	-26.69148
1045.837	17.5623
1046.001	-11.94141
1046.165	85.01664
1046.328	15.45473
1046.492	-24.5844
1046.655	30.20817
1046.819	0.70246
1046.983	89.23331
1047.146	63.93463
1047.31	36.53143
1047.473	19.66988
1047.636	9.13219
1047.8	38.63923
1047.963	19.66988
1048.127	42.8549
1048.29	-41.44034
