Data from mixed_try1_USB4F045381__20__00085.txt Node

Date: Thu Apr 03 19:52:58 EDT 2025
User: mmckonesweet
Spectrometer: USB4F04538
Trigger mode: 4
Integration Time (sec): 2.700000E-3
Scans to average: 1
Electric dark correction enabled: true
Nonlinearity correction enabled: true
Boxcar width: 0
XAxis mode: Wavelengths
Number of Pixels in Spectrum: 3648
>>>>>Begin Spectral Data<<<<<
345.52	46.19237
345.736	46.19237
345.952	46.19237
346.168	-8.60492
346.384	48.30027
346.6	-2.28298
346.816	-25.46235
347.032	65.16435
347.248	-4.39031
347.464	-10.71218
347.68	6.14661
347.896	-76.0251
348.112	52.51615
348.328	-14.92664
348.544	-17.03383
348.76	33.54542
348.975	-6.49763
349.191	6.14661
349.407	31.43768
349.623	-0.17561
349.839	92.57157
350.055	44.08449
350.27	23.00695
350.486	23.00695
350.702	60.94819
350.918	-42.31821
351.133	25.11459
351.349	8.25407
351.565	14.57659
351.781	23.00695
351.996	41.97663
352.212	58.84015
352.428	-35.99745
352.644	-21.24814
352.859	56.73213
353.075	-31.78348
353.291	44.08449
353.506	52.51615
353.722	50.4082
353.938	-10.71218
354.153	8.25407
354.369	44.08449
354.584	14.57659
354.8	86.24649
355.016	-19.141
355.231	14.57659
355.447	31.43768
355.662	27.22227
355.878	-8.60492
356.093	71.48875
356.309	20.89932
356.524	-44.42508
356.74	65.16435
356.955	10.36155
357.171	35.65319
357.386	46.19237
357.602	-25.46235
357.817	8.25407
358.033	35.65319
358.248	12.46906
358.464	75.70514
358.679	-2.28298
358.895	14.57659
359.11	56.73213
359.325	27.22227
359.541	44.08449
359.756	20.89932
359.972	-14.92664
360.187	31.43768
360.402	8.25407
360.618	8.25407
360.833	33.54542
361.048	20.89932
361.264	6.14661
361.479	48.30027
361.694	14.57659
361.909	-8.60492
362.125	16.68414
362.34	-23.35526
362.555	60.94819
362.77	1.93177
362.986	23.00695
363.201	31.43768
363.416	73.59693
363.631	23.00695
363.847	23.00695
364.062	-0.17561
364.277	-19.141
364.492	-29.67646
364.707	10.36155
364.922	27.22227
365.138	52.51615
365.353	-31.78348
365.568	29.32996
365.783	71.48875
365.998	-42.31821
366.213	-10.71218
366.428	25.11459
366.643	60.94819
366.858	35.65319
367.073	-40.21131
367.288	-12.81942
367.503	8.25407
367.718	23.00695
367.933	-17.03383
368.148	86.24649
368.363	-23.35526
368.578	18.79172
368.793	84.13817
369.008	-10.71218
369.223	-10.71218
369.438	-2.28298
369.653	-57.06577
369.868	-59.17246
370.083	6.14661
370.298	23.00695
370.513	39.86879
370.728	-25.46235
370.943	-17.03383
371.157	12.46906
371.372	33.54542
371.587	-29.67646
371.802	52.51615
372.017	65.16435
372.232	31.43768
372.446	14.57659
372.661	23.00695
372.876	-50.74553
373.091	48.30027
373.306	8.25407
373.52	16.68414
373.735	98.89685
373.95	-33.89048
374.165	69.38059
374.379	52.51615
374.594	18.79172
374.809	27.22227
375.023	-27.56942
375.238	-19.141
375.453	48.30027
375.667	90.46319
375.882	-12.81942
376.097	56.73213
376.311	31.43768
376.526	33.54542
376.741	52.51615
376.955	1.93177
377.17	-29.67646
377.384	18.79172
377.599	1.93177
377.813	18.79172
378.028	46.19237
378.242	23.00695
378.457	56.73213
378.672	-4.39031
378.886	-46.53192
379.101	29.32996
379.315	73.59693
379.53	73.59693
379.744	39.86879
379.958	-0.17561
380.173	58.84015
380.387	31.43768
380.602	23.00695
380.816	4.03918
381.031	73.59693
381.245	-0.17561
381.459	-19.141
381.674	56.73213
381.888	-76.0251
382.103	-35.99745
382.317	35.65319
382.531	48.30027
382.746	29.32996
382.96	60.94819
383.174	-27.56942
383.388	29.32996
383.603	60.94819
383.817	18.79172
384.031	-14.92664
384.246	-21.24814
384.46	44.08449
384.674	12.46906
384.888	-25.46235
385.103	8.25407
385.317	27.22227
385.531	48.30027
385.745	52.51615
385.959	56.73213
386.174	-10.71218
386.388	8.25407
386.602	23.00695
386.816	31.43768
387.03	-10.71218
387.244	18.79172
387.458	12.46906
387.672	-21.24814
387.887	-19.141
388.101	52.51615
388.315	-50.74553
388.529	-12.81942
388.743	-17.03383
388.957	56.73213
389.171	39.86879
389.385	1.93177
389.599	23.00695
389.813	48.30027
390.027	25.11459
390.241	-38.10439
390.455	31.43768
390.669	48.30027
390.883	8.25407
391.097	10.36155
391.311	10.36155
391.525	56.73213
391.738	23.00695
391.952	58.84015
392.166	-2.28298
392.38	-10.71218
392.594	65.16435
392.808	-14.92664
393.022	6.14661
393.236	25.11459
393.449	-0.17561
393.663	31.43768
393.877	29.32996
394.091	-6.49763
394.305	-0.17561
394.518	14.57659
394.732	-31.78348
394.946	-17.03383
395.16	39.86879
395.373	56.73213
395.587	56.73213
395.801	-25.46235
396.015	37.76098
396.228	33.54542
396.442	27.22227
396.656	23.00695
396.869	25.11459
397.083	50.4082
397.297	-31.78348
397.51	50.4082
397.724	52.51615
397.938	44.08449
398.151	25.11459
398.365	-0.17561
398.578	6.14661
398.792	98.89685
399.005	-40.21131
399.219	50.4082
399.433	25.11459
399.646	-42.31821
399.86	46.19237
400.073	56.73213
400.287	56.73213
400.5	69.38059
400.714	-80.238
400.927	84.13817
401.141	39.86879
401.354	-40.21131
401.567	-25.46235
401.781	56.73213
401.994	35.65319
402.208	48.30027
402.421	-2.28298
402.635	71.48875
402.848	-48.63874
403.061	14.57659
403.275	10.36155
403.488	44.08449
403.701	-82.34441
403.915	-0.17561
404.128	56.73213
404.341	37.76098
404.555	10.36155
404.768	-84.4508
404.981	65.16435
405.195	-0.17561
405.408	31.43768
405.621	-19.141
405.834	6.14661
406.048	35.65319
406.261	-6.49763
406.474	58.84015
406.687	4.03918
406.9	-19.141
407.114	-19.141
407.327	56.73213
407.54	6.14661
407.753	-46.53192
407.966	119.98255
408.179	39.86879
408.392	31.43768
408.605	39.86879
408.819	-42.31821
409.032	-25.46235
409.245	48.30027
409.458	8.25407
409.671	23.00695
409.884	75.70514
410.097	-90.7698
410.31	-54.95905
410.523	73.59693
410.736	8.25407
410.949	-0.17561
411.162	41.97663
411.375	-27.56942
411.588	86.24649
411.801	-0.17561
412.014	27.22227
412.227	-25.46235
412.44	37.76098
412.653	-17.03383
412.865	56.73213
413.078	-50.74553
413.291	-44.42508
413.504	10.36155
413.717	23.00695
413.93	48.30027
414.143	67.27246
414.356	6.14661
414.568	31.43768
414.781	35.65319
414.994	67.27246
415.207	-42.31821
415.42	56.73213
415.632	-52.8523
415.845	-10.71218
416.058	31.43768
416.271	31.43768
416.483	39.86879
416.696	92.57157
416.909	-0.17561
417.121	44.08449
417.334	75.70514
417.547	-17.03383
417.759	-17.03383
417.972	-33.89048
418.185	-2.28298
418.397	16.68414
418.61	-10.71218
418.823	-12.81942
419.035	58.84015
419.248	-44.42508
419.46	39.86879
419.673	4.03918
419.885	50.4082
420.098	-27.56942
420.311	-78.13156
420.523	41.97663
420.736	14.57659
420.948	-52.8523
421.161	50.4082
421.373	14.57659
421.586	73.59693
421.798	-69.70555
422.01	52.51615
422.223	56.73213
422.435	-73.91861
422.648	-40.21131
422.86	46.19237
423.073	35.65319
423.285	14.57659
423.497	10.36155
423.71	27.22227
423.922	39.86879
424.134	33.54542
424.347	4.03918
424.559	1.93177
424.771	65.16435
424.984	41.97663
425.196	23.00695
425.408	46.19237
425.621	16.68414
425.833	23.00695
426.045	-25.46235
426.257	-42.31821
426.47	-19.141
426.682	44.08449
426.894	8.25407
427.106	56.73213
427.318	25.11459
427.531	-8.60492
427.743	-40.21131
427.955	20.89932
428.167	-38.10439
428.379	35.65319
428.591	48.30027
428.804	-17.03383
429.016	23.00695
429.228	-40.21131
429.44	-42.31821
429.652	58.84015
429.864	65.16435
430.076	10.36155
430.288	44.08449
430.5	31.43768
430.712	39.86879
430.924	8.25407
431.136	44.08449
431.348	23.00695
431.56	90.46319
431.772	82.02988
431.984	-2.28298
432.196	58.84015
432.408	16.68414
432.62	23.00695
432.832	-27.56942
433.044	35.65319
433.256	48.30027
433.468	16.68414
433.679	44.08449
433.891	35.65319
434.103	-57.06577
434.315	69.38059
434.527	56.73213
434.739	63.05626
434.95	14.57659
435.162	33.54542
435.374	33.54542
435.586	23.00695
435.798	31.43768
436.009	50.4082
436.221	39.86879
436.433	-69.70555
436.645	14.57659
436.856	-6.49763
437.068	39.86879
437.28	-2.28298
437.491	71.48875
437.703	6.14661
437.915	8.25407
438.126	50.4082
438.338	50.4082
438.55	50.4082
438.761	31.43768
438.973	35.65319
439.184	79.92161
439.396	73.59693
439.608	98.89685
439.819	67.27246
440.031	-8.60492
440.242	35.65319
440.454	-65.49239
440.665	16.68414
440.877	52.51615
441.088	16.68414
441.3	39.86879
441.511	71.48875
441.723	1.93177
441.934	-44.42508
442.146	50.4082
442.357	48.30027
442.569	48.30027
442.78	-38.10439
442.991	56.73213
443.203	65.16435
443.414	73.59693
443.626	48.30027
443.837	16.68414
444.048	10.36155
444.26	88.35483
444.471	82.02988
444.682	12.46906
444.894	48.30027
445.105	10.36155
445.316	48.30027
445.528	35.65319
445.739	67.27246
445.95	126.30869
446.161	69.38059
446.373	-23.35526
446.584	31.43768
446.795	8.25407
447.006	-48.63874
447.217	41.97663
447.429	41.97663
447.64	90.46319
447.851	-10.71218
448.062	14.57659
448.273	23.00695
448.484	90.46319
448.695	73.59693
448.907	-6.49763
449.118	48.30027
449.329	16.68414
449.54	20.89932
449.751	27.22227
449.962	8.25407
450.173	-50.74553
450.384	8.25407
450.595	44.08449
450.806	16.68414
451.017	92.57157
451.228	33.54542
451.439	65.16435
451.65	1.93177
451.861	-2.28298
452.072	65.16435
452.283	58.84015
452.494	-2.28298
452.705	56.73213
452.915	18.79172
453.126	94.67998
453.337	8.25407
453.548	48.30027
453.759	73.59693
453.97	39.86879
454.181	29.32996
454.391	90.46319
454.602	-2.28298
454.813	75.70514
455.024	69.38059
455.235	39.86879
455.445	25.11459
455.656	50.4082
455.867	16.68414
456.078	103.11382
456.288	48.30027
456.499	8.25407
456.71	27.22227
456.921	1.93177
457.131	-2.28298
457.342	37.76098
457.553	44.08449
457.763	-2.28298
457.974	27.22227
458.184	39.86879
458.395	14.57659
458.606	126.30869
458.816	6.14661
459.027	18.79172
459.237	35.65319
459.448	-6.49763
459.659	73.59693
459.869	90.46319
460.08	16.68414
460.29	25.11459
460.501	16.68414
460.711	16.68414
460.922	39.86879
461.132	35.65319
461.343	75.70514
461.553	31.43768
461.764	6.14661
461.974	14.57659
462.184	-2.28298
462.395	37.76098
462.605	98.89685
462.816	58.84015
463.026	-2.28298
463.236	75.70514
463.447	52.51615
463.657	18.79172
463.867	52.51615
464.078	67.27246
464.288	37.76098
464.498	39.86879
464.709	14.57659
464.919	65.16435
465.129	-14.92664
465.339	50.4082
465.55	86.24649
465.76	25.11459
465.97	50.4082
466.18	29.32996
466.391	65.16435
466.601	44.08449
466.811	31.43768
467.021	98.89685
467.231	86.24649
467.441	90.46319
467.651	41.97663
467.862	50.4082
468.072	86.24649
468.282	134.74384
468.492	101.00532
468.702	94.67998
468.912	27.22227
469.122	92.57157
469.332	98.89685
469.542	14.57659
469.752	27.22227
469.962	27.22227
470.172	41.97663
470.382	109.43943
470.592	84.13817
470.802	48.30027
471.012	98.89685
471.222	50.4082
471.432	119.98255
471.642	143.17933
471.852	94.67998
472.062	23.00695
472.272	44.08449
472.482	75.70514
472.691	101.00532
472.901	44.08449
473.111	37.76098
473.321	31.43768
473.531	92.57157
473.741	101.00532
473.95	132.63502
474.16	103.11382
474.37	82.02988
474.58	151.61516
474.79	101.00532
474.999	149.50617
475.209	107.33087
475.419	79.92161
475.628	96.7884
475.838	56.73213
476.048	143.17933
476.258	149.50617
476.467	145.28826
476.677	90.46319
476.886	115.76524
477.096	157.94226
477.306	217.0041
477.515	202.23715
477.725	107.33087
477.935	77.81336
478.144	132.63502
478.354	221.22341
478.563	187.47118
478.773	202.23715
478.982	267.64093
479.192	221.22341
479.401	193.79933
479.611	225.4428
479.82	202.23715
480.03	259.20069
480.239	233.8818
480.449	259.20069
480.658	368.94661
480.868	217.0041
481.077	295.07378
481.287	231.77202
481.496	303.51529
481.705	368.94661
481.915	238.10143
482.124	254.98069
482.333	362.61382
482.543	282.41208
482.752	246.5409
482.961	333.06283
483.171	377.39057
483.38	322.50973
483.589	387.9459
483.799	320.39917
484.008	339.39489
484.217	311.95708
484.426	343.61636
484.636	421.72573
484.845	345.72712
485.054	413.28038
485.263	377.39057
485.472	449.17485
485.682	411.16909
485.891	354.17033
486.1	440.72869
486.309	510.41683
486.518	398.50165
486.727	411.16909
486.936	495.63314
487.146	554.77208
487.355	573.78333
487.564	567.44613
487.773	571.67092
487.982	476.6266
488.191	601.24592
488.4	616.03437
488.609	630.82344
488.818	546.32299
489.027	651.95172
489.236	700.55124
489.445	607.58375
489.654	635.049
489.863	651.95172
490.072	656.17752
490.281	751.27006
490.49	747.04326
490.698	706.89075
490.907	715.34359
491.116	859.06665
491.325	878.09201
491.534	814.67687
491.743	740.70313
491.952	804.10846
492.16	869.63621
492.369	971.11408
492.578	833.70058
492.787	1021.85913
492.996	979.57133
493.204	990.14304
493.413	907.68835
493.622	1062.03478
493.831	952.08568
494.039	1129.70336
494.248	1019.74468
494.457	1062.03478
494.665	1011.28694
494.874	1171.9986
495.083	1095.86844
495.291	1180.45784
495.5	1097.98309
495.709	1207.95077
495.917	1197.3765
496.126	1074.72225
496.335	1256.59344
496.543	1252.36358
496.752	1207.95077
496.96	1461.74982
497.169	1281.9728
497.377	1353.88261
497.586	1288.3177
497.794	1470.21003
498.003	1358.11266
498.211	1351.76759
498.42	1360.22769
498.628	1394.06824
498.837	1451.17456
499.045	1565.38669
499.254	1451.17456
499.462	1624.60641
499.671	1628.83634
499.879	1675.36484
500.087	1599.22671
500.296	1666.9052
500.504	1641.52605
500.713	1620.37648
500.921	1671.13503
501.129	1603.45668
501.338	1554.81161
501.546	1679.59464
501.754	1656.3306
501.962	1717.66231
502.171	1734.58094
502.379	1882.60804
502.587	1654.21567
502.795	1886.83705
503.004	1806.48248
503.212	1857.23355
503.42	1842.43143
503.628	2001.01182
503.837	1929.12598
504.045	1882.60804
504.253	1867.80634
504.461	2087.68765
504.669	1950.2696
504.877	2100.37091
505.085	2110.94009
505.294	2157.44217
505.502	2039.06605
505.71	2148.98753
505.918	2113.0539
506.126	2091.91543
506.334	1992.55503
506.542	2341.29627
506.75	2121.50908
506.958	2273.67976
507.166	2060.20634
507.374	2305.37622
507.582	2220.84775
507.79	2322.28012
507.998	2341.29627
508.206	2368.76263
508.414	2195.48643
508.622	2398.33988
508.83	2307.48924
509.037	2419.46523
509.245	2246.20781
509.453	2434.25236
509.661	2389.88944
509.869	2541.97086
510.077	2282.13235
510.285	2392.00206
510.492	2482.83489
510.7	2628.54623
510.908	2731.98699
511.116	2666.54844
511.324	2601.0977
511.531	2710.87914
511.739	2628.54623
511.947	2816.40501
512.155	2670.77065
512.362	2731.98699
512.57	2717.21163
512.778	2653.88149
512.985	2744.65106
513.193	2871.2649
513.401	2837.50609
513.608	2875.4845
513.816	2769.97777
514.024	2856.49587
514.231	2972.5192
514.439	2930.33401
514.646	2841.72614
514.854	3118.01137
515.061	2845.94613
515.269	3058.97997
515.477	2917.6773
515.684	3177.03026
515.892	2947.2088
516.099	3014.69839
516.307	3021.02475
516.514	3177.03026
516.722	3109.57908
516.929	3309.7755
517.136	3090.60548
517.344	3158.06129
517.551	3276.06875
517.759	3343.47787
517.966	3191.783
518.173	3368.75173
518.381	3259.21374
518.588	3313.98854
518.796	3195.99792
519.003	3343.47787
519.21	3208.64228
519.418	3377.17579
519.625	3227.6077
519.832	3615.03689
520.039	3284.49584
520.247	3568.74598
520.454	3415.08059
520.661	3697.07564
520.868	3528.76023
521.076	3741.2383
521.283	3524.55081
521.49	3480.34756
521.697	3610.829
521.904	3707.59133
522.112	3581.37167
522.319	3758.05993
522.526	3570.85031
522.733	3827.43591
522.94	3699.17882
523.147	3806.41515
523.354	3593.99669
523.561	3932.50991
523.768	3776.98277
523.975	4062.7314
524.183	3623.45245
524.39	4027.03335
524.597	3829.53788
524.804	4077.42886
525.011	3831.63983
525.218	3976.62599
525.425	4092.1253
525.632	3997.63049
525.838	4033.33344
526.045	4155.09846
526.252	4024.93328
526.459	4287.28024
526.666	4251.62046
526.873	4283.08529
527.08	4343.90358
527.287	4402.60742
527.494	4155.09846
527.701	4402.60742
527.907	4339.7098
528.114	4387.93306
528.321	4228.5432
528.528	4488.53574
528.735	4429.85698
528.941	4366.96784
529.148	4490.63109
529.355	4668.65483
529.562	4285.18277
529.768	4616.31163
529.975	4320.83671
530.182	4720.98399
530.388	4369.06446
530.595	4704.24019
530.802	4444.52828
531.008	4852.79074
531.215	4681.21511
531.422	4999.13638
531.628	4662.37439
531.835	4888.34215
532.042	4731.44813
532.248	4783.76035
532.455	4760.74472
532.661	4982.41686
532.868	4898.79719
533.074	4779.57589
533.281	5099.42242
533.487	5162.07407
533.694	5043.01808
533.9	5059.73224
534.107	4894.61525
534.313	5185.0411
534.52	4871.6129
534.726	5314.43882
534.933	4997.04652
535.139	5339.47315
535.345	4971.96641
535.552	5241.40276
535.758	5118.22011
535.965	5243.4899
536.171	5007.49558
536.377	5185.0411
536.584	5281.05446
536.79	5604.21249
536.996	5272.70743
537.203	5351.98905
537.409	5262.27313
537.615	5406.21486
537.821	5458.34009
538.028	5422.89653
538.234	5525.03894
538.44	5483.35498
538.646	5533.3746
538.853	5677.10538
539.059	5452.08584
539.265	5504.19814
539.471	5766.61993
539.677	5675.02313
539.883	5600.04631
540.09	5943.43892
540.296	5760.37615
540.502	5697.92661
540.708	5697.92661
540.914	5856.09084
541.12	5937.20115
541.326	5972.54569
541.532	5862.33137
541.738	5955.91381
541.944	5756.21351
542.15	6036.97998
542.356	5941.35968
542.562	6182.39357
542.768	5824.88502
542.974	6097.23673
543.18	6072.30531
543.386	6248.83003
543.592	6321.46745
543.798	6582.72574
544.004	6124.24196
544.21	6211.46248
544.415	6321.46745
544.621	6429.33307
544.827	6277.88844
545.033	6499.82655
545.239	6296.56642
545.445	6727.71048
545.651	6246.75426
545.856	6617.9467
546.062	6547.49811
546.268	6528.84548
546.474	6356.73815
546.679	6219.76704
546.885	6269.58651
547.091	6412.74246
547.297	6284.11464
547.502	6429.33307
547.708	6439.70144
547.914	6702.86396
548.119	6555.78757
548.325	6758.764
548.531	6512.26379
548.736	6611.73172
548.942	6580.65371
549.147	6694.58105
549.353	6669.73012
549.559	6880.858
549.764	6750.48357
549.97	6798.09107
550.175	6593.08554
550.381	6913.95459
550.586	6760.83405
550.792	6947.04539
550.997	7044.21621
551.203	6893.2699
551.408	7079.35088
551.614	7091.74981
551.819	7135.13972
552.025	7166.12651
552.23	7002.873
552.435	7292.08808
552.641	7135.13972
552.846	7316.85775
553.052	7151.66663
553.257	7560.2592
553.462	7316.85775
553.668	7368.45111
553.873	7106.21421
554.078	7415.90495
554.283	7380.83148
554.489	7562.32063
554.694	7397.33743
554.899	7554.07475
555.105	7558.19773
555.31	7784.83109
555.515	7434.47071
555.72	7539.64362
555.925	7151.66663
556.131	7527.27324
556.336	7430.34514
556.541	7679.78745
556.746	7341.62427
556.951	7661.24465
557.156	7665.36542
557.361	7893.9365
557.567	7708.62841
557.772	8002.98396
557.977	7624.15389
558.182	7933.03561
558.387	7821.8923
558.592	7898.05255
558.797	7968.01274
559.002	8007.09783
559.207	7869.23849
559.412	7933.03561
559.617	7850.71303
559.822	7935.09325
560.027	7961.84073
560.232	7881.58787
560.437	7702.44855
560.642	8009.15474
560.847	8042.06247
561.051	7910.40019
561.256	7803.36254
561.461	8124.30917
561.666	7828.06852
561.871	8338.00135
562.076	8294.86915
562.281	8212.68861
562.485	8042.06247
562.69	8298.97735
562.895	7990.64185
563.1	8270.21829
563.305	8146.92138
563.509	8229.12724
563.714	7996.81299
563.919	8229.12724
564.123	8052.34508
564.328	8262.00071
564.533	8056.45798
564.737	8140.75465
564.942	8422.18715
565.147	8580.2051
565.351	8335.94764
565.556	8309.24751
565.761	8309.24751
565.965	8450.9261
566.17	8368.80481
566.374	8516.60103
566.579	8498.13193
566.784	8395.49762
566.988	8399.60391
567.193	8828.29494
567.397	8370.85822
567.602	8672.50149
567.806	8358.53748
568.011	8705.30892
568.215	8561.74127
568.42	8775.00906
568.624	8639.68932
568.828	8838.54083
569.033	8383.17827
569.237	9082.26147
569.442	8918.44329
569.646	8813.94995
569.85	8772.95936
570.055	8936.87846
570.259	8965.55254
570.463	9209.14424
570.668	8830.34416
570.872	8822.1472
571.076	8795.50508
571.281	8996.27093
571.485	8988.07975
571.689	8904.10382
571.893	8953.26407
572.098	9172.31407
572.302	8947.1196
572.506	9190.72984
572.71	9172.31407
572.914	9393.2137
573.119	9090.44944
573.323	9176.40658
573.527	8975.79244
573.731	9474.97961
573.935	9293.01481
574.139	9415.70191
574.343	9213.23615
574.547	9389.12472
574.751	9397.30261
574.955	9564.89244
575.159	9352.32097
575.364	9395.25816
575.568	9051.55409
575.772	9307.33136
575.976	9348.23134
576.18	9180.49903
576.383	9393.2137
576.587	9711.95686
576.791	9329.82717
576.995	9716.04084
577.199	9335.96204
577.403	9458.6285
577.607	9401.39146
577.811	9566.93555
578.015	9679.28283
578.219	9899.75735
578.422	9783.4177
578.626	9771.16859
578.83	9662.94433
579.034	9752.7939
579.238	9852.8191
579.442	10056.84233
579.645	9526.07023
579.849	9754.8356
580.053	9811.99684
580.257	9773.21014
580.46	9752.7939
580.664	9969.13012
580.868	9926.28423
581.071	10150.64496
581.275	9956.88909
581.479	10062.9608
581.682	9852.8191
581.886	10166.95544
582.09	9995.65056
582.293	10380.94977
582.497	10065.00026
582.7	10293.33194
582.904	10252.57104
583.107	10097.62973
583.311	10026.24805
583.515	10228.1119
583.718	9989.53067
583.922	10162.8779
584.125	10185.30368
584.329	10058.88183
584.532	10115.98222
584.735	10372.8003
584.939	9916.08188
585.142	10348.35065
585.346	10152.68381
585.549	10448.17486
585.753	10279.06623
585.956	10545.93179
586.159	10533.71378
586.363	10374.83769
586.566	10564.25797
586.769	10723.04281
586.973	10466.50653
587.176	10702.68993
587.379	10566.29415
587.582	10737.28911
587.786	10507.23985
587.989	10769.84989
588.192	10615.15869
588.395	10686.40675
588.599	10458.35925
588.802	10784.09427
589.005	10729.14844
589.208	10879.72026
589.411	10725.07803
589.615	11058.69691
589.818	10954.9824
590.021	10936.67682
590.224	10812.58131
590.427	10979.38841
590.63	10910.23382
590.833	11194.90629
591.036	11068.86346
591.239	10975.32085
591.442	10873.61724
591.645	11105.46078
591.848	11168.48135
592.051	11284.33152
592.254	10993.62451
592.457	11018.02798
592.66	11018.02798
592.863	11268.07387
593.066	11225.39442
593.269	11345.29193
593.472	11109.52693
593.675	11550.46018
593.878	11487.49819
594.081	11434.6843
594.284	11446.8727
594.486	11513.90271
594.689	11589.04534
594.892	11467.18592
595.095	11446.8727
595.298	11345.29193
595.5	11442.80994
595.703	11566.70697
595.906	11465.15465
596.109	11367.64181
596.311	11367.64181
596.514	11796.13091
596.717	11956.45907
596.92	11907.75725
597.122	11542.33656
597.325	11605.29072
597.528	11507.8095
597.73	11625.59663
597.933	11560.6145
598.136	11871.22779
598.338	11477.34218
598.541	11727.11263
598.743	11848.90289
598.946	11672.29677
599.148	11688.53918
599.351	11751.47317
599.554	11901.6692
599.756	12027.47424
599.959	11901.6692
600.161	11820.48792
600.363	11824.5473
600.566	12037.61848
600.768	12185.70238
600.971	12358.07945
601.173	12108.62267
601.376	12461.48165
601.578	12214.09746
601.78	12100.50838
601.983	11936.16722
602.185	12157.30585
602.388	12250.60333
602.59	12236.40688
602.792	12128.90785
602.995	12187.73065
603.197	12258.71543
603.399	12049.7913
603.601	12055.8776
603.804	12033.56081
604.006	12212.06929
604.208	12098.47979
604.41	12372.27295
604.613	12508.10838
604.815	12195.84365
605.017	12471.61819
605.219	12392.54879
605.421	12088.33672
605.623	12068.05
605.826	12429.04362
606.028	12195.84365
606.23	12433.09846
606.432	12266.82741
606.634	12856.6924
606.836	12481.75456
607.038	12735.11305
607.24	12364.16242
607.442	12493.918
607.644	12177.58923
607.846	12801.98419
608.048	12453.3723
608.25	12457.42698
608.452	12579.05561
608.654	12656.07541
608.856	12435.12588
609.058	12613.51293
609.26	12641.88821
609.462	12633.78111
609.664	12960.01944
609.866	12708.76816
610.067	12591.21722
610.269	12775.64175
610.471	12724.98052
610.673	12672.28899
610.875	12307.38563
611.077	12688.50219
611.278	12739.16602
611.48	12714.84784
611.682	12479.7273
611.884	12891.13628
612.085	12972.17467
612.287	12848.58773
612.489	12848.58773
612.69	13093.71704
612.892	12739.16602
613.094	12925.57861
613.295	12552.70468
613.497	12747.2719
613.699	12733.08656
613.9	12874.92759
614.102	12854.66624
614.304	13105.87032
614.505	12850.61391
614.707	13134.22729
614.908	12716.87439
615.11	13089.66591
615.311	12714.84784
615.513	12696.60865
615.714	12909.37065
615.916	12682.42229
616.117	12775.64175
616.319	12822.24696
616.52	12860.7447
616.722	13000.53615
616.923	13144.35456
617.124	13061.30747
617.326	12943.81218
617.527	12994.45878
617.729	12804.01049
617.93	12812.11564
618.131	13176.76104
618.333	13199.03983
618.534	13142.32912
618.735	13280.04905
618.937	13184.86248
619.138	13162.58335
619.339	13024.84522
619.54	13203.09045
619.742	12994.45878
619.943	13008.63926
620.144	12850.61391
620.345	13199.03983
620.546	13101.81924
620.748	13348.9015
620.949	13134.22729
621.15	13172.7103
621.351	13136.25275
621.552	13525.06174
621.753	13346.8765
621.954	13537.20967
622.155	13174.73567
622.356	13352.9515
622.558	13227.39385
622.759	13401.55018
622.96	13413.69949
623.161	13407.62485
623.362	13369.15132
623.563	13620.21709
623.764	13435.97286
623.965	13468.36966
624.166	13342.82648
624.366	13387.3758
624.567	13134.22729
624.768	13357.00148
624.969	13081.5636
625.17	13433.94803
625.371	13103.84478
625.572	13217.26752
625.773	13288.14959
625.973	13516.96305
626.174	13442.04733
626.375	13650.58422
626.576	13409.64973
626.777	13549.35746
626.977	13352.9515
627.178	13666.77972
627.379	13259.7974
627.58	13652.60867
627.78	13484.56769
627.981	13539.23431
628.182	13474.44395
628.382	13563.52973
628.583	13717.3893
628.784	13774.0697
628.984	13458.24576
629.185	13765.97264
629.386	13782.1667
629.586	13956.24124
629.787	13553.4067
629.987	13751.80268
630.188	13620.21709
630.388	13691.07257
630.589	13233.4696
630.79	13504.8149
630.99	13620.21709
631.191	13581.75097
631.391	13749.77839
631.591	13693.09695
631.792	13587.82465
631.992	13917.78466
632.193	13828.72356
632.393	13537.20967
632.594	13676.90179
632.794	14031.12775
632.994	13806.45743
633.195	13919.80871
633.395	13765.97264
633.595	13871.23066
633.796	13915.7606
633.996	14284.09989
634.196	13729.5353
634.397	13782.1667
634.597	13701.19445
634.797	13778.1182
634.997	13897.54397
635.198	13996.72086
635.398	13601.99645
635.598	13897.54397
635.798	13952.19323
635.998	13950.16921
636.199	13753.82697
636.399	14180.89118
636.599	13948.1452
636.799	14075.6533
636.999	13778.1182
637.199	13940.04911
637.399	13822.65101
637.599	13881.35122
637.799	13855.03763
637.999	14103.98716
638.199	14320.52533
638.399	14160.65358
638.599	13966.36124
638.799	14326.59619
638.999	14269.93428
639.199	14284.09989
639.399	14154.58226
639.599	14358.97381
639.799	13998.74481
639.999	14300.28905
640.199	14033.15167
640.399	14197.08112
640.599	13727.51098
640.799	14648.33226
640.998	14191.00991
641.198	14502.64469
641.398	14087.79643
641.598	14363.02098
641.798	14587.62984
641.997	14448.01016
642.197	13893.4958
642.397	14448.01016
642.597	14215.29465
642.796	14482.40979
642.996	13798.36057
643.196	14696.89352
643.395	14567.39547
643.595	14441.93959
643.795	14253.7449
643.994	14589.65327
644.194	14373.13889
644.394	14660.47263
644.593	14530.97331
644.793	14565.37203
644.992	14245.65017
645.192	14472.2923
645.392	14326.59619
645.591	14729.26741
645.791	14565.37203
645.99	14622.02799
646.19	14437.89254
646.389	14731.29077
646.589	14607.86408
646.788	14543.11408
646.987	14377.18604
647.187	14709.03376
647.386	14381.23318
647.586	14769.73445
647.785	14516.80903
647.984	14913.39021
648.184	14535.02024
648.383	14757.59437
648.582	14640.23865
648.782	15032.76421
648.981	14425.75135
649.18	14777.82782
649.38	14773.78114
649.579	14921.4834
649.778	15042.8806
649.977	14990.2753
650.177	14656.42584
650.376	14785.92118
650.575	14553.23135
650.774	14935.64648
650.973	14668.56619
651.173	14998.36843
651.372	15101.55556
651.571	14840.55106
651.77	14798.0612
651.969	14943.73966
652.168	14824.36448
652.367	14935.64648
652.566	14850.66766
652.765	15186.53294
652.964	14976.1123
653.163	15283.65005
653.362	15000.39172
653.561	15190.57948
653.76	15243.18455
653.959	15354.46491
654.158	15287.69661
654.357	15044.90387
654.556	14915.41351
654.755	15085.36938
654.954	15048.95043
655.153	14923.5067
655.352	15344.34848
655.551	15311.97595
655.749	15431.3501
655.948	15303.88283
656.147	15530.49258
656.346	15516.32928
656.545	15212.83546
656.743	15186.53294
656.942	14941.71636
657.141	15443.48992
657.34	15348.39505
657.538	15407.0705
657.737	15081.32283
657.936	15463.723
658.135	14994.32187
658.333	15344.34848
658.532	15103.57883
658.731	14929.57659
658.929	14891.13388
659.128	15467.76963
659.326	15409.09379
659.525	15380.76767
659.724	15475.86288
659.922	15324.11564
660.121	15218.90528
660.319	15032.76421
660.518	15127.85809
660.716	15532.51591
660.915	15239.138
661.113	15688.31462
661.312	15457.65307
661.51	15498.11937
661.709	15354.46491
661.907	15293.76644
662.105	15575.00602
662.304	15829.9545
662.502	15261.39402
662.701	15617.49644
662.899	15251.27764
663.097	15471.81625
663.296	15231.04491
663.494	15805.67301
663.692	15490.02609
663.891	15336.25534
664.089	15350.41833
664.287	15538.58591
664.485	15301.85955
664.684	15761.15735
664.882	15356.48819
665.08	15765.20421
665.278	15467.76963
665.476	15540.60924
665.675	15372.6745
665.873	15550.72592
666.071	15390.88413
666.269	15520.37593
666.467	15356.48819
666.665	15425.28019
666.863	15109.64865
667.061	15231.04491
667.259	15263.41729
667.457	15368.62792
667.655	15283.65005
667.853	15542.63257
668.051	15447.53653
668.249	15366.60464
668.447	15216.88201
668.645	15585.12275
668.843	15303.88283
669.041	15538.58591
669.239	14955.87941
669.437	15146.06753
669.635	15346.37176
669.833	15556.79593
670.031	15394.93072
670.229	15575.00602
670.426	15514.30595
670.624	15370.65121
670.822	15431.3501
671.02	15536.56257
671.218	15405.0472
671.415	15362.55806
671.613	15409.09379
671.811	15651.89371
672.009	15483.95614
672.206	15435.3967
672.404	15415.16369
672.602	15421.23359
672.799	15471.81625
672.997	15409.09379
673.195	15328.16221
673.392	15785.43856
673.59	15097.50901
673.788	15150.11407
673.985	15071.20646
674.183	15496.09605
674.38	15301.85955
674.578	15417.18699
674.775	14923.5067
674.973	15160.23042
675.17	15338.27862
675.368	15356.48819
675.565	15350.41833
675.763	15631.66
675.96	15485.97946
676.158	15597.26286
676.355	15065.13663
676.553	15718.66561
676.75	15255.32419
676.947	15453.60646
677.145	15105.6021
677.342	15344.34848
677.539	15247.2311
677.737	15085.36938
677.934	15055.02026
678.131	15156.18388
678.329	15425.28019
678.526	15609.403
678.723	15518.35261
678.92	16010.04771
679.118	15564.8893
679.315	15688.31462
679.512	15581.07606
679.709	15577.02936
679.906	15364.58135
680.104	15241.16128
680.301	15042.8806
680.498	15081.32283
680.695	15229.02164
680.892	15477.88619
681.089	14885.06396
681.286	15131.90463
681.483	14840.55106
681.68	15257.34747
681.877	15036.81076
682.075	15475.86288
682.272	15146.06753
682.469	15585.12275
682.665	15384.81425
682.862	15259.37074
683.059	15265.44057
683.256	15502.16601
683.453	15111.67192
683.65	14931.59989
683.847	15318.04579
684.044	15192.60275
684.241	15010.50813
684.438	15526.44592
684.635	14992.29858
684.831	15485.97946
685.028	15243.18455
685.225	15283.65005
685.422	14818.29451
685.619	15012.53141
685.815	15052.99698
686.012	15233.06818
686.209	15040.85732
686.405	15344.34848
686.602	14992.29858
686.799	14947.78624
686.996	15287.69661
687.192	15135.95117
687.389	14731.29077
687.586	15283.65005
687.782	15222.95182
687.979	15176.41659
688.175	15048.95043
688.372	15419.21029
688.568	15188.55621
688.765	15018.60125
688.962	15206.76565
689.158	15328.16221
689.355	14978.13558
689.551	15137.97445
689.748	14715.10386
689.944	14794.01453
690.14	14626.07481
690.337	14826.38781
690.533	14899.2271
690.73	15008.48485
690.926	14968.01915
691.123	15030.74093
691.319	14864.83086
691.515	15170.34677
691.712	15158.20715
691.908	14721.17396
692.104	15386.83755
692.301	15174.39332
692.497	14791.9912
692.693	14757.59437
692.889	14852.69097
693.086	14929.57659
693.282	14878.99403
693.478	15226.99837
693.674	14866.85417
693.87	14658.44923
694.067	14666.5428
694.263	14917.43681
694.459	14998.36843
694.655	14949.80953
694.851	14787.94452
695.047	14796.03787
695.243	14903.2737
695.439	14783.89784
695.635	14868.87748
695.831	14915.41351
696.027	14466.22178
696.224	14573.46579
696.42	14717.12723
696.615	14818.29451
696.811	14429.79842
697.007	14506.69165
697.203	14480.3863
697.399	14771.7578
697.595	14595.72355
697.791	14745.45426
697.987	14640.23865
698.183	14854.71429
698.379	14965.99586
698.575	14972.06572
698.77	14856.7376
698.966	14933.62319
699.162	14860.78423
699.358	15069.18318
699.554	14747.47762
699.749	14887.08727
699.945	14583.58297
700.141	14702.96364
700.337	14674.63635
700.532	14520.85598
700.728	14577.51267
700.924	14686.77664
701.119	14617.98117
701.315	14579.5361
701.511	14186.96242
701.706	14474.3158
701.902	14367.06815
702.097	14615.95775
702.293	14360.9974
702.489	14597.74697
702.684	14318.50171
702.88	14719.15059
703.075	14704.98702
703.271	14640.23865
703.466	14785.92118
703.662	14741.40755
703.857	14579.5361
704.053	14575.48923
704.248	14443.96311
704.443	14739.3842
704.639	14796.03787
704.834	14775.80448
705.03	14494.55074
705.225	14658.44923
705.42	14358.97381
705.616	14727.24404
705.811	14551.2079
706.006	14656.42584
706.202	14579.5361
706.397	14842.57438
706.592	14636.19185
706.787	14676.65973
706.983	14561.32514
707.178	14737.36084
707.373	14595.72355
707.568	14522.87945
707.763	14251.72122
707.959	14585.6064
708.154	14460.15125
708.349	14626.07481
708.544	14348.85585
708.739	14300.28905
708.934	14630.12163
709.129	14369.09173
709.324	14239.5791
709.519	14480.3863
709.714	14021.00815
709.909	14431.82195
710.104	13956.24124
710.299	14021.00815
710.494	14292.19448
710.689	14407.53946
710.884	14506.69165
711.079	14443.96311
711.274	14259.81593
711.469	14628.09822
711.664	14253.7449
711.859	14494.55074
712.054	14365.04457
712.249	14379.20961
712.443	14371.11531
712.638	14522.87945
712.833	14360.9974
713.028	14601.79382
713.223	14176.84368
713.417	14411.58656
713.612	14193.03365
713.807	14278.02892
714.002	14253.7449
714.196	14433.84548
714.391	14233.50801
714.586	14383.25675
714.78	14300.28905
714.975	14328.6198
715.17	14000.76877
715.364	14284.09989
715.559	14308.38358
715.754	14201.12858
715.948	14217.31836
716.143	14255.76858
716.337	14051.36678
716.532	14288.14719
716.726	14203.15231
716.921	14466.22178
717.115	14035.17558
717.31	14239.5791
717.504	14391.35101
717.699	14290.17084
717.893	14197.08112
718.088	14304.33632
718.282	14178.86743
718.476	14282.07624
718.671	13850.98934
718.865	14296.24177
719.059	13557.45592
719.254	13954.21724
719.448	13988.62502
719.642	14170.77241
719.837	13810.50584
720.031	13784.19094
720.225	13741.68119
720.419	13834.79608
720.614	13466.34489
720.808	14191.00991
721.002	13565.55433
721.196	13899.56805
721.39	13533.16037
721.585	13917.78466
721.779	13743.7055
721.973	13711.31625
722.167	13383.32594
722.361	13591.87375
722.555	13440.02251
722.749	13527.0864
722.943	13601.99645
723.137	13691.07257
723.331	13521.0124
723.525	13672.85297
723.719	13492.66662
723.913	13638.43746
724.107	13490.64189
724.301	13739.65689
724.495	13531.13572
724.689	13877.303
724.883	13427.87351
725.077	13652.60867
725.271	13504.8149
725.465	13616.16809
725.659	13405.59996
725.853	13693.09695
726.046	13494.69134
726.24	13559.48053
726.434	13124.09991
726.628	13652.60867
726.822	13223.34333
727.015	13933.97702
727.209	13209.16636
727.403	13707.26754
727.596	13444.07215
727.79	13636.41299
727.984	13680.9506
728.177	13990.64898
728.371	13808.48164
728.565	13826.69938
728.758	13682.975
728.952	13620.21709
729.146	13312.45081
729.339	14000.76877
729.533	13437.99769
729.726	13531.13572
729.92	13814.55424
730.113	13664.75529
730.307	13523.03707
730.5	13533.16037
730.694	13567.57892
730.887	13834.79608
731.081	13784.19094
731.274	13743.7055
731.468	13330.67632
731.661	13365.10139
731.854	13201.06514
732.048	13296.25007
732.241	13395.47547
732.435	13549.35746
732.628	13606.04551
732.821	13336.75142
733.014	13446.09696
733.208	13328.65128
733.401	13411.67461
733.594	13237.52008
733.788	13377.25113
733.981	13723.46231
734.174	14182.91493
734.367	13790.26366
734.56	13695.12133
734.754	13344.85149
734.947	13306.37556
735.14	13684.9994
735.333	13695.12133
735.526	13324.60119
735.719	13304.35047
735.912	13170.68492
736.105	13330.67632
736.298	13036.99948
736.491	13184.86248
736.684	13257.77221
736.877	13176.76104
737.07	13361.05144
737.263	13275.99876
737.456	13091.69148
737.649	13182.83713
737.842	12909.37065
738.035	13105.87032
738.228	13073.46121
738.421	13346.8765
738.614	13209.16636
738.807	13217.26752
739	13192.96385
739.192	13225.3686
739.385	13427.87351
739.578	13551.38208
739.771	13539.23431
739.964	13300.30028
740.156	13741.68119
740.349	13243.59577
740.542	13136.25275
740.735	13079.53801
740.927	12992.43297
741.12	12889.11021
741.313	12978.25221
741.505	13201.06514
741.698	12964.0712
741.891	12893.16234
742.083	13215.24223
742.276	12984.32971
742.468	13008.63926
742.661	12765.50979
742.854	12799.95788
743.046	12872.90148
743.239	12795.90525
743.431	13085.61477
743.624	13176.76104
743.816	13055.23054
744.009	13190.93851
744.201	12822.24696
744.393	12893.16234
744.586	12947.86402
744.778	13061.30747
744.971	13020.79376
745.163	13085.61477
745.355	13024.84522
745.548	12844.53537
745.74	13028.89666
745.932	13059.28183
746.125	13030.92237
746.317	13113.9724
746.509	13097.76815
746.702	13144.35456
746.894	13109.92137
747.086	13087.64034
747.278	12623.64709
747.471	12826.29944
747.663	12856.6924
747.855	12830.35191
748.047	12842.50917
748.239	13036.99948
748.431	12678.36899
748.623	13306.37556
748.815	12710.79473
749.008	13227.39385
749.2	13527.0864
749.392	13468.36966
749.584	12887.08414
749.776	13004.58771
749.968	12883.03198
750.16	12834.40435
750.352	12696.60865
750.544	12696.60865
750.736	13047.12789
750.928	13109.92137
751.12	12674.31566
751.311	12735.11305
751.503	12550.67765
751.695	12799.95788
751.887	12408.76898
752.079	12641.88821
752.271	12445.26284
752.463	12767.53619
752.654	12889.11021
752.846	12688.50219
753.038	12429.04362
753.23	12761.45696
753.421	12528.37981
753.613	12493.918
753.805	12570.94774
753.997	12431.07104
754.188	12538.51528
754.38	12534.46111
754.572	12757.40412
754.763	12530.40692
754.955	12461.48165
755.146	12647.96848
755.338	12745.24544
755.53	12692.55543
755.721	12461.48165
755.913	12489.86355
756.104	12380.38337
756.296	12347.94103
756.487	12323.60812
756.679	12579.05561
756.87	12291.16268
757.062	12392.54879
757.253	12587.16337
757.445	12380.38337
757.636	12631.75432
757.827	12731.06006
758.019	12564.86678
758.21	12647.96848
758.401	12291.16268
758.593	12522.29845
758.784	12167.44763
758.975	12143.10703
759.167	12143.10703
759.358	12347.94103
759.549	12039.6473
759.74	12039.6473
759.932	12019.35872
760.123	11970.66289
760.314	12092.39397
760.505	12084.27944
760.696	11859.0507
760.888	12212.06929
761.079	11978.77918
761.27	11861.08023
761.461	11631.68822
761.652	11716.96203
761.843	11796.13091
762.034	11895.58106
762.225	11970.66289
762.416	11926.02099
762.607	11822.51762
762.798	11932.10875
762.989	11702.75082
763.18	12009.21413
763.371	11840.7845
763.562	11893.55167
763.753	11727.11263
763.944	12035.58965
764.135	11863.10976
764.326	12238.43497
764.517	11763.65296
764.708	12021.38761
764.899	11629.6577
765.089	11625.59663
765.28	11546.39839
765.471	11708.84139
765.662	11337.1644
765.853	11672.29677
766.043	11489.52937
766.234	11584.9839
766.425	11381.86384
766.615	11591.07605
766.806	11329.03671
766.997	11483.43581
767.187	11450.93542
767.378	11568.73778
767.569	11477.34218
767.759	11794.1011
767.95	11548.42929
768.141	11771.77266
768.331	11538.2747
768.522	11424.52703
768.712	11538.2747
768.903	11343.26006
769.093	11227.42688
769.284	11103.42769
769.474	11158.31743
769.665	11091.2289
769.855	11314.81286
770.046	11408.2749
770.236	11184.74306
770.426	11398.11699
770.617	11036.32954
770.807	11347.32378
770.998	11304.65267
771.188	11259.9448
771.378	11192.87367
771.569	11144.0875
771.759	11052.59685
771.949	11093.26206
772.139	11140.02171
772.33	10887.85746
772.52	10912.26796
772.71	11034.29608
772.9	10873.61724
773.09	10920.40443
773.281	10780.02451
773.471	10969.21943
773.661	10826.82396
773.851	10590.72731
774.041	10881.75458
774.231	10904.13131
774.421	10961.08405
774.611	10686.40675
774.802	10604.97917
774.992	10771.88483
775.182	10617.19456
775.372	10721.00757
775.562	10495.02039
775.752	10409.47124
775.942	10221.99681
776.131	10429.84215
776.321	10362.61318
776.511	10678.26487
776.701	10661.98053
776.891	10836.99694
777.081	10490.94714
777.271	10796.30328
777.461	10735.25396
777.651	10541.85917
777.84	10250.53285
778.03	10582.58312
778.22	10568.33031
778.41	10550.00436
778.599	10586.65524
778.789	10655.8737
778.979	10372.8003
779.169	10413.54552
779.358	10372.8003
779.548	10407.43407
779.738	10144.5283
779.927	10166.95544
780.117	10162.8779
780.307	10124.13852
780.496	10391.1363
780.686	10297.40773
780.875	10022.16857
781.065	10272.95216
781.254	10067.03971
781.444	10332.04982
781.633	10005.85008
781.823	10130.2556
782.012	10240.34171
782.202	10279.06623
782.391	9944.64754
782.581	10036.4465
782.77	9650.68981
782.96	10050.72373
783.149	9736.45982
783.338	9881.39114
783.528	9650.68981
783.717	9863.02373
783.906	9850.77813
784.096	10009.92979
784.285	9897.71672
784.474	9871.18717
784.663	9775.25168
784.853	9724.20862
785.042	9858.94192
785.231	9734.41799
785.42	9703.78872
785.61	9703.78872
785.799	9566.93555
785.988	9883.43189
786.177	9664.98669
786.366	9648.64733
786.555	9311.42166
786.744	9280.74282
786.933	9268.47024
787.122	9658.85955
787.312	9346.18649
787.501	9454.54056
787.69	9194.82205
787.879	9464.76029
788.068	9145.71107
788.257	9278.69744
788.445	9172.31407
788.634	9307.33136
788.823	9499.50435
789.012	9636.39216
789.201	9440.23226
789.39	9254.15147
789.579	9327.78218
789.768	9444.32043
789.957	9295.06008
790.145	9562.84931
790.334	9481.11101
790.523	9360.50004
790.712	9462.71637
790.9	9497.46071
791.089	9213.23615
791.278	9495.41706
791.467	9223.46561
791.655	9511.76586
791.844	9188.68371
792.033	9397.30261
792.221	9115.01171
792.41	9295.06008
792.599	8846.73721
792.787	9278.69744
792.976	9200.96023
793.164	9133.43179
793.353	9217.32798
793.541	9425.92317
793.73	8877.47107
793.918	9051.55409
794.107	8977.84037
794.295	9043.36479
794.484	9295.06008
794.672	9123.19859
794.861	9131.38518
795.049	9090.44944
795.238	8957.3603
795.426	9053.60137
795.614	8762.71057
795.803	9031.08033
795.991	8801.65354
796.179	8832.39335
796.368	8623.28145
796.556	8762.71057
796.744	8744.26161
796.932	8865.17801
797.121	8530.96483
797.309	8666.34957
797.497	8748.36151
797.685	8746.31157
797.874	8772.95936
798.062	8832.39335
798.25	8452.97874
798.438	8783.20769
798.626	8674.55209
798.814	8703.25859
799.002	8520.70507
799.19	8426.29295
799.378	8366.75139
799.566	8682.75432
799.755	8321.57105
799.943	8385.23154
800.131	8360.59099
800.318	8690.95625
800.506	8586.35937
800.694	8397.55077
800.882	8446.82076
801.07	8574.05066
801.258	8530.96483
801.446	8758.61093
801.634	8377.01833
801.822	8852.8843
802.01	8471.45161
802.197	8830.34416
802.385	8514.54899
802.573	8791.40603
802.761	8498.13193
802.949	8676.60268
803.136	8623.28145
803.324	8610.97476
803.512	8510.44484
803.699	8520.70507
803.887	8756.56108
804.075	8705.30892
804.262	8533.01673
804.45	8740.16164
804.638	8701.20825
804.825	8701.20825
805.013	8635.58747
805.201	8699.15788
805.388	8418.08128
805.576	8494.02748
805.763	8590.46212
805.951	8651.99444
806.138	8467.34666
806.326	8364.69794
806.513	8072.90877
806.701	8533.01673
806.888	8272.27264
807.075	8473.50406
807.263	8489.92295
807.45	8758.61093
807.638	8654.04523
807.825	8711.45978
808.012	8368.80481
808.2	8551.48293
808.387	8418.08128
808.574	8641.74022
808.761	8904.10382
808.949	8695.0571
809.136	8594.5648
809.323	8582.25654
809.51	8643.7911
809.698	8448.87344
809.885	8830.34416
810.072	8664.29889
810.259	8533.01673
810.446	8707.35922
810.633	8668.40023
810.82	8553.53464
811.008	8389.33803
811.195	8656.096
811.382	8377.01833
811.569	8715.56027
811.756	8631.48554
811.943	8877.47107
812.13	8742.21163
812.317	8924.58851
812.504	8491.97522
812.691	8936.87846
812.878	8699.15788
813.064	8822.1472
813.251	8582.25654
813.438	8666.34957
813.625	8111.97422
813.812	8401.65703
813.999	8516.60103
814.186	8617.12819
814.372	8504.28847
814.559	8485.81834
814.746	8377.01833
814.933	8574.05066
815.12	8438.60987
815.306	8547.37946
815.493	8440.66262
815.68	8582.25654
815.866	8356.48396
816.053	8822.1472
816.24	8459.13653
816.426	8701.20825
816.613	8475.55649
816.799	8760.66076
816.986	8709.40951
817.173	8752.46133
817.359	8594.5648
817.546	8475.55649
817.732	8255.83732
817.919	8459.13653
818.105	8305.1395
818.292	8146.92138
818.478	8062.62717
818.665	8340.05505
818.851	8403.71013
819.037	8471.45161
819.224	8315.40937
819.41	8537.12046
819.597	8383.17827
819.783	8561.74127
819.969	8194.19364
820.156	8452.97874
820.342	8422.18715
820.528	8518.65306
820.714	8335.94764
820.901	8549.4312
821.087	8276.38127
821.273	8734.01154
821.459	8500.18413
821.646	8613.02593
821.832	8576.10216
822.018	8801.65354
822.204	8335.94764
822.39	8578.15364
822.576	8649.94364
822.762	8660.19748
822.948	8222.96291
823.134	8516.60103
823.32	8011.21162
823.507	8688.90579
823.693	8381.12498
823.879	8264.05514
824.065	8220.90809
824.25	8144.86582
824.436	8190.08342
824.622	7994.75596
824.808	8042.06247
824.994	8163.3651
825.18	7908.3423
825.366	8163.3651
825.552	8066.73987
825.738	8214.74351
825.923	7817.77472
826.109	8077.02126
826.295	8134.58775
826.481	8165.42047
826.667	7941.26605
826.852	8146.92138
827.038	7893.9365
827.224	8050.2886
827.409	7885.70416
827.595	8097.58253
827.781	7492.21964
827.966	7735.4056
828.152	7622.09309
828.338	7928.92026
828.523	7572.62751
828.709	7743.64402
828.894	7636.51824
829.08	7731.28626
829.266	7504.59221
829.451	7805.42149
829.637	7776.59434
829.822	7739.52485
830.008	7570.56618
830.193	7749.82261
830.378	7360.19709
830.564	7735.4056
830.749	7673.60671
830.935	7941.26605
831.12	7613.84968
831.305	7803.36254
831.491	7409.71597
831.676	7626.21467
831.861	7564.38205
832.047	7490.15747
832.232	7333.36911
832.417	7397.33743
832.602	7574.68882
832.788	7646.82128
832.973	7580.87263
833.158	7624.15389
833.343	7351.94272
833.528	7753.94157
833.714	7294.15234
833.899	7372.57799
834.084	7343.688
834.269	7364.32414
834.454	7050.41691
834.639	7488.09528
834.824	6986.3332
835.009	7374.64139
835.194	7368.45111
835.379	7539.64362
835.564	7428.28232
835.749	7692.14837
835.934	7240.47442
836.119	7446.84691
836.304	7380.83148
836.489	7486.03307
836.674	7244.60402
836.859	7345.75172
837.044	7420.03082
837.228	7364.32414
837.413	7176.45433
837.598	7459.22233
837.783	6909.81783
837.968	7273.50875
838.152	6868.44528
838.337	7182.65075
838.522	7025.61288
838.707	7095.8826
838.891	6905.68099
839.076	6942.90935
839.261	6955.31718
839.445	6771.18397
839.63	6595.15743
839.815	7027.68
839.999	7060.75098
840.184	6903.61253
840.368	6837.4099
840.553	7116.54525
840.737	6820.85561
840.922	6909.81783
841.106	6727.71048
841.291	7009.07505
841.475	6632.4475
841.66	6845.6865
841.844	6408.59457
842.029	6584.79775
842.213	6435.55416
842.397	6508.11814
842.582	6447.99572
842.766	6593.08554
842.951	6145.01251
843.135	6562.00442
843.319	6300.71683
843.504	6793.95177
843.688	6678.01413
843.872	6682.156
844.056	6686.29777
844.241	6756.69393
844.425	6530.91809
844.609	6649.01847
844.793	6528.84548
844.977	6474.94956
845.161	6404.4466
845.346	6638.66179
845.53	6323.54238
845.714	6580.65371
845.898	6439.70144
846.082	6408.59457
846.266	6503.97239
846.45	6595.15743
846.634	6499.82655
846.818	6686.29777
847.002	6642.80453
847.186	6562.00442
847.37	6483.24226
847.554	6824.99432
847.738	6298.64163
847.922	6520.55482
848.106	6365.03616
848.29	6367.1106
848.473	6333.9167
848.657	6246.75426
848.841	5947.59731
849.025	6132.55046
849.209	5883.1316
849.392	5945.51812
849.576	6055.68247
849.76	6078.53848
849.944	5874.81179
850.127	6120.08757
850.311	5797.83567
850.495	6124.24196
850.678	5908.08876
850.862	6211.46248
851.046	5872.73178
851.229	5774.94465
851.413	5754.13215
851.596	5989.17607
851.78	5481.27054
851.964	6028.66715
852.147	5639.62122
852.331	5793.67388
852.514	5804.07818
852.698	5783.26899
852.881	5685.43416
853.065	5758.29484
853.248	5647.95169
853.431	5514.61883
853.615	5531.29072
853.798	5504.19814
853.982	5527.12289
854.165	5318.61144
854.348	5450.00104
854.532	5781.18794
854.715	5260.18619
854.898	5577.13063
855.081	5276.88099
855.265	5522.95496
855.448	5347.81718
855.631	5610.46159
855.814	5589.63045
855.997	5614.62753
856.181	5406.21486
856.364	5631.29037
856.547	5508.36649
856.73	5533.3746
856.913	5306.09329
857.096	5556.29572
857.279	5475.01706
857.462	5620.87627
857.645	5339.47315
857.828	5647.95169
858.011	5241.40276
858.194	5522.95496
858.377	5272.70743
858.56	5410.38542
858.743	5164.1621
858.926	5268.53378
859.109	5001.22621
859.292	5157.89795
859.475	5051.37534
859.658	5139.10423
859.841	4932.24947
860.023	5101.51115
860.206	4930.15888
860.389	4971.96641
860.572	4790.03686
860.755	4888.34215
860.937	4754.46725
861.12	4890.43321
861.303	4997.04652
861.486	4986.59688
861.668	4773.29904
861.851	4660.28086
862.034	4595.37043
862.216	4888.34215
862.399	4572.33254
862.581	4875.79535
862.764	4764.92958
862.947	4802.58928
863.129	4668.65483
863.312	4990.7768
863.494	4746.09698
863.677	4806.77323
863.859	4819.32456
864.042	4662.37439
864.224	4545.10247
864.406	4829.78336
864.589	4484.34497
864.771	4737.72635
864.954	4545.10247
865.136	4511.58339
865.318	4306.15643
865.501	4729.35535
865.683	4360.67785
865.865	4620.4996
866.048	4354.38766
866.23	4427.76099
866.412	4346.00044
866.594	4398.41486
866.777	4327.12793
866.959	4339.7098
867.141	4356.48441
867.323	4341.8067
867.505	4262.10927
867.687	4161.39474
867.869	4272.59755
868.052	4333.41896
868.234	4098.42346
868.416	4192.87328
868.598	3978.72653
868.78	4381.64372
868.962	4094.2247
869.144	4461.29417
869.326	4301.96187
869.508	4350.19409
869.69	4132.01049
869.872	4373.25763
870.054	4301.96187
870.236	4285.18277
870.417	4247.42479
870.599	4360.67785
870.781	4337.61288
870.963	4478.05865
871.145	4394.22221
871.327	4369.06446
871.508	4129.91145
871.69	4360.67785
871.872	3989.22894
872.054	4415.1846
872.235	4140.40641
872.417	4119.41598
872.599	3932.50991
872.78	4205.46336
872.962	4113.11844
873.144	4209.65989
873.325	3924.10584
873.507	4312.44811
873.689	4123.61423
873.87	4197.07006
874.052	4121.51512
874.233	4176.08531
874.415	4127.8124
874.596	4075.32928
874.778	3982.92755
874.959	4033.33344
875.141	3940.91367
875.322	4249.52264
875.503	4035.43343
875.685	4035.43343
875.866	3917.80257
876.048	4125.71333
876.229	3638.17895
876.41	3890.48632
876.592	4071.13007
876.773	4119.41598
876.954	3606.62104
877.136	4037.53339
877.317	3726.51836
877.498	3655.0081
877.679	3671.83603
877.86	3974.52543
878.042	3732.82702
878.223	3905.19549
878.404	4014.43262
878.585	4010.23221
878.766	3795.90402
878.947	4111.01922
879.128	3776.98277
879.309	3884.18209
879.49	3640.28266
879.672	4066.93077
879.853	3667.62916
880.034	4171.88811
880.215	3867.36992
880.396	3776.98277
880.576	3854.75995
880.757	4119.41598
880.938	3718.10654
881.119	4027.03335
881.3	3982.92755
881.481	4295.66987
881.662	3909.39793
881.843	4014.43262
882.023	4031.23343
882.204	3995.53013
882.385	3850.55647
882.566	4167.69082
882.747	3892.58769
882.927	4251.62046
883.108	3943.01455
883.289	4245.32692
883.469	4052.23259
883.65	4037.53339
883.831	4159.296
884.011	4299.86456
884.192	3991.32935
884.373	4325.03088
884.553	3995.53013
884.734	4188.67641
884.914	4079.52841
885.095	4207.56164
885.275	4045.93306
885.456	4253.71827
885.636	4134.1095
885.817	4310.3509
885.997	3949.31709
886.178	4329.22497
886.358	4062.7314
886.538	4335.51593
886.719	4079.52841
886.899	4410.99229
887.08	4289.37768
887.26	4272.59755
887.44	4111.01922
887.621	4260.01155
887.801	4176.08531
887.981	4369.06446
888.161	4234.83725
888.342	4343.90358
888.522	4090.02587
888.702	4050.13277
888.882	4008.13197
889.062	4201.26675
889.242	4104.72143
889.423	4184.47946
889.603	4066.93077
889.783	4251.62046
889.963	4171.88811
890.143	4230.64124
890.323	3997.63049
890.503	4222.24895
890.683	3957.7202
890.863	4278.89026
891.043	3982.92755
891.223	4087.92642
891.403	3884.18209
891.583	4050.13277
891.763	3875.77616
891.943	3959.82092
892.122	3943.01455
892.302	4134.1095
892.482	3909.39793
892.662	4058.53194
892.842	3743.34107
893.022	4157.19724
893.201	4029.1334
893.381	4012.33242
893.561	3827.43591
893.741	4071.13007
893.92	3781.18763
894.1	3915.70144
894.28	3833.74176
894.459	3737.0327
894.639	3770.67533
894.819	3936.71183
894.998	3831.63983
895.178	4085.82695
895.357	3741.2383
895.537	3934.61088
895.716	3821.12989
895.896	4054.33239
896.075	3680.24954
896.255	3842.14928
896.434	3638.17895
896.614	3737.0327
896.793	3530.86491
896.973	3827.43591
897.152	3579.26743
897.331	3831.63983
897.511	3682.35287
897.69	3760.16254
897.87	3587.68426
898.049	3730.72415
898.228	3415.08059
898.407	3524.55081
898.587	3396.12891
898.766	3617.14081
898.945	3351.90277
899.124	3463.50613
899.304	3347.69035
899.483	3579.26743
899.662	3368.75173
899.841	3356.11511
900.02	3141.19888
900.199	3326.62724
900.378	3122.22743
900.557	3305.5624
900.737	3071.6306
900.916	3170.70742
901.095	2985.17359
901.274	3061.08845
901.453	3058.97997
901.632	3090.60548
901.811	3151.73801
901.989	3166.49211
902.168	3181.24541
902.347	3052.65445
902.526	2871.2649
902.705	2951.42734
902.884	2913.45828
903.063	3109.57908
903.242	2989.3916
903.42	3217.07152
903.599	2833.28599
903.778	3010.48075
903.957	2921.89626
904.135	3014.69839
904.314	2704.54653
904.493	2909.2392
904.672	2681.32597
904.85	2879.70404
905.029	2647.54784
905.207	2873.37471
905.386	2552.52991
905.565	2725.65477
905.743	2398.33988
905.922	2685.548
906.1	2444.81427
906.279	2569.42377
906.457	2347.63481
906.636	2533.52341
906.814	2199.7134
906.993	2233.52794
907.171	2153.21487
907.35	2389.88944
907.528	2110.94009
907.707	2364.53715
907.885	2153.21487
908.063	2341.29627
908.242	2064.43431
908.42	2385.66416
908.598	2036.95199
908.777	2292.69789
908.955	2104.5986
909.133	2212.39411
909.311	2110.94009
909.49	2153.21487
909.668	1950.2696
909.846	2203.94034
910.024	1844.54603
910.202	2254.66088
910.38	1924.89719
910.559	2108.82627
910.737	1891.06604
910.915	2197.59992
911.093	1943.92658
911.271	2161.66944
911.449	2254.66088
911.627	2235.64127
911.805	1994.66924
911.983	2163.78307
912.161	2020.03921
912.339	2339.18341
912.517	2159.55581
912.695	2225.07451
912.872	2045.40821
913.05	2351.86046
913.228	2161.66944
913.406	2353.97326
913.584	2187.03238
913.762	2330.73184
913.939	2070.77622
914.117	2250.43437
914.295	2208.16724
914.473	2315.94123
914.65	2250.43437
914.828	2261.00059
915.006	2087.68765
915.184	2288.4717
915.361	1979.86966
915.539	2241.98122
915.716	2026.38155
915.894	2136.30533
916.072	1937.5835
916.249	2068.66226
916.427	1979.86966
916.604	2206.0538
916.782	2174.35106
916.959	2199.7134
917.137	2011.58266
917.314	2258.88736
917.492	2043.29417
917.669	1990.44082
917.847	2030.60975
918.024	1958.72688
918.201	1924.89719
918.379	2094.02931
918.556	1738.81057
918.733	2083.45983
918.911	1840.31682
919.088	2017.92508
919.265	1973.52689
919.442	1927.01159
919.62	1833.97297
919.797	2060.20634
919.974	1800.13841
920.151	1793.79431
920.328	1778.99126
920.506	1806.48248
920.683	1696.51373
920.86	1772.64703
921.037	1605.57166
921.214	1673.24993
921.391	1582.30675
921.568	1664.79029
921.745	1620.37648
921.922	1685.93932
922.099	1633.06625
922.276	1821.28515
922.453	1537.8914
922.63	1673.24993
922.807	1402.52841
922.984	1552.69659
923.161	1400.41337
923.338	1806.48248
923.514	1487.13043
923.691	1804.3678
923.868	1614.03157
924.045	1616.14654
924.222	1404.64346
924.399	1478.67023
924.575	1205.83591
924.752	1442.71435
924.929	1269.28308
925.105	1476.55518
925.282	1267.16813
925.459	1368.6878
925.635	1284.08777
925.812	1453.28961
925.989	1286.20273
926.165	1495.59062
926.342	1188.91714
926.518	1413.10364
926.695	1375.0329
926.871	1241.78899
927.048	1256.59344
927.224	1345.42254
927.401	994.37177
927.577	1148.73602
927.754	1021.85913
927.93	1191.03198
928.107	1072.60766
928.283	1201.6062
928.459	1150.85078
928.636	1167.76901
928.812	988.02869
928.988	1114.90044
929.165	1015.5158
929.341	1076.83684
929.517	1072.60766
929.693	1057.80567
929.87	787.19951
930.046	1129.70336
930.222	952.08568
930.398	1106.44172
930.574	907.68835
930.751	994.37177
930.927	867.52228
931.103	1068.37849
931.279	867.52228
931.455	1021.85913
931.631	749.15665
931.807	1062.03478
931.983	850.61115
932.159	928.82952
932.335	766.06419
932.511	884.43395
932.687	658.29044
932.863	861.18054
933.039	713.23036
933.215	903.4602
933.391	861.18054
933.566	616.03437
933.742	647.72597
933.918	751.27006
934.094	647.72597
934.27	685.75944
934.445	673.0812
934.621	675.19421
934.797	531.53761
934.973	698.43809
935.148	539.98631
935.324	630.82344
935.5	567.44613
935.675	520.97704
935.851	453.39803
936.027	550.54751
936.202	379.50161
936.378	504.08088
936.553	371.05758
936.729	444.95174
936.904	335.1735
937.08	385.8348
937.255	276.08147
937.431	373.16856
937.606	368.94661
937.782	343.61636
937.957	269.75104
938.133	259.20069
938.308	229.66226
938.483	265.53084
938.659	248.65082
938.834	254.98069
939.009	200.12766
939.185	225.4428
939.36	195.90876
939.535	174.81543
939.71	151.61516
939.886	202.23715
940.061	168.48784
940.236	246.5409
940.411	124.19996
940.586	149.50617
940.761	151.61516
940.937	92.57157
941.112	174.81543
941.287	160.05133
941.462	115.76524
941.637	155.83321
941.812	225.4428
941.987	136.85268
942.162	157.94226
942.337	170.59702
942.512	187.47118
942.687	88.35483
942.862	155.83321
943.037	41.97663
943.212	52.51615
943.386	162.16043
943.561	92.57157
943.736	77.81336
943.911	18.79172
944.086	183.25252
944.26	124.19996
944.435	128.41744
944.61	48.30027
944.785	60.94819
944.959	183.25252
945.134	130.52622
945.309	162.16043
945.483	98.89685
945.658	138.96154
945.833	151.61516
946.007	67.27246
946.182	136.85268
946.357	73.59693
946.531	96.7884
946.706	92.57157
946.88	86.24649
947.055	94.67998
947.229	92.57157
947.404	134.74384
947.578	124.19996
947.752	124.19996
947.927	115.76524
948.101	141.07043
948.276	124.19996
948.45	109.43943
948.624	136.85268
948.799	160.05133
948.973	82.02988
949.147	71.48875
949.321	147.39721
949.496	124.19996
949.67	107.33087
949.844	132.63502
950.018	65.16435
950.193	168.48784
950.367	90.46319
950.541	191.68993
950.715	141.07043
950.889	136.85268
951.063	73.59693
951.237	98.89685
951.411	174.81543
951.585	101.00532
951.759	160.05133
951.933	145.28826
952.107	109.43943
952.281	115.76524
952.455	98.89685
952.629	101.00532
952.803	90.46319
952.977	122.09124
953.151	145.28826
953.325	109.43943
953.499	191.68993
953.672	174.81543
953.846	162.16043
954.02	124.19996
954.194	124.19996
954.368	115.76524
954.541	117.87389
954.715	166.37868
954.889	103.11382
955.062	174.81543
955.236	176.92467
955.41	128.41744
955.583	92.57157
955.757	105.22233
955.93	67.27246
956.104	157.94226
956.278	115.76524
956.451	183.25252
956.625	149.50617
956.798	149.50617
956.972	82.02988
957.145	181.14322
957.319	143.17933
957.492	202.23715
957.665	82.02988
957.839	189.58055
958.012	98.89685
958.185	164.26954
958.359	195.90876
958.532	166.37868
958.705	92.57157
958.879	174.81543
959.052	60.94819
959.225	107.33087
959.398	63.05626
959.572	128.41744
959.745	138.96154
959.918	143.17933
960.091	117.87389
960.264	198.0182
960.438	119.98255
960.611	160.05133
960.784	160.05133
960.957	56.73213
961.13	136.85268
961.303	143.17933
961.476	166.37868
961.649	111.54801
961.822	117.87389
961.995	75.70514
962.168	183.25252
962.341	126.30869
962.514	174.81543
962.686	124.19996
962.859	82.02988
963.032	52.51615
963.205	75.70514
963.378	134.74384
963.551	75.70514
963.723	138.96154
963.896	132.63502
964.069	90.46319
964.242	166.37868
964.414	126.30869
964.587	126.30869
964.76	103.11382
964.932	122.09124
965.105	82.02988
965.278	157.94226
965.45	65.16435
965.623	86.24649
965.795	221.22341
965.968	136.85268
966.14	98.89685
966.313	77.81336
966.485	44.08449
966.658	160.05133
966.83	149.50617
967.003	109.43943
967.175	134.74384
967.348	151.61516
967.52	174.81543
967.692	113.65661
967.865	65.16435
968.037	147.39721
968.209	157.94226
968.382	126.30869
968.554	157.94226
968.726	111.54801
968.898	172.70621
969.071	109.43943
969.243	84.13817
969.415	65.16435
969.587	98.89685
969.759	107.33087
969.932	56.73213
970.104	111.54801
970.276	130.52622
970.448	98.89685
970.62	65.16435
970.792	124.19996
970.964	149.50617
971.136	103.11382
971.308	103.11382
971.48	77.81336
971.652	170.59702
971.824	98.89685
971.996	160.05133
972.168	67.27246
972.339	132.63502
972.511	126.30869
972.683	71.48875
972.855	126.30869
973.027	84.13817
973.199	124.19996
973.37	155.83321
973.542	82.02988
973.714	77.81336
973.886	122.09124
974.057	94.67998
974.229	124.19996
974.401	94.67998
974.572	48.30027
974.744	90.46319
974.915	41.97663
975.087	56.73213
975.259	124.19996
975.43	31.43768
975.602	94.67998
975.773	73.59693
975.945	77.81336
976.116	35.65319
976.288	105.22233
976.459	98.89685
976.63	109.43943
976.802	23.00695
976.973	56.73213
977.145	107.33087
977.316	-23.35526
977.487	58.84015
977.659	50.4082
977.83	136.85268
978.001	98.89685
978.172	33.54542
978.344	101.00532
978.515	107.33087
978.686	174.81543
978.857	124.19996
979.028	27.22227
979.2	48.30027
979.371	75.70514
979.542	82.02988
979.713	71.48875
979.884	25.11459
980.055	90.46319
980.226	115.76524
980.397	39.86879
980.568	73.59693
980.739	65.16435
980.91	29.32996
981.081	-2.28298
981.252	75.70514
981.423	65.16435
981.594	8.25407
981.765	52.51615
981.936	48.30027
982.106	44.08449
982.277	94.67998
982.448	84.13817
982.619	103.11382
982.79	73.59693
982.96	92.57157
983.131	65.16435
983.302	92.57157
983.472	54.62413
983.643	39.86879
983.814	132.63502
983.984	94.67998
984.155	67.27246
984.326	60.94819
984.496	122.09124
984.667	31.43768
984.837	-25.46235
985.008	82.02988
985.178	39.86879
985.349	10.36155
985.519	44.08449
985.69	107.33087
985.86	-10.71218
986.031	67.27246
986.201	33.54542
986.371	48.30027
986.542	65.16435
986.712	117.87389
986.882	86.24649
987.053	157.94226
987.223	92.57157
987.393	77.81336
987.563	33.54542
987.734	67.27246
987.904	60.94819
988.074	128.41744
988.244	44.08449
988.414	23.00695
988.585	44.08449
988.755	82.02988
988.925	67.27246
989.095	101.00532
989.265	94.67998
989.435	29.32996
989.605	52.51615
989.775	16.68414
989.945	1.93177
990.115	31.43768
990.285	-6.49763
990.455	111.54801
990.625	31.43768
990.795	31.43768
990.965	-14.92664
991.134	33.54542
991.304	63.05626
991.474	35.65319
991.644	-10.71218
991.814	60.94819
991.984	20.89932
992.153	31.43768
992.323	12.46906
992.493	23.00695
992.662	58.84015
992.832	-31.78348
993.002	-10.71218
993.171	23.00695
993.341	-27.56942
993.511	94.67998
993.68	-8.60492
993.85	54.62413
994.019	25.11459
994.189	69.38059
994.358	65.16435
994.528	48.30027
994.697	73.59693
994.867	149.50617
995.036	6.14661
995.206	41.97663
995.375	86.24649
995.544	-2.28298
995.714	8.25407
995.883	4.03918
996.052	-10.71218
996.222	14.57659
996.391	-19.141
996.56	58.84015
996.73	82.02988
996.899	35.65319
997.068	18.79172
997.237	25.11459
997.406	73.59693
997.576	27.22227
997.745	84.13817
997.914	44.08449
998.083	58.84015
998.252	-33.89048
998.421	-19.141
998.59	60.94819
998.759	88.35483
998.928	25.11459
999.097	73.59693
999.266	58.84015
999.435	52.51615
999.604	44.08449
999.773	23.00695
999.942	41.97663
1000.111	-25.46235
1000.28	50.4082
1000.448	50.4082
1000.617	98.89685
1000.786	67.27246
1000.955	-44.42508
1001.124	23.00695
1001.292	73.59693
1001.461	33.54542
1001.63	58.84015
1001.798	69.38059
1001.967	27.22227
1002.136	23.00695
1002.304	4.03918
1002.473	8.25407
1002.642	67.27246
1002.81	-17.03383
1002.979	-14.92664
1003.147	69.38059
1003.316	10.36155
1003.484	-2.28298
1003.653	69.38059
1003.821	-25.46235
1003.99	27.22227
1004.158	23.00695
1004.327	60.94819
1004.495	-0.17561
1004.663	37.76098
1004.832	23.00695
1005	35.65319
1005.168	6.14661
1005.337	-40.21131
1005.505	6.14661
1005.673	23.00695
1005.842	39.86879
1006.01	23.00695
1006.178	25.11459
1006.346	98.89685
1006.514	27.22227
1006.683	90.46319
1006.851	-38.10439
1007.019	8.25407
1007.187	-14.92664
1007.355	98.89685
1007.523	-10.71218
1007.691	10.36155
1007.859	52.51615
1008.027	6.14661
1008.195	39.86879
1008.363	82.02988
1008.531	23.00695
1008.699	65.16435
1008.867	35.65319
1009.035	37.76098
1009.203	-8.60492
1009.37	25.11459
1009.538	41.97663
1009.706	27.22227
1009.874	-10.71218
1010.042	18.79172
1010.209	58.84015
1010.377	111.54801
1010.545	-2.28298
1010.713	14.57659
1010.88	1.93177
1011.048	41.97663
1011.216	31.43768
1011.383	-2.28298
1011.551	39.86879
1011.718	41.97663
1011.886	27.22227
1012.054	41.97663
1012.221	-86.55716
1012.389	-25.46235
1012.556	90.46319
1012.724	25.11459
1012.891	67.27246
1013.058	31.43768
1013.226	-12.81942
1013.393	63.05626
1013.561	73.59693
1013.728	33.54542
1013.895	25.11459
1014.063	-21.24814
1014.23	31.43768
1014.397	-2.28298
1014.565	90.46319
1014.732	48.30027
1014.899	50.4082
1015.066	14.57659
1015.233	10.36155
1015.401	20.89932
1015.568	82.02988
1015.735	8.25407
1015.902	-33.89048
1016.069	25.11459
1016.236	4.03918
1016.403	23.00695
1016.57	25.11459
1016.737	-19.141
1016.904	6.14661
1017.071	23.00695
1017.238	-27.56942
1017.405	-10.71218
1017.572	-14.92664
1017.739	75.70514
1017.906	-10.71218
1018.073	31.43768
1018.24	25.11459
1018.407	33.54542
1018.573	-76.0251
1018.74	46.19237
1018.907	-6.49763
1019.074	73.59693
1019.241	82.02988
1019.407	73.59693
1019.574	82.02988
1019.741	50.4082
1019.907	-31.78348
1020.074	73.59693
1020.241	35.65319
1020.407	71.48875
1020.574	25.11459
1020.74	8.25407
1020.907	-14.92664
1021.073	23.00695
1021.24	-40.21131
1021.406	4.03918
1021.573	69.38059
1021.739	31.43768
1021.906	41.97663
1022.072	-2.28298
1022.239	79.92161
1022.405	-19.141
1022.571	50.4082
1022.738	1.93177
1022.904	67.27246
1023.07	-4.39031
1023.237	18.79172
1023.403	69.38059
1023.569	79.92161
1023.735	52.51615
1023.902	29.32996
1024.068	18.79172
1024.234	25.11459
1024.4	33.54542
1024.566	-35.99745
1024.732	-27.56942
1024.898	-17.03383
1025.065	10.36155
1025.231	27.22227
1025.397	14.57659
1025.563	6.14661
1025.729	48.30027
1025.895	35.65319
1026.061	56.73213
1026.227	48.30027
1026.392	31.43768
1026.558	31.43768
1026.724	-10.71218
1026.89	50.4082
1027.056	23.00695
1027.222	23.00695
1027.388	-14.92664
1027.553	-78.13156
1027.719	6.14661
1027.885	-8.60492
1028.051	48.30027
1028.216	58.84015
1028.382	6.14661
1028.548	31.43768
1028.713	1.93177
1028.879	65.16435
1029.045	58.84015
1029.21	23.00695
1029.376	75.70514
1029.541	-33.89048
1029.707	39.86879
1029.873	-38.10439
1030.038	41.97663
1030.204	48.30027
1030.369	16.68414
1030.534	-2.28298
1030.7	65.16435
1030.865	8.25407
1031.031	12.46906
1031.196	41.97663
1031.361	41.97663
1031.527	-40.21131
1031.692	29.32996
1031.857	31.43768
1032.023	18.79172
1032.188	84.13817
1032.353	-19.141
1032.518	-0.17561
1032.684	16.68414
1032.849	-27.56942
1033.014	33.54542
1033.179	39.86879
1033.344	4.03918
1033.509	50.4082
1033.674	39.86879
1033.839	-35.99745
1034.004	39.86879
1034.17	-27.56942
1034.335	-14.92664
1034.5	94.67998
1034.664	31.43768
1034.829	-6.49763
1034.994	25.11459
1035.159	48.30027
1035.324	101.00532
1035.489	14.57659
1035.654	35.65319
1035.819	-19.141
1035.984	-17.03383
1036.148	27.22227
1036.313	82.02988
1036.478	67.27246
1036.643	39.86879
1036.807	25.11459
1036.972	-19.141
1037.137	31.43768
1037.301	52.51615
1037.466	-0.17561
1037.631	58.84015
1037.795	-14.92664
1037.96	8.25407
1038.124	25.11459
1038.289	-19.141
1038.454	-27.56942
1038.618	48.30027
1038.783	23.00695
1038.947	75.70514
1039.111	20.89932
1039.276	56.73213
1039.44	8.25407
1039.605	60.94819
1039.769	75.70514
1039.933	60.94819
1040.098	8.25407
1040.262	-25.46235
1040.426	29.32996
1040.591	84.13817
1040.755	44.08449
1040.919	-44.42508
1041.083	-35.99745
1041.248	-6.49763
1041.412	31.43768
1041.576	6.14661
1041.74	39.86879
1041.904	-33.89048
1042.068	-10.71218
1042.232	-8.60492
1042.397	-69.70555
1042.561	10.36155
1042.725	25.11459
1042.889	-25.46235
1043.053	6.14661
1043.217	8.25407
1043.381	35.65319
1043.544	31.43768
1043.708	-27.56942
1043.872	31.43768
1044.036	18.79172
1044.2	101.00532
1044.364	33.54542
1044.528	1.93177
1044.691	-33.89048
1044.855	23.00695
1045.019	-14.92664
1045.183	4.03918
1045.346	-0.17561
1045.51	23.00695
1045.674	-52.8523
1045.837	-2.28298
1046.001	-0.17561
1046.165	107.33087
1046.328	25.11459
1046.492	16.68414
1046.655	27.22227
1046.819	6.14661
1046.983	52.51615
1047.146	-19.141
1047.31	-27.56942
1047.473	84.13817
1047.636	-14.92664
1047.8	27.22227
1047.963	29.32996
1048.127	84.13817
1048.29	33.54542
