Data from mixed_try1_USB4F045381__31__00096.txt Node

Date: Thu Apr 03 19:55:02 EDT 2025
User: mmckonesweet
Spectrometer: USB4F04538
Trigger mode: 4
Integration Time (sec): 2.700000E-3
Scans to average: 1
Electric dark correction enabled: true
Nonlinearity correction enabled: true
Boxcar width: 0
XAxis mode: Wavelengths
Number of Pixels in Spectrum: 3648
>>>>>Begin Spectral Data<<<<<
345.52	-14.39983
345.736	-14.39983
345.952	-14.39983
346.168	-88.13691
346.384	-56.53909
346.6	-5.9708
346.816	-22.82848
347.032	-31.25673
347.248	-14.39983
347.464	15.10348
347.68	36.18013
347.896	61.47521
348.112	-81.81781
348.328	25.64151
348.544	12.99594
348.76	23.53386
348.975	-18.61421
349.191	-22.82848
349.407	-22.82848
349.623	36.18013
349.839	34.07236
350.055	-14.39983
350.27	19.31862
350.486	-1.75614
350.702	36.18013
350.918	27.74919
351.133	29.85689
351.349	12.99594
351.565	-18.61421
351.781	2.45862
351.996	53.04315
352.212	-20.72135
352.428	6.67348
352.644	23.53386
352.859	36.18013
353.075	19.31862
353.291	42.50359
353.506	-86.03057
353.722	21.42623
353.938	-18.61421
354.153	-1.75614
354.369	15.10348
354.584	-12.29261
354.8	12.99594
355.016	-29.1497
355.231	25.64151
355.447	-5.9708
355.662	69.90763
355.878	-58.64579
356.093	25.64151
356.309	-18.61421
356.524	-98.66823
356.74	6.67348
356.955	-27.04265
357.171	-22.82848
357.386	15.10348
357.602	-39.68458
357.817	-5.9708
358.033	-12.29261
358.248	44.61145
358.464	-22.82848
358.679	-5.9708
358.895	-10.18537
359.11	-77.60495
359.325	2.45862
359.541	36.18013
359.756	34.07236
359.972	15.10348
360.187	36.18013
360.402	23.53386
360.618	19.31862
360.833	10.88843
361.048	-71.28546
361.264	-27.04265
361.479	27.74919
361.694	-60.75247
361.909	-39.68458
362.125	-1.75614
362.34	2.45862
362.555	10.88843
362.77	29.85689
362.986	-22.82848
363.201	2.45862
363.416	23.53386
363.631	36.18013
363.847	10.88843
364.062	15.10348
364.277	-20.72135
364.492	-3.86348
364.707	4.56604
364.922	-64.96574
365.138	-22.82848
365.353	44.61145
365.568	-3.86348
365.783	27.74919
365.998	-58.64579
366.213	29.85689
366.428	-56.53909
366.643	46.71934
366.858	44.61145
367.073	-69.17891
367.288	-27.04265
367.503	15.10348
367.718	-31.25673
367.933	10.88843
368.148	-31.25673
368.363	-88.13691
368.578	-5.9708
368.793	-35.47071
369.008	4.56604
369.223	15.10348
369.438	-5.9708
369.653	-64.96574
369.868	-39.68458
370.083	53.04315
370.298	38.28793
370.513	-86.03057
370.728	19.31862
370.943	-48.11204
371.157	-10.18537
371.372	2.45862
371.587	55.15113
371.802	8.78094
372.017	38.28793
372.232	-37.57766
372.446	-31.25673
372.661	-29.1497
372.876	-56.53909
373.091	61.47521
373.306	-24.93558
373.52	19.31862
373.735	78.34042
373.95	-1.75614
374.165	55.15113
374.379	2.45862
374.594	8.78094
374.809	-39.68458
375.023	80.44868
375.238	74.12398
375.453	-14.39983
375.667	-48.11204
375.882	42.50359
376.097	59.36716
376.311	19.31862
376.526	-14.39983
376.741	-12.29261
376.955	2.45862
377.17	10.88843
377.384	-10.18537
377.599	19.31862
377.813	-22.82848
378.028	-18.61421
378.242	-48.11204
378.457	-39.68458
378.672	17.21104
378.886	-54.43236
379.101	-20.72135
379.315	-18.61421
379.53	50.93519
379.744	23.53386
379.958	6.67348
380.173	-10.18537
380.387	-22.82848
380.602	23.53386
380.816	12.99594
381.031	6.67348
381.245	2.45862
381.459	4.56604
381.674	-29.1497
381.888	23.53386
382.103	-31.25673
382.317	78.34042
382.531	23.53386
382.746	19.31862
382.96	40.39575
383.174	-54.43236
383.388	44.61145
383.603	-52.32561
383.817	19.31862
384.031	-1.75614
384.246	-3.86348
384.46	-1.75614
384.674	-16.50703
384.888	-3.86348
385.103	2.45862
385.317	36.18013
385.531	50.93519
385.745	-20.72135
385.959	-14.39983
386.174	27.74919
386.388	23.53386
386.602	15.10348
386.816	-31.25673
387.03	-20.72135
387.244	6.67348
387.458	6.67348
387.672	-37.57766
387.887	-43.89836
388.101	44.61145
388.315	-27.04265
388.529	10.88843
388.743	6.67348
388.957	-58.64579
389.171	25.64151
389.385	15.10348
389.599	53.04315
389.813	27.74919
390.027	-8.0781
390.241	95.20708
390.455	-22.82848
390.669	-43.89836
390.883	-16.50703
391.097	-5.9708
391.311	-27.04265
391.525	8.78094
391.738	55.15113
391.952	82.55695
392.166	-46.00521
392.38	69.90763
392.594	44.61145
392.808	31.96461
393.022	-31.25673
393.236	10.88843
393.449	-43.89836
393.663	-12.29261
393.877	6.67348
394.091	36.18013
394.305	-14.39983
394.518	10.88843
394.732	55.15113
394.946	-10.18537
395.16	6.67348
395.373	-62.85911
395.587	-1.75614
395.801	21.42623
396.015	27.74919
396.228	-27.04265
396.442	59.36716
396.656	40.39575
396.869	-39.68458
397.083	27.74919
397.297	-8.0781
397.51	-37.57766
397.724	-20.72135
397.938	44.61145
398.151	-3.86348
398.365	38.28793
398.578	-29.1497
398.792	-54.43236
399.005	-37.57766
399.219	21.42623
399.433	38.28793
399.646	44.61145
399.86	-41.79148
400.073	-16.50703
400.287	90.99028
400.5	-54.43236
400.714	46.71934
400.927	12.99594
401.141	12.99594
401.354	-50.21884
401.567	-104.98671
401.781	-29.1497
401.994	53.04315
402.208	27.74919
402.421	-27.04265
402.635	15.10348
402.848	-10.18537
403.061	27.74919
403.275	53.04315
403.488	-37.57766
403.701	-27.04265
403.915	-20.72135
404.128	-3.86348
404.341	-16.50703
404.555	27.74919
404.768	53.04315
404.981	2.45862
405.195	6.67348
405.408	12.99594
405.621	2.45862
405.834	-29.1497
406.048	53.04315
406.261	48.82725
406.474	-1.75614
406.687	19.31862
406.9	-24.93558
407.114	-8.0781
407.327	53.04315
407.54	19.31862
407.753	46.71934
407.966	-37.57766
408.179	57.25913
408.392	46.71934
408.605	-10.18537
408.819	-29.1497
409.032	27.74919
409.245	-3.86348
409.458	57.25913
409.671	-1.75614
409.884	15.10348
410.097	-14.39983
410.31	-10.18537
410.523	-73.39198
410.736	-18.61421
410.949	-18.61421
411.162	44.61145
411.375	-14.39983
411.588	19.31862
411.801	21.42623
412.014	36.18013
412.227	-22.82848
412.44	36.18013
412.653	36.18013
412.865	6.67348
413.078	69.90763
413.291	36.18013
413.504	-77.60495
413.717	78.34042
413.93	-10.18537
414.143	29.85689
414.356	21.42623
414.568	-29.1497
414.781	61.47521
414.994	40.39575
415.207	23.53386
415.42	44.61145
415.632	42.50359
415.845	74.12398
416.058	19.31862
416.271	84.66525
416.483	-24.93558
416.696	-5.9708
416.909	40.39575
417.121	15.10348
417.334	27.74919
417.547	-22.82848
417.759	-33.36373
417.972	10.88843
418.185	-37.57766
418.397	-5.9708
418.61	-39.68458
418.823	86.77357
419.035	-39.68458
419.248	6.67348
419.46	-14.39983
419.673	21.42623
419.885	12.99594
420.098	55.15113
420.311	-43.89836
420.523	10.88843
420.736	29.85689
420.948	-20.72135
421.161	53.04315
421.373	-37.57766
421.586	-1.75614
421.798	-20.72135
422.01	19.31862
422.223	-18.61421
422.435	21.42623
422.648	4.56604
422.86	6.67348
423.073	-54.43236
423.285	2.45862
423.497	21.42623
423.71	-35.47071
423.922	40.39575
424.134	2.45862
424.347	55.15113
424.559	-27.04265
424.771	42.50359
424.984	-12.29261
425.196	12.99594
425.408	-14.39983
425.621	23.53386
425.833	-48.11204
426.045	29.85689
426.257	10.88843
426.47	34.07236
426.682	-64.96574
426.894	19.31862
427.106	36.18013
427.318	-35.47071
427.531	69.90763
427.743	-3.86348
427.955	2.45862
428.167	-27.04265
428.379	19.31862
428.591	55.15113
428.804	46.71934
429.016	-10.18537
429.228	-10.18537
429.44	-27.04265
429.652	-12.29261
429.864	82.55695
430.076	21.42623
430.288	27.74919
430.5	2.45862
430.712	-52.32561
430.924	61.47521
431.136	2.45862
431.348	40.39575
431.56	27.74919
431.772	29.85689
431.984	0.35123
432.196	19.31862
432.408	36.18013
432.62	-56.53909
432.832	-39.68458
433.044	15.10348
433.256	50.93519
433.468	59.36716
433.679	19.31862
433.891	-20.72135
434.103	57.25913
434.315	-8.0781
434.527	65.69137
434.739	-5.9708
434.95	-5.9708
435.162	15.10348
435.374	95.20708
435.586	48.82725
435.798	10.88843
436.009	12.99594
436.221	-3.86348
436.433	69.90763
436.645	-27.04265
436.856	-31.25673
437.068	42.50359
437.28	-12.29261
437.491	-54.43236
437.703	-62.85911
437.915	31.96461
438.126	29.85689
438.338	65.69137
438.55	-14.39983
438.761	4.56604
438.973	-54.43236
439.184	72.0158
439.396	103.64094
439.608	15.10348
439.819	2.45862
440.031	10.88843
440.242	-3.86348
440.454	63.58328
440.665	-33.36373
440.877	-22.82848
441.088	-3.86348
441.3	38.28793
441.511	50.93519
441.723	19.31862
441.934	-48.11204
442.146	-29.1497
442.357	10.88843
442.569	-8.0781
442.78	2.45862
442.991	-81.81781
443.203	-77.60495
443.414	-1.75614
443.626	78.34042
443.837	80.44868
444.048	36.18013
444.26	23.53386
444.471	48.82725
444.682	-12.29261
444.894	6.67348
445.105	8.78094
445.316	-27.04265
445.528	40.39575
445.739	-56.53909
445.95	69.90763
446.161	40.39575
446.373	29.85689
446.584	-14.39983
446.795	90.99028
447.006	-18.61421
447.217	19.31862
447.429	29.85689
447.64	2.45862
447.851	0.35123
448.062	6.67348
448.273	19.31862
448.484	88.88192
448.695	15.10348
448.907	-29.1497
449.118	25.64151
449.329	-20.72135
449.54	34.07236
449.751	34.07236
449.962	-10.18537
450.173	-3.86348
450.384	-1.75614
450.595	46.71934
450.806	44.61145
451.017	23.53386
451.228	-3.86348
451.439	78.34042
451.65	0.35123
451.861	6.67348
452.072	15.10348
452.283	15.10348
452.494	53.04315
452.705	-56.53909
452.915	0.35123
453.126	12.99594
453.337	46.71934
453.548	2.45862
453.759	21.42623
453.97	-50.21884
454.181	38.28793
454.391	65.69137
454.602	69.90763
454.813	69.90763
455.024	36.18013
455.235	-5.9708
455.445	61.47521
455.656	6.67348
455.867	27.74919
456.078	36.18013
456.288	19.31862
456.499	31.96461
456.71	27.74919
456.921	-14.39983
457.131	57.25913
457.342	34.07236
457.553	17.21104
457.763	36.18013
457.974	29.85689
458.184	23.53386
458.395	10.88843
458.606	80.44868
458.816	46.71934
459.027	29.85689
459.237	46.71934
459.448	69.90763
459.659	29.85689
459.869	10.88843
460.08	29.85689
460.29	38.28793
460.501	-5.9708
460.711	90.99028
460.922	2.45862
461.132	44.61145
461.343	10.88843
461.553	10.88843
461.764	38.28793
461.974	31.96461
462.184	61.47521
462.395	69.90763
462.605	82.55695
462.816	-20.72135
463.026	29.85689
463.236	61.47521
463.447	46.71934
463.657	-8.0781
463.867	-22.82848
464.078	-27.04265
464.288	10.88843
464.498	40.39575
464.709	10.88843
464.919	55.15113
465.129	27.74919
465.339	29.85689
465.55	42.50359
465.76	-12.29261
465.97	6.67348
466.18	72.0158
466.391	21.42623
466.601	34.07236
466.811	95.20708
467.021	-24.93558
467.231	15.10348
467.441	74.12398
467.651	55.15113
467.862	55.15113
468.072	-1.75614
468.282	19.31862
468.492	48.82725
468.702	44.61145
468.912	-16.50703
469.122	4.56604
469.332	48.82725
469.542	21.42623
469.752	42.50359
469.962	-3.86348
470.172	46.71934
470.382	-14.39983
470.592	65.69137
470.802	8.78094
471.012	53.04315
471.222	23.53386
471.432	25.64151
471.642	-1.75614
471.852	-5.9708
472.062	36.18013
472.272	-10.18537
472.482	23.53386
472.691	107.85801
472.901	10.88843
473.111	19.31862
473.321	21.42623
473.531	44.61145
473.741	21.42623
473.95	15.10348
474.16	61.47521
474.37	46.71934
474.58	112.07516
474.79	72.0158
474.999	69.90763
475.209	84.66525
475.419	42.50359
475.628	53.04315
475.838	152.14241
476.048	29.85689
476.258	63.58328
476.467	128.94464
476.677	10.88843
476.886	84.66525
477.096	55.15113
477.306	103.64094
477.515	-12.29261
477.725	103.64094
477.935	86.77357
478.144	162.68771
478.354	82.55695
478.563	44.61145
478.773	59.36716
478.982	50.93519
479.192	141.59765
479.401	99.42397
479.611	139.48876
479.82	126.83588
480.03	135.27105
480.239	120.50972
480.449	95.20708
480.658	164.79683
480.868	27.74919
481.077	137.37989
481.287	137.37989
481.496	154.25143
481.705	181.67054
481.915	128.94464
482.124	156.36047
482.333	99.42397
482.543	46.71934
482.752	120.50972
482.961	99.42397
483.171	187.99852
483.38	128.94464
483.589	128.94464
483.799	118.40105
484.008	190.10789
484.217	135.27105
484.426	118.40105
484.636	105.74946
484.845	196.43612
485.054	213.31227
485.263	263.94829
485.472	196.43612
485.682	196.43612
485.891	177.45199
486.1	249.1783
486.309	204.87403
486.518	263.94829
486.727	223.86052
486.936	232.29947
487.146	196.43612
487.355	280.82941
487.564	204.87403
487.773	238.62888
487.982	223.86052
488.191	257.61818
488.4	274.49885
488.609	249.1783
488.818	270.27857
489.027	187.99852
489.236	238.62888
489.445	344.14405
489.654	249.1783
489.863	367.3634
490.072	350.47639
490.281	318.81625
490.49	261.83823
490.698	323.03738
490.907	331.47983
491.116	335.70117
491.325	280.82941
491.534	434.92209
491.743	348.36559
491.952	365.25246
492.16	396.91826
492.369	418.03086
492.578	375.80731
492.787	462.37249
492.996	384.25149
493.204	449.70275
493.413	384.25149
493.622	358.91976
493.831	382.14042
494.039	424.36495
494.248	401.14065
494.457	510.94483
494.665	396.91826
494.874	534.1778
495.083	426.47635
495.291	515.16888
495.5	603.88667
495.709	551.07558
495.917	542.62658
496.126	542.62658
496.335	510.94483
496.543	519.39299
496.752	529.9535
496.96	538.40216
497.169	508.83283
497.377	563.74948
497.586	572.19902
497.794	652.47994
498.003	595.43635
498.211	589.09874
498.42	618.67523
498.628	603.88667
498.837	677.83549
499.045	603.88667
499.254	570.08662
499.462	756.02526
499.671	595.43635
499.879	633.46441
500.087	737.00477
500.296	567.97422
500.504	711.64545
500.713	726.4382
500.921	779.27365
501.129	789.84149
501.338	660.9316
501.546	722.21165
501.754	538.40216
501.962	810.9779
502.171	717.98514
502.379	872.27863
502.587	665.1575
502.795	849.02576
503.004	819.43272
503.212	768.70605
503.42	781.38719
503.628	929.35806
503.837	923.01562
504.045	798.29594
504.253	916.67325
504.461	906.10279
504.669	783.50075
504.877	910.33095
505.085	846.91191
505.294	956.84273
505.502	842.68425
505.71	946.27156
505.918	897.64656
506.126	1083.70932
506.334	927.24391
506.542	1185.21619
506.75	961.07124
506.958	1016.04441
507.166	935.70057
507.374	1121.7732
507.582	1016.04441
507.79	952.61424
507.998	1024.5022
508.206	1100.6264
508.414	1024.5022
508.622	994.90036
508.83	1003.35791
509.037	1159.83855
509.245	1009.70113
509.453	1138.69096
509.661	1126.00261
509.869	1219.05385
510.077	1005.47231
510.285	1180.98655
510.492	1049.87614
510.7	1282.50154
510.908	1041.41807
511.116	1161.95334
511.324	1117.5438
511.531	1145.0352
511.739	1111.19974
511.947	1202.13491
512.155	1083.70932
512.362	1240.2028
512.57	1159.83855
512.778	1269.81181
512.985	1151.37947
513.193	1176.75692
513.401	1229.62829
513.608	1301.53629
513.816	1337.49123
514.024	1345.95129
514.231	1185.21619
514.439	1233.85809
514.646	1233.85809
514.854	1329.0312
515.061	1335.37622
515.269	1409.40231
515.477	1468.62374
515.684	1388.25188
515.892	1295.19135
516.099	1455.93342
516.307	1409.40231
516.514	1561.68542
516.722	1398.82708
516.929	1603.98543
517.136	1485.54414
517.344	1563.80043
517.551	1458.04848
517.759	1546.88027
517.966	1506.69461
518.173	1642.05478
518.381	1464.39363
518.588	1525.72996
518.796	1610.33037
519.003	1671.66375
519.21	1441.12806
519.418	1625.13515
519.625	1663.2041
519.832	1703.38705
520.039	1642.05478
520.247	1680.12336
520.454	1697.04245
520.661	1895.82363
520.868	1642.05478
521.076	1779.51994
521.283	1582.8355
521.49	1796.43769
521.697	1703.38705
521.904	1891.59467
522.112	1671.66375
522.319	1828.15774
522.526	1718.19102
522.733	2003.65455
522.94	1709.73163
523.147	1823.92846
523.354	1779.51994
523.561	2033.25235
523.768	1728.76519
523.975	2096.67165
524.183	1821.81381
524.39	1804.89647
524.597	2109.35472
524.804	1999.42618
525.011	1931.76896
525.218	1946.56951
525.425	1955.02683
525.632	2109.35472
525.838	1929.65458
526.045	2043.82268
526.252	2145.28859
526.459	2122.03752
526.666	2073.41866
526.873	2147.40227
527.08	2058.62084
527.287	2119.92374
527.494	2067.07678
527.701	2297.4523
527.907	2134.72004
528.114	2115.69616
528.321	2141.06119
528.528	2122.03752
528.735	2187.56076
528.941	2107.2409
529.148	1929.65458
529.355	2286.88687
529.562	2278.43436
529.768	2274.20805
529.975	1988.85516
530.182	2299.56536
530.388	2060.73484
530.595	2396.75543
530.802	2360.83982
531.008	2394.64283
531.215	2288.99998
531.422	2379.85433
531.628	2280.5475
531.835	2555.16962
532.042	2369.29081
532.248	2612.18293
532.455	2388.30496
532.661	2521.37989
532.868	2422.10583
533.074	2479.13859
533.281	2333.37297
533.487	2546.72247
533.694	2506.59595
533.9	2833.8135
534.107	2517.15596
534.313	2618.5172
534.52	2572.06336
534.726	2749.39997
534.933	2620.6286
535.139	2808.49174
535.345	2635.40804
535.552	2580.50995
535.758	2692.4087
535.965	2871.79236
536.171	2692.4087
536.377	2660.74281
536.584	2696.6306
536.79	2869.68254
536.996	2740.95742
537.203	2894.99939
537.409	2607.96003
537.615	2838.0336
537.821	2783.168
538.028	3057.39861
538.234	2795.83012
538.44	2956.17314
538.646	2884.45095
538.853	3019.44317
539.059	2768.39491
539.265	2918.20467
539.471	2973.04647
539.677	3082.69943
539.883	2968.82823
540.09	3019.44317
540.296	2835.92356
540.502	3044.74735
540.708	3021.55194
540.914	2935.08014
541.12	3015.22559
541.326	3247.09854
541.532	3063.72402
541.738	3207.06176
541.944	3198.63221
542.15	3263.95432
542.356	3072.15769
542.562	3268.1681
542.768	3221.81285
542.974	3226.0273
543.18	3204.9544
543.386	3440.87363
543.592	3042.63875
543.798	3438.76818
544.004	3308.1956
544.21	3546.12328
544.415	3263.95432
544.621	3426.13508
544.827	3230.24168
545.033	3449.29527
545.239	3263.95432
545.445	3449.29527
545.651	3156.48048
545.856	3390.33783
546.062	3314.51516
546.268	3457.71662
546.474	3179.66474
546.679	3341.89817
546.885	3493.50413
547.091	3415.60701
547.297	3390.33783
547.502	3434.55722
547.708	3348.21691
547.914	3560.85458
548.119	3544.01873
548.325	3527.18171
548.531	3297.66264
548.736	3670.25846
548.942	3510.3435
549.147	3499.81903
549.353	3630.28987
549.559	3794.32731
549.764	3362.96002
549.97	3459.82191
550.175	3693.39504
550.381	3794.32731
550.586	3600.83496
550.792	3865.79371
550.997	3634.49741
551.203	3764.89336
551.408	3584.00194
551.614	3670.25846
551.819	3800.63409
552.025	3853.18366
552.23	3954.04388
552.435	4130.43621
552.641	3846.87836
552.846	4002.35622
553.052	4128.33717
553.257	4071.65498
553.462	3748.07224
553.668	4014.95766
553.873	3790.1227
554.078	3949.8423
554.283	3859.48878
554.489	3989.75404
554.694	4000.25591
554.899	4151.42554
555.105	3790.1227
555.31	4105.24626
555.515	3962.4468
555.72	4325.55515
555.925	4054.85734
556.131	4166.11682
556.336	3878.40305
556.541	4140.93114
556.746	4012.85747
556.951	4336.04017
557.156	4130.43621
557.361	4189.20103
557.567	4077.95375
557.772	4214.38088
557.977	4195.49627
558.182	4344.4278
558.387	4134.63425
558.592	4453.43533
558.797	4268.92671
559.002	4331.84622
559.207	4394.74629
559.412	4407.32396
559.617	4327.65219
559.822	4432.47693
560.027	4115.74244
560.232	4308.77799
560.437	4273.12195
560.642	4453.43533
560.847	4205.98793
561.051	4543.53139
561.256	4491.15492
561.461	4562.38352
561.666	4474.39154
561.871	4683.83174
562.076	4312.97241
562.281	4524.67745
562.485	4394.74629
562.69	4510.01204
562.895	4451.33959
563.1	4537.24694
563.305	4285.70714
563.509	4692.2047
563.714	4495.34555
563.919	4635.68025
564.123	4474.39154
564.328	4719.41432
564.533	4413.6125
564.737	4526.77242
564.942	4470.20048
565.147	4675.45842
565.351	4560.28893
565.556	4708.94953
565.761	4579.13947
565.965	4717.32141
566.17	4725.69292
566.374	4918.13751
566.579	4646.14897
566.784	4780.09896
566.988	4608.45894
567.193	4752.89785
567.397	4821.93931
567.602	4976.66919
567.806	4524.67745
568.011	4842.85607
568.215	4775.91442
568.42	4951.58639
568.624	4759.17537
568.828	4824.03109
569.033	4731.97132
569.237	4976.66919
569.442	4809.38816
569.646	4934.86268
569.85	4778.0067
570.055	4962.03796
570.259	4792.65202
570.463	5028.91436
570.668	4842.85607
570.872	4985.02938
571.076	4767.54508
571.281	5047.71909
571.485	4878.40933
571.689	5154.24376
571.893	4985.02938
572.098	5108.29934
572.302	4951.58639
572.506	5246.09879
572.71	4964.1282
572.914	5175.12387
573.119	4970.3988
573.323	5076.96716
573.527	4872.13571
573.731	5099.9446
573.935	5168.86008
574.139	5285.7495
574.343	5221.0519
574.547	5168.86008
574.751	5229.40124
574.955	5256.53401
575.159	5183.47526
575.364	5241.92454
575.568	5141.71458
575.772	5402.56555
575.976	5269.05549
576.18	5269.05549
576.383	5252.35999
576.587	5417.16238
576.791	5102.03332
576.995	5565.15085
577.199	5427.58798
577.403	5352.51053
577.607	5339.99466
577.811	5565.15085
578.015	5152.15562
578.219	5402.56555
578.422	5473.45366
578.626	5525.55993
578.83	5225.22661
579.034	5573.48469
579.238	5260.70793
579.442	5473.45366
579.645	5496.38223
579.849	5681.79036
580.053	5481.79165
580.257	5565.15085
580.46	5469.28453
580.664	5610.98233
580.868	5435.92804
581.071	5535.97942
581.275	5485.96051
581.479	5529.72779
581.682	5481.79165
581.886	5669.29681
582.09	5706.77492
582.293	5669.29681
582.497	5538.06324
582.7	5594.31766
582.904	5527.64387
583.107	5583.90147
583.311	5629.72829
583.515	5752.57112
583.718	5494.29793
583.922	5727.59279
584.125	5719.26593
584.329	5844.12924
584.532	5715.10235
584.735	5752.57112
584.939	5463.03064
585.142	5958.51265
585.346	5808.75993
585.549	6054.124
585.753	5835.80766
585.956	5956.43358
586.159	5869.0917
586.363	5962.6707
586.566	5852.45044
586.769	5962.6707
586.973	5706.77492
587.176	5852.45044
587.379	5877.41177
587.582	5975.14429
587.786	5850.37017
587.989	6062.43568
588.192	5812.92137
588.395	6236.894
588.599	5881.57166
588.802	6205.75288
589.005	5968.9076
589.208	6091.52358
589.411	6103.98841
589.615	6243.12159
589.818	6027.10846
590.021	6039.57766
590.224	6076.98021
590.427	6133.06973
590.63	6056.20196
590.833	6081.13557
591.036	6162.14644
591.239	6309.53613
591.442	6178.75964
591.645	6303.31078
591.848	6228.59022
592.051	6375.92672
592.254	6187.06567
592.457	6309.53613
592.66	6093.60111
592.863	6550.08861
593.066	6176.68307
593.269	6504.49061
593.472	6137.22383
593.675	6616.39297
593.878	6351.03305
594.081	6284.63348
594.284	6508.63635
594.486	6467.17482
594.689	6500.34479
594.892	6479.61425
595.095	6508.63635
595.298	6618.4646
595.5	6197.44769
595.703	6554.23332
595.906	6545.9438
596.109	6556.30565
596.311	6340.6597
596.514	6558.37795
596.717	6483.76055
596.92	6792.39951
597.122	6479.61425
597.325	6682.67372
597.528	6375.92672
597.73	6649.53629
597.933	6537.6539
598.136	6885.51256
598.338	6558.37795
598.541	6943.42636
598.743	6786.19033
598.946	6885.51256
599.148	6579.09968
599.351	6748.93095
599.554	6682.67372
599.756	6935.15405
599.959	6784.12056
600.161	6784.12056
600.363	6450.58761
600.566	6769.63152
600.768	6591.53161
600.971	6637.10824
601.173	6649.53629
601.376	6906.1981
601.578	6786.19033
601.78	6947.56239
601.983	6699.24023
602.185	6885.51256
602.388	6821.37295
602.59	6881.37518
602.792	6815.16473
602.995	6866.89363
603.197	6831.71953
603.399	7224.47139
603.601	6699.24023
603.804	6891.71846
604.006	6839.99638
604.208	6811.02581
604.41	6848.27287
604.613	7133.59025
604.815	6856.54899
605.017	7098.46556
605.219	6926.88137
605.421	6873.10015
605.623	7021.99535
605.826	7189.36332
606.028	7015.79372
606.23	7063.3344
606.432	7195.55932
606.634	7098.46556
606.836	6860.68691
607.038	7230.66627
607.24	6848.27287
607.442	7154.24883
607.644	6918.60833
607.846	7127.39225
608.048	7030.26388
608.25	7081.93405
608.452	6974.44432
608.654	7207.95074
608.856	6844.13467
609.058	7261.63769
609.26	7034.39801
609.462	7234.79608
609.664	6819.30357
609.866	7137.72215
610.067	7057.13412
610.269	7257.50845
610.471	7019.92816
610.673	7286.41125
610.875	7092.26641
611.077	7331.82123
611.278	7034.39801
611.48	7447.36257
611.682	6997.1876
611.884	7383.41063
612.085	7228.60133
612.287	7278.15375
612.489	7286.41125
612.69	7257.50845
612.892	7189.36332
613.094	7439.11188
613.295	7073.66777
613.497	7269.8959
613.699	7133.59025
613.9	7513.35565
614.102	7249.24972
614.304	7174.90519
614.505	7013.72646
614.707	7280.21816
614.908	6968.24114
615.11	7319.43775
615.311	7300.86103
615.513	7170.7741
615.714	7185.23253
615.916	7544.28231
616.117	7162.51164
616.319	7362.77651
616.52	7015.79372
616.722	7437.04915
616.923	7232.73119
617.124	7371.03042
617.326	7439.11188
617.527	7585.51036
617.729	7300.86103
617.93	7531.91223
618.131	7406.10564
618.333	7148.05149
618.534	7265.76684
618.735	7290.53987
618.937	7125.3262
619.138	7338.01268
619.339	7385.47392
619.54	7406.10564
619.742	7282.28254
619.943	7389.60044
620.144	7028.19678
620.345	7437.04915
620.546	7368.96697
620.748	7434.9864
620.949	7412.29473
621.15	7484.4864
621.351	7309.11757
621.552	7587.57154
621.753	7375.15724
621.954	7797.70033
622.155	7311.18165
622.356	7616.42578
622.558	7282.28254
622.759	7597.8771
622.96	7346.26764
623.161	7478.29958
623.362	7414.35772
623.563	7533.97396
623.764	7253.37913
623.965	7793.58226
624.166	7430.86084
624.366	7659.69934
624.567	7503.04569
624.768	7709.14339
624.969	7391.66366
625.17	7717.38288
625.371	7571.08151
625.572	7705.02352
625.773	7608.18214
625.973	7686.48304
626.174	7451.48778
626.375	7601.99918
626.576	7443.23727
626.777	7818.28943
626.977	7385.47392
627.178	7595.81603
627.379	7715.32304
627.58	7445.29993
627.78	7434.9864
627.981	7575.20415
628.182	7542.22068
628.382	7509.23173
628.583	7422.60945
628.784	7447.36257
628.984	7410.23173
629.185	7647.33642
629.386	7490.67302
629.586	7727.68177
629.787	7556.65162
629.987	7562.83599
630.188	7536.03567
630.388	7826.52448
630.589	7659.69934
630.79	7692.66339
630.99	7443.23727
631.191	7758.5753
631.391	7795.64131
631.591	7764.75344
631.792	7478.29958
631.992	7818.28943
632.193	7690.6033
632.393	7643.21528
632.594	7515.41758
632.794	7527.78869
632.994	7628.79061
633.195	7764.75344
633.395	7476.23726
633.595	7707.08346
633.796	7657.63891
633.996	7766.81278
634.196	7785.34587
634.397	8225.5314
634.597	7608.18214
634.797	7816.23061
634.997	7329.75737
635.198	7684.42289
635.398	7886.21869
635.598	7972.64162
635.798	7729.74149
635.998	8046.68971
636.199	7676.18204
636.399	8030.23685
636.599	7645.27586
636.799	8091.92838
636.999	7777.10915
637.199	8130.99031
637.399	7513.35565
637.599	7888.2768
637.799	7740.03975
637.999	7947.95305
638.199	7830.64188
638.399	7904.74094
638.599	7824.46575
638.799	7861.51975
638.999	7863.57811
639.199	7987.04193
639.399	7958.24031
639.599	8022.00994
639.799	7873.86959
639.999	8079.59153
640.199	7711.20329
640.399	8266.62314
640.599	7585.51036
640.799	8087.81618
640.998	7744.15891
641.198	8044.63317
641.398	8065.19762
641.598	8059.0285
641.798	7902.683
641.997	8311.81497
642.197	7898.56705
642.397	8054.91565
642.597	8128.9346
642.796	8024.0667
642.996	7941.78045
643.196	8052.85919
643.395	7960.2977
643.595	8297.43678
643.795	8061.08489
643.994	8003.49819
644.194	8143.32414
644.394	8077.53532
644.593	8036.40683
644.793	8336.46107
644.992	8264.56874
645.192	8155.65726
645.392	7762.69408
645.591	8385.74486
645.791	7997.32725
645.99	8244.02366
646.19	8112.48819
646.389	8071.36656
646.589	8315.92285
646.788	7997.32725
646.987	8044.63317
647.187	8170.045
647.386	8093.98445
647.586	8143.32414
647.785	8077.53532
647.984	8128.9346
648.184	7956.1829
648.383	8389.85133
648.582	8161.82356
648.782	8373.42496
648.981	8167.98967
649.18	8217.31211
649.38	8143.32414
649.579	8408.32953
649.778	8184.43175
649.977	8543.78886
650.177	8196.76248
650.376	8204.98257
650.575	8130.99031
650.774	8453.49189
650.973	8227.58618
651.173	8422.70038
651.372	8073.42283
651.571	8486.33142
651.77	8093.98445
651.969	8338.51478
652.168	8196.76248
652.367	8204.98257
652.566	8235.80508
652.765	8309.761
652.964	8428.85903
653.163	8545.84064
653.362	8387.79811
653.561	8529.4259
653.76	8396.01091
653.959	8449.38661
654.158	8474.01717
654.357	8400.11719
654.556	8315.92285
654.755	8568.40894
654.954	8110.4323
655.153	8603.28274
655.352	8398.06406
655.551	8221.42179
655.749	8418.59452
655.948	8447.33394
656.147	8406.27648
656.346	8652.50714
656.545	8340.56848
656.743	8650.45634
656.942	8085.76005
657.141	8266.62314
657.34	8126.87887
657.538	8562.25418
657.737	8398.06406
657.936	8527.37397
658.135	8170.045
658.333	8426.80617
658.532	8250.18739
658.731	8340.56848
658.929	8241.96904
659.128	8266.62314
659.326	8422.70038
659.525	8709.92208
659.724	8488.38373
659.922	8492.48829
660.121	8595.07763
660.319	8338.51478
660.518	8379.58499
660.716	8264.56874
660.915	8221.42179
661.113	8447.33394
661.312	8258.40542
661.51	8287.16606
661.709	8683.26695
661.907	8527.37397
662.105	8402.17031
662.304	8673.01414
662.502	8414.48858
662.701	8744.7741
662.899	8328.24601
663.097	8789.86886
663.296	8398.06406
663.494	8894.37298
663.692	8621.74315
663.891	8490.43602
664.089	8525.32202
664.287	8791.91841
664.485	8547.8924
664.684	8937.39053
664.882	8613.53871
665.08	8791.91841
665.278	8543.78886
665.476	8402.17031
665.675	8420.64746
665.873	8652.50714
666.071	8572.51202
666.269	8679.16588
666.467	8381.6383
666.665	8525.32202
666.863	8422.70038
667.061	8755.02369
667.259	8377.53167
667.457	8574.56354
667.655	8406.27648
667.853	8636.1002
668.051	8250.18739
668.249	8660.71016
668.447	8691.46886
668.645	8711.97235
668.843	8558.15091
669.041	8666.86224
669.239	8447.33394
669.437	8677.11532
669.635	8562.25418
669.833	8484.27909
670.031	8508.90576
670.229	8631.99828
670.426	8599.18022
670.624	8603.28274
670.822	8599.18022
671.02	8673.01414
671.218	8582.7694
671.415	8621.74315
671.613	8418.59452
671.811	8595.07763
672.009	8457.5971
672.206	8636.1002
672.404	8443.22854
672.602	8519.16607
672.799	8291.27441
672.997	8689.41841
673.195	8365.2113
673.392	8910.76154
673.59	8402.17031
673.788	8578.6665
673.985	8346.72945
674.183	8640.20205
674.38	8467.85979
674.578	8572.51202
674.775	8406.27648
674.973	8656.60869
675.17	8457.5971
675.368	8455.54451
675.565	8336.46107
675.763	8705.8215
675.96	8554.04756
676.158	8849.29852
676.355	8562.25418
676.553	8666.86224
676.75	8235.80508
676.947	8545.84064
677.145	8488.38373
677.342	8728.37381
677.539	8424.75328
677.737	8398.06406
677.934	8250.18739
678.131	8449.38661
678.329	8517.11404
678.526	8613.53871
678.723	8777.57116
678.92	8631.99828
679.118	8578.6665
679.315	8554.04756
679.512	8529.4259
679.709	8490.43602
679.906	8332.35358
680.104	8607.38519
680.301	8163.87895
680.498	8248.13284
680.695	8272.78622
680.892	8484.27909
681.089	8410.38257
681.286	8558.15091
681.483	8153.60179
681.68	8334.40733
681.877	8278.94913
682.075	8484.27909
682.272	8385.74486
682.469	8666.86224
682.665	8311.81497
682.862	8527.37397
683.059	8264.56874
683.256	8570.46049
683.453	8398.06406
683.65	8159.76814
683.847	8116.59991
684.044	8400.11719
684.241	8381.6383
684.438	8517.11404
684.635	8324.13837
684.831	8574.56354
685.028	8161.82356
685.225	8369.31817
685.422	7987.04193
685.619	8283.05763
685.815	8135.10167
686.012	8506.85364
686.209	8204.98257
686.405	8482.22675
686.602	8289.22024
686.799	8028.18016
686.996	8042.57662
687.192	8237.85975
687.389	8186.48692
687.586	8262.51432
687.782	7912.97252
687.979	8389.85133
688.175	7960.2977
688.372	8204.98257
688.568	8204.98257
688.765	8170.045
688.962	8073.42283
689.158	8266.62314
689.355	8270.73188
689.551	8414.48858
689.748	7859.46137
689.944	8200.87256
690.14	7853.28611
690.337	8028.18016
690.533	8229.64093
690.73	7962.35507
690.926	8124.82312
691.123	7962.35507
691.319	8079.59153
691.515	8320.03065
691.712	8159.76814
691.908	8122.76734
692.104	7987.04193
692.301	8186.48692
692.497	8085.76005
692.693	8098.09654
692.889	8221.42179
693.086	8225.5314
693.282	8011.72584
693.478	8202.92758
693.674	7917.08819
693.87	8061.08489
694.067	7814.17177
694.263	8120.71155
694.459	8044.63317
694.655	8081.64772
694.851	7834.7592
695.047	7974.69887
695.243	8079.59153
695.439	8145.37971
695.635	7888.2768
695.831	8019.95316
696.027	7851.22765
696.224	7958.24031
696.42	7797.70033
696.615	7950.01054
696.811	8019.95316
697.007	8233.75038
697.203	7791.5232
697.399	8108.37639
697.595	7787.405
697.791	8079.59153
697.987	8054.91565
698.183	8159.76814
698.379	7884.16056
698.575	8165.93432
698.77	8011.72584
698.966	7873.86959
699.162	7890.33489
699.358	8239.91441
699.554	7871.81134
699.749	8036.40683
699.945	7910.91466
700.141	8032.29353
700.337	7906.79887
700.532	8061.08489
700.728	7859.46137
700.924	7933.55002
701.119	7904.74094
701.315	7980.87049
701.511	7620.54748
701.706	8110.4323
701.902	7634.97274
702.097	7939.72287
702.293	7709.14339
702.489	7987.04193
702.684	7801.81832
702.88	7890.33489
703.075	7744.15891
703.271	7904.74094
703.466	7840.93502
703.662	7805.93622
703.857	7733.86086
704.053	7731.80118
704.248	7805.93622
704.443	7978.8133
704.639	7692.66339
704.834	7956.1829
705.03	7822.40699
705.225	7919.14599
705.42	7651.45748
705.616	7719.4427
705.811	7583.44916
706.006	7785.34587
706.202	7958.24031
706.397	7845.05214
706.592	7886.21869
706.787	7925.31927
706.983	7606.12117
707.178	7962.35507
707.373	7772.99066
707.568	7851.22765
707.763	7622.60829
707.959	7915.03036
708.154	7731.80118
708.349	7933.55002
708.544	7616.42578
708.739	8019.95316
708.934	7601.99918
709.129	8028.18016
709.324	7542.22068
709.519	7952.06802
709.714	7818.28943
709.909	7896.50904
710.104	7717.38288
710.299	7865.63645
710.494	7529.85047
710.689	7834.7592
710.884	7515.41758
711.079	7750.33749
711.274	7527.78869
711.469	7737.98014
711.664	7505.10772
711.859	7890.33489
712.054	7335.94889
712.249	7643.21528
712.443	7810.05404
712.638	7855.34455
712.833	7439.11188
713.028	7604.06019
713.223	7325.62959
713.417	7519.54137
713.612	7457.67545
713.807	7968.52706
714.002	7465.92536
714.196	7898.56705
714.391	7472.11256
714.586	7591.69383
714.78	7542.22068
714.975	7667.94086
715.17	7486.54862
715.364	7665.88051
715.559	7731.80118
715.754	7715.32304
715.948	7406.10564
716.143	7740.03975
716.337	7395.79005
716.532	7670.00119
716.726	7583.44916
716.921	7626.72986
717.115	7375.15724
717.31	7647.33642
717.504	7434.9864
717.699	7705.02352
717.893	7203.82036
718.088	7389.60044
718.282	7331.82123
718.476	7566.9588
718.671	7412.29473
718.865	7451.48778
719.059	7226.53637
719.254	7564.8974
719.448	7269.8959
719.642	7373.09384
719.837	7352.45863
720.031	7401.97947
720.225	7170.7741
720.419	7323.56566
720.614	7009.59188
720.808	7288.47557
721.002	7226.53637
721.196	7327.69349
721.39	7437.04915
721.585	7319.43775
721.779	7212.08104
721.973	7467.98778
722.167	7040.59903
722.361	7133.59025
722.555	7207.95074
722.749	7439.11188
722.943	7187.29794
723.137	7445.29993
723.331	7220.34136
723.525	7428.79803
723.719	7240.99063
723.913	7195.55932
724.107	7098.46556
724.301	7406.10564
724.495	7269.8959
724.689	7459.73796
724.883	7104.6645
725.077	7348.33133
725.271	7152.18308
725.465	7152.18308
725.659	7005.45721
725.853	7259.57308
726.046	7212.08104
726.24	7102.59821
726.434	6858.61796
726.628	7205.88556
726.822	7017.86095
727.015	7166.64291
727.209	7158.38028
727.403	7344.20393
727.596	7302.9252
727.79	7356.58585
727.984	7125.3262
728.177	7451.48778
728.371	7230.66627
728.565	7387.53719
728.758	7284.34691
728.952	7240.99063
729.146	6947.56239
729.339	7127.39225
729.533	7030.26388
729.726	7519.54137
729.92	7181.10166
730.113	7292.60415
730.307	7168.70852
730.5	7170.7741
730.694	7143.91982
730.887	6955.83416
731.081	7228.60133
731.274	7263.70227
731.468	7007.52456
731.661	7195.55932
731.854	6883.44388
732.048	7088.13354
732.241	6835.858
732.435	7034.39801
732.628	7162.51164
732.821	7021.99535
733.014	6875.16894
733.208	7086.06706
733.401	7075.73437
733.594	7013.72646
733.788	7129.45827
733.981	7114.99563
734.174	7005.45721
734.367	7222.40639
734.56	6976.51201
734.754	7094.33282
734.947	7185.23253
735.14	7148.05149
735.333	6986.85009
735.526	6908.26653
735.719	6914.47168
735.912	6931.01776
736.105	6748.93095
736.298	7019.92816
736.491	6997.1876
736.684	7013.72646
736.877	6912.40332
737.07	7139.78806
737.263	7088.13354
737.456	7090.19998
737.649	7059.2009
737.842	7276.08932
738.035	7075.73437
738.228	6953.76625
738.421	6980.64731
738.614	6823.44231
738.807	7042.666
739	7106.73077
739.192	6782.05076
739.385	6916.54002
739.578	7007.52456
739.771	6688.88634
739.964	6881.37518
740.156	7207.95074
740.349	6897.92415
740.542	7030.26388
740.735	6966.17336
740.927	6769.63152
741.12	6715.80527
741.313	6918.60833
741.505	6798.60848
741.698	6906.1981
741.891	7065.40112
742.083	7133.59025
742.276	6928.94958
742.468	6819.30357
742.661	6742.72033
742.854	6852.41097
743.046	6661.96352
743.239	6726.15767
743.431	6982.71492
743.624	6914.47168
743.816	6839.99638
744.009	7100.53189
744.201	6769.63152
744.393	6935.15405
744.586	6842.06553
744.778	6984.78252
744.971	6680.60281
745.163	6817.23416
745.355	6924.81315
745.548	6541.7989
745.74	6695.09874
745.932	6643.32237
746.125	6492.05285
746.317	6765.49159
746.509	6595.6754
746.702	6742.72033
746.894	6483.76055
747.086	6552.16098
747.278	6690.95716
747.471	6707.52293
747.663	6806.88679
747.855	6883.44388
748.047	6709.59355
748.239	6794.46919
748.431	6759.28152
748.623	6972.37662
748.815	6823.44231
749.008	6713.73472
749.2	6835.858
749.392	6953.76625
749.584	6891.71846
749.776	6765.49159
749.968	6715.80527
750.16	6728.22809
750.352	6641.25102
750.544	6641.25102
750.736	6784.12056
750.928	6409.11306
751.12	6668.17682
751.311	6448.5141
751.503	6738.5798
751.695	6699.24023
751.887	6450.58761
752.079	6951.69832
752.271	6674.38992
752.463	6823.44231
752.654	6577.02761
752.846	6699.24023
753.038	6647.46501
753.23	6767.56156
753.421	6496.19887
753.613	6566.66692
753.805	6535.58137
753.997	6674.38992
754.188	6392.52064
754.38	6456.80799
754.572	6504.49061
754.763	6384.22387
754.955	6384.22387
755.146	6608.10622
755.338	6467.17482
755.53	6523.14569
755.721	6359.33132
755.913	6427.77776
756.104	6218.20996
756.296	6562.52248
756.487	6367.62921
756.679	6483.76055
756.87	6361.40582
757.062	6145.53174
757.253	6392.52064
757.445	6568.7391
757.636	6508.63635
757.827	6402.89108
758.019	6209.90533
758.21	6261.8031
758.401	6176.68307
758.593	6371.77801
758.784	6022.95186
758.975	6357.25678
759.167	6058.27989
759.358	6174.60648
759.549	5964.74969
759.74	6197.44769
759.932	6072.82475
760.123	6133.06973
760.314	6039.57766
760.505	6259.72747
760.696	5987.61703
760.888	6232.74216
761.079	6000.08893
761.27	6243.12159
761.461	6074.90249
761.652	6002.16749
761.843	5964.74969
762.034	5952.27539
762.225	5777.54604
762.416	6006.32456
762.607	5835.80766
762.798	6120.60687
762.989	5852.45044
763.18	6056.20196
763.371	5810.84066
763.562	5894.05077
763.753	5919.00644
763.944	6106.0658
764.135	5844.12924
764.326	6033.34317
764.517	6085.29085
764.708	6178.75964
764.899	5985.5383
765.089	5748.4083
765.28	5952.27539
765.471	5943.95872
765.662	5590.15125
765.853	5894.05077
766.043	5610.98233
766.234	5985.5383
766.425	5842.04888
766.615	5935.64167
766.806	5710.93868
766.997	5610.98233
767.187	5594.31766
767.378	5883.65157
767.569	5669.29681
767.759	5871.17176
767.95	5854.53068
768.141	6047.89
768.331	5800.43674
768.522	5908.60866
768.712	5696.3651
768.903	5698.44711
769.093	5588.06802
769.284	5742.16389
769.474	5615.14827
769.665	5435.92804
769.855	5546.39831
770.046	5613.06531
770.236	5404.65088
770.426	5494.29793
770.617	5356.6823
770.807	5585.98476
770.998	5312.87406
771.188	5450.52225
771.378	5310.78769
771.569	5533.89557
771.759	5429.67303
771.949	5312.87406
772.139	5638.05921
772.33	5519.30795
772.52	5410.90673
772.71	5585.98476
772.9	5310.78769
773.09	5588.06802
773.281	5150.06746
773.471	5352.51053
773.661	5469.28453
773.851	5256.53401
774.041	5323.30553
774.231	5544.31458
774.421	5231.48851
774.611	5294.09594
774.802	5081.14509
774.992	5381.71093
775.182	5152.15562
775.372	5210.6147
775.562	5229.40124
775.752	5248.18588
775.942	4987.11937
776.131	5193.91397
776.321	5045.62976
776.511	5310.78769
776.701	4859.58784
776.891	4968.30862
777.081	5047.71909
777.271	5139.6263
777.461	5076.96716
777.651	5310.78769
777.84	4901.41086
778.03	5014.28716
778.22	4997.56898
778.41	5112.47657
778.599	5145.89107
778.789	5150.06746
778.979	5008.01802
779.169	5202.26452
779.358	5118.74224
779.548	5227.31394
779.738	4972.48895
779.927	5045.62976
780.117	5145.89107
780.307	4995.47911
780.496	4934.86268
780.686	5137.538
780.875	4934.86268
781.065	5068.61103
781.254	4763.36027
781.444	5041.45105
781.633	4744.52751
781.823	4934.86268
782.012	4886.77385
782.202	5008.01802
782.391	4788.46775
782.581	4859.58784
782.77	4627.30486
782.96	4974.57908
783.149	4497.44083
783.338	4909.77437
783.528	4554.00502
783.717	4939.04375
783.906	4767.54508
784.096	4826.12285
784.285	4784.2834
784.474	4518.39241
784.663	4675.45842
784.853	4669.17819
785.042	4486.96421
785.231	4688.01826
785.42	4763.36027
785.61	4815.66384
785.799	4621.02309
785.988	4855.40504
786.177	4336.04017
786.366	4499.53609
786.555	4482.77341
786.744	4547.72091
786.933	4426.18898
787.122	4719.41432
787.312	4631.4926
787.501	4650.3363
787.69	4526.77242
787.879	4558.19432
788.068	4264.73139
788.257	4417.80474
788.445	4394.74629
788.634	4650.3363
788.823	4172.41277
789.012	4652.42994
789.201	4304.58348
789.39	4543.53139
789.579	4424.09296
789.768	4541.43659
789.957	4325.55515
790.145	4409.42016
790.334	4382.16784
790.523	4306.68074
790.712	4281.51216
790.9	4294.09684
791.089	4168.21549
791.278	4294.09684
791.467	4373.78177
791.655	4319.26387
791.844	4298.29156
792.033	4185.00409
792.221	4094.74955
792.41	4384.2643
792.599	4004.45651
792.787	4359.10532
792.976	4147.22784
793.164	4514.20227
793.353	4285.70714
793.541	4315.06958
793.73	4136.73323
793.918	4361.20202
794.107	3933.03516
794.295	4216.47906
794.484	4273.12195
794.672	4289.90203
794.861	4168.21549
795.049	4289.90203
795.238	4052.75754
795.426	4424.09296
795.614	4157.72193
795.803	4273.12195
795.991	3922.53004
796.179	4185.00409
796.368	3895.21437
796.556	4090.55073
796.744	3937.23706
796.932	4237.45972
797.121	3836.36914
797.309	4426.18898
797.497	4023.35821
797.685	4419.90084
797.874	4124.13901
798.062	3996.05522
798.25	3743.86676
798.438	4000.25591
798.626	3821.6554
798.814	4122.0399
799.002	4056.95712
799.19	4182.90559
799.378	4050.65773
799.566	3958.24538
799.755	3888.91028
799.943	3964.54748
800.131	3951.9431
800.318	4050.65773
800.506	3743.86676
800.694	4147.22784
800.882	3869.9969
801.07	4008.65703
801.258	3651.32682
801.446	3836.36914
801.634	3811.14499
801.822	3895.21437
802.01	3937.23706
802.197	4069.55534
802.385	3781.71323
802.573	3827.96141
802.761	3838.47103
802.949	3935.13612
803.136	3903.61956
803.324	4101.04764
803.512	3863.69209
803.699	4014.95766
803.887	3914.12558
804.075	4178.70852
804.262	4004.45651
804.45	4054.85734
804.638	3979.25166
804.825	4077.95375
805.013	4050.65773
805.201	4052.75754
805.388	3737.5584
805.576	4014.95766
805.763	3916.22673
805.951	4069.55534
806.138	3743.86676
806.326	4017.05783
806.513	3840.57289
806.701	3819.55336
806.888	3987.65361
807.075	3914.12558
807.263	3819.55336
807.45	4113.64324
807.638	3851.08191
807.825	4067.45569
808.012	3928.83317
808.2	4050.65773
808.387	3922.53004
808.574	4077.95375
808.761	3865.79371
808.949	3878.40305
809.136	3972.94999
809.323	4002.35622
809.51	3861.59044
809.698	4033.85844
809.885	3741.764
810.072	4035.95842
810.259	3764.89336
810.446	4059.05687
810.633	3922.53004
810.82	4214.38088
811.008	3996.05522
811.195	4348.62148
811.382	4071.65498
811.569	4138.8322
811.756	4098.9483
811.943	4107.34553
812.13	4092.65015
812.317	4063.25632
812.504	4115.74244
812.691	4266.82906
812.878	3920.42896
813.064	4059.05687
813.251	3939.33799
813.438	4038.05838
813.625	3712.32323
813.812	4044.35815
813.999	3802.73631
814.186	3979.25166
814.372	3817.4513
814.559	4046.45803
814.746	3935.13612
814.933	4073.75459
815.12	3779.61081
815.306	3834.26724
815.493	3937.23706
815.68	4098.9483
815.866	3945.64063
816.053	3991.85446
816.24	3924.6311
816.426	3975.05057
816.613	3779.61081
816.799	4054.85734
816.986	4031.75843
817.173	4101.04764
817.359	3964.54748
817.546	3987.65361
817.732	3743.86676
817.919	4189.20103
818.105	4012.85747
818.292	3977.15113
818.478	3975.05057
818.665	4012.85747
818.851	3809.04285
819.037	3945.64063
819.224	3676.56867
819.41	3962.4468
819.597	3735.45558
819.783	4147.22784
819.969	3785.918
820.156	3855.28538
820.342	3745.96951
820.528	4017.05783
820.714	3684.982
820.901	4138.8322
821.087	3823.75742
821.273	4031.75843
821.459	3836.36914
821.646	4082.15282
821.832	3834.26724
822.018	3775.40592
822.204	3626.08225
822.39	3613.45894
822.576	3560.85458
822.762	3899.41701
822.948	3529.2864
823.134	3724.94117
823.32	3352.42931
823.507	3647.11958
823.693	3489.29411
823.879	3865.79371
824.065	3714.42627
824.25	3764.89336
824.436	3504.02888
824.622	3590.31446
824.808	3533.49573
824.994	3735.45558
825.18	3569.27206
825.366	3874.20002
825.552	3381.9142
825.738	3632.39365
825.923	3508.23865
826.109	3762.79079
826.295	3581.89772
826.481	3819.55336
826.667	3790.1227
826.852	3724.94117
827.038	3642.91227
827.224	3638.70488
827.409	3661.84459
827.595	3748.07224
827.781	3314.51516
827.966	3573.48069
828.152	3289.23597
828.338	3501.92396
828.523	3322.94101
828.709	3666.05156
828.894	3396.65536
829.08	3478.76873
829.266	3377.70229
829.451	3537.70499
829.637	3373.4903
829.822	3485.08401
830.008	3215.49106
830.193	3455.61131
830.378	3255.52656
830.564	3560.85458
830.749	3392.44369
830.935	3398.76117
831.12	3013.11678
831.305	3285.02253
831.491	3179.66474
831.676	3508.23865
831.861	3129.07838
832.047	3280.80902
832.232	3221.81285
832.417	3398.76117
832.602	3303.98246
832.788	3367.17219
832.973	3405.07849
833.158	3432.45171
833.343	3325.04743
833.528	3369.27824
833.714	3156.48048
833.899	3550.33231
834.084	2962.50075
834.269	3329.26022
834.454	3046.85593
834.639	3223.92009
834.824	3101.67357
835.009	3261.84741
835.194	3061.61557
835.379	3297.66264
835.564	3126.97041
835.749	3238.67024
835.934	3095.349
836.119	3344.00443
836.304	3055.2901
836.489	3154.37273
836.674	3084.80773
836.859	3107.99799
837.044	2958.28236
837.228	3091.13254
837.413	2989.91885
837.598	3145.94153
837.783	2848.5836
837.968	3143.8337
838.152	2785.27839
838.337	3051.07305
838.522	3055.2901
838.707	3095.349
838.891	2810.60197
839.076	2968.82823
839.261	2842.25364
839.445	2960.39156
839.63	2717.73933
839.815	2835.92356
839.999	2800.05071
840.184	3080.59112
840.368	2757.8423
840.553	3048.9645
840.737	2740.95742
840.922	3006.79026
841.106	2878.12172
841.291	2951.95466
841.475	2555.16962
841.66	2802.16099
841.844	2793.7198
842.029	2869.68254
842.213	2673.40951
842.397	2964.60993
842.582	2563.61659
842.766	2717.73933
842.951	2436.89286
843.135	2464.35308
843.319	2567.84
843.504	2567.84
843.688	2622.73999
843.872	2766.28441
844.056	2593.17947
844.241	2823.26301
844.425	2563.61659
844.609	2738.84675
844.793	2618.5172
844.977	2740.95742
845.161	2561.50486
845.346	2694.51966
845.53	2656.52047
845.714	2793.7198
845.898	2582.62157
846.082	2751.51057
846.266	2555.16962
846.45	2690.29773
846.634	2500.2598
846.818	2572.06336
847.002	2605.84856
847.186	2664.96509
847.37	2390.4176
847.554	2550.94607
847.738	2297.4523
847.922	2563.61659
848.106	2441.11763
848.29	2555.16962
848.473	2369.29081
848.657	2470.6898
848.841	2187.56076
849.025	2403.09317
849.209	2200.24177
849.392	2365.06534
849.576	2329.14716
849.76	2474.91422
849.944	2170.65229
850.127	2525.60376
850.311	2329.14716
850.495	2447.4547
850.678	2280.5475
850.862	2648.07565
851.046	2350.27584
851.229	2234.05627
851.413	2096.67165
851.596	2419.99335
851.78	2358.72704
851.964	2441.11763
852.147	2193.90131
852.331	2236.16961
852.514	2041.70863
852.698	2048.05076
852.881	1980.39823
853.065	2075.53261
853.248	2005.76872
853.431	2193.90131
853.615	1948.68385
853.798	2081.8744
853.982	2073.41866
854.165	2367.17808
854.348	2071.30471
854.532	2164.31147
854.715	1838.73087
854.898	2022.68186
855.081	1859.87676
855.265	2322.80836
855.448	1999.42618
855.631	2058.62084
855.814	2122.03752
855.997	2170.65229
856.181	2039.59457
856.364	2176.99303
856.547	1999.42618
856.73	2018.45361
856.913	1955.02683
857.096	2238.28293
857.279	1906.39595
857.462	2062.84883
857.645	1923.31138
857.828	1957.14115
858.011	1872.56406
858.194	2103.01322
858.377	1853.53304
858.56	2001.54037
858.743	1872.56406
858.926	2024.79597
859.109	1830.27237
859.292	1908.5104
859.475	1785.86413
859.658	1777.4052
859.841	1557.45538
860.023	1828.15774
860.206	1694.92757
860.389	1836.61625
860.572	1430.5528
860.755	1861.99132
860.937	1578.6055
861.12	1828.15774
861.303	1656.85933
861.486	1821.81381
861.668	1728.76519
861.851	1990.96938
862.034	1629.36507
862.216	1815.46984
862.399	1618.79026
862.581	1557.45538
862.764	1506.69461
862.947	1692.81269
863.129	1614.56032
863.312	1618.79026
863.494	1466.50869
863.677	1802.78178
863.859	1627.25012
864.042	1845.07468
864.224	1565.91545
864.406	1675.89356
864.589	1485.54414
864.771	1606.10041
864.954	1339.60625
865.136	1669.54884
865.318	1489.77424
865.501	1553.22534
865.683	1337.49123
865.865	1540.53519
866.048	1568.03046
866.23	1502.46452
866.412	1405.17222
866.594	1595.52548
866.777	1466.50869
866.959	1589.1805
867.141	1426.3227
867.323	1650.51454
867.505	1358.64142
867.687	1424.20765
867.869	1489.77424
868.052	1335.37622
868.234	1413.63241
868.416	1570.14547
868.598	1455.93342
868.78	1633.59499
868.962	1464.39363
869.144	1697.04245
869.326	1364.9865
869.508	1400.94213
869.69	1320.5712
869.872	1536.30513
870.054	1314.22621
870.236	1466.50869
870.417	1356.52639
870.599	1460.16353
870.781	1415.74745
870.963	1379.79173
871.145	1295.19135
871.327	1331.14621
871.508	1172.5273
871.69	1371.33159
871.872	1284.61651
872.054	1405.17222
872.235	1020.27329
872.417	1388.25188
872.599	1356.52639
872.78	1591.29549
872.962	1261.35204
873.144	1460.16353
873.325	1176.75692
873.507	1303.65127
873.689	1168.2977
873.87	1295.19135
874.052	1216.93897
874.233	1381.90676
874.415	1159.83855
874.596	1240.2028
874.778	1119.6585
874.959	1322.68619
875.141	1337.49123
875.322	1381.90676
875.503	1288.84644
875.685	1536.30513
875.866	1307.88124
876.048	1434.7829
876.229	1185.21619
876.41	1267.69687
876.592	1225.3985
876.773	1375.56166
876.954	1246.54755
877.136	1362.87147
877.317	1126.00261
877.498	1278.27162
877.679	1051.99068
877.86	1324.8012
878.042	1153.49423
878.223	1316.3412
878.404	1100.6264
878.585	1185.21619
878.766	1174.64211
878.947	1314.22621
879.128	1128.11733
879.309	1295.19135
879.49	1238.08789
879.672	1350.18133
879.853	1117.5438
880.034	1409.40231
880.215	1362.87147
880.396	1379.79173
880.576	1172.5273
880.757	1422.0926
880.938	1155.609
881.119	1439.01301
881.3	1216.93897
881.481	1329.0312
881.662	1244.43263
881.843	1316.3412
882.023	1225.3985
882.204	1373.44662
882.385	1155.609
882.566	1320.5712
882.747	1221.16873
882.927	1339.60625
883.108	1320.5712
883.289	1379.79173
883.469	1164.06812
883.65	1354.41137
883.831	1269.81181
884.011	1362.87147
884.192	1280.38658
884.373	1379.79173
884.553	1303.65127
884.734	1398.82708
884.914	1373.44662
885.095	1517.26981
885.275	1214.82409
885.456	1394.597
885.636	1449.58827
885.817	1460.16353
885.997	1159.83855
886.178	1559.5704
886.358	1278.27162
886.538	1403.05717
886.719	1333.26121
886.899	1312.11122
887.08	1320.5712
887.26	1341.72126
887.44	1180.98655
887.621	1449.58827
887.801	1379.79173
887.981	1223.28361
888.161	1219.05385
888.342	1227.51339
888.522	1235.97299
888.702	1360.75644
888.882	1250.77739
889.062	1326.9162
889.242	1155.609
889.423	1244.43263
889.603	1223.28361
889.783	1443.24311
889.963	1178.87173
890.143	1371.33159
890.323	1204.24977
890.503	1415.74745
890.683	1248.66247
890.863	1255.00724
891.043	1212.70922
891.223	1464.39363
891.403	1214.82409
891.583	1502.46452
891.763	1269.81181
891.943	1384.0218
892.122	1367.10153
892.302	1466.50869
892.482	1261.35204
892.662	1252.89232
892.842	1244.43263
893.022	1403.05717
893.201	1153.49423
893.381	1337.49123
893.561	1172.5273
893.741	1324.8012
893.92	1180.98655
894.1	1212.70922
894.28	1235.97299
894.459	1259.23711
894.639	1111.19974
894.819	1168.2977
894.998	1032.96009
895.178	1166.18291
895.357	1041.41807
895.537	1278.27162
895.716	1145.0352
895.896	1312.11122
896.075	1159.83855
896.255	1147.14995
896.434	1068.90714
896.614	1191.56068
896.793	1039.30357
896.973	1001.24351
897.152	982.21424
897.331	1130.23204
897.511	1111.19974
897.69	1176.75692
897.87	1096.3971
898.049	1104.85572
898.228	942.04314
898.407	1016.04441
898.587	910.33095
898.766	977.98559
898.945	830.00146
899.124	1049.87614
899.304	918.78737
899.483	1100.6264
899.662	865.93684
899.841	986.44292
900.02	872.27863
900.199	1109.08506
900.378	916.67325
900.557	1013.92998
900.737	908.21687
900.916	1062.56342
901.095	853.25348
901.274	1028.73113
901.453	901.87466
901.632	925.12976
901.811	808.86421
901.989	973.75696
902.168	787.7279
902.347	846.91191
902.526	745.45822
902.705	821.54645
902.884	806.75054
903.063	874.39258
903.242	711.64545
903.42	842.68425
903.599	728.55149
903.778	804.63688
903.957	728.55149
904.135	823.66019
904.314	677.83549
904.493	789.84149
904.672	660.9316
904.85	747.57161
905.029	679.94853
905.207	796.18231
905.386	768.70605
905.565	722.21165
905.743	715.8719
905.922	711.64545
906.1	605.99929
906.279	762.36561
906.457	555.30016
906.636	707.41905
906.814	561.63713
906.993	692.62699
907.171	424.36495
907.35	660.9316
907.528	551.07558
907.707	620.78794
907.885	392.69594
908.063	584.87373
908.242	517.28093
908.42	660.9316
908.598	519.39299
908.777	504.60887
908.955	443.36809
909.133	559.52479
909.311	485.60176
909.49	551.07558
909.668	443.36809
909.846	515.16888
910.024	477.15454
910.202	572.19902
910.38	426.47635
910.559	437.03357
910.737	462.37249
910.915	517.28093
911.093	483.48993
911.271	534.1778
911.449	468.70756
911.627	593.3238
911.805	496.16112
911.983	559.52479
912.161	523.61715
912.339	669.38345
912.517	570.08662
912.695	584.87373
912.872	578.53632
913.05	586.98623
913.228	491.93733
913.406	679.94853
913.584	527.84137
913.762	601.77407
913.939	546.85105
914.117	627.12612
914.295	525.72925
914.473	618.67523
914.65	534.1778
914.828	589.09874
915.006	519.39299
915.184	555.30016
915.361	424.36495
915.539	441.25656
915.716	399.02945
915.894	551.07558
916.072	479.26632
916.249	500.38496
916.427	517.28093
916.604	567.97422
916.782	470.81928
916.959	559.52479
917.137	477.15454
917.314	584.87373
917.492	508.83283
917.669	536.28998
917.847	453.92593
918.024	483.48993
918.201	377.91833
918.379	470.81928
918.556	479.26632
918.733	477.15454
918.911	344.14405
919.088	418.03086
919.265	375.80731
919.442	432.81063
919.62	325.14796
919.797	449.70275
919.974	297.71172
920.151	475.04277
920.328	415.91952
920.506	411.69691
920.683	386.36258
920.86	458.14918
921.037	339.92257
921.214	411.69691
921.391	354.69804
921.568	453.92593
921.745	394.80709
921.922	519.39299
922.099	337.81186
922.276	432.81063
922.453	367.3634
922.63	491.93733
922.807	266.05836
922.984	346.25481
923.161	323.03738
923.338	472.93102
923.514	308.26376
923.691	337.81186
923.868	291.38072
924.045	316.70572
924.222	377.91833
924.399	403.25187
924.575	331.47983
924.752	367.3634
924.929	323.03738
925.105	339.92257
925.282	420.14221
925.459	318.81625
925.635	289.27042
925.812	323.03738
925.989	291.38072
926.165	299.82209
926.342	215.42188
926.518	266.05836
926.695	244.95848
926.871	272.3887
927.048	263.94829
927.224	361.03064
927.401	173.23352
927.577	293.49103
927.754	251.28824
927.93	323.03738
928.107	266.05836
928.283	278.71921
928.459	339.92257
928.636	293.49103
928.812	150.03342
928.988	238.62888
929.165	272.3887
929.341	164.79683
929.517	204.87403
929.693	344.14405
929.87	190.10789
930.046	211.20268
930.222	179.56125
930.398	247.06838
930.574	209.09311
930.751	128.94464
930.927	289.27042
931.103	198.54556
931.279	230.1897
931.455	131.05342
931.631	289.27042
931.807	190.10789
931.983	171.12431
932.159	240.73873
932.335	181.67054
932.511	179.56125
932.687	179.56125
932.863	289.27042
933.039	204.87403
933.215	171.12431
933.391	230.1897
933.566	122.61842
933.742	135.27105
933.918	145.81549
934.094	84.66525
934.27	116.2924
934.445	88.88192
934.621	166.90597
934.797	103.64094
934.973	74.12398
935.148	139.48876
935.324	154.25143
935.5	97.31551
935.675	124.72714
935.851	171.12431
936.027	150.03342
936.202	109.96657
936.378	103.64094
936.553	36.18013
936.729	99.42397
936.904	120.50972
937.08	36.18013
937.255	50.93519
937.431	82.55695
937.606	69.90763
937.782	93.09867
937.957	-14.39983
938.133	124.72714
938.308	55.15113
938.483	99.42397
938.659	95.20708
938.834	29.85689
939.009	156.36047
939.185	84.66525
939.36	137.37989
939.535	57.25913
939.71	-3.86348
939.886	27.74919
940.061	36.18013
940.236	72.0158
940.411	48.82725
940.586	86.77357
940.761	15.10348
940.937	59.36716
941.112	27.74919
941.287	48.82725
941.462	74.12398
941.637	128.94464
941.812	10.88843
941.987	69.90763
942.162	61.47521
942.337	40.39575
942.512	61.47521
942.687	61.47521
942.862	21.42623
943.037	31.96461
943.212	55.15113
943.386	101.53244
943.561	139.48876
943.736	57.25913
943.911	40.39575
944.086	103.64094
944.26	10.88843
944.435	78.34042
944.61	69.90763
944.785	50.93519
944.959	29.85689
945.134	61.47521
945.309	44.61145
945.483	90.99028
945.658	107.85801
945.833	86.77357
946.007	36.18013
946.182	84.66525
946.357	27.74919
946.531	156.36047
946.706	-18.61421
946.88	31.96461
947.055	31.96461
947.229	-10.18537
947.404	76.23219
947.578	46.71934
947.752	69.90763
947.927	57.25913
948.101	-12.29261
948.276	4.56604
948.45	-14.39983
948.624	12.99594
948.799	10.88843
948.973	23.53386
949.147	105.74946
949.321	21.42623
949.496	48.82725
949.67	88.88192
949.844	19.31862
950.018	53.04315
950.193	27.74919
950.367	36.18013
950.541	72.0158
950.715	40.39575
950.889	17.21104
951.063	40.39575
951.237	19.31862
951.411	-1.75614
951.585	88.88192
951.759	57.25913
951.933	99.42397
952.107	-1.75614
952.281	-52.32561
952.455	63.58328
952.629	82.55695
952.803	15.10348
952.977	61.47521
953.151	29.85689
953.325	90.99028
953.499	-16.50703
953.672	44.61145
953.846	78.34042
954.02	-1.75614
954.194	112.07516
954.368	88.88192
954.541	31.96461
954.715	40.39575
954.889	27.74919
955.062	63.58328
955.236	88.88192
955.41	78.34042
955.583	23.53386
955.757	76.23219
955.93	44.61145
956.104	156.36047
956.278	103.64094
956.451	12.99594
956.625	-3.86348
956.798	2.45862
956.972	67.79949
957.145	6.67348
957.319	17.21104
957.492	95.20708
957.665	55.15113
957.839	78.34042
958.012	12.99594
958.185	86.77357
958.359	61.47521
958.532	44.61145
958.705	40.39575
958.879	63.58328
959.052	57.25913
959.225	103.64094
959.398	-39.68458
959.572	44.61145
959.745	12.99594
959.918	135.27105
960.091	88.88192
960.264	27.74919
960.438	50.93519
960.611	90.99028
960.784	-1.75614
960.957	114.18377
961.13	63.58328
961.303	38.28793
961.476	27.74919
961.649	53.04315
961.822	-3.86348
961.995	105.74946
962.168	48.82725
962.341	23.53386
962.514	61.47521
962.686	59.36716
962.859	61.47521
963.032	38.28793
963.205	69.90763
963.378	27.74919
963.551	31.96461
963.723	78.34042
963.896	19.31862
964.069	25.64151
964.242	-5.9708
964.414	61.47521
964.587	27.74919
964.76	53.04315
964.932	80.44868
965.105	44.61145
965.278	8.78094
965.45	4.56604
965.623	19.31862
965.795	59.36716
965.968	95.20708
966.14	90.99028
966.313	27.74919
966.485	95.20708
966.658	-22.82848
966.83	88.88192
967.003	-31.25673
967.175	40.39575
967.348	105.74946
967.52	95.20708
967.692	23.53386
967.865	78.34042
968.037	29.85689
968.209	61.47521
968.382	78.34042
968.554	55.15113
968.726	19.31862
968.898	38.28793
969.071	57.25913
969.243	25.64151
969.415	72.0158
969.587	122.61842
969.759	74.12398
969.932	44.61145
970.104	42.50359
970.276	21.42623
970.448	48.82725
970.62	59.36716
970.792	72.0158
970.964	44.61145
971.136	36.18013
971.308	29.85689
971.48	78.34042
971.652	-5.9708
971.824	44.61145
971.996	72.0158
972.168	59.36716
972.339	90.99028
972.511	-12.29261
972.683	53.04315
972.855	34.07236
973.027	0.35123
973.199	-73.39198
973.37	57.25913
973.542	-3.86348
973.714	82.55695
973.886	-14.39983
974.057	103.64094
974.229	2.45862
974.401	114.18377
974.572	82.55695
974.744	86.77357
974.915	38.28793
975.087	72.0158
975.259	53.04315
975.43	-14.39983
975.602	86.77357
975.773	-18.61421
975.945	-14.39983
976.116	86.77357
976.288	34.07236
976.459	61.47521
976.63	133.16222
976.802	61.47521
976.973	69.90763
977.145	-1.75614
977.316	34.07236
977.487	53.04315
977.659	53.04315
977.83	23.53386
978.001	36.18013
978.172	19.31862
978.344	-14.39983
978.515	27.74919
978.686	76.23219
978.857	78.34042
979.028	-1.75614
979.2	55.15113
979.371	23.53386
979.542	44.61145
979.713	12.99594
979.884	17.21104
980.055	-5.9708
980.226	80.44868
980.397	55.15113
980.568	-5.9708
980.739	55.15113
980.91	10.88843
981.081	55.15113
981.252	0.35123
981.423	12.99594
981.594	61.47521
981.765	27.74919
981.936	44.61145
982.106	-1.75614
982.277	-8.0781
982.448	10.88843
982.619	44.61145
982.79	19.31862
982.96	74.12398
983.131	38.28793
983.302	15.10348
983.472	36.18013
983.643	-22.82848
983.814	95.20708
983.984	-39.68458
984.155	46.71934
984.326	63.58328
984.496	-3.86348
984.667	48.82725
984.837	-41.79148
985.008	27.74919
985.178	-1.75614
985.349	61.47521
985.519	27.74919
985.69	4.56604
985.86	21.42623
986.031	12.99594
986.201	2.45862
986.371	34.07236
986.542	21.42623
986.712	40.39575
986.882	23.53386
987.053	61.47521
987.223	-1.75614
987.393	86.77357
987.563	53.04315
987.734	19.31862
987.904	78.34042
988.074	10.88843
988.244	2.45862
988.414	-12.29261
988.585	48.82725
988.755	10.88843
988.925	63.58328
989.095	74.12398
989.265	99.42397
989.435	27.74919
989.605	-3.86348
989.775	-73.39198
989.945	19.31862
990.115	-3.86348
990.285	15.10348
990.455	-22.82848
990.625	12.99594
990.795	-18.61421
990.965	46.71934
991.134	27.74919
991.304	19.31862
991.474	23.53386
991.644	15.10348
991.814	-5.9708
991.984	10.88843
992.153	53.04315
992.323	57.25913
992.493	-64.96574
992.662	-1.75614
992.832	21.42623
993.002	-35.47071
993.171	61.47521
993.341	27.74919
993.511	88.88192
993.68	-16.50703
993.85	55.15113
994.019	-14.39983
994.189	-10.18537
994.358	57.25913
994.528	40.39575
994.697	-5.9708
994.867	-18.61421
995.036	27.74919
995.206	21.42623
995.375	46.71934
995.544	-20.72135
995.714	23.53386
995.883	2.45862
996.052	15.10348
996.222	-5.9708
996.391	55.15113
996.56	29.85689
996.73	95.20708
996.899	53.04315
997.068	36.18013
997.237	-22.82848
997.406	15.10348
997.576	4.56604
997.745	-3.86348
997.914	2.45862
998.083	21.42623
998.252	44.61145
998.421	-31.25673
998.59	-24.93558
998.759	-10.18537
998.928	-5.9708
999.097	97.31551
999.266	44.61145
999.435	15.10348
999.604	-31.25673
999.773	65.69137
999.942	0.35123
1000.111	44.61145
1000.28	-1.75614
1000.448	82.55695
1000.617	59.36716
1000.786	-33.36373
1000.955	10.88843
1001.124	4.56604
1001.292	84.66525
1001.461	-18.61421
1001.63	19.31862
1001.798	34.07236
1001.967	19.31862
1002.136	10.88843
1002.304	69.90763
1002.473	-12.29261
1002.642	-1.75614
1002.81	21.42623
1002.979	19.31862
1003.147	61.47521
1003.316	-22.82848
1003.484	38.28793
1003.653	74.12398
1003.821	21.42623
1003.99	10.88843
1004.158	-14.39983
1004.327	120.50972
1004.495	116.2924
1004.663	-20.72135
1004.832	2.45862
1005	53.04315
1005.168	-46.00521
1005.337	59.36716
1005.505	27.74919
1005.673	90.99028
1005.842	34.07236
1006.01	-48.11204
1006.178	61.47521
1006.346	-20.72135
1006.514	63.58328
1006.683	40.39575
1006.851	36.18013
1007.019	133.16222
1007.187	36.18013
1007.355	-64.96574
1007.523	6.67348
1007.691	-1.75614
1007.859	10.88843
1008.027	-48.11204
1008.195	-41.79148
1008.363	-3.86348
1008.531	38.28793
1008.699	38.28793
1008.867	55.15113
1009.035	-14.39983
1009.203	-14.39983
1009.37	-22.82848
1009.538	-14.39983
1009.706	19.31862
1009.874	4.56604
1010.042	-22.82848
1010.209	17.21104
1010.377	-14.39983
1010.545	-29.1497
1010.713	-52.32561
1010.88	-56.53909
1011.048	-18.61421
1011.216	99.42397
1011.383	2.45862
1011.551	19.31862
1011.718	36.18013
1011.886	44.61145
1012.054	8.78094
1012.221	-41.79148
1012.389	-27.04265
1012.556	-31.25673
1012.724	44.61145
1012.891	2.45862
1013.058	-3.86348
1013.226	36.18013
1013.393	38.28793
1013.561	-3.86348
1013.728	-5.9708
1013.895	12.99594
1014.063	59.36716
1014.23	-12.29261
1014.397	-12.29261
1014.565	44.61145
1014.732	8.78094
1014.899	-27.04265
1015.066	-5.9708
1015.233	-29.1497
1015.401	-33.36373
1015.568	31.96461
1015.735	31.96461
1015.902	21.42623
1016.069	-39.68458
1016.236	-56.53909
1016.403	-27.04265
1016.57	-33.36373
1016.737	2.45862
1016.904	55.15113
1017.071	61.47521
1017.238	19.31862
1017.405	-43.89836
1017.572	12.99594
1017.739	36.18013
1017.906	-22.82848
1018.073	-12.29261
1018.24	-3.86348
1018.407	44.61145
1018.573	15.10348
1018.74	-73.39198
1018.907	-48.11204
1019.074	19.31862
1019.241	-37.57766
1019.407	31.96461
1019.574	-14.39983
1019.741	23.53386
1019.907	42.50359
1020.074	61.47521
1020.241	-24.93558
1020.407	21.42623
1020.574	63.58328
1020.74	10.88843
1020.907	10.88843
1021.073	10.88843
1021.24	27.74919
1021.406	-12.29261
1021.573	-5.9708
1021.739	23.53386
1021.906	23.53386
1022.072	48.82725
1022.239	-39.68458
1022.405	-62.85911
1022.571	-54.43236
1022.738	-37.57766
1022.904	12.99594
1023.07	-14.39983
1023.237	36.18013
1023.403	55.15113
1023.569	-1.75614
1023.735	8.78094
1023.902	-39.68458
1024.068	21.42623
1024.234	40.39575
1024.4	55.15113
1024.566	8.78094
1024.732	-3.86348
1024.898	21.42623
1025.065	-12.29261
1025.231	-10.18537
1025.397	36.18013
1025.563	38.28793
1025.729	-10.18537
1025.895	34.07236
1026.061	48.82725
1026.227	6.67348
1026.392	-27.04265
1026.558	-14.39983
1026.724	36.18013
1026.89	-27.04265
1027.056	-81.81781
1027.222	8.78094
1027.388	-31.25673
1027.553	10.88843
1027.719	15.10348
1027.885	120.50972
1028.051	40.39575
1028.216	-37.57766
1028.382	80.44868
1028.548	-22.82848
1028.713	-16.50703
1028.879	2.45862
1029.045	76.23219
1029.21	0.35123
1029.376	4.56604
1029.541	-1.75614
1029.707	48.82725
1029.873	19.31862
1030.038	19.31862
1030.204	-60.75247
1030.369	36.18013
1030.534	-24.93558
1030.7	-12.29261
1030.865	36.18013
1031.031	-31.25673
1031.196	-5.9708
1031.361	2.45862
1031.527	2.45862
1031.692	19.31862
1031.857	-18.61421
1032.023	19.31862
1032.188	46.71934
1032.353	2.45862
1032.518	12.99594
1032.684	4.56604
1032.849	2.45862
1033.014	4.56604
1033.179	-39.68458
1033.344	-39.68458
1033.509	19.31862
1033.674	-48.11204
1033.839	-10.18537
1034.004	4.56604
1034.17	-14.39983
1034.335	69.90763
1034.5	-73.39198
1034.664	46.71934
1034.829	-18.61421
1034.994	23.53386
1035.159	-56.53909
1035.324	-5.9708
1035.489	25.64151
1035.654	36.18013
1035.819	36.18013
1035.984	-12.29261
1036.148	-22.82848
1036.313	-18.61421
1036.478	-27.04265
1036.643	31.96461
1036.807	10.88843
1036.972	-94.45578
1037.137	27.74919
1037.301	-67.07234
1037.466	25.64151
1037.631	27.74919
1037.795	-24.93558
1037.96	53.04315
1038.124	-24.93558
1038.289	61.47521
1038.454	-31.25673
1038.618	-20.72135
1038.783	36.18013
1038.947	38.28793
1039.111	31.96461
1039.276	-31.25673
1039.44	36.18013
1039.605	-1.75614
1039.769	27.74919
1039.933	-20.72135
1040.098	53.04315
1040.262	137.37989
1040.426	61.47521
1040.591	12.99594
1040.755	42.50359
1040.919	23.53386
1041.083	-50.21884
1041.248	29.85689
1041.412	-62.85911
1041.576	12.99594
1041.74	63.58328
1041.904	61.47521
1042.068	78.34042
1042.232	-37.57766
1042.397	-29.1497
1042.561	65.69137
1042.725	-5.9708
1042.889	17.21104
1043.053	38.28793
1043.217	69.90763
1043.381	23.53386
1043.544	-10.18537
1043.708	-3.86348
1043.872	-31.25673
1044.036	10.88843
1044.2	2.45862
1044.364	10.88843
1044.528	-46.00521
1044.691	-18.61421
1044.855	10.88843
1045.019	-62.85911
1045.183	23.53386
1045.346	72.0158
1045.51	12.99594
1045.674	44.61145
1045.837	25.64151
1046.001	19.31862
1046.165	4.56604
1046.328	36.18013
1046.492	-39.68458
1046.655	38.28793
1046.819	17.21104
1046.983	-46.00521
1047.146	-16.50703
1047.31	12.99594
1047.473	-18.61421
1047.636	6.67348
1047.8	19.31862
1047.963	-8.0781
1048.127	-62.85911
1048.29	-39.68458
