Data from mixed_try1_USB4F045381__22__00087.txt Node

Date: Thu Apr 03 19:53:11 EDT 2025
User: mmckonesweet
Spectrometer: USB4F04538
Trigger mode: 4
Integration Time (sec): 2.700000E-3
Scans to average: 1
Electric dark correction enabled: true
Nonlinearity correction enabled: true
Boxcar width: 0
XAxis mode: Wavelengths
Number of Pixels in Spectrum: 3648
>>>>>Begin Spectral Data<<<<<
345.52	38.99053
345.736	38.99053
345.952	38.99053
346.168	-28.44736
346.384	3.16109
346.6	-11.5902
346.816	11.59093
347.032	-30.55439
347.248	22.12877
347.464	-72.68981
347.68	-20.01897
347.896	-47.40976
348.112	74.82672
348.328	7.37596
348.544	-9.48295
348.76	28.45175
348.975	47.42198
349.191	-114.81498
349.407	79.04317
349.623	3.16109
349.839	-13.69743
350.055	-15.80464
350.27	-87.4348
350.486	-9.48295
350.702	7.37596
350.918	-51.62336
351.133	-3.16104
351.349	-36.87534
351.565	30.55946
351.781	-34.76838
351.996	-28.44736
352.212	24.2364
352.428	-20.01897
352.644	-38.98228
352.859	-55.83685
353.075	-26.3403
353.291	-5.26836
353.506	34.77495
353.722	24.2364
353.938	-95.85994
354.153	-26.3403
354.369	-5.26836
354.584	-1.05368
354.8	17.91356
355.016	-20.01897
355.231	20.02115
355.447	-22.12611
355.662	17.91356
355.878	34.77495
356.093	-62.1569
356.309	-34.76838
356.524	20.02115
356.74	-55.83685
356.955	-3.16104
357.171	-13.69743
357.386	9.48343
357.602	41.09836
357.817	-11.5902
358.033	-11.5902
358.248	-22.12611
358.464	-45.30293
358.679	20.02115
358.895	36.88273
359.11	-9.48295
359.325	-79.00925
359.541	1.05369
359.756	-41.08919
359.972	15.80599
360.187	-36.87534
360.402	28.45175
360.618	-51.62336
360.833	3.16109
361.048	-28.44736
361.264	5.26851
361.479	62.17789
361.694	3.16109
361.909	20.02115
362.125	9.48343
362.34	43.20621
362.555	32.66719
362.77	5.26851
362.986	-13.69743
363.201	-3.16104
363.416	62.17789
363.631	7.37596
363.847	28.45175
364.062	47.42198
364.277	-72.68981
364.492	-43.19607
364.707	-3.16104
364.922	-24.23321
365.138	5.26851
365.353	-51.62336
365.568	34.77495
365.783	-11.5902
365.998	-76.90279
366.213	-15.80464
366.428	-83.22208
366.643	-30.55439
366.858	55.85379
367.073	38.99053
367.288	-24.23321
367.503	-43.19607
367.718	-41.08919
367.933	11.59093
368.148	-3.16104
368.363	1.05369
368.578	-38.98228
368.793	-38.98228
369.008	-5.26836
369.223	-1.05368
369.438	-32.6614
369.653	17.91356
369.868	-15.80464
370.083	64.28597
370.298	-30.55439
370.513	-38.98228
370.728	26.34407
370.943	-51.62336
371.157	26.34407
371.372	11.59093
371.587	7.37596
371.802	45.31408
372.017	110.66943
372.232	15.80599
372.446	20.02115
372.661	-11.5902
372.876	-5.26836
373.091	-20.01897
373.306	11.59093
373.52	22.12877
373.735	-22.12611
373.95	-83.22208
374.165	-34.76838
374.379	-13.69743
374.594	45.31408
374.809	-45.30293
375.023	7.37596
375.238	20.02115
375.453	-45.30293
375.667	24.2364
375.882	-36.87534
376.097	15.80599
376.311	-13.69743
376.526	24.2364
376.741	28.45175
376.955	72.71852
377.17	-62.1569
377.384	7.37596
377.599	22.12877
377.813	38.99053
378.028	32.66719
378.242	43.20621
378.457	-30.55439
378.672	49.5299
378.886	-60.05024
379.101	57.9618
379.315	-1.05368
379.53	-30.55439
379.744	-17.91182
379.958	-13.69743
380.173	-28.44736
380.387	32.66719
380.602	13.69845
380.816	7.37596
381.031	41.09836
381.245	32.66719
381.459	-13.69743
381.674	7.37596
381.888	-3.16104
382.103	-38.98228
382.317	-34.76838
382.531	-36.87534
382.746	-36.87534
382.96	-20.01897
383.174	-17.91182
383.388	53.7458
383.603	-26.3403
383.817	79.04317
384.031	-11.5902
384.246	-17.91182
384.46	22.12877
384.674	-5.26836
384.888	-1.05368
385.103	-5.26836
385.317	-1.05368
385.531	53.7458
385.745	5.26851
385.959	30.55946
386.174	-5.26836
386.388	13.69845
386.602	30.55946
386.816	22.12877
387.03	45.31408
387.244	-13.69743
387.458	-55.83685
387.672	20.02115
387.887	43.20621
388.101	32.66719
388.315	5.26851
388.529	11.59093
388.743	28.45175
388.957	7.37596
389.171	-30.55439
389.385	24.2364
389.599	-81.11567
389.813	-5.26836
390.027	7.37596
390.241	-17.91182
390.455	74.82672
390.669	64.28597
390.883	79.04317
391.097	-11.5902
391.311	38.99053
391.525	5.26851
391.738	11.59093
391.952	36.88273
392.166	62.17789
392.38	-3.16104
392.594	15.80599
392.808	30.55946
393.022	3.16109
393.236	41.09836
393.449	32.66719
393.663	70.61035
393.877	-47.40976
394.091	-15.80464
394.305	43.20621
394.518	-34.76838
394.732	3.16109
394.946	-57.94356
395.16	11.59093
395.373	100.12679
395.587	-17.91182
395.801	24.2364
396.015	20.02115
396.228	-3.16104
396.442	-17.91182
396.656	-3.16104
396.869	28.45175
397.083	-36.87534
397.297	-7.37567
397.51	7.37596
397.724	30.55946
397.938	-11.5902
398.151	-135.87361
398.365	-17.91182
398.578	38.99053
398.792	-9.48295
399.005	-36.87534
399.219	11.59093
399.433	15.80599
399.646	41.09836
399.86	34.77495
400.073	53.7458
400.287	-32.6614
400.5	36.88273
400.714	-64.26353
400.927	11.59093
401.141	-13.69743
401.354	3.16109
401.567	-28.44736
401.781	-45.30293
401.994	-34.76838
402.208	-3.16104
402.421	5.26851
402.635	1.05369
402.848	-13.69743
403.061	36.88273
403.275	45.31408
403.488	20.02115
403.701	72.71852
403.915	-1.05368
404.128	-36.87534
404.341	17.91356
404.555	1.05369
404.768	7.37596
404.981	-36.87534
405.195	-9.48295
405.408	-36.87534
405.621	-38.98228
405.834	-28.44736
406.048	-70.58328
406.261	22.12877
406.474	55.85379
406.687	-5.26836
406.9	3.16109
407.114	20.02115
407.327	36.88273
407.54	-47.40976
407.753	45.31408
407.966	43.20621
408.179	72.71852
408.392	1.05369
408.605	49.5299
408.819	-17.91182
409.032	-3.16104
409.245	-60.05024
409.458	38.99053
409.671	68.5022
409.884	15.80599
410.097	24.2364
410.31	34.77495
410.523	1.05369
410.736	13.69845
410.949	41.09836
411.162	22.12877
411.375	30.55946
411.588	15.80599
411.801	-30.55439
412.014	-51.62336
412.227	57.9618
412.44	11.59093
412.653	66.39408
412.865	-34.76838
413.078	20.02115
413.291	11.59093
413.504	-17.91182
413.717	20.02115
413.93	-1.05368
414.143	28.45175
414.356	-5.26836
414.568	53.7458
414.781	-11.5902
414.994	-36.87534
415.207	-17.91182
415.42	53.7458
415.632	-57.94356
415.845	3.16109
416.058	-70.58328
416.271	104.34378
416.483	-22.12611
416.696	-41.08919
416.909	17.91356
417.121	-22.12611
417.334	-47.40976
417.547	38.99053
417.759	-49.51657
417.972	-93.7537
418.185	-22.12611
418.397	-64.26353
418.61	28.45175
418.823	-7.37567
419.035	-119.02692
419.248	28.45175
419.46	32.66719
419.673	62.17789
419.885	-70.58328
420.098	81.15143
420.311	-32.6614
420.523	11.59093
420.736	-38.98228
420.948	62.17789
421.161	13.69845
421.373	-5.26836
421.586	-32.6614
421.798	53.7458
422.01	-34.76838
422.223	-34.76838
422.435	3.16109
422.648	13.69845
422.86	20.02115
423.073	45.31408
423.285	-1.05368
423.497	-47.40976
423.71	-30.55439
423.922	79.04317
424.134	30.55946
424.347	-15.80464
424.559	36.88273
424.771	-3.16104
424.984	22.12877
425.196	5.26851
425.408	38.99053
425.621	20.02115
425.833	41.09836
426.045	-11.5902
426.257	-3.16104
426.47	-20.01897
426.682	81.15143
426.894	-5.26836
427.106	-26.3403
427.318	70.61035
427.531	26.34407
427.743	28.45175
427.955	32.66719
428.167	-13.69743
428.379	32.66719
428.591	43.20621
428.804	-13.69743
429.016	20.02115
429.228	-45.30293
429.44	-9.48295
429.652	-13.69743
429.864	-5.26836
430.076	-20.01897
430.288	-45.30293
430.5	-20.01897
430.712	7.37596
430.924	13.69845
431.136	-1.05368
431.348	36.88273
431.56	-3.16104
431.772	62.17789
431.984	7.37596
432.196	-22.12611
432.408	-15.80464
432.62	28.45175
432.832	13.69845
433.044	53.7458
433.256	-15.80464
433.468	146.51847
433.679	-5.26836
433.891	34.77495
434.103	72.71852
434.315	32.66719
434.527	20.02115
434.739	-5.26836
434.95	-3.16104
435.162	30.55946
435.374	-17.91182
435.586	-1.05368
435.798	-11.5902
436.009	20.02115
436.221	89.5847
436.433	3.16109
436.645	-9.48295
436.856	72.71852
437.068	87.47635
437.28	30.55946
437.491	51.63784
437.703	-11.5902
437.915	5.26851
438.126	53.7458
438.338	-51.62336
438.55	38.99053
438.761	55.85379
438.973	53.7458
439.184	55.85379
439.396	41.09836
439.608	7.37596
439.819	5.26851
440.031	47.42198
440.242	22.12877
440.454	104.34378
440.665	20.02115
440.877	47.42198
441.088	-1.05368
441.3	7.37596
441.511	70.61035
441.723	-26.3403
441.934	30.55946
442.146	41.09836
442.357	-11.5902
442.569	-30.55439
442.78	-47.40976
442.991	3.16109
443.203	22.12877
443.414	-5.26836
443.626	7.37596
443.837	9.48343
444.048	22.12877
444.26	-13.69743
444.471	28.45175
444.682	28.45175
444.894	30.55946
445.105	53.7458
445.316	47.42198
445.528	66.39408
445.739	-30.55439
445.95	15.80599
446.161	22.12877
446.373	45.31408
446.584	36.88273
446.795	-7.37567
447.006	36.88273
447.217	-28.44736
447.429	1.05369
447.64	-11.5902
447.851	36.88273
448.062	64.28597
448.273	53.7458
448.484	45.31408
448.695	55.85379
448.907	-5.26836
449.118	5.26851
449.329	-5.26836
449.54	7.37596
449.751	-17.91182
449.962	5.26851
450.173	20.02115
450.384	9.48343
450.595	7.37596
450.806	-3.16104
451.017	112.77803
451.228	62.17789
451.439	83.25972
451.65	70.61035
451.861	53.7458
452.072	-22.12611
452.283	-9.48295
452.494	51.63784
452.705	49.5299
452.915	36.88273
453.126	79.04317
453.337	32.66719
453.548	53.7458
453.759	68.5022
453.97	3.16109
454.181	15.80599
454.391	-5.26836
454.602	5.26851
454.813	32.66719
455.024	60.06984
455.235	3.16109
455.445	20.02115
455.656	41.09836
455.867	-22.12611
456.078	98.01833
456.288	15.80599
456.499	62.17789
456.71	89.5847
456.921	41.09836
457.131	45.31408
457.342	15.80599
457.553	11.59093
457.763	53.7458
457.974	30.55946
458.184	87.47635
458.395	-13.69743
458.606	28.45175
458.816	-5.26836
459.027	79.04317
459.237	76.93493
459.448	74.82672
459.659	64.28597
459.869	-3.16104
460.08	36.88273
460.29	36.88273
460.501	20.02115
460.711	32.66719
460.922	-32.6614
461.132	-26.3403
461.343	66.39408
461.553	98.01833
461.764	28.45175
461.974	108.56086
462.184	30.55946
462.395	36.88273
462.605	17.91356
462.816	112.77803
463.026	62.17789
463.236	20.02115
463.447	11.59093
463.657	62.17789
463.867	104.34378
464.078	72.71852
464.288	95.90989
464.498	121.21262
464.709	68.5022
464.919	49.5299
465.129	55.85379
465.339	-1.05368
465.55	49.5299
465.76	72.71852
465.97	112.77803
466.18	64.28597
466.391	104.34378
466.601	87.47635
466.811	100.12679
467.021	116.99528
467.231	11.59093
467.441	64.28597
467.651	123.32132
467.862	121.21262
468.072	68.5022
468.282	89.5847
468.492	106.45231
468.702	89.5847
468.912	70.61035
469.122	79.04317
469.332	43.20621
469.542	123.32132
469.752	98.01833
469.962	100.12679
470.172	70.61035
470.382	102.23527
470.592	100.12679
470.802	106.45231
471.012	119.10394
471.222	55.85379
471.432	154.95444
471.642	180.26435
471.852	26.34407
472.062	114.88664
472.272	224.56375
472.482	119.10394
472.691	214.01547
472.901	146.51847
473.111	148.62743
473.321	190.81102
473.531	173.93659
473.741	176.04582
473.95	199.24872
474.16	159.17255
474.37	199.24872
474.58	216.12509
474.79	283.64305
474.999	144.40954
475.209	154.95444
475.419	192.92041
475.628	230.89295
475.838	222.45405
476.048	205.57721
476.258	268.87183
476.467	264.65165
476.677	207.68674
476.886	302.63595
477.096	406.06685
477.306	302.63595
477.515	275.20224
477.725	353.29082
477.935	403.95561
478.144	351.18
478.354	317.40923
478.563	361.73427
478.773	353.29082
478.982	475.74669
479.192	450.40661
479.401	471.52319
479.611	378.62201
479.82	513.76086
480.03	566.56597
480.239	501.08894
480.449	482.08206
480.658	494.75318
480.868	558.11657
481.077	598.2531
481.287	503.20089
481.496	579.24047
481.705	511.64884
481.915	703.89708
482.124	534.88186
482.333	642.61991
482.543	623.60489
482.752	784.20528
482.961	767.29705
483.171	794.77323
483.38	784.20528
483.589	822.25103
483.799	686.99207
484.008	908.92156
484.217	868.75541
484.426	839.16122
484.636	813.79616
484.845	1101.33129
485.054	847.61653
485.263	1031.55043
485.472	944.86208
485.682	1044.23742
485.891	1169.00264
486.1	1164.77305
486.309	1075.95576
486.518	1152.08439
486.727	1135.1664
486.936	1177.46186
487.146	1008.29152
487.355	1173.23224
487.564	1169.00264
487.773	1416.45247
487.982	1397.41706
488.191	1353.00136
488.4	1281.09157
488.609	1511.6297
488.818	1346.6563
489.027	1431.25782
489.236	1452.40834
489.445	1515.85979
489.654	1530.66505
489.863	1676.59853
490.072	1522.2049
490.281	1740.04421
490.49	1562.39042
490.698	1625.84014
490.907	1642.75976
491.116	1718.89597
491.325	1583.5405
491.534	1869.03983
491.743	1668.1389
491.952	1835.2065
492.16	1858.46705
492.369	2057.21151
492.578	1877.49796
492.787	2006.47344
492.996	2048.75544
493.204	2116.40076
493.413	2012.81591
493.622	2304.49579
493.831	2000.13091
494.039	2234.76072
494.248	2156.56149
494.457	2336.19016
494.665	2262.2333
494.874	2412.24752
495.083	2194.6058
495.291	2403.79736
495.5	2243.21398
495.709	2416.47254
495.917	2213.62694
496.126	2513.63599
496.335	2585.43704
496.543	2610.7753
496.752	2538.97908
496.96	2636.11181
497.169	2355.20573
497.377	2634.0005
497.586	2509.41198
497.794	2912.57931
498.003	2462.94491
498.211	2899.92187
498.42	2612.88675
498.628	2883.04447
498.837	2832.40679
499.045	3064.42684
499.254	2800.75414
499.462	3003.27546
499.671	2804.97467
499.879	2935.78326
500.087	2980.07675
500.296	3058.10144
500.504	3005.38434
500.713	3039.12439
500.921	2880.93473
501.129	3155.07531
501.338	2958.98543
501.546	3241.4797
501.754	3060.20992
501.962	3454.20776
502.171	3447.89168
502.379	3273.08409
502.587	3138.21272
502.795	3553.1383
503.004	3294.15156
503.212	3323.64315
503.42	3150.85976
503.628	3569.9735
503.837	3454.20776
504.045	3578.39066
504.253	3407.88614
504.461	3424.73136
504.669	3662.54576
504.877	3673.06302
505.085	3666.75272
505.294	3685.6831
505.502	3593.11997
505.71	3578.39066
505.918	3845.47716
506.126	3906.42121
506.334	3776.10675
506.542	3950.54257
506.75	3679.37315
506.958	3763.49165
507.166	3971.5496
507.374	3971.5496
507.582	3921.12932
507.79	4087.05164
507.998	3927.43249
508.206	4070.25522
508.414	3771.90179
508.622	4108.04529
508.83	4034.55843
509.037	4368.19087
509.245	4011.45734
509.453	4049.25784
509.661	4080.75314
509.869	4336.73915
510.077	4162.61899
510.285	4355.61077
510.492	4250.74637
510.7	4418.50344
510.908	4317.86579
511.116	4489.75803
511.324	4282.21133
511.531	4399.6377
511.739	4424.79163
511.947	4586.12069
512.155	4366.09424
512.362	4433.17558
512.57	4399.6377
512.778	4617.53313
512.985	4623.81501
513.193	4642.65946
513.401	4502.32973
513.608	4550.51387
513.816	4642.65946
514.024	4768.24254
514.231	4757.78038
514.439	4684.5295
514.646	4751.50282
514.854	4895.83499
515.061	4707.55418
515.269	4828.91182
515.477	4816.36112
515.684	4843.55326
515.892	4797.53354
516.099	4883.28868
516.307	4948.1024
516.514	5163.29209
516.722	4918.83442
516.929	5186.25897
517.136	4937.65007
517.344	5194.60986
517.551	4985.72605
517.759	5090.19694
517.966	5194.60986
518.173	5188.34673
518.381	5161.20405
518.588	5159.11599
518.796	5288.53168
519.003	5428.283
519.21	5380.32054
519.418	5371.97797
519.625	5282.2717
519.832	5278.09826
520.039	5328.17335
520.247	5486.65531
520.454	5530.42243
520.661	5672.07323
520.868	5261.40357
521.076	5903.06293
521.283	5603.34455
521.49	5728.28668
521.697	5690.81296
521.904	5790.72589
522.112	5528.33852
522.319	5944.65179
522.526	5882.26497
522.733	5794.88775
522.94	5701.22309
523.147	5755.34628
523.354	5846.90301
523.561	6027.80121
523.768	5690.81296
523.975	6040.27037
524.183	5615.84258
524.39	6106.75826
524.597	6154.53156
524.804	6177.37526
525.011	5903.06293
525.218	6090.13855
525.425	6152.45472
525.632	6212.67358
525.838	6071.43957
526.045	6121.29928
526.252	6272.87273
526.459	6405.65643
526.666	6426.39525
526.873	6360.02282
527.08	6277.02367
527.287	6420.17385
527.494	6063.1283
527.701	6534.19967
527.907	6343.42598
528.114	6675.08025
528.321	6652.29797
528.528	6552.85176
528.735	6281.17452
528.941	6892.40799
529.148	6521.7639
529.355	6602.58151
529.562	6559.06871
529.768	6704.07185
529.975	6368.32068
530.182	6652.29797
530.388	6683.36402
530.595	6877.92729
530.802	6718.56597
531.008	7072.29002
531.215	6795.15907
531.422	7173.52817
531.628	7088.82235
531.835	7064.02331
532.042	6950.31968
532.248	7359.33728
532.455	6807.57663
532.661	7303.61325
532.868	7022.68441
533.074	7328.38146
533.281	6970.99814
533.487	7615.05187
533.694	7320.12574
533.9	7445.98748
534.107	7146.67428
534.313	7301.54909
534.52	7280.90629
534.726	7427.4228
534.933	7458.36295
535.139	7412.9824
535.345	7324.25364
535.552	7563.52313
535.758	7540.84625
535.965	7703.65021
536.171	7530.53772
536.377	7868.38087
536.584	7658.32572
536.79	7788.09137
536.996	7658.32572
537.203	7652.14431
537.409	7561.4617
537.615	7668.62764
537.821	7917.77412
538.028	8030.92242
538.234	7983.61337
538.44	8049.43172
538.646	7716.00966
538.853	8078.22073
539.059	7722.1891
539.265	7991.84181
539.471	8139.89815
539.677	8172.78541
539.883	8059.71397
540.09	8217.99706
540.296	8158.39786
540.502	8281.68814
540.708	8152.23147
540.914	8386.42927
541.12	8160.45328
541.326	8417.22588
541.532	8302.22962
541.738	8427.49046
541.944	8178.9512
542.15	8540.36919
542.356	8359.73536
542.562	8739.30747
542.768	8599.86398
542.974	8827.4411
543.18	8526.00601
543.386	8575.24737
543.592	8724.95694
543.798	8753.6571
544.004	8751.60721
544.21	8841.78526
544.415	8776.20471
544.621	9011.79928
544.827	8624.4779
545.033	9128.4858
545.239	8870.47094
545.445	9099.83116
545.651	8940.12154
545.856	9062.98451
546.062	9042.51172
546.268	9136.67222
546.474	8868.42208
546.679	9202.15375
546.885	8915.54132
547.091	8995.41769
547.297	9009.75164
547.502	9120.2991
547.708	9007.70399
547.914	9236.93376
548.119	9267.61796
548.325	9349.42415
548.531	9128.4858
548.736	9515.00144
548.942	8989.27431
549.147	9146.90486
549.353	9087.54956
549.559	9367.8269
549.764	9279.89058
549.97	9259.43587
550.175	9347.37932
550.381	9655.96613
550.586	9191.92341
550.792	9617.15721
550.997	9608.9862
551.203	9684.55859
551.408	9666.17807
551.614	9792.77429
551.819	9798.89843
552.025	9604.9006
552.23	9721.31589
552.435	9978.48055
552.641	9837.68154
552.846	9925.43405
553.052	10100.85849
553.257	10270.06492
553.462	9907.0695
553.668	10141.63983
553.873	9890.74446
554.078	10070.2688
554.283	10104.93688
554.489	10217.07067
554.694	10078.42636
554.899	10337.31372
555.105	10369.91398
555.31	10404.54807
555.515	10033.55697
555.72	10471.76821
555.925	10033.55697
556.131	10333.23845
556.336	10321.01232
556.541	10467.69466
556.746	10394.36197
556.951	10553.22845
557.156	10388.25015
557.361	10608.20272
557.567	10567.48191
557.772	10683.52319
557.977	10477.87843
558.182	10583.77083
558.387	10559.33715
558.592	10671.3102
558.797	10646.8829
559.002	10773.07188
559.207	10616.34628
559.412	10622.45383
559.617	10646.8829
559.822	10962.27047
560.027	10441.21535
560.232	10874.80395
560.437	10720.15955
560.642	10939.89731
560.847	10787.31613
561.051	10939.89731
561.256	10567.48191
561.461	11045.64944
561.666	10777.14173
561.871	11035.48227
562.076	11029.38183
562.281	11332.25394
562.485	10754.75699
562.69	10842.25286
562.895	10744.58163
563.1	11139.17467
563.305	10986.67601
563.509	10882.94126
563.714	10769.00199
563.919	11238.77458
564.123	11112.74594
564.328	11338.34967
564.533	11029.38183
564.737	10842.25286
564.942	11240.80697
565.147	11419.6176
565.351	11263.16258
565.556	11330.222
565.761	11143.24047
565.965	11092.41491
566.17	10992.77714
566.374	11374.9222
566.579	11065.98296
566.784	11283.48479
566.988	11598.35266
567.193	11466.33956
567.397	11565.8608
567.602	11712.05583
567.806	11559.76831
568.011	11716.11613
568.215	11722.20653
568.42	11781.0763
568.624	11586.16849
568.828	11884.58841
569.033	11500.86991
569.237	11866.32316
569.442	11768.89695
569.646	11821.67191
569.85	11752.65733
570.055	11917.05831
570.259	11906.91169
570.463	11927.20472
570.668	11748.59733
570.872	11919.08761
571.076	11663.32936
571.281	11943.43856
571.485	12101.69172
571.689	12055.03229
571.893	11947.49694
572.098	12030.68661
572.302	11919.08761
572.506	12314.65201
572.71	12134.14807
572.914	12241.64609
573.119	12243.67416
573.323	12142.26186
573.527	11819.64221
573.731	12478.8826
573.935	12355.20691
574.139	12314.65201
574.343	12093.57733
574.547	12182.82899
574.751	12302.48499
574.955	12472.80077
575.159	12282.20607
575.364	12150.37552
575.568	12594.4265
575.772	12409.95169
575.976	12436.30853
576.18	12320.73542
576.383	12383.59371
576.587	12833.5601
576.791	12263.95443
576.995	12681.57785
577.199	12316.67982
577.403	12630.90982
577.607	12608.61469
577.811	12784.92925
578.015	12716.02999
578.219	12926.76043
578.422	12527.53518
578.626	12669.41787
578.83	12499.15496
579.034	12750.48045
579.238	12746.42754
579.442	13263.00394
579.645	13088.82193
579.849	12900.42235
580.053	13117.17946
580.257	12916.63051
580.46	13265.02912
580.664	13107.05187
580.868	13062.48909
581.071	13092.87306
581.275	13190.09462
581.479	13335.90766
581.682	12932.83833
581.886	13121.23046
582.09	13279.20524
582.293	13240.7267
582.497	13196.17062
582.7	13115.15395
582.904	13204.27188
583.107	13368.30758
583.311	13096.92417
583.515	13141.48518
583.718	13133.38335
583.922	13459.42689
584.125	13402.73137
584.329	13491.82298
584.532	13410.83091
584.735	13396.65667
584.939	13313.6321
585.142	13427.02982
585.346	13443.22848
585.549	13676.05829
585.753	13550.53849
585.956	13819.78341
586.159	13872.4114
586.363	13831.9285
586.566	14005.9973
586.769	13995.87754
586.973	13939.20577
587.176	13943.25382
587.379	13690.22907
587.582	14088.97701
587.786	13746.91064
587.989	13961.46992
588.192	13908.84505
588.395	14058.61904
588.599	13811.68663
588.802	14307.5404
589.005	14101.12006
589.208	13967.54191
589.411	14285.28035
589.615	14194.21416
589.818	14285.28035
590.021	14151.71524
590.224	14070.76229
590.427	13997.9015
590.63	14121.35829
590.833	14281.23305
591.036	14240.75959
591.239	14196.2379
591.442	14240.75959
591.645	14471.44917
591.848	14445.1435
592.051	14544.29443
592.254	14382.4136
592.457	14319.68216
592.66	14216.47515
592.863	14635.34876
593.066	14333.84746
593.269	14511.91897
593.472	14285.28035
593.675	15021.80478
593.878	14720.33089
594.081	14748.65791
594.284	14793.17147
594.486	14827.56808
594.689	14841.73133
594.892	14819.47478
595.095	14748.65791
595.298	14904.45396
595.5	14890.29083
595.703	14918.61706
595.906	14809.35814
596.109	14938.85003
596.311	14493.70762
596.514	14880.1743
596.717	15292.92341
596.92	15131.0616
597.122	14948.9665
597.325	15088.57289
597.528	14876.12768
597.73	15325.29589
597.933	15220.08552
598.136	15054.17723
598.338	14815.42813
598.541	15001.57197
598.743	15292.92341
598.946	15414.32065
599.148	15355.64516
599.351	15400.15757
599.554	15353.62187
599.756	15434.55366
599.959	15361.71502
600.161	15234.24843
600.363	15309.10964
600.566	15483.11309
600.768	15687.47154
600.971	15903.98035
601.173	15622.72346
601.376	15804.8299
601.578	15564.04624
601.78	15776.50171
601.983	15580.23299
602.185	15742.10346
602.388	15568.09292
602.59	15827.08792
602.792	15857.43999
602.995	15444.67018
603.197	15489.18304
603.399	15740.08004
603.601	15707.70551
603.804	15762.33769
604.006	15812.92371
604.208	15586.30304
604.41	15614.63002
604.613	15879.69834
604.815	15845.29913
605.017	16116.45624
605.219	15790.66578
605.421	15642.95715
605.623	15675.33121
605.826	15731.98639
606.028	15523.57954
606.23	15740.08004
606.432	15626.77019
606.634	16235.85486
606.836	15513.4629
607.038	16326.92566
607.24	15715.79912
607.442	15924.2155
607.644	16511.10288
607.846	16148.83496
608.048	16254.06873
608.25	16245.97366
608.452	16130.62188
608.654	16082.05429
608.856	15879.69834
609.058	16264.18761
609.26	16027.41681
609.462	16448.35933
609.664	16318.83033
609.866	16280.3779
610.067	16349.18798
610.269	16450.38328
610.471	16128.59821
610.673	16160.97709
610.875	16223.71236
611.077	16169.07187
611.278	16322.87799
611.48	16322.87799
611.682	16280.3779
611.884	16371.45052
612.085	16474.6709
612.287	16553.60773
612.489	16369.42665
612.69	16395.73721
612.892	16209.54619
613.094	16134.66922
613.295	16001.11025
613.497	16227.75985
613.699	15960.63908
613.9	16239.90237
614.102	16393.7133
614.304	16411.92848
614.505	16296.56832
614.707	17027.30304
614.908	16634.57202
615.11	16592.06533
615.311	16235.85486
615.513	16274.30653
615.714	16300.61594
615.916	16256.0925
616.117	16420.02417
616.319	16381.56994
616.52	16272.28274
616.722	16717.56417
616.923	16652.78948
617.124	16664.93455
617.326	16498.95881
617.527	16725.66118
617.729	16893.68287
617.93	16492.88681
618.131	16498.95881
618.333	16725.66118
618.534	16800.56031
618.735	16938.22165
618.937	16691.24916
619.138	16588.01712
619.339	16557.65586
619.54	16729.7097
619.742	16369.42665
619.943	16632.54787
620.144	16387.64161
620.345	16798.53597
620.546	16422.0481
620.748	17136.63741
620.949	17013.13066
621.15	16800.56031
621.351	16685.17653
621.552	16909.87864
621.753	16697.32182
621.954	16992.88462
622.155	16527.2951
622.356	17027.30304
622.558	16903.80521
622.759	17017.1799
622.96	16583.96893
623.161	16727.68544
623.362	16691.24916
623.563	17195.3574
623.764	16715.53993
623.965	17292.55446
624.166	16901.78073
624.366	16751.97671
624.567	16952.39335
624.768	16881.53614
624.969	16737.80676
625.17	17292.55446
625.371	16988.83544
625.572	17171.05918
625.773	17077.9198
625.973	16986.81086
626.174	16936.19713
626.375	16936.19713
626.576	17043.50022
626.777	17098.16699
626.977	16867.36508
627.178	17294.57947
627.379	16891.65841
627.58	16857.24297
627.78	17134.61263
627.981	16996.9338
628.182	17349.2559
628.382	17183.20824
628.583	17096.14226
628.784	17329.00512
628.984	17349.2559
629.185	17365.45675
629.386	16956.44243
629.586	17460.6407
629.787	17377.60752
629.987	17375.58238
630.188	17185.23309
630.388	17225.73075
630.589	17047.54954
630.79	17057.67289
630.99	17090.06808
631.191	17088.04336
631.391	17215.60623
631.591	17367.48187
631.792	17223.70584
631.992	17243.95508
632.193	17653.05513
632.393	17515.32397
632.594	17600.39144
632.794	17381.65779
632.994	17308.75463
633.195	17628.74854
633.395	17209.53155
633.595	17501.1466
633.796	17521.40003
633.996	17833.34403
634.196	17511.27328
634.397	17823.21472
634.597	17124.48875
634.797	17580.13677
634.997	17343.18064
635.198	17537.603
635.398	17355.3312
635.598	17855.62879
635.798	17778.64682
635.998	17717.87504
636.199	17359.38141
636.399	17410.01009
636.599	17535.57761
636.799	17642.92733
636.999	17331.03018
637.199	17715.84936
637.399	17499.12128
637.599	17711.79803
637.799	17472.79234
637.999	17760.41496
638.199	17624.69749
638.399	17892.09567
638.599	17446.46394
638.799	17829.29229
638.999	17758.38922
639.199	18042.027
639.399	17521.40003
639.599	17738.13196
639.799	17515.32397
639.999	17989.34622
640.199	17738.13196
640.399	17979.21557
640.599	17286.47944
640.799	18216.29618
640.998	18187.92494
641.198	18295.33417
641.398	18029.86968
641.598	18139.2902
641.798	18204.13699
641.997	17928.56368
642.197	17750.28627
642.397	18054.18444
642.597	17898.17359
642.796	18086.60493
642.996	18021.76487
643.196	17914.38154
643.395	18226.42894
643.595	18005.55543
643.795	17932.61575
643.994	17999.47695
644.194	18021.76487
644.394	18429.10374
644.593	18135.2374
644.793	18313.57451
644.992	17987.32008
645.192	18287.22745
645.392	18256.82778
645.591	18406.80767
645.791	18524.37398
645.99	18346.00253
646.19	18234.53521
646.389	18498.02179
646.589	18127.13184
646.788	18493.96767
646.987	18177.79253
647.187	18352.08289
647.386	18216.29618
647.586	18386.53891
647.785	18285.20078
647.984	18479.77835
648.184	18623.70734
648.383	18712.91261
648.582	18656.14474
648.782	18873.0958
648.981	18366.27053
649.18	18303.44095
649.38	18733.1876
649.579	18631.8166
649.778	18459.50822
649.977	18929.87557
650.177	18420.99603
650.376	18733.1876
650.575	18356.13648
650.774	18534.50961
650.973	18627.76196
651.173	18633.84392
651.372	18467.61622
651.571	18826.45763
651.77	18595.32543
651.969	18873.0958
652.168	18712.91261
652.367	18883.23482
652.566	18437.21152
652.765	18925.81976
652.964	18840.65164
653.163	18854.84583
653.362	18757.5181
653.561	18706.83019
653.76	18911.62459
653.959	18970.43447
654.158	18970.43447
654.357	18643.9806
654.556	18544.64534
654.755	18962.32256
654.954	18603.43447
655.153	18694.66546
655.352	18840.65164
655.551	19230.04984
655.749	19173.25327
655.948	19258.44934
656.147	18881.20701
656.346	19394.37239
656.545	19171.22488
656.743	18885.26263
656.942	19142.82785
657.141	19088.06442
657.34	19183.39528
657.538	19108.34683
657.737	19118.48818
657.936	19217.87888
658.135	18605.46174
658.333	19002.88275
658.532	18637.89858
658.731	18925.81976
658.929	19126.60134
659.128	18743.32524
659.326	18692.63802
659.525	18968.40648
659.724	18909.59672
659.922	19181.36687
660.121	18753.46298
660.319	18909.59672
660.518	18692.63802
660.716	18909.59672
660.915	19092.12087
661.113	19501.90677
661.312	19313.22207
661.51	19140.79953
661.709	19110.37509
661.907	19092.12087
662.105	19067.78242
662.304	19019.10728
662.502	19025.19154
662.701	19288.87826
662.899	18852.81808
663.097	19173.25327
663.296	19189.48053
663.494	19621.62861
663.692	19205.70806
663.891	19128.62964
664.089	19256.42078
664.287	19522.19759
664.485	19388.28588
664.684	19471.47133
664.882	19240.19243
665.08	19323.3655
665.278	19463.35537
665.476	19497.84866
665.675	19286.84964
665.873	19260.4779
666.071	18994.77058
666.269	19187.45211
666.467	19084.00799
666.665	18994.77058
666.863	18816.31918
667.061	18956.23867
667.259	18858.90135
667.457	19434.95003
667.655	19288.87826
667.853	19303.07874
668.051	18982.60245
668.249	19067.78242
668.447	19081.97978
668.645	19254.39222
668.843	19002.88275
669.041	19148.91286
669.239	18674.39122
669.437	18901.48529
669.635	19313.22207
669.833	19138.7712
670.031	19307.13606
670.229	19260.4779
670.426	19327.4229
670.624	19280.76379
670.822	19128.62964
671.02	19305.1074
671.218	19094.1491
671.415	19272.64939
671.613	19132.68625
671.811	19173.25327
672.009	19163.11136
672.206	19073.86698
672.404	19148.91286
672.602	19321.3368
672.799	19428.86328
672.997	19538.43054
673.195	19169.19649
673.392	19329.4516
673.59	19189.48053
673.788	19088.06442
673.985	18739.27017
674.183	19061.6979
674.38	18783.87679
674.578	19260.4779
674.775	18942.04307
674.973	19262.50647
675.17	19161.08299
675.368	19073.86698
675.565	19197.59426
675.763	19418.71877
675.96	19140.79953
676.158	18988.6865
676.355	18940.01514
676.553	19256.42078
676.75	18950.15482
676.947	19002.88275
677.145	18889.31827
677.342	18836.59619
677.539	18601.4072
677.737	18871.06801
677.934	18534.50961
678.131	19126.60134
678.329	19092.12087
678.526	19335.53775
678.723	19169.19649
678.92	19721.06967
679.118	19254.39222
679.315	19408.57437
679.512	19173.25327
679.709	19416.68988
679.906	18897.4296
680.104	18952.18276
680.301	18708.85766
680.498	19049.52897
680.695	18891.3461
680.892	18848.76258
681.089	18759.54567
681.286	19031.27584
681.483	18552.75399
681.68	19019.10728
681.877	18966.3785
682.075	19177.31006
682.272	18842.67937
682.469	19339.5952
682.665	19225.99284
682.862	19471.47133
683.059	19065.75424
683.256	19002.88275
683.453	18950.15482
683.65	18838.62391
683.847	19252.36366
684.044	18966.3785
684.241	18455.45424
684.438	18937.98722
684.635	18913.65246
684.831	19416.68988
685.028	18885.26263
685.225	18946.09893
685.422	18794.01493
685.619	18506.13009
685.815	18623.70734
686.012	18737.24264
686.209	19100.23382
686.405	18798.07021
686.602	18495.99473
686.799	18690.61058
686.996	18560.86271
687.192	18599.37994
687.389	18455.45424
687.586	18506.13009
687.782	18832.54075
687.979	18893.37393
688.175	18658.17211
688.372	18864.98467
688.568	18881.20701
688.765	18751.43543
688.962	18601.4072
689.158	18777.79396
689.355	18414.91528
689.551	18562.88989
689.748	18252.77455
689.944	18491.94061
690.14	18153.47511
690.337	18463.56221
690.533	18721.02256
690.73	18564.91709
690.926	18631.8166
691.123	18587.21645
691.319	18666.28164
691.515	18747.38033
691.712	18589.24369
691.908	18477.75132
692.104	18297.36086
692.301	18666.28164
692.497	18181.84548
692.693	18410.86147
692.889	18305.46765
693.086	18212.2431
693.282	18153.47511
693.478	18299.38755
693.674	18037.97454
693.87	18641.95326
694.067	18402.75389
694.263	18420.99603
694.459	18031.89589
694.655	18271.01418
694.851	17736.10625
695.047	18019.73868
695.243	18410.86147
695.439	18082.55232
695.635	18246.69474
695.831	18027.84347
696.027	18194.00443
696.224	18524.37398
696.42	18183.87196
696.615	18607.48901
696.811	18208.19004
697.007	18404.78078
697.203	18159.55442
697.399	18155.50154
697.595	18023.79107
697.791	18224.40238
697.987	17993.3985
698.183	18504.10301
698.379	18086.60493
698.575	18587.21645
698.77	18068.36829
698.966	18508.15717
699.162	18196.03093
699.358	18498.02179
699.554	18090.65756
699.749	18386.53891
699.945	18096.73652
700.141	17920.45958
700.337	18121.05271
700.532	18333.84191
700.728	18169.68666
700.924	18163.6073
701.119	17762.44071
701.315	17963.00673
701.511	17770.54374
701.706	17936.66783
701.902	17952.87631
702.097	18072.42086
702.293	18005.55543
702.489	18119.02634
702.684	17985.29395
702.88	18301.41425
703.075	18202.11047
703.271	18317.62796
703.466	18052.15819
703.662	17918.43356
703.857	17985.29395
704.053	18001.50311
704.248	18147.39584
704.443	18354.10969
704.639	18410.86147
704.834	18299.38755
705.03	17979.21557
705.225	18206.16351
705.42	17963.00673
705.616	18058.23695
705.811	17948.82417
706.006	17886.01778
706.202	17861.70653
706.397	18029.86968
706.592	17960.98064
706.787	18003.52927
706.983	17728.00346
707.178	18086.60493
707.373	18137.2638
707.568	18007.5816
707.763	17651.02956
707.959	17802.95638
708.154	17841.44753
708.349	18048.1057
708.544	18127.13184
708.739	17780.67259
708.934	17758.38922
709.129	17754.33774
709.324	17495.07064
709.519	17543.67916
709.714	17385.70809
709.909	17766.49222
710.104	17235.85535
710.299	17239.90521
710.494	17474.81763
710.689	17687.49028
710.884	17752.31201
711.079	17965.03282
711.274	17582.16222
711.469	18179.819
711.664	17596.34048
711.859	18074.44714
712.054	17665.2086
712.249	17853.60288
712.443	17555.83158
712.638	18023.79107
712.833	17958.95455
713.028	17851.57698
713.223	17442.41346
713.417	17815.11134
713.612	17740.15767
713.807	17640.90177
714.002	17764.46646
714.196	17448.48918
714.391	17329.00512
714.586	17545.70456
714.78	17509.24793
714.975	17892.09567
715.17	17462.66597
715.364	17705.72105
715.559	17740.15767
715.754	17256.10477
715.948	17276.35448
716.143	17624.69749
716.337	17306.7296
716.532	17711.79803
716.726	17401.90937
716.921	17444.4387
717.115	17365.45675
717.31	17675.33659
717.504	17420.13606
717.699	17361.40652
717.893	17077.9198
718.088	17845.4993
718.282	17308.75463
718.476	17395.83387
718.671	17231.8055
718.865	17276.35448
719.059	16972.63885
719.254	17217.63113
719.448	17055.64822
719.642	17227.75567
719.837	16579.92074
720.031	17347.23081
720.225	16917.97659
720.419	17146.76138
720.614	16847.12092
720.808	17027.30304
721.002	16889.63395
721.196	17177.1337
721.39	16824.85264
721.585	16901.78073
721.779	16654.81365
721.973	17000.983
722.167	16517.17495
722.361	16482.76684
722.555	16695.2976
722.749	16545.5115
722.943	16359.30729
723.137	16466.57499
723.331	16474.6709
723.525	16946.31975
723.719	16863.31623
723.913	16843.07212
724.107	16606.23411
724.301	16996.9338
724.495	16816.75516
724.689	16788.41428
724.883	16942.27069
725.077	16701.37028
725.271	16962.51606
725.465	16820.80389
725.659	16695.2976
725.853	16668.98293
726.046	16658.862
726.24	16555.6318
726.434	16588.01712
726.628	16739.83103
726.822	16343.11641
727.015	16632.54787
727.209	16235.85486
727.403	16774.24402
727.596	16889.63395
727.79	16666.95874
727.984	17146.76138
728.177	17316.85479
728.371	17183.20824
728.565	16944.29522
728.758	16636.59617
728.952	17043.50022
729.146	16668.98293
729.339	17067.79631
729.533	16853.19414
729.726	16917.97659
729.92	16770.1954
730.113	16583.96893
730.307	16349.18798
730.5	16705.41874
730.694	16727.68544
730.887	16679.10391
731.081	16660.88618
731.274	16717.56417
731.468	16312.75885
731.661	16389.66551
731.854	16243.9499
732.048	16454.4312
732.241	16207.52246
732.435	16632.54787
732.628	16399.78501
732.821	16509.07887
733.014	16654.81365
733.208	16424.07203
733.401	16671.00712
733.594	16458.47912
733.788	16729.7097
733.981	16766.14678
734.174	16735.78249
734.367	16729.7097
734.56	16428.11989
734.754	16634.57202
734.947	16559.67993
735.14	16685.17653
735.333	16377.52217
735.526	16527.2951
735.719	16207.52246
735.912	16357.28342
736.105	16037.53478
736.298	15936.35665
736.491	16045.62918
736.684	16225.73611
736.877	15980.8746
737.07	16156.92971
737.263	16027.41681
737.456	16274.30653
737.649	16073.95978
737.842	16298.59213
738.035	15978.85104
738.228	15934.33312
738.421	16450.38328
738.614	16549.55961
738.807	16142.76392
739	16148.83496
739.192	16227.75985
739.385	16361.33115
739.578	16620.40301
739.771	16525.27106
739.964	16201.45127
740.156	16405.85674
740.349	16193.35638
740.542	16300.61594
740.735	16035.51118
740.927	16349.18798
741.12	16063.84168
741.313	15895.88633
741.505	16049.67639
741.698	15976.82748
741.891	15794.71267
742.083	16067.88892
742.276	16132.64555
742.468	15717.82252
742.661	15914.09791
742.854	15810.90026
743.046	15770.43141
743.239	15715.79912
743.431	16330.97334
743.624	16177.16668
743.816	16029.4404
744.009	16367.40277
744.201	15946.4743
744.393	15908.02737
744.586	16061.81806
744.778	15970.75682
744.971	15804.8299
745.163	15956.592
745.355	15802.80645
745.548	15683.42476
745.74	15509.41625
745.932	15869.58089
746.125	15806.85335
746.317	16110.38528
746.509	15903.98035
746.702	16426.09596
746.894	16035.51118
747.086	15873.62787
747.278	16021.34604
747.471	15952.54492
747.663	15606.53658
747.855	15823.041
748.047	15839.22872
748.239	15982.89816
748.431	15675.33121
748.623	15835.18178
748.815	16122.52722
749.008	16150.85864
749.2	15942.42724
749.392	16015.27529
749.584	15897.90983
749.776	15782.57202
749.968	16136.69289
750.16	15861.48695
750.352	15766.38454
750.544	15869.58089
750.736	15859.46347
750.928	15889.81583
751.12	15725.91615
751.311	15802.80645
751.503	15578.20965
751.695	15481.08978
751.887	15671.28444
752.079	15634.86366
752.271	15762.33769
752.463	15667.23767
752.654	15580.23299
752.846	15539.76618
753.038	15371.83147
753.23	15365.7616
753.421	15327.31917
753.613	15137.13142
753.805	15559.99955
753.997	15576.1863
754.188	15786.6189
754.38	15458.83334
754.572	15547.85952
754.763	15790.66578
754.955	15424.43715
755.146	15697.58851
755.338	15258.52771
755.53	15424.43715
755.721	15179.6201
755.913	15533.69619
756.104	15078.45652
756.296	15100.71253
756.487	15149.27104
756.679	15264.59753
756.87	14831.61473
757.062	15116.8987
757.253	14944.91991
757.445	15082.50307
757.636	14997.5254
757.827	15307.08636
758.019	15220.08552
758.21	15381.94792
758.401	14882.19761
758.593	15015.73494
758.784	14839.70801
758.975	14944.91991
759.167	14906.47726
759.358	15074.40998
759.549	14505.84853
759.74	14706.16732
759.932	14596.90388
760.123	14671.76988
760.314	14841.73133
760.505	14704.14394
760.696	14430.97881
760.888	14552.38824
761.079	14384.43716
761.27	14343.96549
761.461	14348.01268
761.652	14321.70578
761.843	14325.75301
762.034	14536.20059
762.225	14380.39003
762.416	14570.59925
762.607	14335.87107
762.798	14348.01268
762.989	14774.96142
763.18	14449.19054
763.371	14277.18573
763.562	14689.98032
763.753	14453.23758
763.944	14625.23173
764.135	14513.94244
764.326	14837.68469
764.517	14643.44237
764.708	14515.96592
764.899	14165.88165
765.089	14226.5937
765.28	14129.45352
765.471	14145.64389
765.662	13838.00101
765.853	14305.51677
766.043	14010.04518
766.234	14244.80697
766.425	13791.44446
766.615	13916.9413
766.806	14139.57252
766.997	14068.73842
767.187	13846.09764
767.378	14133.50113
767.569	13977.66183
767.759	14275.16207
767.95	13997.9015
768.141	14109.21538
768.331	14107.19155
768.522	13819.78341
768.712	13789.42023
768.903	14088.97701
769.093	13858.24251
769.284	13746.91064
769.474	13732.74048
769.665	13661.88735
769.855	13487.77352
770.046	14052.54738
770.236	13611.27552
770.426	13759.05637
770.617	13447.2781
770.807	13716.54582
770.998	13947.30186
771.188	13686.18029
771.378	13410.83091
771.569	13572.8091
771.759	13418.9304
771.949	13297.43138
772.139	13453.35251
772.33	13070.59159
772.52	13447.2781
772.71	13258.95357
772.9	13271.10462
773.09	13582.93196
773.281	13512.07006
773.471	13495.87243
773.661	13252.87799
773.851	13109.0774
774.041	13341.98273
774.231	13536.36606
774.421	13200.22126
774.611	12965.25296
774.802	13068.56597
774.992	12969.3047
775.182	12993.61469
775.372	12934.86428
775.562	12898.39631
775.752	13220.4742
775.942	12614.69525
776.131	12924.73446
776.321	12705.89719
776.511	13117.17946
776.701	12890.29208
776.891	13127.30692
777.081	13123.25595
777.271	13015.89821
777.461	12882.18777
777.651	12596.4534
777.84	12774.79742
778.03	12641.04373
778.22	12831.53387
778.41	12823.42893
778.599	12817.35017
778.789	12675.49789
778.979	12736.29517
779.169	12839.63873
779.358	12600.50719
779.548	12756.55977
779.738	12647.124
779.927	12618.74893
780.117	12661.31109
780.307	12367.37285
780.496	12511.31807
780.686	12367.37285
780.875	12217.30872
781.065	12833.5601
781.254	12622.80259
781.444	12559.96818
781.633	12272.06634
781.823	12620.77576
782.012	12564.0222
782.202	12300.45713
782.391	12111.83454
782.581	12180.8007
782.77	11797.31496
782.96	12146.3187
783.149	11888.64726
783.338	12132.1196
783.528	12231.50565
783.717	12059.08979
783.906	12079.37685
784.096	12053.00352
784.285	12328.84654
784.474	12000.25291
784.663	12004.31084
784.853	11817.6125
785.042	11888.64726
785.231	12028.65775
785.42	11906.91169
785.61	11811.52333
785.799	11984.02088
785.988	12134.14807
786.177	11665.35973
786.366	11839.93882
786.555	11628.81165
786.744	11795.28515
786.933	11661.29898
787.122	11573.98399
787.312	11598.35266
787.501	11490.71421
787.69	11346.47718
787.879	11659.26859
788.068	11202.18978
788.257	11476.49583
788.445	11126.97702
788.634	11594.29131
788.823	11584.13777
789.012	11797.31496
789.201	11628.81165
789.39	11569.92241
789.579	11222.51508
789.768	11472.43335
789.957	11523.21162
790.145	11758.74725
790.334	11657.23819
790.523	11567.89161
790.712	11598.35266
790.9	11450.08902
791.089	11470.4021
791.278	11297.70972
791.467	11545.55218
791.655	11508.9943
791.844	11537.42847
792.033	11122.91105
792.221	11004.9791
792.41	11135.10883
792.599	11096.4812
792.787	11277.38823
792.976	11279.42043
793.164	11273.32381
793.353	11397.27049
793.541	11446.02629
793.73	11277.38823
793.918	11080.21578
794.107	10984.64227
794.295	10858.52877
794.484	10939.89731
794.672	11177.79804
794.861	11149.33908
795.049	11330.222
795.238	10909.38625
795.426	11218.45011
795.614	11155.43761
795.803	11053.78298
795.991	10646.8829
796.179	10868.70084
796.368	10819.87226
796.556	10905.31792
796.744	10830.04543
796.932	10905.31792
797.121	10675.38125
797.309	10673.34573
797.497	10675.38125
797.685	10998.87817
797.874	10742.54652
798.062	10801.55981
798.25	10530.8289
798.438	10598.02298
798.626	10789.35098
798.814	10744.58163
799.002	10433.06743
799.19	10606.1668
799.378	10573.59035
799.566	10477.87843
799.755	10606.1668
799.943	10699.8065
800.131	10437.14141
800.318	10469.73144
800.506	10184.45424
800.694	10571.55422
800.882	10467.69466
801.07	10567.48191
801.258	10541.0107
801.446	10577.66258
801.634	10524.71967
801.822	10697.77113
802.01	10182.4156
802.197	10771.03694
802.385	10632.63282
802.573	10697.77113
802.761	10624.48965
802.949	10551.19219
803.136	10286.369
803.324	10575.62647
803.512	10817.83759
803.699	10769.00199
803.887	10897.18111
804.075	10748.65181
804.262	10728.30044
804.45	10604.13086
804.638	10581.73476
804.825	10679.45224
805.013	10638.74007
805.201	10573.59035
805.388	10500.2816
805.576	10679.45224
805.763	10402.51088
805.951	10573.59035
806.138	10593.951
806.326	10445.28923
806.513	10404.54807
806.701	10463.62106
806.888	10223.18586
807.075	10673.34573
807.263	10386.21285
807.45	10728.30044
807.638	10298.59649
807.825	10534.90166
808.012	10677.41675
808.2	10803.59457
808.387	10689.62952
808.574	10718.1243
808.761	10394.36197
808.949	10777.14173
809.136	10508.42783
809.323	10634.66858
809.51	10695.73575
809.698	10677.41675
809.885	10630.59705
810.072	10844.28739
810.259	10825.9762
810.446	10740.5114
810.633	10624.48965
810.82	10740.5114
811.008	10400.47367
811.195	10471.76821
811.382	10481.95185
811.569	10813.76822
811.756	10483.98854
811.943	10697.77113
812.13	10349.53922
812.317	10361.76423
812.504	10306.74789
812.691	10455.47371
812.878	10785.28128
813.064	10887.00985
813.251	10895.14688
813.438	10882.94126
813.625	10245.60717
813.812	10437.14141
813.999	10365.83914
814.186	10524.71967
814.372	10339.35134
814.559	10551.19219
814.746	10257.83629
814.933	10437.14141
815.12	10392.32471
815.306	10589.87897
815.493	10355.65178
815.68	10695.73575
815.866	10477.87843
816.053	10671.3102
816.24	10300.63436
816.426	10353.61428
816.613	10286.369
816.799	10630.59705
816.986	10408.62242
817.173	10705.91255
817.359	10518.61033
817.546	10447.32615
817.732	10005.00014
817.919	10506.39129
818.105	10314.89907
818.292	10428.99339
818.478	10155.91198
818.665	10543.04703
818.851	10190.57009
819.037	10453.43684
819.224	10369.91398
819.41	10569.51807
819.597	10363.80169
819.783	10190.57009
819.969	10498.24502
820.156	10215.03225
820.342	10192.60868
820.528	10461.58424
820.714	10192.60868
820.901	10386.21285
821.087	10435.10443
821.273	10518.61033
821.459	10149.79543
821.646	10349.53922
821.832	10471.76821
822.018	10673.34573
822.204	10288.40695
822.39	10406.58525
822.576	10294.52071
822.762	10149.79543
822.948	10106.97605
823.134	10021.31867
823.32	10033.55697
823.507	9972.3603
823.693	10225.22423
823.879	10178.33827
824.065	10109.01521
824.25	10192.60868
824.436	9884.62232
824.622	9953.99877
824.808	10005.00014
824.994	10206.87842
825.18	9800.93978
825.366	10153.87314
825.552	9704.97993
825.738	9945.83771
825.923	9856.05061
826.109	10007.04
826.295	9796.85707
826.481	10060.07153
826.667	9860.13246
826.852	9833.59936
827.038	9608.9862
827.224	9860.13246
827.409	9627.37063
827.595	9778.48409
827.781	9574.25659
827.966	9692.72731
828.152	9519.08843
828.338	9829.51713
828.523	9594.68632
828.709	9694.76945
828.894	9506.82727
829.08	9817.27005
829.266	9521.1319
829.451	9602.85777
829.637	9623.28531
829.822	9447.55685
830.008	9243.0709
830.193	9296.25315
830.378	9013.8469
830.564	9476.17184
830.749	9416.89441
830.935	9613.07174
831.12	9077.31443
831.305	9408.71715
831.491	9202.15375
831.676	9482.30321
831.861	8942.16977
832.047	9226.70485
832.232	9153.04424
832.417	9269.66343
832.602	9210.33772
832.788	9406.67279
832.973	9373.96085
833.158	9414.85012
833.343	9089.59654
833.528	9228.75066
833.714	9013.8469
833.899	9140.76532
834.084	8800.79959
834.269	8927.83175
834.454	8647.03829
834.639	8989.27431
834.824	8835.63787
835.009	9253.29913
835.194	9132.57904
835.379	9253.29913
835.564	8968.79522
835.749	9353.51377
835.934	9214.4296
836.119	9236.93376
836.304	9026.13224
836.489	9155.09066
836.674	8835.63787
836.859	9124.39248
837.044	9087.54956
837.228	9222.61317
837.413	8675.74827
837.598	8886.86117
837.783	8690.1019
837.968	8948.31437
838.152	8933.97672
838.337	8651.13994
838.522	8694.20277
838.707	8933.97672
838.891	8406.96083
839.076	8786.4529
839.261	8361.78886
839.445	8659.34301
839.63	8491.12011
839.815	8591.65875
839.999	8308.39168
840.184	8538.31737
840.368	8456.22871
840.553	8606.01771
840.737	8554.73146
840.922	8411.06691
841.106	8228.2711
841.291	8456.22871
841.475	8139.89815
841.66	8370.00264
841.844	7942.4663
842.029	8277.57961
842.213	8127.56411
842.397	8298.12148
842.582	8137.84253
842.766	8131.67554
842.951	7839.56264
843.135	8086.44543
843.319	8020.63876
843.504	8119.34102
843.688	8197.4475
843.872	8322.76914
844.056	8306.33768
844.241	8252.92677
844.425	8102.89387
844.609	8102.89387
844.793	7693.35008
844.977	7831.32811
845.161	7849.85533
845.346	8053.54468
845.53	7950.69637
845.714	8355.62831
845.898	8024.75228
846.082	8137.84253
846.266	7989.78473
846.45	8267.30794
846.634	8088.50155
846.818	8226.21633
847.002	7942.4663
847.186	8579.35033
847.37	8047.37522
847.554	8421.33177
847.738	7895.13702
847.922	7831.32811
848.106	7907.48484
848.29	8061.77035
848.473	7746.90497
848.657	7740.72628
848.841	7674.80853
849.025	7781.91395
849.209	7481.0493
849.392	7730.42806
849.576	7410.9194
849.76	7386.16168
849.944	7505.79506
850.127	7621.23442
850.311	7303.61325
850.495	7751.02399
850.678	7410.9194
850.862	7709.83003
851.046	7419.17127
851.229	7239.61408
851.413	7326.31756
851.596	7526.41416
851.78	7476.9247
851.964	7514.04296
852.147	7233.41949
852.331	7262.32589
852.514	7231.35458
852.698	7084.6894
852.881	7243.7437
853.065	7379.97176
853.248	6834.47852
853.431	7132.21294
853.615	6975.13356
853.798	7068.15671
853.982	7024.75157
854.165	6964.79484
854.348	6939.97961
854.532	7070.22338
854.715	6720.63646
854.898	7010.28098
855.081	6782.7407
855.265	7082.6229
855.448	6842.75525
855.631	7090.8888
855.814	6776.5312
855.997	6917.22946
856.181	6708.21314
856.364	6799.29835
856.547	6749.621
856.73	6997.87675
856.913	6766.18158
857.096	6942.04767
857.279	6774.46132
857.462	6716.49545
857.645	6728.91822
857.828	6871.72094
858.011	6633.65585
858.194	6768.25155
858.377	6586.00641
858.56	6629.51291
858.743	6554.9241
858.926	6561.14098
859.109	6293.62649
859.292	6745.48063
859.475	6322.67783
859.658	6457.49913
859.841	6229.28221
860.023	6247.96513
860.206	6225.1302
860.389	6233.43414
860.572	6104.68088
860.755	6316.45293
860.937	6245.88934
861.12	6256.26804
861.303	6069.36179
861.486	6310.22782
861.668	5961.28469
861.851	6119.22206
862.034	5934.25546
862.216	6146.22405
862.399	5934.25546
862.581	5952.96843
862.764	5811.53424
862.947	6297.77697
863.129	5851.0636
863.312	5952.96843
863.494	5965.44268
863.677	6137.91617
863.859	5878.10509
864.042	6127.53079
864.224	5907.22224
864.406	6169.06879
864.589	5913.46103
864.771	5996.6246
864.954	5807.37275
865.136	5977.91608
865.318	5836.50114
865.501	5828.17922
865.683	5774.07751
865.865	5819.85691
866.048	5553.34392
866.23	5811.53424
866.412	5578.34593
866.594	5607.51065
866.777	5690.81296
866.959	5678.32002
867.141	5436.62303
867.323	5724.12331
867.505	5371.97797
867.687	5645.00136
867.869	5553.34392
868.052	5455.38672
868.234	5336.51788
868.416	5463.72553
868.598	5545.00916
868.78	5626.25696
868.962	5578.34593
869.144	5694.97708
869.326	5628.33977
869.508	5595.01205
869.69	5442.87781
869.872	5542.92541
870.054	5286.44505
870.236	5624.17413
870.417	5578.34593
870.599	5686.64874
870.781	5469.97939
870.963	5703.30505
871.145	5401.17531
871.327	5494.9927
871.508	5424.11285
871.69	5561.6783
871.872	5313.56951
872.054	5540.84164
872.235	5228.00971
872.417	5267.66426
872.599	4935.55953
872.78	5280.18499
872.962	5163.29209
873.144	5200.87279
873.325	5040.05813
873.507	5413.68705
873.689	5157.02791
873.87	5357.37758
874.052	5399.08994
874.233	5413.68705
874.415	5138.2341
874.596	5415.77225
874.778	5086.01922
874.959	5069.30739
875.141	5152.85167
875.322	5480.40201
875.503	5378.23493
875.685	5244.70739
875.866	5136.14579
876.048	5240.53311
876.229	5144.49892
876.41	5196.69753
876.592	5190.43446
876.773	5035.87929
876.954	4994.08584
877.136	4973.18566
877.317	4858.19358
877.498	5152.85167
877.679	4937.65007
877.86	4929.28779
878.042	4860.28497
878.223	5259.31663
878.404	5006.62485
878.585	5077.66349
878.766	5108.99555
878.947	5419.9426
879.128	4981.54601
879.309	4987.81603
879.49	4768.24254
879.672	5142.41067
879.853	4969.00535
880.034	5010.80433
880.215	5075.5745
880.396	5148.67534
880.576	5119.43842
880.757	5169.55607
880.938	5186.25897
881.119	5342.77604
881.3	5269.75111
881.481	5353.20583
881.662	5186.25897
881.843	5486.65531
882.023	5221.74769
882.204	5371.97797
882.385	5298.96452
882.566	5497.07699
882.747	5217.5729
882.927	5486.65531
883.108	5175.81983
883.289	5257.22967
883.469	5255.14268
883.65	5298.96452
883.831	5136.14579
884.011	5361.54924
884.192	5161.20405
884.373	5280.18499
884.553	5104.81825
884.734	5177.9077
884.914	5029.61086
885.095	5301.05102
885.275	4994.08584
885.456	5380.32054
885.636	5261.40357
885.817	5565.84535
885.997	5115.26134
886.178	5472.06396
886.358	5344.86204
886.538	5474.14851
886.719	5374.06365
886.899	5419.9426
887.08	5311.48315
887.26	5576.26256
887.44	5161.20405
887.621	5645.00136
887.801	5044.23687
887.981	5526.25458
888.161	5438.70798
888.342	5536.67403
888.522	5342.77604
888.702	5361.54924
888.882	5138.2341
889.062	5428.283
889.242	5140.3224
889.423	5081.8414
889.603	5167.4681
889.783	5511.66636
889.963	5202.96038
890.143	5424.11285
890.323	5215.48547
890.503	5288.53168
890.683	5002.44527
890.863	5303.13749
891.043	5250.96863
891.223	5453.30196
891.403	5242.62026
891.583	5253.05567
891.763	4927.19716
891.943	5332.34566
892.122	5161.20405
892.302	5397.00455
892.482	5069.30739
892.662	5248.88157
892.842	5194.60986
893.022	5177.9077
893.201	5219.66031
893.381	5123.6154
893.561	5060.95092
893.741	5369.89227
893.92	5023.34223
894.1	5211.31053
894.28	5004.53507
894.459	5106.90691
894.639	4761.96531
894.819	4858.19358
894.998	4941.83107
895.178	5071.39645
895.357	5027.52134
895.537	5094.37457
895.716	4891.65298
895.896	5123.6154
896.075	4720.11195
896.255	5056.77255
896.434	4638.47196
896.614	5048.41552
896.793	4638.47196
896.973	4828.91182
897.152	4757.78038
897.331	4874.92401
897.511	4939.74058
897.69	5123.6154
897.87	4615.43912
898.049	4770.3349
898.228	4628.00282
898.407	4646.84687
898.587	4621.72107
898.766	4877.01521
898.945	4366.09424
899.124	4720.11195
899.304	4441.55917
899.483	4602.87462
899.662	4292.69858
899.841	4500.2345
900.02	4101.74741
900.199	4491.85337
900.378	4351.41723
900.557	4420.59953
900.737	4387.05955
900.916	4311.57428
901.095	4231.86509
901.274	4349.32042
901.453	3908.52243
901.632	4187.80206
901.811	4057.65704
901.989	4116.44217
902.168	3786.61879
902.347	4122.7396
902.526	4068.15558
902.705	4013.55754
902.884	3906.42121
903.063	4164.71769
903.242	3967.34835
903.42	4047.15798
903.599	3975.75076
903.778	4097.54873
903.957	3738.25934
904.135	3891.71212
904.314	3713.02425
904.493	3822.35608
904.672	3551.03381
904.85	3910.62363
905.029	3538.40652
905.207	3750.87584
905.386	3567.86917
905.565	3523.67384
905.743	3435.25905
905.922	3483.68063
906.1	3460.52367
906.279	3372.08629
906.457	3256.22889
906.636	3685.6831
906.814	3121.34909
906.993	3365.76814
907.171	3146.64414
907.35	3289.9382
907.528	3085.51049
907.707	3190.90488
907.885	3081.29389
908.063	3174.0445
908.242	2952.65774
908.42	3131.88898
908.598	2878.82497
908.777	3037.01575
908.955	2665.6688
909.133	3155.07531
909.311	2785.98185
909.49	3068.64369
909.668	2961.09463
909.846	3026.47233
910.024	2859.83655
910.202	2891.48328
910.38	2802.86442
910.559	2910.46977
910.737	2720.55373
910.915	3022.25486
911.093	2735.32894
911.271	3011.7109
911.449	2910.46977
911.627	3144.53631
911.805	2804.97467
911.983	2906.25066
912.161	2842.95698
912.339	3176.1521
912.517	2904.14107
912.695	3205.65686
912.872	3005.38434
913.05	3108.7007
913.228	2937.89262
913.406	2980.07675
913.584	3079.18556
913.762	3007.49321
913.939	2851.39687
914.117	2980.07675
914.295	2745.88226
914.473	3003.27546
914.65	3176.1521
914.828	3112.91689
915.006	2927.34567
915.184	3070.7521
915.361	2845.06697
915.539	2973.74951
915.716	2745.88226
915.894	3064.42684
916.072	2646.66816
916.249	3129.78103
916.427	2910.46977
916.604	3053.88442
916.782	2889.3736
916.959	3089.72704
917.137	2986.40385
917.314	3003.27546
917.492	2821.85625
917.669	2874.60542
917.847	2722.66451
918.024	2965.31298
918.201	2682.5574
918.379	2634.0005
918.556	2631.88918
918.733	2870.38581
918.911	2657.2242
919.088	2741.66097
919.265	2583.32544
919.442	2811.30537
919.62	2792.31291
919.797	2769.0984
919.974	2490.40338
920.151	2790.20257
920.328	2437.59699
920.506	2555.87354
920.683	2475.61828
920.86	2572.76725
921.037	2395.34703
921.214	2382.67123
921.391	2251.6671
921.568	2439.70938
921.745	2213.62694
921.922	2562.20877
922.099	2281.25188
922.276	2471.39387
922.453	2160.78876
922.63	2304.49579
922.807	1976.87447
922.984	2386.89654
923.161	2234.76072
923.338	2412.24752
923.514	2150.22051
923.691	2285.47813
923.868	2135.42461
924.045	2152.33418
924.222	2067.78144
924.399	2262.2333
924.575	2014.93006
924.752	2243.21398
924.929	1998.01672
925.105	2222.08056
925.282	1921.90178
925.459	1993.78832
925.635	1989.5599
925.812	2014.93006
925.989	2012.81591
926.165	1976.87447
926.342	1888.07051
926.518	2112.17315
926.695	1871.15437
926.871	2052.98349
927.048	1841.55035
927.224	1807.71604
927.401	1572.96548
927.577	1805.60136
927.754	1450.29329
927.93	1644.8747
928.107	1615.26531
928.283	1562.39042
928.459	1659.67923
928.636	1790.79847
928.812	1545.47026
928.988	1733.69977
929.165	1541.2402
929.341	1735.81459
929.517	1553.93035
929.693	1748.5034
929.87	1475.67391
930.046	1824.63334
930.222	1443.94813
930.398	1617.38028
930.574	1300.1263
930.751	1604.69042
930.927	1393.18697
931.103	1469.32875
931.279	1249.36744
931.455	1524.31994
931.631	1289.55143
931.807	1484.13411
931.983	1340.31125
932.159	1338.19624
932.335	1139.39587
932.511	1253.59729
932.687	1223.98858
932.863	1414.33742
933.039	1196.49531
933.215	1181.69149
933.391	1211.29931
933.566	1185.92113
933.742	959.66174
933.918	1118.2487
934.094	1020.97811
934.27	957.54748
934.445	944.86208
934.621	1080.18497
934.797	892.00914
934.973	944.86208
935.148	792.65962
935.324	872.98328
935.5	818.02358
935.675	843.38886
935.851	632.05589
936.027	889.89512
936.202	670.08778
936.378	526.43329
936.553	551.77967
936.729	636.28146
936.904	475.74669
937.08	486.30571
937.255	435.62591
937.431	517.98495
937.606	484.19387
937.782	414.51198
937.957	422.95736
938.133	456.74142
938.308	408.17811
938.483	368.06705
938.659	332.18339
938.834	378.62201
939.009	256.21151
939.185	275.20224
939.36	146.51847
939.535	285.7533
939.71	279.42261
939.886	167.60902
940.061	249.88161
940.236	372.28898
940.411	251.99156
940.586	298.41518
940.761	247.77168
940.937	233.00273
941.112	123.32132
941.287	287.86356
941.462	180.26435
941.637	298.41518
941.812	104.34378
941.987	233.00273
942.162	165.49987
942.337	112.77803
942.512	205.57721
942.687	142.30062
942.862	247.77168
943.037	171.82738
943.212	154.95444
943.386	222.45405
943.561	79.04317
943.736	100.12679
943.911	165.49987
944.086	186.59229
944.26	95.90989
944.435	171.82738
944.61	171.82738
944.785	214.01547
944.959	144.40954
945.134	188.70164
945.309	159.17255
945.483	171.82738
945.658	127.53879
945.833	207.68674
946.007	91.69308
946.182	245.66178
946.357	180.26435
946.531	173.93659
946.706	119.10394
946.88	205.57721
947.055	171.82738
947.229	224.56375
947.404	135.97399
947.578	146.51847
947.752	150.73642
947.927	150.73642
948.101	129.64756
948.276	140.19172
948.45	150.73642
948.624	104.34378
948.799	190.81102
948.973	188.70164
949.147	201.3582
949.321	235.11252
949.496	214.01547
949.67	129.64756
949.844	98.01833
950.018	190.81102
950.193	176.04582
950.367	146.51847
950.541	159.17255
950.715	157.06349
950.889	207.68674
951.063	239.33216
951.237	148.62743
951.411	199.24872
951.585	140.19172
951.759	209.7963
951.933	157.06349
952.107	264.65165
952.281	230.89295
952.455	188.70164
952.629	207.68674
952.803	186.59229
952.977	184.48295
953.151	228.7832
953.325	104.34378
953.499	273.09208
953.672	197.13926
953.846	171.82738
954.02	190.81102
954.194	127.53879
954.368	112.77803
954.541	243.55189
954.715	190.81102
954.889	180.26435
955.062	178.15507
955.236	197.13926
955.41	146.51847
955.583	207.68674
955.757	87.47635
955.93	188.70164
956.104	127.53879
956.278	226.67346
956.451	148.62743
956.625	148.62743
956.798	138.08285
956.972	159.17255
957.145	214.01547
957.319	70.61035
957.492	171.82738
957.665	125.43005
957.839	203.46769
958.012	161.28164
958.185	201.3582
958.359	123.32132
958.532	222.45405
958.705	146.51847
958.879	154.95444
959.052	190.81102
959.225	87.47635
959.398	157.06349
959.572	140.19172
959.745	214.01547
959.918	209.7963
960.091	163.39074
960.264	98.01833
960.438	201.3582
960.611	142.30062
960.784	104.34378
960.957	169.71819
961.13	205.57721
961.303	159.17255
961.476	95.90989
961.649	157.06349
961.822	205.57721
961.995	138.08285
962.168	121.21262
962.341	205.57721
962.514	138.08285
962.686	140.19172
962.859	140.19172
963.032	157.06349
963.205	138.08285
963.378	142.30062
963.551	83.25972
963.723	148.62743
963.896	184.48295
964.069	129.64756
964.242	180.26435
964.414	146.51847
964.587	119.10394
964.76	216.12509
964.932	114.88664
965.105	131.75635
965.278	165.49987
965.45	161.28164
965.623	125.43005
965.795	116.99528
965.968	159.17255
966.14	70.61035
966.313	108.56086
966.485	157.06349
966.658	154.95444
966.83	226.67346
967.003	87.47635
967.175	121.21262
967.348	112.77803
967.52	184.48295
967.692	230.89295
967.865	68.5022
968.037	167.60902
968.209	138.08285
968.382	207.68674
968.554	62.17789
968.726	112.77803
968.898	68.5022
969.071	87.47635
969.243	138.08285
969.415	133.86516
969.587	123.32132
969.759	114.88664
969.932	142.30062
970.104	133.86516
970.276	95.90989
970.448	116.99528
970.62	110.66943
970.792	148.62743
970.964	154.95444
971.136	114.88664
971.308	169.71819
971.48	95.90989
971.652	83.25972
971.824	142.30062
971.996	205.57721
972.168	121.21262
972.339	121.21262
972.511	95.90989
972.683	133.86516
972.855	188.70164
973.027	91.69308
973.199	72.71852
973.37	95.90989
973.542	104.34378
973.714	100.12679
973.886	32.66719
974.057	110.66943
974.229	66.39408
974.401	123.32132
974.572	36.88273
974.744	70.61035
974.915	100.12679
975.087	36.88273
975.259	140.19172
975.43	98.01833
975.602	64.28597
975.773	112.77803
975.945	87.47635
976.116	79.04317
976.288	129.64756
976.459	131.75635
976.63	66.39408
976.802	121.21262
976.973	15.80599
977.145	74.82672
977.316	81.15143
977.487	106.45231
977.659	93.80147
977.83	93.80147
978.001	79.04317
978.172	106.45231
978.344	53.7458
978.515	9.48343
978.686	87.47635
978.857	114.88664
979.028	133.86516
979.2	47.42198
979.371	89.5847
979.542	104.34378
979.713	13.69845
979.884	57.9618
980.055	36.88273
980.226	93.80147
980.397	3.16109
980.568	34.77495
980.739	45.31408
980.91	106.45231
981.081	121.21262
981.252	95.90989
981.423	70.61035
981.594	104.34378
981.765	64.28597
981.936	171.82738
982.106	100.12679
982.277	36.88273
982.448	72.71852
982.619	38.99053
982.79	79.04317
982.96	64.28597
983.131	66.39408
983.302	91.69308
983.472	11.59093
983.643	45.31408
983.814	62.17789
983.984	-20.01897
984.155	53.7458
984.326	36.88273
984.496	62.17789
984.667	-11.5902
984.837	-11.5902
985.008	95.90989
985.178	93.80147
985.349	81.15143
985.519	30.55946
985.69	133.86516
985.86	24.2364
986.031	104.34378
986.201	-13.69743
986.371	24.2364
986.542	20.02115
986.712	3.16109
986.882	38.99053
987.053	43.20621
987.223	28.45175
987.393	3.16109
987.563	-13.69743
987.734	24.2364
987.904	-11.5902
988.074	-34.76838
988.244	34.77495
988.414	49.5299
988.585	-5.26836
988.755	-3.16104
988.925	24.2364
989.095	30.55946
989.265	68.5022
989.435	22.12877
989.605	36.88273
989.775	-20.01897
989.945	49.5299
990.115	72.71852
990.285	-34.76838
990.455	133.86516
990.625	106.45231
990.795	11.59093
990.965	-30.55439
991.134	87.47635
991.304	70.61035
991.474	30.55946
991.644	45.31408
991.814	41.09836
991.984	89.5847
992.153	24.2364
992.323	81.15143
992.493	-5.26836
992.662	13.69845
992.832	24.2364
993.002	41.09836
993.171	36.88273
993.341	55.85379
993.511	72.71852
993.68	15.80599
993.85	30.55946
994.019	64.28597
994.189	104.34378
994.358	-38.98228
994.528	131.75635
994.697	43.20621
994.867	53.7458
995.036	7.37596
995.206	-13.69743
995.375	13.69845
995.544	53.7458
995.714	83.25972
995.883	24.2364
996.052	28.45175
996.222	28.45175
996.391	15.80599
996.56	70.61035
996.73	45.31408
996.899	3.16109
997.068	45.31408
997.237	36.88273
997.406	32.66719
997.576	20.02115
997.745	15.80599
997.914	-5.26836
998.083	24.2364
998.252	17.91356
998.421	55.85379
998.59	41.09836
998.759	53.7458
998.928	15.80599
999.097	45.31408
999.266	-28.44736
999.435	55.85379
999.604	-9.48295
999.773	36.88273
999.942	9.48343
1000.111	-55.83685
1000.28	24.2364
1000.448	41.09836
1000.617	-60.05024
1000.786	49.5299
1000.955	62.17789
1001.124	108.56086
1001.292	-15.80464
1001.461	-13.69743
1001.63	95.90989
1001.798	47.42198
1001.967	11.59093
1002.136	-32.6614
1002.304	32.66719
1002.473	-47.40976
1002.642	-22.12611
1002.81	-3.16104
1002.979	28.45175
1003.147	11.59093
1003.316	36.88273
1003.484	5.26851
1003.653	3.16109
1003.821	-17.91182
1003.99	7.37596
1004.158	15.80599
1004.327	62.17789
1004.495	-1.05368
1004.663	57.9618
1004.832	53.7458
1005	81.15143
1005.168	-26.3403
1005.337	-3.16104
1005.505	-5.26836
1005.673	20.02115
1005.842	49.5299
1006.01	45.31408
1006.178	79.04317
1006.346	3.16109
1006.514	24.2364
1006.683	-17.91182
1006.851	-9.48295
1007.019	-3.16104
1007.187	68.5022
1007.355	47.42198
1007.523	20.02115
1007.691	-5.26836
1007.859	-38.98228
1008.027	-3.16104
1008.195	112.77803
1008.363	41.09836
1008.531	36.88273
1008.699	36.88273
1008.867	-5.26836
1009.035	-11.5902
1009.203	66.39408
1009.37	-13.69743
1009.538	68.5022
1009.706	79.04317
1009.874	-28.44736
1010.042	79.04317
1010.209	-9.48295
1010.377	36.88273
1010.545	-5.26836
1010.713	47.42198
1010.88	-13.69743
1011.048	95.90989
1011.216	32.66719
1011.383	32.66719
1011.551	-15.80464
1011.718	-13.69743
1011.886	-60.05024
1012.054	11.59093
1012.221	38.99053
1012.389	9.48343
1012.556	17.91356
1012.724	11.59093
1012.891	-9.48295
1013.058	64.28597
1013.226	28.45175
1013.393	36.88273
1013.561	-49.51657
1013.728	15.80599
1013.895	-38.98228
1014.063	-9.48295
1014.23	22.12877
1014.397	-11.5902
1014.565	-26.3403
1014.732	30.55946
1014.899	-28.44736
1015.066	-11.5902
1015.233	49.5299
1015.401	20.02115
1015.568	-30.55439
1015.735	72.71852
1015.902	36.88273
1016.069	45.31408
1016.236	36.88273
1016.403	-5.26836
1016.57	9.48343
1016.737	79.04317
1016.904	-45.30293
1017.071	-32.6614
1017.238	22.12877
1017.405	-5.26836
1017.572	-102.17852
1017.739	-5.26836
1017.906	3.16109
1018.073	28.45175
1018.24	-20.01897
1018.407	11.59093
1018.573	-1.05368
1018.74	87.47635
1018.907	-9.48295
1019.074	7.37596
1019.241	20.02115
1019.407	-87.4348
1019.574	-62.1569
1019.741	-3.16104
1019.907	100.12679
1020.074	-74.79631
1020.241	41.09836
1020.407	11.59093
1020.574	-9.48295
1020.74	-13.69743
1020.907	1.05369
1021.073	81.15143
1021.24	5.26851
1021.406	41.09836
1021.573	36.88273
1021.739	-17.91182
1021.906	-74.79631
1022.072	22.12877
1022.239	-5.26836
1022.405	32.66719
1022.571	36.88273
1022.738	-47.40976
1022.904	-1.05368
1023.07	3.16109
1023.237	13.69845
1023.403	20.02115
1023.569	-47.40976
1023.735	-28.44736
1023.902	5.26851
1024.068	87.47635
1024.234	-47.40976
1024.4	47.42198
1024.566	-9.48295
1024.732	38.99053
1024.898	7.37596
1025.065	64.28597
1025.231	-36.87534
1025.397	66.39408
1025.563	3.16109
1025.729	30.55946
1025.895	-13.69743
1026.061	36.88273
1026.227	64.28597
1026.392	36.88273
1026.558	-22.12611
1026.724	20.02115
1026.89	-64.26353
1027.056	5.26851
1027.222	24.2364
1027.388	-79.00925
1027.553	34.77495
1027.719	-43.19607
1027.885	-60.05024
1028.051	-5.26836
1028.216	60.06984
1028.382	49.5299
1028.548	-17.91182
1028.713	66.39408
1028.879	-36.87534
1029.045	20.02115
1029.21	15.80599
1029.376	36.88273
1029.541	30.55946
1029.707	11.59093
1029.873	-45.30293
1030.038	-36.87534
1030.204	-89.54113
1030.369	7.37596
1030.534	-36.87534
1030.7	-81.11567
1030.865	49.5299
1031.031	28.45175
1031.196	-22.12611
1031.361	-9.48295
1031.527	3.16109
1031.692	24.2364
1031.857	20.02115
1032.023	-60.05024
1032.188	53.7458
1032.353	70.61035
1032.518	22.12877
1032.684	47.42198
1032.849	7.37596
1033.014	-13.69743
1033.179	-15.80464
1033.344	-30.55439
1033.509	-26.3403
1033.674	5.26851
1033.839	-81.11567
1034.004	-20.01897
1034.17	-22.12611
1034.335	-17.91182
1034.5	-41.08919
1034.664	-28.44736
1034.829	45.31408
1034.994	28.45175
1035.159	-20.01897
1035.324	28.45175
1035.489	20.02115
1035.654	-13.69743
1035.819	-38.98228
1035.984	28.45175
1036.148	36.88273
1036.313	36.88273
1036.478	-7.37567
1036.643	41.09836
1036.807	79.04317
1036.972	-3.16104
1037.137	-15.80464
1037.301	45.31408
1037.466	-11.5902
1037.631	7.37596
1037.795	-9.48295
1037.96	-5.26836
1038.124	1.05369
1038.289	72.71852
1038.454	26.34407
1038.618	5.26851
1038.783	-72.68981
1038.947	-5.26836
1039.111	28.45175
1039.276	-28.44736
1039.44	-64.26353
1039.605	-17.91182
1039.769	47.42198
1039.933	-5.26836
1040.098	-34.76838
1040.262	-64.26353
1040.426	24.2364
1040.591	-5.26836
1040.755	47.42198
1040.919	22.12877
1041.083	7.37596
1041.248	11.59093
1041.412	-30.55439
1041.576	47.42198
1041.74	-26.3403
1041.904	-5.26836
1042.068	-79.00925
1042.232	-20.01897
1042.397	32.66719
1042.561	36.88273
1042.725	30.55946
1042.889	11.59093
1043.053	24.2364
1043.217	24.2364
1043.381	-51.62336
1043.544	15.80599
1043.708	-34.76838
1043.872	7.37596
1044.036	43.20621
1044.2	-1.05368
1044.364	-72.68981
1044.528	72.71852
1044.691	-26.3403
1044.855	3.16109
1045.019	24.2364
1045.183	-3.16104
1045.346	104.34378
1045.51	3.16109
1045.674	-13.69743
1045.837	64.28597
1046.001	36.88273
1046.165	20.02115
1046.328	53.7458
1046.492	11.59093
1046.655	-9.48295
1046.819	24.2364
1046.983	28.45175
1047.146	-11.5902
1047.31	5.26851
1047.473	36.88273
1047.636	-5.26836
1047.8	30.55946
1047.963	3.16109
1048.127	30.55946
1048.29	-1.05368
