Data from mixed_try1_USB4F045381__17__00082.txt Node

Date: Thu Apr 03 19:52:35 EDT 2025
User: mmckonesweet
Spectrometer: USB4F04538
Trigger mode: 4
Integration Time (sec): 2.700000E-3
Scans to average: 1
Electric dark correction enabled: true
Nonlinearity correction enabled: true
Boxcar width: 0
XAxis mode: Wavelengths
Number of Pixels in Spectrum: 3648
>>>>>Begin Spectral Data<<<<<
345.52	-18.43861
345.736	-18.43861
345.952	-18.43861
346.168	-10.00976
346.384	65.86705
346.6	-1.58052
346.816	-10.00976
347.032	-7.90249
347.248	49.00291
347.464	57.4348
347.68	-45.82964
347.896	17.38667
348.112	6.8491
348.328	-1.58052
348.544	-18.43861
348.76	23.70949
348.975	-69.00336
349.191	-79.53586
349.407	-43.72279
349.623	27.92483
349.839	57.4348
350.055	-35.29512
350.27	4.74166
350.486	-45.82964
350.702	23.70949
350.918	0.52684
351.133	-37.40208
351.349	19.49425
351.565	-10.00976
351.781	2.63424
351.996	25.81715
352.212	23.70949
352.428	2.63424
352.644	34.24801
352.859	8.95656
353.075	23.70949
353.291	-26.86706
353.506	-85.85504
353.722	-14.22423
353.938	74.29967
354.153	-26.86706
354.369	42.67924
354.584	-10.00976
354.8	53.21881
355.016	-26.86706
355.231	-20.54576
355.447	-1.58052
355.662	-41.61591
355.878	27.92483
356.093	-98.49271
356.309	-20.54576
356.524	49.00291
356.74	11.06405
356.955	-64.79019
357.171	-1.58052
357.386	42.67924
357.602	-28.97412
357.817	-7.90249
358.033	-1.58052
358.248	25.81715
358.464	27.92483
358.679	-16.33143
358.895	-20.54576
359.11	34.24801
359.325	-90.0677
359.541	91.16598
359.756	27.92483
359.972	-12.11701
360.187	65.86705
360.402	0.52684
360.618	11.06405
360.833	4.74166
361.048	-16.33143
361.264	70.08331
361.479	32.14026
361.694	-56.36353
361.909	65.86705
362.125	11.06405
362.34	-54.2568
362.555	-1.58052
362.77	-28.97412
362.986	-26.86706
363.201	19.49425
363.416	-5.79519
363.631	-7.90249
363.847	-43.72279
364.062	76.40788
364.277	2.63424
364.492	-1.58052
364.707	-12.11701
364.922	25.81715
365.138	-56.36353
365.353	32.14026
365.568	67.97517
365.783	72.19148
365.998	59.54283
366.213	-28.97412
366.428	42.67924
366.643	-10.00976
366.858	-56.36353
367.073	57.4348
367.288	27.92483
367.503	0.52684
367.718	-5.79519
367.933	23.70949
368.148	8.95656
368.363	-5.79519
368.578	-35.29512
368.793	-1.58052
369.008	25.81715
369.223	40.5714
369.438	40.5714
369.653	-10.00976
369.868	49.00291
370.083	-10.00976
370.298	78.51611
370.513	-7.90249
370.728	-26.86706
370.943	40.5714
371.157	40.5714
371.372	-7.90249
371.587	49.00291
371.802	-50.04327
372.017	-16.33143
372.232	82.73264
372.446	27.92483
372.661	-14.22423
372.876	4.74166
373.091	-1.58052
373.306	6.8491
373.52	42.67924
373.735	17.38667
373.95	-10.00976
374.165	13.17157
374.379	42.67924
374.594	70.08331
374.809	4.74166
375.023	32.14026
375.238	-100.5989
375.453	-60.57691
375.667	23.70949
375.882	-22.65289
376.097	8.95656
376.311	-31.08114
376.526	-39.50901
376.741	23.70949
376.955	-7.90249
377.17	-35.29512
377.384	-35.29512
377.599	15.2791
377.813	13.17157
378.028	-35.29512
378.242	-33.18815
378.457	-24.75999
378.672	-1.58052
378.886	38.46358
379.101	42.67924
379.315	110.14229
379.53	82.73264
379.744	-47.93647
379.958	74.29967
380.173	65.86705
380.387	72.19148
380.602	8.95656
380.816	40.5714
381.031	49.00291
381.245	23.70949
381.459	25.81715
381.674	4.74166
381.888	82.73264
382.103	23.70949
382.317	34.24801
382.531	2.63424
382.746	0.52684
382.96	25.81715
383.174	36.35578
383.388	6.8491
383.603	-60.57691
383.817	6.8491
384.031	36.35578
384.246	-39.50901
384.46	32.14026
384.674	32.14026
384.888	23.70949
385.103	19.49425
385.317	27.92483
385.531	15.2791
385.745	-16.33143
385.959	36.35578
386.174	11.06405
386.388	17.38667
386.602	-33.18815
386.816	-35.29512
387.03	-3.68787
387.244	-47.93647
387.458	57.4348
387.672	-35.29512
387.887	-1.58052
388.101	49.00291
388.315	110.14229
388.529	17.38667
388.743	17.38667
388.957	65.86705
389.171	53.21881
389.385	-45.82964
389.599	32.14026
389.813	0.52684
390.027	-22.65289
390.241	34.24801
390.455	-43.72279
390.669	6.8491
390.883	-71.10991
391.097	57.4348
391.311	74.29967
391.525	27.92483
391.738	2.63424
391.952	25.81715
392.166	-47.93647
392.38	40.5714
392.594	-7.90249
392.808	59.54283
393.022	8.95656
393.236	-37.40208
393.449	-41.61591
393.663	46.895
393.877	53.21881
394.091	-26.86706
394.305	82.73264
394.518	-33.18815
394.732	-56.36353
394.946	27.92483
395.16	32.14026
395.373	-22.65289
395.587	-1.58052
395.801	40.5714
396.015	-26.86706
396.228	-64.79019
396.442	11.06405
396.656	40.5714
396.869	-10.00976
397.083	70.08331
397.297	-33.18815
397.51	36.35578
397.724	-41.61591
397.938	82.73264
398.151	-7.90249
398.365	-60.57691
398.578	-10.00976
398.792	11.06405
399.005	32.14026
399.219	55.32679
399.433	-47.93647
399.646	32.14026
399.86	-18.43861
400.073	-56.36353
400.287	-18.43861
400.5	30.03253
400.714	-14.22423
400.927	2.63424
401.141	6.8491
401.354	-5.79519
401.567	40.5714
401.781	-10.00976
401.994	15.2791
402.208	49.00291
402.421	27.92483
402.635	40.5714
402.848	-14.22423
403.061	0.52684
403.275	59.54283
403.488	0.52684
403.701	-22.65289
403.915	32.14026
404.128	15.2791
404.341	-7.90249
404.555	21.60186
404.768	23.70949
404.981	23.70949
405.195	112.25088
405.408	15.2791
405.621	32.14026
405.834	-18.43861
406.048	0.52684
406.261	-37.40208
406.474	49.00291
406.687	-60.57691
406.9	49.00291
407.114	17.38667
407.327	-22.65289
407.54	-3.68787
407.753	32.14026
407.966	-22.65289
408.179	2.63424
408.392	-77.42941
408.605	0.52684
408.819	23.70949
409.032	34.24801
409.245	53.21881
409.458	-7.90249
409.671	-77.42941
409.884	40.5714
410.097	15.2791
410.31	74.29967
410.523	-31.08114
410.736	-18.43861
410.949	34.24801
411.162	-26.86706
411.375	15.2791
411.588	-56.36353
411.801	70.08331
412.014	0.52684
412.227	17.38667
412.44	25.81715
412.653	30.03253
412.865	6.8491
413.078	-43.72279
413.291	-33.18815
413.504	-22.65289
413.717	-10.00976
413.93	21.60186
414.143	-7.90249
414.356	-18.43861
414.568	46.895
414.781	21.60186
414.994	23.70949
415.207	53.21881
415.42	-14.22423
415.632	-10.00976
415.845	0.52684
416.058	23.70949
416.271	-35.29512
416.483	-5.79519
416.696	61.65088
416.909	-58.47023
417.121	-10.00976
417.334	-5.79519
417.547	-18.43861
417.759	36.35578
417.972	-37.40208
418.185	82.73264
418.397	32.14026
418.61	19.49425
418.823	-60.57691
419.035	-35.29512
419.248	-52.15005
419.46	17.38667
419.673	23.70949
419.885	-16.33143
420.098	82.73264
420.311	6.8491
420.523	61.65088
420.736	42.67924
420.948	0.52684
421.161	-7.90249
421.373	-5.79519
421.586	-3.68787
421.798	-54.2568
422.01	-3.68787
422.223	42.67924
422.435	21.60186
422.648	-33.18815
422.86	32.14026
423.073	34.24801
423.285	51.11085
423.497	6.8491
423.71	-52.15005
423.922	-24.75999
424.134	8.95656
424.347	36.35578
424.559	-69.00336
424.771	57.4348
424.984	-69.00336
425.196	6.8491
425.408	2.63424
425.621	-22.65289
425.833	65.86705
426.045	32.14026
426.257	61.65088
426.47	-71.10991
426.682	78.51611
426.894	6.8491
427.106	15.2791
427.318	15.2791
427.531	17.38667
427.743	27.92483
427.955	40.5714
428.167	-58.47023
428.379	4.74166
428.591	51.11085
428.804	57.4348
429.016	25.81715
429.228	49.00291
429.44	2.63424
429.652	2.63424
429.864	49.00291
430.076	2.63424
430.288	8.95656
430.5	34.24801
430.712	-10.00976
430.924	23.70949
431.136	6.8491
431.348	53.21881
431.56	11.06405
431.772	23.70949
431.984	82.73264
432.196	23.70949
432.408	6.8491
432.62	61.65088
432.832	51.11085
433.044	-5.79519
433.256	6.8491
433.468	-41.61591
433.679	15.2791
433.891	51.11085
434.103	34.24801
434.315	-39.50901
434.527	8.95656
434.739	-10.00976
434.95	-35.29512
435.162	-41.61591
435.374	-35.29512
435.586	-1.58052
435.798	-66.89679
436.009	-16.33143
436.221	51.11085
436.433	44.78711
436.645	-20.54576
436.856	137.55563
437.068	57.4348
437.28	25.81715
437.491	32.14026
437.703	-26.86706
437.915	-20.54576
438.126	-1.58052
438.338	53.21881
438.55	6.8491
438.761	42.67924
438.973	-58.47023
439.184	57.4348
439.396	8.95656
439.608	8.95656
439.819	23.70949
440.031	57.4348
440.242	-5.79519
440.454	-10.00976
440.665	-33.18815
440.877	17.38667
441.088	27.92483
441.3	32.14026
441.511	-7.90249
441.723	46.895
441.934	133.33796
442.146	25.81715
442.357	15.2791
442.569	59.54283
442.78	6.8491
442.991	-1.58052
443.203	-1.58052
443.414	74.29967
443.626	-20.54576
443.837	42.67924
444.048	2.63424
444.26	-94.28026
444.471	6.8491
444.682	-16.33143
444.894	-33.18815
445.105	17.38667
445.316	40.5714
445.528	-26.86706
445.739	63.75895
445.95	120.68545
446.161	-31.08114
446.373	17.38667
446.584	42.67924
446.795	8.95656
447.006	61.65088
447.217	34.24801
447.429	23.70949
447.64	-31.08114
447.851	-41.61591
448.062	-7.90249
448.273	2.63424
448.484	53.21881
448.695	-7.90249
448.907	44.78711
449.118	-35.29512
449.329	40.5714
449.54	8.95656
449.751	25.81715
449.962	-60.57691
450.173	15.2791
450.384	-7.90249
450.595	27.92483
450.806	108.03372
451.017	49.00291
451.228	-18.43861
451.439	49.00291
451.65	23.70949
451.861	55.32679
452.072	6.8491
452.283	15.2791
452.494	-24.75999
452.705	44.78711
452.915	17.38667
453.126	-18.43861
453.337	-52.15005
453.548	44.78711
453.759	13.17157
453.97	-35.29512
454.181	36.35578
454.391	95.38278
454.602	23.70949
454.813	-58.47023
455.024	-18.43861
455.235	0.52684
455.445	25.81715
455.656	34.24801
455.867	25.81715
456.078	-1.58052
456.288	19.49425
456.499	-26.86706
456.71	70.08331
456.921	6.8491
457.131	-24.75999
457.342	-52.15005
457.553	15.2791
457.763	44.78711
457.974	49.00291
458.184	-18.43861
458.395	34.24801
458.606	49.00291
458.816	40.5714
459.027	-54.2568
459.237	57.4348
459.448	51.11085
459.659	78.51611
459.869	70.08331
460.08	6.8491
460.29	-22.65289
460.501	63.75895
460.711	49.00291
460.922	-10.00976
461.132	55.32679
461.343	42.67924
461.553	70.08331
461.764	2.63424
461.974	23.70949
462.184	4.74166
462.395	51.11085
462.605	57.4348
462.816	-1.58052
463.026	80.62436
463.236	74.29967
463.447	-35.29512
463.657	25.81715
463.867	51.11085
464.078	36.35578
464.288	-33.18815
464.498	-14.22423
464.709	44.78711
464.919	6.8491
465.129	19.49425
465.339	-1.58052
465.55	-26.86706
465.76	11.06405
465.97	-39.50901
466.18	101.70815
466.391	-5.79519
466.601	59.54283
466.811	91.16598
467.021	42.67924
467.231	34.24801
467.441	27.92483
467.651	21.60186
467.862	76.40788
468.072	13.17157
468.282	-26.86706
468.492	49.00291
468.702	32.14026
468.912	74.29967
469.122	67.97517
469.332	-7.90249
469.542	-7.90249
469.752	82.73264
469.962	40.5714
470.172	-18.43861
470.382	32.14026
470.592	-18.43861
470.802	74.29967
471.012	91.16598
471.222	53.21881
471.432	-43.72279
471.642	6.8491
471.852	42.67924
472.062	-31.08114
472.272	23.70949
472.482	34.24801
472.691	74.29967
472.901	32.14026
473.111	53.21881
473.321	38.46358
473.531	15.2791
473.741	44.78711
473.95	84.84094
474.16	65.86705
474.37	19.49425
474.58	49.00291
474.79	30.03253
474.999	-12.11701
475.209	0.52684
475.419	63.75895
475.628	42.67924
475.838	-7.90249
476.048	6.8491
476.258	23.70949
476.467	86.94927
476.677	110.14229
476.886	49.00291
477.096	78.51611
477.306	49.00291
477.515	76.40788
477.725	65.86705
477.935	23.70949
478.144	-3.68787
478.354	53.21881
478.563	51.11085
478.773	51.11085
478.982	49.00291
479.192	-3.68787
479.401	53.21881
479.611	61.65088
479.82	15.2791
480.03	42.67924
480.239	82.73264
480.449	53.21881
480.658	99.59967
480.868	23.70949
481.077	84.84094
481.287	78.51611
481.496	80.62436
481.705	74.29967
481.915	99.59967
482.124	23.70949
482.333	57.4348
482.543	36.35578
482.752	6.8491
482.961	-26.86706
483.171	40.5714
483.38	93.27437
483.589	63.75895
483.799	127.01161
484.008	99.59967
484.217	13.17157
484.426	61.65088
484.636	25.81715
484.845	141.77339
485.054	120.68545
485.263	99.59967
485.472	67.97517
485.682	97.49122
485.891	91.16598
486.1	84.84094
486.309	78.51611
486.518	160.75436
486.727	167.08173
486.936	114.35949
487.146	84.84094
487.355	133.33796
487.564	65.86705
487.773	76.40788
487.982	-18.43861
488.191	124.90287
488.4	183.95562
488.609	101.70815
488.818	110.14229
489.027	108.03372
489.236	162.86346
489.445	164.97259
489.654	112.25088
489.863	93.27437
490.072	120.68545
490.281	93.27437
490.49	95.38278
490.698	127.01161
490.907	129.12037
491.116	158.64528
491.325	99.59967
491.534	135.44678
491.743	150.20917
491.952	207.15936
492.16	99.59967
492.369	196.6119
492.578	124.90287
492.787	139.6645
492.996	162.86346
493.204	175.51851
493.413	171.30008
493.622	152.31817
493.831	93.27437
494.039	148.10019
494.248	122.79415
494.457	226.14603
494.665	177.62776
494.874	175.51851
495.083	228.25576
495.291	196.6119
495.5	120.68545
495.709	247.24421
495.917	251.46407
496.126	253.57403
496.335	194.50247
496.543	137.55563
496.752	217.70731
496.96	200.83082
497.169	158.64528
497.377	270.45441
497.586	167.08173
497.794	200.83082
498.003	150.20917
498.211	262.01407
498.42	205.04983
498.628	234.58507
498.837	211.37848
499.045	124.90287
499.254	293.6669
499.462	314.77108
499.671	291.55658
499.879	238.8047
500.087	209.26891
500.296	236.69488
500.504	245.1343
500.713	249.35413
500.921	202.94032
501.129	272.56455
501.338	221.92663
501.546	285.22573
501.754	209.26891
501.962	295.77723
502.171	232.47528
502.379	348.54149
502.587	306.32919
502.795	380.20529
503.004	262.01407
503.212	295.77723
503.42	331.65572
503.628	375.98323
503.837	253.57403
504.045	304.21876
504.253	340.09847
504.461	403.4278
504.669	297.88759
504.877	369.65026
505.085	318.99213
505.294	327.43445
505.502	369.65026
505.71	363.31745
505.918	413.98415
506.126	390.76073
506.334	394.98302
506.542	382.31634
506.75	394.98302
506.958	394.98302
507.166	356.9848
507.374	513.23285
507.582	445.65559
507.79	403.4278
507.998	363.31745
508.206	392.87187
508.414	479.44231
508.622	460.4368
508.83	344.31995
509.037	519.56899
509.245	513.23285
509.453	509.00883
509.661	513.23285
509.869	566.03788
510.077	437.20952
510.285	563.92551
510.492	544.91483
510.7	525.90526
510.908	551.2516
511.116	536.46599
511.324	454.1019
511.531	481.5541
511.739	456.21352
511.947	563.92551
512.155	454.1019
512.362	525.90526
512.57	530.12951
512.778	574.48747
512.985	589.27478
513.193	627.30218
513.401	502.6729
513.608	610.4006
513.816	576.59991
514.024	557.58849
514.231	540.69038
514.439	737.18088
514.646	439.32102
514.854	650.54313
515.061	589.27478
515.269	656.88183
515.477	589.27478
515.684	792.13122
515.892	530.12951
516.099	724.50103
516.307	644.20454
516.514	777.33623
516.722	749.86112
516.929	743.52096
517.136	741.40759
517.344	828.06384
517.551	665.33358
517.759	773.10918
517.966	678.01157
518.173	790.01762
518.381	580.82481
518.588	861.88518
518.796	751.97453
519.003	743.52096
519.21	726.61431
519.418	876.6827
519.625	842.8604
519.832	825.95009
520.039	880.91064
520.247	952.79042
520.454	851.31577
520.661	925.30594
520.868	853.42963
521.076	961.24743
521.283	813.26773
521.49	918.96355
521.697	844.97423
521.904	931.6484
522.112	857.65739
522.319	1071.19793
522.526	857.65739
522.733	874.56875
522.94	986.61912
523.147	988.73347
523.354	959.13317
523.561	1092.34404
523.768	944.33353
523.975	1033.1363
524.183	883.02463
524.39	1071.19793
524.597	1037.36528
524.804	1071.19793
525.011	1024.67841
525.218	1105.03195
525.425	1105.03195
525.632	1198.08145
525.838	1075.42711
526.045	1111.37596
526.252	1064.8542
526.459	1193.85176
526.666	1215.00033
526.873	1225.57474
527.08	1098.68797
527.287	1191.73692
527.494	1066.96877
527.701	1263.64323
527.907	1215.00033
528.114	1291.13766
528.321	1225.57474
528.528	1130.40827
528.735	1286.90772
528.941	1291.13766
529.148	1155.78523
529.355	1451.87957
529.562	1244.60887
529.768	1449.76452
529.975	1181.16278
530.182	1470.91504
530.388	1198.08145
530.595	1360.9327
530.802	1291.13766
531.008	1477.2602
531.215	1369.39281
531.422	1460.33978
531.628	1327.09245
531.835	1485.72039
532.042	1470.91504
532.248	1464.56989
532.455	1379.96798
532.661	1517.44607
532.868	1367.27778
533.074	1612.62159
533.281	1494.18059
533.487	1769.12244
533.694	1654.92065
533.9	1633.77123
534.107	1504.75582
534.313	1566.0917
534.52	1614.73656
534.726	1692.98893
534.933	1530.13629
535.139	1743.74511
535.345	1563.97668
535.552	1638.00113
535.758	1629.54132
535.965	1648.57585
536.171	1640.11608
536.377	1830.44859
536.584	1783.92563
536.79	1739.5155
536.996	1699.33356
537.203	1845.2509
537.409	1724.71177
537.615	1828.33396
537.821	1697.21869
538.028	1970.00311
538.234	1936.17392
538.44	1948.86004
538.646	1758.54862
538.853	1948.86004
539.059	1828.33396
539.265	1921.37318
539.471	1980.57441
539.677	2039.77074
539.883	1893.88536
540.09	1953.0887
540.296	1993.25977
540.502	2010.17322
540.708	1900.22878
540.914	2027.08625
541.12	2031.31444
541.326	2238.45904
541.532	2043.99885
541.738	2177.16916
541.944	1944.63136
542.15	2297.62839
542.356	2054.569
542.562	2306.08056
542.768	2204.64483
542.974	2306.08056
543.18	2048.22693
543.386	2384.25572
543.592	2249.02552
543.798	2289.17607
544.004	2238.45904
544.21	2293.40225
544.415	2274.38415
544.621	2523.66783
544.827	2230.0057
545.033	2342.00056
545.239	2287.06296
545.445	2557.45736
545.651	2350.45191
545.856	2631.36135
546.062	2477.20243
546.268	2508.88397
546.474	2399.04407
546.679	2342.00056
546.885	2253.25205
547.091	2563.79256
547.297	2316.64555
547.502	2652.47402
547.708	2432.84408
547.914	2565.90427
548.119	2504.65991
548.325	2580.68592
548.531	2432.84408
548.736	2603.91303
548.942	2635.58398
549.147	2620.80455
549.353	2616.58174
549.559	2669.36325
549.764	2618.69315
549.97	2682.02964
550.175	2669.36325
550.381	2831.87927
550.586	2593.35543
550.792	3074.44177
550.997	2620.80455
551.203	2774.90219
551.408	2755.90761
551.614	2791.78533
551.819	2779.12305
552.025	2922.59942
552.23	2747.46523
552.435	3061.79127
552.641	2736.91196
552.846	2943.69329
553.052	2914.16146
553.257	3312.5842
553.462	2909.94239
553.668	3066.00817
553.873	2956.34891
554.078	3066.00817
554.283	2884.62676
554.489	3135.57784
554.694	3034.37993
554.899	3082.87512
555.105	3175.6252
555.31	3236.73872
555.515	3036.48859
555.72	3224.09569
555.925	3101.84925
556.131	3226.2029
556.336	3154.54837
556.541	3394.72502
556.746	3080.76681
556.951	3411.57113
557.156	3213.55937
557.361	3323.11655
557.567	3354.711
557.772	3430.52164
557.977	3333.64847
558.182	3289.41153
558.387	3318.90366
558.592	3392.61918
558.797	3181.94793
559.002	3390.51332
559.207	3177.73279
559.412	3419.99376
559.617	3103.9574
559.822	3443.15452
560.027	3331.54212
560.232	3563.13434
560.437	3523.14766
560.642	3622.04988
560.847	3304.15801
561.051	3556.8211
561.256	3422.09937
561.461	3605.21836
561.666	3466.31311
561.871	3601.0103
562.076	3548.40318
562.281	3710.39543
562.485	3379.98375
562.69	3539.98497
562.895	3506.30918
563.1	3527.3571
563.305	3531.56646
563.509	3769.27365
563.714	3611.53032
563.919	3834.4424
564.123	3649.39851
564.328	3697.7767
564.533	3647.29489
564.737	3683.05397
564.942	3746.14474
565.147	3840.74805
565.351	3626.25757
565.556	3781.88843
565.761	3781.88843
565.965	3790.29789
566.17	3605.21836
566.374	3823.93259
566.579	3800.80928
566.784	3962.62186
566.988	3750.35017
567.193	4050.83271
567.397	3823.93259
567.602	4059.23185
567.806	3817.62647
568.011	3977.32617
568.215	3977.32617
568.42	4151.60044
568.624	3924.80619
568.828	4132.71016
569.033	3876.47667
569.237	4185.17896
569.442	3924.80619
569.646	3891.18678
569.85	3971.02445
570.055	4210.3593
570.259	4122.21482
570.463	4176.78484
570.668	3851.25706
570.872	4340.40877
571.076	4025.6333
571.281	4438.93934
571.485	4195.67114
571.689	4183.08046
571.893	4023.53322
572.098	4136.90815
572.302	4052.93253
572.506	4344.60254
572.71	4243.92833
572.914	4097.02388
573.119	4113.81818
573.323	4482.94803
573.527	4313.14717
573.731	4413.78717
573.935	4296.36899
574.139	4365.57008
574.343	4256.51531
574.547	4503.90114
574.751	4386.53545
574.955	4512.28176
575.159	4397.01732
575.364	4436.84344
575.568	4243.92833
575.772	4487.13883
575.976	4373.95649
576.18	4449.41848
576.383	4382.34255
576.587	4430.55563
576.791	4394.92099
576.995	4681.91288
577.199	4470.37511
577.403	4489.23419
577.607	4539.51635
577.811	4684.00618
578.015	4650.51077
578.219	4907.85776
578.422	4573.0307
578.626	4704.93788
578.83	4767.71944
579.034	4822.11363
579.238	4497.61543
579.442	4985.20355
579.645	4640.04228
579.849	4930.85574
580.053	4872.30998
580.257	4861.85349
580.46	4688.1927
580.664	4955.94128
580.868	4847.21345
581.071	5056.25024
581.275	4966.39261
581.479	4968.4828
581.682	4757.25726
581.886	5156.50588
582.09	4838.8472
582.293	5141.8886
582.497	5156.50588
582.7	5100.11866
582.904	4738.42391
583.107	5110.56202
583.311	4679.81957
583.515	5106.38475
583.718	4981.0235
583.922	5075.05225
584.125	4958.03159
584.329	5181.56143
584.532	5014.4613
584.735	5304.70233
584.939	4886.9481
585.142	5256.70792
585.346	5093.85237
585.549	5375.62789
585.753	5081.31916
585.956	5252.53391
586.159	5302.61587
586.363	5400.65397
586.566	5319.30687
586.769	5246.27272
586.973	5296.35637
587.176	5600.74068
587.379	5143.97686
587.582	5323.47938
587.786	5450.69598
587.989	5475.71191
588.192	5496.55592
588.395	5425.67667
588.599	5292.18324
588.802	5492.38731
589.005	5386.05584
589.208	5652.81096
589.411	5417.33614
589.615	5702.78456
589.818	5492.38731
590.021	5804.77178
590.224	5515.31353
590.427	5581.99177
590.63	5365.19936
590.833	5544.48823
591.036	5365.19936
591.239	5644.48071
591.442	5471.54282
591.645	5650.72843
591.848	5631.98462
592.051	5840.14186
592.254	5806.85256
592.457	5702.78456
592.66	5504.89287
592.863	5873.42512
593.066	5740.25584
593.269	5985.71153
593.472	5606.98989
593.675	6064.68669
593.878	5771.47606
594.081	5939.97351
594.284	5827.65908
594.486	5881.74499
594.689	5962.84395
594.892	5958.6859
595.095	5823.49797
595.298	5908.78196
595.5	5854.70403
595.703	6135.31988
595.906	5887.98464
596.109	6102.08412
596.311	5977.39638
596.514	6014.8116
596.717	6118.70275
596.92	6234.99108
597.122	5858.86444
597.325	6259.90044
597.528	6014.8116
597.73	6432.09802
597.933	6039.75084
598.136	6299.33337
598.338	6122.85717
598.541	6309.70905
598.743	6143.62788
598.946	6122.85717
599.148	6548.18891
599.351	6172.70292
599.554	6280.65567
599.756	6635.20944
599.959	6365.72764
600.161	6280.65567
600.363	6280.65567
600.566	6446.61337
600.768	6297.25816
600.971	6444.53982
601.173	6396.84173
601.376	6463.20094
601.578	6459.05418
601.78	6554.40602
601.983	6363.65318
602.185	6583.41641
602.388	6151.9355
602.59	6523.31842
602.792	6539.89912
602.995	6541.9716
603.197	6384.39672
603.399	6672.49149
603.601	6597.91991
603.804	6689.05891
604.006	6546.1165
604.208	6529.53635
604.41	6384.39672
604.613	6720.11884
604.815	6432.09802
605.017	6529.53635
605.219	6400.98988
605.421	6581.34439
605.623	6736.68203
605.826	6860.85933
606.028	6535.75408
606.23	6823.61476
606.432	6465.27428
606.634	6703.55418
606.836	6454.90734
607.038	6889.82223
607.24	6701.4835
607.442	6713.90727
607.644	6771.87394
607.846	7003.56213
608.048	6811.19826
608.25	6900.16505
608.452	6784.29304
608.654	6869.1349
608.856	6469.42089
609.058	7018.03322
609.26	6672.49149
609.462	6933.25826
609.664	6879.47885
609.866	7075.90659
610.067	6732.54137
610.269	7150.28944
610.471	6850.51435
610.673	6980.81961
610.875	6736.68203
611.077	6951.87065
611.278	6891.89084
611.48	7191.60079
611.682	6962.21007
611.884	6916.71238
612.085	6929.12193
612.287	7208.12284
612.489	7042.83824
612.69	7038.7043
612.892	6931.1901
613.094	7028.36904
613.295	7040.77128
613.497	6987.02238
613.699	6987.02238
613.9	6937.3945
614.102	6833.96121
614.304	6997.35989
614.505	6879.47885
614.707	7327.86548
614.908	6829.8227
615.11	7208.12284
615.311	6821.5454
615.513	6960.14223
615.714	7024.23478
615.916	7003.56213
616.117	6842.23796
616.319	7142.02611
616.52	6827.75341
616.722	7195.73143
616.923	7080.03973
617.124	7051.10587
617.326	7051.10587
617.527	7292.77617
617.729	7135.82837
617.93	7234.96815
618.131	7065.57335
618.333	7443.40916
618.534	7241.1627
618.735	7470.22205
618.937	7274.1969
619.138	7340.24843
619.339	7156.48671
619.54	7158.55242
619.742	7164.74942
619.943	7354.69422
620.144	7288.6476
620.345	7406.27756
620.546	7243.2275
620.748	7468.15965
620.949	7268.00342
621.15	7389.77237
621.351	7249.42178
621.552	7488.78268
621.753	7311.35365
621.954	7455.78479
622.155	7073.83999
622.356	7381.51926
622.558	7315.48174
622.759	7346.43962
622.96	7127.56442
623.161	7422.78136
623.362	7554.76192
623.563	7447.53445
623.764	7323.73766
623.965	7643.387
624.166	7507.34157
624.366	7303.09721
624.567	7385.64586
624.768	7367.07546
624.969	7193.66612
625.17	7583.62093
625.371	7331.99322
625.572	7655.75016
625.773	7398.02514
625.973	7598.04886
626.174	7507.34157
626.375	7631.02307
626.576	7451.65967
626.777	7579.49847
626.977	7234.96815
627.178	7777.28075
627.379	7294.84042
627.58	7563.00778
627.78	7573.31462
627.981	7690.77497
628.182	7686.65472
628.382	7468.15965
628.583	7466.09723
628.784	7633.08378
628.984	7523.83689
629.185	7853.45765
629.386	7389.77237
629.586	7521.77505
629.787	7758.74692
629.987	7808.16671
630.188	7556.82341
630.388	7686.65472
630.589	7631.02307
630.79	7565.06919
630.99	7515.5894
631.191	7616.59752
631.391	7431.03274
631.591	7785.51747
631.792	7682.53439
631.992	7892.56447
632.193	7610.41483
632.393	7917.25967
632.594	7760.80632
632.794	7787.5766
632.994	7521.77505
633.195	7789.6357
633.395	7711.37495
633.595	7876.09935
633.796	8061.25626
633.996	7882.27392
634.196	7694.89514
634.397	7968.6985
634.597	7694.89514
634.797	8106.49179
634.997	7808.16671
635.198	8108.54772
635.398	7773.16227
635.598	7995.44164
635.798	8221.59303
635.998	8040.69142
636.199	7746.39008
636.399	8013.95411
636.599	7748.44961
636.799	7913.14401
636.999	7812.28449
637.199	7927.54846
637.399	7808.16671
637.599	8001.61265
637.799	7826.69604
637.999	8242.14026
638.199	8009.84037
638.399	8096.21184
638.599	8007.78347
638.799	8219.5382
638.999	8198.98879
639.199	8124.99443
639.399	7960.46915
639.599	8233.92161
639.799	7933.72149
639.999	8233.92161
640.199	7909.02827
640.399	8381.80941
640.599	7884.33207
640.799	8295.55385
640.998	8330.47095
641.198	8459.82072
641.398	8057.14345
641.598	8351.00779
641.798	8281.17458
641.997	8231.86689
642.197	8106.49179
642.397	8205.15382
642.597	8275.01174
642.796	8059.19987
642.996	8361.27548
643.196	8507.02465
643.395	8371.54269
643.595	8412.60667
643.795	8067.42531
643.994	8478.29303
644.194	8410.55365
644.394	8476.24063
644.593	8449.55766
644.793	8794.13874
644.992	8357.16847
645.192	8492.65931
645.392	8402.3414
645.591	8603.45368
645.791	8418.7656
645.99	8418.7656
646.19	8287.33724
646.389	8535.75256
646.589	8525.49302
646.788	8426.97724
646.987	8381.80941
647.187	8539.85624
647.386	8390.02244
647.586	8611.65849
647.785	8283.22882
647.984	8451.61031
648.184	8543.95985
648.383	8693.69016
648.582	8404.39449
648.782	8943.70594
648.981	8311.98613
649.18	8480.34541
649.38	8773.6426
649.579	8558.32188
649.778	8562.42514
649.977	8835.12558
650.177	8574.73449
650.376	8685.48833
650.575	8418.7656
650.774	8535.75256
650.973	8609.60731
651.173	8738.79496
651.372	8693.69016
651.571	8773.6426
651.77	8605.50491
651.969	8808.48496
652.168	8705.99235
652.367	8697.79097
652.566	8742.89496
652.765	8943.70594
652.964	8990.81017
653.163	8898.64094
653.362	8734.6949
653.561	8664.98246
653.76	8777.74197
653.959	8939.60947
654.158	8664.98246
654.357	8765.44363
654.556	8615.76078
654.755	8994.90575
654.954	8841.27299
655.153	8955.9949
655.352	8677.2862
655.551	8968.28322
655.749	8955.9949
655.948	9044.04724
656.147	8976.47509
656.346	9027.66787
656.545	8751.09473
656.743	9127.97414
656.942	8841.27299
657.141	8939.60947
657.34	8882.25153
657.538	8988.76236
657.737	8708.04266
657.936	9056.33105
658.135	9009.23973
658.333	9013.33499
658.532	8972.37919
658.731	8994.90575
658.929	8886.34899
659.128	9148.43972
659.326	8820.78101
659.525	9393.89519
659.724	9011.28737
659.922	9023.57285
660.121	8722.39425
660.319	8945.75414
660.518	8886.34899
660.716	9099.31944
660.915	9035.85769
661.113	9355.04736
661.312	9091.13176
661.51	9265.06108
661.709	9060.42551
661.907	9158.67187
662.105	9316.19359
662.304	9498.14193
662.502	8990.81017
662.701	9119.78742
662.899	9031.76281
663.097	9514.49056
663.296	8984.66667
663.494	9310.05823
663.692	9074.75558
663.891	9156.62547
664.089	8925.2713
664.287	9338.6886
664.485	9183.22729
664.684	9453.1779
664.882	9136.16057
665.08	9148.43972
665.278	9076.80266
665.476	9256.87891
665.675	9134.11399
665.873	9144.34674
666.071	9258.92448
666.269	9211.87219
666.467	9005.14439
666.665	9109.55364
666.863	8919.1261
667.061	9050.18922
667.259	9007.19207
667.457	9158.67187
667.655	9199.59621
667.853	9263.01557
668.051	8935.51294
668.249	9209.82623
668.447	9187.31962
668.645	9316.19359
668.843	9134.11399
669.041	9134.11399
669.239	8648.57642
669.437	9248.69648
669.635	9189.36576
669.833	9166.85728
670.031	9172.99616
670.229	9205.73427
670.426	9228.23921
670.624	9353.00257
670.822	8962.13914
671.02	9230.28501
671.218	9256.87891
671.415	9477.7047
671.613	8988.76236
671.811	9295.74183
672.009	9348.91295
672.206	9406.1617
672.404	9175.04242
672.602	9436.82541
672.799	9072.70848
672.997	9064.5199
673.195	9348.91295
673.392	9420.47188
673.59	9232.3308
673.788	9052.23651
673.985	9029.71535
674.183	9467.48548
674.38	9125.92748
674.578	9453.1779
674.775	9162.76461
674.973	9346.86811
675.17	9297.78708
675.368	9420.47188
675.565	9295.74183
675.763	9440.91363
675.96	9316.19359
676.158	9322.32879
676.355	9103.41317
676.553	9250.74211
676.75	9080.89678
676.947	9281.42462
677.145	8839.22387
677.342	9201.64225
677.539	8947.80233
677.737	9144.34674
677.934	8814.63307
678.131	8851.5183
678.329	9060.42551
678.526	9256.87891
678.723	9107.50684
678.92	9559.44405
679.118	9203.68827
679.315	9260.97003
679.512	9177.08866
679.709	9420.47188
679.906	9054.28379
680.104	9267.10658
680.301	9197.55015
680.498	9019.47776
680.695	9041.99988
680.892	9344.82326
681.089	9142.30022
681.286	9316.19359
681.483	9052.23651
681.68	9404.11732
681.877	9052.23651
682.075	9136.16057
682.272	9056.33105
682.469	9434.78128
682.665	9025.62036
682.862	9185.27346
683.059	9189.36576
683.256	9041.99988
683.453	8984.66667
683.65	9402.07293
683.847	9291.65128
684.044	9410.2504
684.241	9207.78026
684.438	9445.00178
684.635	9183.22729
684.831	9205.73427
685.028	9074.75558
685.225	9095.22563
685.422	8972.37919
685.619	9027.66787
685.815	9361.18162
686.012	9422.51613
686.209	9031.76281
686.405	9148.43972
686.602	9015.3826
686.799	9175.04242
686.996	9246.65083
687.192	9001.04899
687.389	9166.85728
687.586	9017.43019
687.782	9111.60043
687.979	9389.80622
688.175	9058.37829
688.372	9299.83232
688.568	8767.4934
688.765	9213.91812
688.962	9037.90511
689.158	9103.41317
689.355	8994.90575
689.551	9162.76461
689.748	8927.31966
689.944	8945.75414
690.14	8906.83522
690.337	9005.14439
690.533	9142.30022
690.73	8974.42715
690.926	9197.55015
691.123	9031.76281
691.319	9365.27104
691.515	9148.43972
691.712	8943.70594
691.908	8974.42715
692.104	9013.33499
692.301	9156.62547
692.497	8812.58372
692.693	8804.38613
692.889	8831.02722
693.086	8972.37919
693.282	8886.34899
693.478	9099.31944
693.674	8960.09108
693.87	8980.57091
694.067	8978.52301
694.263	9021.52531
694.459	8927.31966
694.655	9140.25369
694.851	9185.27346
695.047	9109.55364
695.243	9099.31944
695.439	9046.09459
695.635	8986.71452
695.831	9060.42551
696.027	8814.63307
696.224	9003.0967
696.42	9168.90359
696.615	9189.36576
696.811	8964.18719
697.007	8980.57091
697.203	9062.47271
697.399	9113.64721
697.595	8716.24368
697.791	9205.73427
697.987	8796.18825
698.183	9044.04724
698.379	8912.98074
698.575	9222.1017
698.77	8810.53435
698.966	9222.1017
699.162	8984.66667
699.358	9230.28501
699.554	8892.49505
699.749	8796.18825
699.945	8861.76316
700.141	9060.42551
700.337	8872.00757
700.532	8935.51294
700.728	8591.14591
700.924	8837.17473
701.119	8519.33707
701.315	8582.94035
701.511	8533.70069
701.706	8775.69229
701.902	8744.94493
702.097	8816.6824
702.293	8732.64483
702.489	8968.28322
702.684	8664.98246
702.88	8951.89865
703.075	8843.32208
703.271	8960.09108
703.466	8902.73812
703.662	8968.28322
703.857	8812.58372
704.053	9103.41317
704.248	8785.9405
704.443	8937.56122
704.639	8949.8505
704.834	9197.55015
705.03	8757.24437
705.225	8888.39769
705.42	9101.36631
705.616	9119.78742
705.811	8984.66667
706.006	9189.36576
706.202	8915.02921
706.397	9068.61422
706.592	9035.85769
706.787	9001.04899
706.983	8839.22387
707.178	8902.73812
707.373	8742.89496
707.568	8984.66667
707.763	8648.57642
707.959	8958.043
708.154	8775.69229
708.349	8943.70594
708.544	8716.24368
708.739	8939.60947
708.934	8800.28723
709.129	8845.37116
709.324	8607.55612
709.519	8837.17473
709.714	8558.32188
709.909	8865.86098
710.104	8644.47473
710.299	8794.13874
710.494	8790.03966
710.689	8923.22292
710.884	8806.43555
711.079	8796.18825
711.274	8630.11821
711.469	8902.73812
711.664	8656.77959
711.859	9048.14191
712.054	8714.19345
712.249	8919.1261
712.443	8865.86098
712.638	9001.04899
712.833	8814.63307
713.028	8765.44363
713.223	8664.98246
713.417	8742.89496
713.612	8566.52834
713.807	9113.64721
714.002	8689.58928
714.196	8978.52301
714.391	8697.79097
714.586	8701.8917
714.78	8552.16683
714.975	8933.46465
715.17	8383.86269
715.364	8845.37116
715.559	8693.69016
715.754	8800.28723
715.948	8648.57642
716.143	8984.66667
716.337	8648.57642
716.532	8808.48496
716.726	8757.24437
716.921	8927.31966
717.115	8755.19451
717.31	8847.42023
717.504	8699.84134
717.699	8775.69229
717.893	8648.57642
718.088	8738.79496
718.282	8568.5799
718.476	8535.75256
718.671	8535.75256
718.865	8740.84497
719.059	8584.99177
719.254	8796.18825
719.448	8279.12032
719.642	8796.18825
719.837	8472.13577
720.031	8597.29988
720.225	8215.42847
720.419	8744.94493
720.614	8242.14026
720.808	8601.40243
721.002	8410.55365
721.196	8371.54269
721.39	8507.02465
721.585	8205.15382
721.779	8470.08331
721.973	8465.97833
722.167	8155.82855
722.361	8340.73962
722.555	8229.81216
722.749	8316.09401
722.943	8394.12883
723.137	8281.17458
723.331	8238.03097
723.525	8172.27158
723.719	8324.30952
723.913	8420.81854
724.107	8270.90308
724.301	8394.12883
724.495	8264.73994
724.689	8404.39449
724.883	8196.93373
725.077	8410.55365
725.271	8283.22882
725.465	8582.94035
725.659	8108.54772
725.853	8311.98613
726.046	8090.04363
726.24	8141.43985
726.434	7818.46099
726.628	8314.04008
726.822	8135.27297
727.015	8550.11512
727.209	8001.61265
727.403	8283.22882
727.596	8104.43584
727.79	8461.87328
727.984	8451.61031
728.177	8746.99488
728.371	8451.61031
728.565	8667.03313
728.758	8554.21853
728.952	8420.81854
729.146	8209.26374
729.339	8470.08331
729.533	8607.55612
729.726	8461.87328
729.92	8381.80941
730.113	8379.7561
730.307	8392.07565
730.5	8198.98879
730.694	8328.41716
730.887	8283.22882
731.081	8361.27548
731.274	8387.96921
731.468	8231.86689
731.661	8365.38242
731.854	8159.93943
732.048	8420.81854
732.241	8346.90058
732.435	8184.60302
732.628	8359.22198
732.821	8213.37358
733.014	8307.87818
733.208	8344.84695
733.401	8262.68552
733.594	8223.64784
733.788	8248.30405
733.981	8229.81216
734.174	8383.86269
734.367	8338.68592
734.56	8133.2173
734.754	8270.90308
734.947	8570.63145
735.14	8377.70278
735.333	8599.35116
735.526	8414.65967
735.719	8059.19987
735.912	8250.3586
736.105	8157.884
736.298	8116.77123
736.491	8026.29483
736.684	8157.884
736.877	8301.7161
737.07	8363.32896
737.263	8192.82357
737.456	8221.59303
737.649	8057.14345
737.842	8244.19488
738.035	8003.66961
738.228	7927.54846
738.421	7894.62251
738.614	8496.76379
738.807	8127.05018
739	8055.08702
739.192	8215.42847
739.385	8361.27548
739.578	8262.68552
739.771	8196.93373
739.964	7991.32754
740.156	8248.30405
740.349	8238.03097
740.542	8219.5382
740.735	8048.9176
740.927	7991.32754
741.12	7966.6412
741.313	8094.15579
741.505	8246.24947
741.698	8016.01094
741.891	8032.46492
742.083	8122.93866
742.276	8246.24947
742.468	8281.17458
742.661	8270.90308
742.854	8207.20879
743.046	7968.6985
743.239	8231.86689
743.431	8297.60796
743.624	8149.66209
743.816	7791.69479
744.009	8480.34541
744.201	7886.3902
744.393	7896.68054
744.586	8098.26787
744.778	8044.80455
744.971	8071.53792
745.163	8003.66961
745.355	7933.72149
745.548	7954.29692
745.74	7849.34071
745.932	8050.97409
746.125	8059.19987
746.317	7964.58387
746.509	8057.14345
746.702	8227.75741
746.894	7762.86569
747.086	7946.067
747.278	7919.31747
747.471	7937.83674
747.663	7853.45765
747.855	8071.53792
748.047	7826.69604
748.239	8046.86109
748.431	8016.01094
748.623	8207.20879
748.815	7894.62251
749.008	8155.82855
749.2	8065.36898
749.392	8079.76288
749.584	7950.182
749.776	8149.66209
749.968	7946.067
750.16	8133.2173
750.352	8182.54783
750.544	8149.66209
750.736	7995.44164
750.928	8316.09401
751.12	7871.98286
751.311	7822.57856
751.503	7806.1078
751.695	7602.17093
751.887	7583.62093
752.079	7818.46099
752.271	7696.95519
752.463	7867.86629
752.654	7752.5686
752.846	7983.09908
753.038	7839.04799
753.23	8001.61265
753.421	7789.6357
753.613	7686.65472
753.805	7756.6875
753.997	7653.68968
754.188	7857.57451
754.38	7769.0437
754.572	7935.77913
754.763	8075.65044
754.955	7818.46099
755.146	7931.66384
755.338	7628.96234
755.53	7820.51979
755.721	7966.6412
755.913	7839.04799
756.104	7612.47575
756.296	7515.5894
756.487	7598.04886
756.679	7847.2822
756.87	7573.31462
757.062	7628.96234
757.253	7579.49847
757.445	7643.387
757.636	7752.5686
757.827	7754.62806
758.019	7787.5766
758.21	7843.16514
758.401	7579.49847
758.593	7620.71921
758.784	7655.75016
758.975	7567.13058
759.167	7445.47182
759.358	7554.76192
759.549	7470.22205
759.74	7466.09723
759.932	7309.28958
760.123	7142.02611
760.314	7329.92936
760.505	7497.03129
760.696	7315.48174
760.888	7505.27956
761.079	7410.40364
761.27	7371.20237
761.461	7416.5926
761.652	7492.90703
761.843	7317.54576
762.034	7422.78136
762.225	7439.28377
762.416	7431.03274
762.607	7286.58328
762.798	7224.64348
762.989	7282.45458
763.18	7298.96886
763.371	7162.68378
763.562	7288.6476
763.753	7274.1969
763.944	7327.86548
764.135	7268.00342
764.326	7356.75781
764.517	7111.03543
764.708	7208.12284
764.899	7187.47005
765.089	7113.10163
765.28	7117.23397
765.471	7146.15782
765.662	7127.56442
765.853	7129.63044
766.043	6960.14223
766.234	7077.97317
766.425	6823.61476
766.615	7067.64004
766.806	6800.85056
766.997	7026.30192
767.187	6904.30202
767.378	7307.22548
767.569	7096.57139
767.759	7065.57335
767.95	6980.81961
768.141	7042.83824
768.331	6941.53066
768.522	7055.23955
768.712	6964.27789
768.903	6910.5073
769.093	6616.56561
769.284	6836.03043
769.474	7111.03543
769.665	6904.30202
769.855	7034.57026
770.046	7030.43614
770.236	6736.68203
770.426	6972.54893
770.617	7088.30574
770.807	6850.51435
770.998	6811.19826
771.188	6904.30202
771.378	6544.04406
771.569	6860.85933
771.759	6711.8367
771.949	6608.27886
772.139	6877.4101
772.33	6705.62485
772.52	6657.9938
772.71	6786.36281
772.9	6417.58154
773.09	6595.84805
773.281	6463.20094
773.471	6713.90727
773.661	6570.98394
773.851	6730.47101
774.041	6409.28589
774.231	6591.70427
774.421	6415.50766
774.611	6591.70427
774.802	6374.02524
774.992	6515.02751
775.182	6357.42966
775.372	6519.17301
775.562	6376.09958
775.752	6382.32247
775.942	6380.2482
776.131	6347.05667
776.321	6382.32247
776.511	6363.65318
776.701	6454.90734
776.891	6573.05608
777.081	6529.53635
777.271	6589.63234
777.461	6583.41641
777.651	6210.07835
777.84	6315.93418
778.03	6297.25816
778.22	6305.55885
778.41	6330.45866
778.599	6129.08863
778.789	6318.00917
778.979	6218.38297
779.169	6191.39158
779.358	6118.70275
779.548	6349.13131
779.738	6050.14119
779.927	6183.08574
780.117	6106.23892
780.307	6232.91515
780.496	6168.54962
780.686	6261.97607
780.875	5987.79026
781.065	6332.53349
781.254	6077.15335
781.444	6264.05168
781.633	6095.85174
781.823	5985.71153
782.012	5885.90478
782.202	6000.26214
782.391	6027.28164
782.581	5865.10487
782.77	5808.93332
782.96	5925.41812
783.149	5631.98462
783.338	5956.60684
783.528	5648.64588
783.717	5790.20565
783.906	5942.05276
784.096	5989.86896
784.285	5725.68458
784.474	6043.90705
784.663	6052.21919
784.853	5987.79026
785.042	5823.49797
785.231	5933.73563
785.42	5867.18497
785.61	5798.52929
785.799	5894.22409
785.988	6006.49776
786.177	5856.78425
786.366	5636.15008
786.555	5802.69098
786.744	5602.82378
786.933	5450.69598
787.122	5881.74499
787.312	5962.84395
787.501	5763.15119
787.69	5644.48071
787.879	5648.64588
788.068	5531.98535
788.257	5561.15741
788.445	5442.35658
788.634	5815.17545
788.823	5629.90185
789.012	5686.1282
789.201	5494.47163
789.39	5665.30564
789.579	5450.69598
789.768	5415.25095
789.957	5423.59157
790.145	5777.71947
790.334	5542.40447
790.523	5521.56564
790.712	5475.71191
790.9	5800.61015
791.089	5365.19936
791.278	5813.09477
791.467	5671.55265
791.655	5619.48768
791.844	5536.15307
792.033	5373.54223
792.221	5189.91253
792.41	5484.04979
792.599	5200.35089
792.787	5519.48162
792.976	5319.30687
793.164	5527.81753
793.353	5538.23689
793.541	5406.90996
793.73	5256.70792
793.918	5431.93181
794.107	5265.05566
794.295	5473.62737
794.484	5148.15329
794.672	5461.11969
794.861	5413.16574
795.049	5315.13426
795.238	4997.74314
795.426	5408.99525
795.614	5231.66245
795.803	5344.34054
795.991	5083.40809
796.179	5258.79489
796.368	5358.94196
796.556	5306.78876
796.744	5089.67473
796.932	5331.82413
797.121	5146.06509
797.309	5242.09847
797.497	5064.60692
797.685	5281.75003
797.874	5114.7392
798.062	5269.2294
798.25	4939.21796
798.438	5267.14254
798.626	4924.58384
798.814	5237.92413
799.002	5106.38475
799.19	5110.56202
799.378	5131.44699
799.566	5060.42863
799.755	4868.12745
799.943	5026.99896
800.131	4893.22124
800.318	5079.23021
800.506	4999.83299
800.694	4928.76513
800.882	4970.57298
801.07	4991.47345
801.258	5194.08794
801.446	5214.9636
801.634	4797.01053
801.822	5029.08848
802.01	4972.66313
802.197	5081.31916
802.385	5024.9094
802.573	5166.9461
802.761	5164.85811
802.949	5254.62093
803.136	4966.39261
803.324	4909.9486
803.512	4993.56337
803.699	5152.32963
803.887	5121.0048
804.075	5265.05566
804.262	4947.5798
804.45	5083.40809
804.638	4893.22124
804.825	5346.42653
805.013	4983.11354
805.201	5108.4734
805.388	5098.02992
805.576	5214.9636
805.763	4989.3835
805.951	5026.99896
806.138	5066.69603
806.326	5221.22585
806.513	4725.86733
806.701	5008.19216
806.888	4932.94633
807.075	5531.98535
807.263	5014.4613
807.45	5281.75003
807.638	5068.78512
807.825	5388.14135
808.012	5077.14124
808.2	5317.22057
808.387	5139.80033
808.574	5047.89319
808.761	5160.68204
808.949	5210.78866
809.136	4997.74314
809.323	5223.31321
809.51	5056.25024
809.698	5300.52939
809.885	5091.76356
810.072	5285.92338
810.259	4884.85701
810.446	5039.53578
810.633	5166.9461
810.82	5313.04792
811.008	5089.67473
811.195	5185.73703
811.382	5010.2819
811.569	5206.61362
811.756	4941.30845
811.943	5150.24147
812.13	5160.68204
812.317	5258.79489
812.504	5118.91629
812.691	5219.13846
812.878	5077.14124
813.064	5085.49699
813.251	5139.80033
813.438	5254.62093
813.625	5081.31916
813.812	5235.83693
813.999	5148.15329
814.186	5306.78876
814.372	5079.23021
814.559	4987.29354
814.746	5098.02992
814.933	5156.50588
815.12	4981.0235
815.306	5049.98249
815.493	5085.49699
815.68	5164.85811
815.866	5114.7392
816.053	5256.70792
816.24	5026.99896
816.426	5116.82775
816.613	4945.48937
816.799	5106.38475
816.986	4985.20355
817.173	5135.6237
817.359	4889.03917
817.546	5093.85237
817.732	4891.13022
817.919	4922.49316
818.105	4857.67074
818.292	4989.3835
818.478	4912.03942
818.665	5106.38475
818.851	4903.67602
819.037	5014.4613
819.224	4937.12744
819.41	5171.12203
819.597	5129.3586
819.783	4884.85701
819.969	4907.85776
820.156	5285.92338
820.342	4918.31174
820.528	5156.50588
820.714	4953.85094
820.901	4763.53464
821.087	4928.76513
821.273	5169.03408
821.459	4868.12745
821.646	4897.40322
821.832	4895.31224
822.018	5194.08794
822.204	4981.0235
822.39	5089.67473
822.576	5141.8886
822.762	5056.25024
822.948	4656.7916
823.134	5164.85811
823.32	4642.13603
823.507	4878.5836
823.693	4656.7916
823.879	5091.76356
824.065	4824.2054
824.25	4832.57228
824.436	4520.66203
824.622	4721.68162
824.808	4671.44608
824.994	4922.49316
825.18	4514.37686
825.366	4656.7916
825.552	4482.94803
825.738	4903.67602
825.923	4671.44608
826.109	4830.4806
826.295	4786.54994
826.481	4732.14572
826.667	4826.29716
826.852	4799.10258
827.038	4466.18395
827.224	4761.4422
827.409	4740.5166
827.595	4876.49242
827.781	4558.36887
827.966	4537.42151
828.152	4399.11363
828.338	4696.56547
828.523	4453.60998
828.709	4717.49582
828.894	4541.61116
829.08	4522.75704
829.266	4482.94803
829.451	4621.19759
829.637	4399.11363
829.822	4675.63287
830.008	4296.36899
830.193	4629.57323
830.378	4094.9245
830.564	4621.19759
830.749	4422.17158
830.935	4608.63345
831.12	4447.32269
831.305	4591.88001
831.491	4153.69926
831.676	4327.82695
831.861	4185.17896
832.047	4294.27162
832.232	4067.63066
832.417	4552.08489
832.602	4214.55573
832.788	4520.66203
832.973	4529.04195
833.158	4497.61543
833.343	4166.29171
833.528	4401.20991
833.714	4365.57008
833.899	4441.03521
834.084	4243.92833
834.269	4430.55563
834.454	4040.33332
834.639	4019.33299
834.824	4059.23185
835.009	4294.27162
835.194	4067.63066
835.379	4262.80851
835.564	4218.75207
835.749	4503.90114
835.934	4413.78717
836.119	4306.85552
836.304	4164.19302
836.489	4426.36365
836.674	4002.53125
836.859	4231.34058
837.044	4042.43324
837.228	4159.99558
837.413	4008.83205
837.598	4302.66097
837.783	3954.21894
837.968	4151.60044
838.152	3811.32017
838.337	4126.41302
838.522	3950.01737
838.707	4210.3593
838.891	3933.21024
839.076	4283.78445
839.261	4008.83205
839.445	4019.33299
839.63	3727.21933
839.815	4052.93253
839.999	3603.11434
840.184	4080.22826
840.368	4101.22258
840.553	4134.80916
840.737	3788.19556
840.922	3950.01737
841.106	3626.25757
841.291	3689.36383
841.475	3857.56223
841.66	3790.29789
841.844	3706.18927
842.029	3828.13657
842.213	3657.81284
842.397	3792.40021
842.582	3701.98302
842.766	3786.0932
842.951	3436.83816
843.135	3666.22685
843.319	3588.38565
843.504	3830.23853
843.688	3565.23872
843.872	3912.19951
844.056	3851.25706
844.241	4000.43094
844.425	3725.11641
844.609	3958.42044
844.793	3622.04988
844.977	3630.46518
845.161	3533.67112
845.346	3680.95065
845.53	3495.78453
845.714	3628.36138
845.898	3441.04908
846.082	3704.08615
846.266	3565.23872
846.45	3539.98497
846.634	3392.61918
846.818	3731.42511
847.002	3592.59394
847.186	3689.36383
847.37	3401.04244
847.554	3569.44742
847.738	3472.62872
847.922	3596.80216
848.106	3344.17995
848.29	3571.55174
848.473	3388.40744
848.657	3318.90366
848.841	3363.13553
849.025	3373.6658
849.209	3312.5842
849.392	3552.61218
849.576	3344.17995
849.76	3436.83816
849.944	3162.9793
850.127	3356.81716
850.311	3228.3101
850.495	3413.67681
850.678	3295.73155
850.862	3438.94363
851.046	3327.32937
851.229	3209.34472
851.413	3177.73279
851.596	3537.88037
851.78	3179.84037
851.964	3405.25397
852.147	2863.52883
852.331	3234.63159
852.514	3162.9793
852.698	3268.34367
852.881	3011.18369
853.065	3325.22297
853.248	2945.8026
853.431	3200.91524
853.615	2958.45813
853.798	3192.48549
853.982	2918.38047
854.165	3036.48859
854.348	2918.38047
854.532	3262.02298
854.715	2871.96817
854.898	3276.77102
855.081	2933.14654
855.265	3011.18369
855.448	2823.43886
855.631	3044.92307
855.814	3051.24876
855.997	3243.06001
856.181	2880.40729
856.364	2973.22223
856.547	2787.56462
856.73	2998.53042
856.913	2762.23926
857.096	3226.2029
857.279	2817.1084
857.462	3234.63159
857.645	2796.00598
857.828	3047.03165
858.011	2770.68126
858.194	2973.22223
858.377	2745.35461
858.56	3074.44177
858.743	2532.11549
858.926	2785.45425
859.109	2508.88397
859.292	2603.91303
859.475	2610.24744
859.658	2781.23347
859.841	2568.01597
860.023	2715.80442
860.206	2415.94441
860.389	2557.45736
860.572	2297.62839
860.755	2652.47402
860.937	2502.54787
861.12	2648.25159
861.303	2612.35889
861.486	2755.90761
861.668	2519.44393
861.851	2451.85539
862.034	2409.60686
862.216	2603.91303
862.399	2344.11341
862.581	2627.13867
862.764	2382.14306
862.947	2468.75359
863.129	2403.26922
863.312	2384.25572
863.494	2424.39433
863.677	2654.58522
863.859	2301.85449
864.042	2234.23239
864.224	2356.79032
864.406	2584.90914
864.589	2162.37399
864.771	2348.33909
864.954	2255.3653
865.136	2339.8877
865.318	2265.93142
865.501	2352.56473
865.683	2215.21201
865.865	2373.69231
866.048	2196.19093
866.23	2331.43614
866.412	2082.05056
866.594	2339.8877
866.777	2149.69209
866.959	2310.30659
867.141	2223.6656
867.323	2430.73166
867.505	2077.8227
867.687	2145.46473
867.869	2101.07553
868.052	2166.60122
868.234	1993.25977
868.416	2306.08056
868.598	2094.73394
868.78	2082.05056
868.962	2358.90311
869.144	2265.93142
869.326	2156.03307
869.508	2137.00991
869.69	2027.08625
869.872	2204.64483
870.054	1984.80289
870.236	2358.90311
870.417	2128.55496
870.599	2348.33909
870.781	2170.82842
870.963	2377.91771
871.145	2175.05559
871.327	2284.94985
871.508	1993.25977
871.69	2162.37399
871.872	2022.85804
872.054	2132.78245
872.235	1976.34591
872.417	2075.70877
872.599	1910.80105
872.78	2088.39228
872.962	2109.53087
873.144	2060.911
873.325	1970.00311
873.507	2187.73689
873.689	2113.7585
873.87	2276.49731
874.052	2149.69209
874.233	2147.57841
874.415	1929.83078
874.596	2094.73394
874.778	1917.14434
874.959	2069.36691
875.141	1836.79247
875.322	2162.37399
875.503	1769.12244
875.685	2094.73394
875.866	1889.65638
876.048	1900.22878
876.229	1950.97438
876.41	2014.40152
876.592	1879.08385
876.773	2115.87231
876.954	1621.08147
877.136	1910.80105
877.317	1752.20428
877.498	2003.83073
877.679	1843.1363
877.86	1860.05297
878.042	1798.72862
878.223	1995.37398
878.404	1754.31906
878.585	2067.25295
878.766	1680.29961
878.947	2067.25295
879.128	1955.20303
879.309	1959.43165
879.49	1752.20428
879.672	2088.39228
879.853	1800.84331
880.034	2010.17322
880.215	1980.57441
880.396	2221.55221
880.576	1929.83078
880.757	2003.83073
880.938	1815.64606
881.119	2035.54261
881.3	1868.51119
881.481	2103.18938
881.662	1986.91712
881.843	2086.27838
882.023	1807.18737
882.204	1984.80289
882.385	2014.40152
882.566	2048.22693
882.747	1851.59467
882.927	2031.31444
883.108	1950.97438
883.289	2141.23733
883.469	1927.71639
883.65	1993.25977
883.831	1900.22878
884.011	2153.91942
884.192	1925.60199
884.373	2128.55496
884.553	1986.91712
884.734	2120.09989
884.914	1984.80289
885.095	2204.64483
885.275	2048.22693
885.456	2268.04461
885.636	2039.77074
885.817	2223.6656
885.997	2079.93663
886.178	2325.09738
886.358	2056.68301
886.538	2179.28272
886.719	2065.13897
886.899	2185.62336
887.08	2111.64469
887.26	2230.0057
887.44	2014.40152
887.621	2274.38415
887.801	1895.99984
887.981	2234.23239
888.161	2111.64469
888.342	2086.27838
888.522	2090.50617
888.702	2077.8227
888.882	2094.73394
889.062	2090.50617
889.242	1912.91549
889.423	2107.41705
889.603	1815.64606
889.783	2086.27838
889.963	1965.77454
890.143	2170.82842
890.323	1995.37398
890.503	2426.50679
890.683	1959.43165
890.863	2227.89234
891.043	1921.37318
891.223	2043.99885
891.403	1895.99984
891.583	1893.88536
891.763	1986.91712
891.943	2063.02499
892.122	1984.80289
892.302	2079.93663
892.482	1984.80289
892.662	2056.68301
892.842	1938.28829
893.022	2039.77074
893.201	1912.91549
893.381	2111.64469
893.561	1917.14434
893.741	1944.63136
893.92	1809.30205
894.1	1929.83078
894.28	1781.8109
894.459	1874.8548
894.639	1807.18737
894.819	1883.31288
894.998	1845.2509
895.178	1777.58143
895.357	1724.71177
895.537	1876.96933
895.716	1792.3845
895.896	1925.60199
896.075	1692.98893
896.255	1764.89292
896.434	1673.9549
896.614	1936.17392
896.793	1595.70173
896.973	1786.04035
897.152	1654.92065
897.331	1781.8109
897.511	1760.66339
897.69	1910.80105
897.87	1682.4145
898.049	1682.4145
898.228	1638.00113
898.407	1786.04035
898.587	1563.97668
898.766	1775.46669
898.945	1629.54132
899.124	1707.79301
899.304	1485.72039
899.483	1714.13757
899.662	1384.19805
899.841	1650.69078
900.02	1390.54317
900.199	1606.27666
900.378	1384.19805
900.557	1534.36635
900.737	1424.3839
900.916	1504.75582
901.095	1282.67779
901.274	1445.53442
901.453	1346.12754
901.632	1458.22473
901.811	1515.33103
901.989	1401.11838
902.168	1149.44094
902.347	1536.48138
902.526	1295.3676
902.705	1511.10094
902.884	1401.11838
903.063	1390.54317
903.242	1409.57856
903.42	1492.06554
903.599	1242.49396
903.778	1430.72906
903.957	1189.62209
904.135	1379.96798
904.314	1217.11521
904.493	1316.51745
904.672	1073.31252
904.85	1208.65573
905.029	1117.72003
905.207	1117.72003
905.386	1066.96877
905.565	1172.70354
905.743	1014.10618
905.922	1088.11478
906.1	891.48064
906.279	1117.72003
906.457	999.30532
906.636	1210.77059
906.814	944.33353
906.993	978.16178
907.171	1014.10618
907.35	980.27611
907.528	851.31577
907.707	1014.10618
907.885	952.79042
908.063	954.90467
908.242	825.95009
908.42	999.30532
908.598	874.56875
908.777	980.27611
908.955	855.54351
909.133	906.27896
909.311	726.61431
909.49	927.42009
909.668	703.36879
909.846	914.73532
910.024	726.61431
910.202	863.99908
910.38	597.72496
910.559	872.4548
910.737	878.79667
910.915	897.82273
911.093	828.06384
911.271	961.24743
911.449	834.40517
911.627	1033.1363
911.805	844.97423
911.983	918.96355
912.161	935.87675
912.339	982.39044
912.517	792.13122
912.695	969.70455
912.872	984.50478
913.05	1024.67841
913.228	893.59466
913.406	1011.99175
913.584	918.96355
913.762	906.27896
913.939	853.42963
914.117	969.70455
914.295	853.42963
914.473	1024.67841
914.65	940.10513
914.828	978.16178
915.006	906.27896
915.184	925.30594
915.361	918.96355
915.539	935.87675
915.716	794.24483
915.894	897.82273
916.072	754.08795
916.249	918.96355
916.427	775.2227
916.604	978.16178
916.782	785.79045
916.959	921.07767
917.137	872.4548
917.314	957.01892
917.492	897.82273
917.669	914.73532
917.847	802.69936
918.024	792.13122
918.201	665.33358
918.379	889.36662
918.556	783.67688
918.733	927.42009
918.911	732.95422
919.088	707.59515
919.265	724.50103
919.442	785.79045
919.62	629.41493
919.797	859.77128
919.974	785.79045
920.151	768.88217
920.328	779.44977
920.506	792.13122
920.683	728.7276
920.86	665.33358
921.037	479.44231
921.214	591.3873
921.391	585.04977
921.568	614.62592
921.745	711.82155
921.922	790.01762
922.099	580.82481
922.276	745.63433
922.453	654.76892
922.63	601.95012
922.807	591.3873
922.984	614.62592
923.161	620.96399
923.338	675.89855
923.514	555.47618
923.691	589.27478
923.868	625.18944
924.045	625.18944
924.222	578.71235
924.399	673.78553
924.575	477.33052
924.752	631.5277
924.929	566.03788
925.105	589.27478
925.282	416.09547
925.459	479.44231
925.635	572.37505
925.812	637.86606
925.989	490.00145
926.165	521.68107
926.342	470.99526
926.518	536.46599
926.695	462.54846
926.871	382.31634
927.048	496.33711
927.224	441.43252
927.401	394.98302
927.577	380.20529
927.754	371.76124
927.93	346.43071
928.107	359.09566
928.283	458.32515
928.459	422.42952
928.636	331.65572
928.812	363.31745
928.988	394.98302
929.165	361.20655
929.341	399.20538
929.517	270.45441
929.693	456.21352
929.87	354.87394
930.046	356.9848
930.222	310.5501
930.398	386.5385
930.574	281.00526
930.751	297.88759
930.927	272.56455
931.103	454.1019
931.279	361.20655
931.455	325.32385
931.631	344.31995
931.807	278.89506
931.983	281.00526
932.159	274.6747
932.335	304.21876
932.511	352.76311
932.687	331.65572
932.863	285.22573
933.039	331.65572
933.215	245.1343
933.391	179.73703
933.566	335.87706
933.742	274.6747
933.918	331.65572
934.094	259.90403
934.27	295.77723
934.445	270.45441
934.621	238.8047
934.797	213.48807
934.973	192.39306
935.148	202.94032
935.324	183.95562
935.5	116.46812
935.675	152.31817
935.851	264.12413
936.027	200.83082
936.202	160.75436
936.378	198.72135
936.553	179.73703
936.729	127.01161
936.904	175.51851
937.08	158.64528
937.255	141.77339
937.431	124.90287
937.606	141.77339
937.782	63.75895
937.957	143.8823
938.133	243.02442
938.308	82.73264
938.483	129.12037
938.659	67.97517
938.834	127.01161
939.009	112.25088
939.185	65.86705
939.36	59.54283
939.535	27.92483
939.71	49.00291
939.886	49.00291
940.061	91.16598
940.236	89.05761
940.411	21.60186
940.586	46.895
940.761	8.95656
940.937	110.14229
941.112	57.4348
941.287	112.25088
941.462	103.81665
941.637	25.81715
941.812	23.70949
941.987	42.67924
942.162	55.32679
942.337	65.86705
942.512	17.38667
942.687	44.78711
942.862	67.97517
943.037	53.21881
943.212	82.73264
943.386	59.54283
943.561	4.74166
943.736	23.70949
943.911	51.11085
944.086	27.92483
944.26	40.5714
944.435	42.67924
944.61	11.06405
944.785	59.54283
944.959	40.5714
945.134	17.38667
945.309	57.4348
945.483	86.94927
945.658	-16.33143
945.833	91.16598
946.007	57.4348
946.182	103.81665
946.357	116.46812
946.531	-10.00976
946.706	34.24801
946.88	91.16598
947.055	82.73264
947.229	8.95656
947.404	51.11085
947.578	150.20917
947.752	32.14026
947.927	-26.86706
948.101	116.46812
948.276	116.46812
948.45	59.54283
948.624	112.25088
948.799	32.14026
948.973	110.14229
949.147	78.51611
949.321	99.59967
949.496	57.4348
949.67	65.86705
949.844	57.4348
950.018	82.73264
950.193	141.77339
950.367	8.95656
950.541	6.8491
950.715	76.40788
950.889	-18.43861
951.063	82.73264
951.237	116.46812
951.411	95.38278
951.585	-18.43861
951.759	82.73264
951.933	154.42718
952.107	124.90287
952.281	110.14229
952.455	40.5714
952.629	70.08331
952.803	133.33796
952.977	67.97517
953.151	89.05761
953.325	91.16598
953.499	11.06405
953.672	93.27437
953.846	133.33796
954.02	137.55563
954.194	95.38278
954.368	32.14026
954.541	97.49122
954.715	112.25088
954.889	51.11085
955.062	116.46812
955.236	78.51611
955.41	86.94927
955.583	139.6645
955.757	61.65088
955.93	42.67924
956.104	103.81665
956.278	137.55563
956.451	-47.93647
956.625	112.25088
956.798	27.92483
956.972	74.29967
957.145	-20.54576
957.319	49.00291
957.492	65.86705
957.665	91.16598
957.839	63.75895
958.012	23.70949
958.185	141.77339
958.359	13.17157
958.532	103.81665
958.705	99.59967
958.879	116.46812
959.052	-22.65289
959.225	19.49425
959.398	40.5714
959.572	19.49425
959.745	95.38278
959.918	99.59967
960.091	118.57677
960.264	129.12037
960.438	51.11085
960.611	91.16598
960.784	-5.79519
960.957	118.57677
961.13	99.59967
961.303	82.73264
961.476	112.25088
961.649	-1.58052
961.822	101.70815
961.995	91.16598
962.168	110.14229
962.341	59.54283
962.514	36.35578
962.686	25.81715
962.859	49.00291
963.032	74.29967
963.205	78.51611
963.378	110.14229
963.551	93.27437
963.723	114.35949
963.896	42.67924
964.069	76.40788
964.242	-18.43861
964.414	86.94927
964.587	51.11085
964.76	8.95656
964.932	53.21881
965.105	91.16598
965.278	59.54283
965.45	23.70949
965.623	145.99124
965.795	103.81665
965.968	65.86705
966.14	97.49122
966.313	57.4348
966.485	42.67924
966.658	137.55563
966.83	82.73264
967.003	-1.58052
967.175	30.03253
967.348	93.27437
967.52	21.60186
967.692	80.62436
967.865	53.21881
968.037	11.06405
968.209	97.49122
968.382	27.92483
968.554	70.08331
968.726	67.97517
968.898	67.97517
969.071	44.78711
969.243	-22.65289
969.415	67.97517
969.587	95.38278
969.759	91.16598
969.932	103.81665
970.104	91.16598
970.276	-20.54576
970.448	61.65088
970.62	76.40788
970.792	76.40788
970.964	2.63424
971.136	99.59967
971.308	49.00291
971.48	49.00291
971.652	34.24801
971.824	23.70949
971.996	78.51611
972.168	40.5714
972.339	36.35578
972.511	65.86705
972.683	76.40788
972.855	99.59967
973.027	40.5714
973.199	8.95656
973.37	32.14026
973.542	32.14026
973.714	34.24801
973.886	-16.33143
974.057	42.67924
974.229	23.70949
974.401	21.60186
974.572	49.00291
974.744	17.38667
974.915	23.70949
975.087	17.38667
975.259	8.95656
975.43	11.06405
975.602	95.38278
975.773	65.86705
975.945	23.70949
976.116	-24.75999
976.288	36.35578
976.459	15.2791
976.63	46.895
976.802	17.38667
976.973	6.8491
977.145	59.54283
977.316	49.00291
977.487	118.57677
977.659	2.63424
977.83	23.70949
978.001	53.21881
978.172	-10.00976
978.344	99.59967
978.515	74.29967
978.686	25.81715
978.857	86.94927
979.028	65.86705
979.2	51.11085
979.371	46.895
979.542	42.67924
979.713	17.38667
979.884	42.67924
980.055	-43.72279
980.226	8.95656
980.397	57.4348
980.568	86.94927
980.739	2.63424
980.91	-50.04327
981.081	15.2791
981.252	32.14026
981.423	76.40788
981.594	91.16598
981.765	82.73264
981.936	-26.86706
982.106	0.52684
982.277	34.24801
982.448	25.81715
982.619	46.895
982.79	76.40788
982.96	112.25088
983.131	40.5714
983.302	42.67924
983.472	99.59967
983.643	0.52684
983.814	21.60186
983.984	51.11085
984.155	67.97517
984.326	-16.33143
984.496	-35.29512
984.667	27.92483
984.837	46.895
985.008	49.00291
985.178	6.8491
985.349	-1.58052
985.519	59.54283
985.69	17.38667
985.86	0.52684
986.031	-1.58052
986.201	32.14026
986.371	82.73264
986.542	95.38278
986.712	110.14229
986.882	23.70949
987.053	23.70949
987.223	82.73264
987.393	27.92483
987.563	108.03372
987.734	78.51611
987.904	93.27437
988.074	36.35578
988.244	36.35578
988.414	15.2791
988.585	27.92483
988.755	27.92483
988.925	27.92483
989.095	72.19148
989.265	-35.29512
989.435	-18.43861
989.605	21.60186
989.775	40.5714
989.945	2.63424
990.115	53.21881
990.285	11.06405
990.455	0.52684
990.625	-10.00976
990.795	36.35578
990.965	59.54283
991.134	0.52684
991.304	6.8491
991.474	61.65088
991.644	6.8491
991.814	-18.43861
991.984	30.03253
992.153	-14.22423
992.323	-39.50901
992.493	49.00291
992.662	63.75895
992.832	70.08331
993.002	38.46358
993.171	74.29967
993.341	15.2791
993.511	49.00291
993.68	59.54283
993.85	38.46358
994.019	40.5714
994.189	8.95656
994.358	72.19148
994.528	17.38667
994.697	-22.65289
994.867	57.4348
995.036	44.78711
995.206	70.08331
995.375	11.06405
995.544	40.5714
995.714	44.78711
995.883	-1.58052
996.052	34.24801
996.222	6.8491
996.391	40.5714
996.56	11.06405
996.73	32.14026
996.899	40.5714
997.068	34.24801
997.237	-18.43861
997.406	82.73264
997.576	46.895
997.745	-10.00976
997.914	15.2791
998.083	74.29967
998.252	27.92483
998.421	59.54283
998.59	61.65088
998.759	15.2791
998.928	30.03253
999.097	99.59967
999.266	2.63424
999.435	57.4348
999.604	-5.79519
999.773	-1.58052
999.942	82.73264
1000.111	40.5714
1000.28	-10.00976
1000.448	23.70949
1000.617	129.12037
1000.786	91.16598
1000.955	6.8491
1001.124	49.00291
1001.292	0.52684
1001.461	51.11085
1001.63	15.2791
1001.798	32.14026
1001.967	53.21881
1002.136	61.65088
1002.304	25.81715
1002.473	67.97517
1002.642	-5.79519
1002.81	-43.72279
1002.979	32.14026
1003.147	19.49425
1003.316	17.38667
1003.484	46.895
1003.653	80.62436
1003.821	-33.18815
1003.99	112.25088
1004.158	-10.00976
1004.327	-1.58052
1004.495	-14.22423
1004.663	11.06405
1004.832	4.74166
1005	53.21881
1005.168	-22.65289
1005.337	23.70949
1005.505	-54.2568
1005.673	57.4348
1005.842	34.24801
1006.01	42.67924
1006.178	-16.33143
1006.346	91.16598
1006.514	110.14229
1006.683	57.4348
1006.851	17.38667
1007.019	6.8491
1007.187	11.06405
1007.355	59.54283
1007.523	17.38667
1007.691	57.4348
1007.859	-10.00976
1008.027	67.97517
1008.195	59.54283
1008.363	19.49425
1008.531	-3.68787
1008.699	82.73264
1008.867	38.46358
1009.035	-10.00976
1009.203	32.14026
1009.37	-58.47023
1009.538	74.29967
1009.706	40.5714
1009.874	15.2791
1010.042	-14.22423
1010.209	32.14026
1010.377	6.8491
1010.545	-33.18815
1010.713	-7.90249
1010.88	25.81715
1011.048	-43.72279
1011.216	65.86705
1011.383	-64.79019
1011.551	0.52684
1011.718	49.00291
1011.886	30.03253
1012.054	57.4348
1012.221	23.70949
1012.389	15.2791
1012.556	6.8491
1012.724	25.81715
1012.891	32.14026
1013.058	-1.58052
1013.226	23.70949
1013.393	27.92483
1013.561	17.38667
1013.728	-7.90249
1013.895	19.49425
1014.063	23.70949
1014.23	23.70949
1014.397	99.59967
1014.565	-7.90249
1014.732	-58.47023
1014.899	2.63424
1015.066	19.49425
1015.233	40.5714
1015.401	27.92483
1015.568	49.00291
1015.735	21.60186
1015.902	42.67924
1016.069	0.52684
1016.236	70.08331
1016.403	-39.50901
1016.57	-26.86706
1016.737	6.8491
1016.904	67.97517
1017.071	8.95656
1017.238	0.52684
1017.405	-16.33143
1017.572	42.67924
1017.739	6.8491
1017.906	-16.33143
1018.073	15.2791
1018.24	32.14026
1018.407	6.8491
1018.573	-26.86706
1018.74	25.81715
1018.907	-22.65289
1019.074	36.35578
1019.241	53.21881
1019.407	53.21881
1019.574	8.95656
1019.741	-18.43861
1019.907	11.06405
1020.074	84.84094
1020.241	-24.75999
1020.407	57.4348
1020.574	-10.00976
1020.74	25.81715
1020.907	-18.43861
1021.073	0.52684
1021.24	-1.58052
1021.406	30.03253
1021.573	2.63424
1021.739	-20.54576
1021.906	-10.00976
1022.072	51.11085
1022.239	-43.72279
1022.405	40.5714
1022.571	78.51611
1022.738	2.63424
1022.904	-33.18815
1023.07	-7.90249
1023.237	40.5714
1023.403	27.92483
1023.569	-52.15005
1023.735	23.70949
1023.902	8.95656
1024.068	8.95656
1024.234	21.60186
1024.4	-47.93647
1024.566	76.40788
1024.732	57.4348
1024.898	0.52684
1025.065	61.65088
1025.231	19.49425
1025.397	15.2791
1025.563	32.14026
1025.729	99.59967
1025.895	-56.36353
1026.061	15.2791
1026.227	2.63424
1026.392	0.52684
1026.558	127.01161
1026.724	11.06405
1026.89	27.92483
1027.056	-22.65289
1027.222	0.52684
1027.388	15.2791
1027.553	-33.18815
1027.719	-1.58052
1027.885	67.97517
1028.051	46.895
1028.216	-52.15005
1028.382	-41.61591
1028.548	49.00291
1028.713	-69.00336
1028.879	-22.65289
1029.045	59.54283
1029.21	49.00291
1029.376	-1.58052
1029.541	91.16598
1029.707	84.84094
1029.873	32.14026
1030.038	19.49425
1030.204	42.67924
1030.369	8.95656
1030.534	0.52684
1030.7	44.78711
1030.865	21.60186
1031.031	40.5714
1031.196	23.70949
1031.361	-20.54576
1031.527	49.00291
1031.692	17.38667
1031.857	32.14026
1032.023	11.06405
1032.188	46.895
1032.353	25.81715
1032.518	11.06405
1032.684	6.8491
1032.849	-60.57691
1033.014	34.24801
1033.179	-10.00976
1033.344	40.5714
1033.509	21.60186
1033.674	-71.10991
1033.839	-18.43861
1034.004	-1.58052
1034.17	-7.90249
1034.335	-18.43861
1034.5	17.38667
1034.664	-10.00976
1034.829	23.70949
1034.994	19.49425
1035.159	-14.22423
1035.324	-1.58052
1035.489	11.06405
1035.654	-31.08114
1035.819	11.06405
1035.984	-18.43861
1036.148	-10.00976
1036.313	0.52684
1036.478	27.92483
1036.643	23.70949
1036.807	17.38667
1036.972	-26.86706
1037.137	61.65088
1037.301	32.14026
1037.466	15.2791
1037.631	49.00291
1037.795	19.49425
1037.96	0.52684
1038.124	4.74166
1038.289	-16.33143
1038.454	84.84094
1038.618	63.75895
1038.783	36.35578
1038.947	40.5714
1039.111	49.00291
1039.276	44.78711
1039.44	-7.90249
1039.605	-56.36353
1039.769	65.86705
1039.933	8.95656
1040.098	63.75895
1040.262	6.8491
1040.426	6.8491
1040.591	17.38667
1040.755	6.8491
1040.919	6.8491
1041.083	-14.22423
1041.248	2.63424
1041.412	25.81715
1041.576	61.65088
1041.74	-50.04327
1041.904	65.86705
1042.068	46.895
1042.232	-26.86706
1042.397	-7.90249
1042.561	51.11085
1042.725	2.63424
1042.889	-16.33143
1043.053	-26.86706
1043.217	-10.00976
1043.381	19.49425
1043.544	74.29967
1043.708	-5.79519
1043.872	25.81715
1044.036	2.63424
1044.2	17.38667
1044.364	34.24801
1044.528	-22.65289
1044.691	-43.72279
1044.855	27.92483
1045.019	-10.00976
1045.183	15.2791
1045.346	34.24801
1045.51	53.21881
1045.674	-1.58052
1045.837	19.49425
1046.001	-56.36353
1046.165	42.67924
1046.328	-18.43861
1046.492	25.81715
1046.655	-7.90249
1046.819	-47.93647
1046.983	23.70949
1047.146	-26.86706
1047.31	-24.75999
1047.473	21.60186
1047.636	-24.75999
1047.8	-12.11701
1047.963	15.2791
1048.127	13.17157
1048.29	-10.00976
