Data from mixed_try1_USB4F045381__9__00031.txt Node

Date: Thu Apr 03 19:32:53 EDT 2025
User: mmckonesweet
Spectrometer: USB4F04538
Trigger mode: 4
Integration Time (sec): 2.700000E-3
Scans to average: 1
Electric dark correction enabled: true
Nonlinearity correction enabled: true
Boxcar width: 0
XAxis mode: Wavelengths
Number of Pixels in Spectrum: 3648
>>>>>Begin Spectral Data<<<<<
345.52	-23.00407
345.736	-23.00407
345.952	-23.00407
346.168	-58.82135
346.384	-25.11117
346.6	-16.68263
346.816	-65.14129
347.032	-12.46822
347.248	36.00449
347.464	-8.2537
347.68	17.0354
347.896	12.82031
348.112	-16.68263
348.328	42.32793
348.544	0.17561
348.76	-6.14641
348.975	17.0354
349.191	48.65159
349.407	17.0354
349.623	69.73195
349.839	-41.96706
350.055	-16.68263
350.27	29.68125
350.486	-8.2537
350.702	-31.43231
350.918	-14.57544
351.133	0.17561
351.349	-54.60793
351.565	-37.75323
351.781	44.4358
351.996	-37.75323
352.212	10.7128
352.428	-20.89695
352.644	-33.53931
352.859	-52.50118
353.075	-4.03909
353.291	-46.18078
353.506	-39.86016
353.722	126.66015
353.938	61.29953
354.153	0.17561
354.369	-16.68263
354.584	-48.28761
354.8	-4.03909
355.016	-12.46822
355.231	-84.09974
355.447	-39.86016
355.662	-12.46822
355.878	-1.93175
356.093	8.60532
356.309	-39.86016
356.524	44.4358
356.74	42.32793
356.955	-29.32529
357.171	-4.03909
357.386	17.0354
357.602	-56.71465
357.817	25.46587
358.033	48.65159
358.248	8.60532
358.464	25.46587
358.679	50.75953
358.895	19.14299
359.11	-8.2537
359.325	-81.99334
359.541	-16.68263
359.756	71.84011
359.972	-71.461
360.187	36.00449
360.402	-63.03467
360.618	-39.86016
360.833	-33.53931
361.048	-37.75323
361.264	-33.53931
361.479	46.54368
361.694	0.17561
361.909	-60.92802
362.125	-73.56752
362.34	52.86748
362.555	-41.96706
362.77	-50.3944
362.986	-20.89695
363.201	-16.68263
363.416	-113.58648
363.631	10.7128
363.847	-37.75323
364.062	-50.3944
364.277	-16.68263
364.492	-12.46822
364.707	25.46587
364.922	0.17561
365.138	-115.69247
365.353	-16.68263
365.568	-73.56752
365.783	84.48956
365.998	54.97546
366.213	25.46587
366.428	-14.57544
366.643	27.57355
366.858	25.46587
367.073	14.92785
367.288	-27.21824
367.503	0.17561
367.718	29.68125
367.933	36.00449
368.148	-12.46822
368.363	0.17561
368.578	-23.00407
368.793	86.59788
369.008	50.75953
369.223	-29.32529
369.438	29.68125
369.653	29.68125
369.868	40.22009
370.083	-12.46822
370.298	-56.71465
370.513	42.32793
370.728	-50.3944
370.943	0.17561
371.157	50.75953
371.372	33.89672
371.587	-31.43231
371.802	0.17561
372.017	-16.68263
372.232	-37.75323
372.446	4.39042
372.661	46.54368
372.876	25.46587
373.091	21.25059
373.306	0.17561
373.52	10.7128
373.735	-20.89695
373.95	17.0354
374.165	38.11228
374.379	2.283
374.594	-33.53931
374.809	54.97546
375.023	-8.2537
375.238	-37.75323
375.453	-98.84375
375.667	8.60532
375.882	38.11228
376.097	-39.86016
376.311	29.68125
376.526	-50.3944
376.741	-39.86016
376.955	-39.86016
377.17	-50.3944
377.384	-20.89695
377.599	-56.71465
377.813	76.05651
378.028	73.9483
378.242	0.17561
378.457	25.46587
378.672	-6.14641
378.886	21.25059
379.101	-33.53931
379.315	-23.00407
379.53	-33.53931
379.744	42.32793
379.958	38.11228
380.173	-25.11117
380.387	4.39042
380.602	6.49786
380.816	0.17561
381.031	-63.03467
381.245	4.39042
381.459	38.11228
381.674	-33.53931
381.888	19.14299
382.103	63.4076
382.317	-12.46822
382.531	44.4358
382.746	-16.68263
382.96	12.82031
383.174	8.60532
383.388	-20.89695
383.603	-16.68263
383.817	2.283
384.031	8.60532
384.246	52.86748
384.46	29.68125
384.674	8.60532
384.888	67.62381
385.103	0.17561
385.317	-16.68263
385.531	21.25059
385.745	21.25059
385.959	33.89672
386.174	17.0354
386.388	-33.53931
386.602	-46.18078
386.816	-39.86016
387.03	2.283
387.244	-25.11117
387.458	31.78897
387.672	-35.64629
387.887	-65.14129
388.101	57.08346
388.315	4.39042
388.529	63.4076
388.743	-6.14641
388.957	38.11228
389.171	-31.43231
389.385	-14.57544
389.599	-16.68263
389.813	-35.64629
390.027	-14.57544
390.241	17.0354
390.455	-23.00407
390.669	8.60532
390.883	-25.11117
391.097	0.17561
391.311	0.17561
391.525	33.89672
391.738	31.78897
391.952	-79.88693
392.166	19.14299
392.38	46.54368
392.594	10.7128
392.808	105.57375
393.022	17.0354
393.236	19.14299
393.449	44.4358
393.663	-12.46822
393.877	-10.36097
394.091	50.75953
394.305	-58.82135
394.518	52.86748
394.732	-65.14129
394.946	-31.43231
395.16	-60.92802
395.373	8.60532
395.587	-33.53931
395.801	8.60532
396.015	33.89672
396.228	21.25059
396.442	33.89672
396.656	-75.67402
396.869	-67.24789
397.083	-20.89695
397.297	-84.09974
397.51	-18.7898
397.724	-33.53931
397.938	4.39042
398.151	-25.11117
398.365	-37.75323
398.578	4.39042
398.792	0.17561
399.005	8.60532
399.219	0.17561
399.433	21.25059
399.646	-25.11117
399.86	12.82031
400.073	-8.2537
400.287	-25.11117
400.5	-54.60793
400.714	-33.53931
400.927	-25.11117
401.141	6.49786
401.354	8.60532
401.567	-4.03909
401.781	-31.43231
401.994	-25.11117
402.208	21.25059
402.421	-8.2537
402.635	12.82031
402.848	19.14299
403.061	8.60532
403.275	-63.03467
403.488	0.17561
403.701	-37.75323
403.915	27.57355
404.128	19.14299
404.341	-69.35446
404.555	21.25059
404.768	-18.7898
404.981	14.92785
405.195	36.00449
405.408	0.17561
405.621	-41.96706
405.834	82.38126
406.048	42.32793
406.261	23.35822
406.474	27.57355
406.687	-33.53931
406.9	25.46587
407.114	-67.24789
407.327	25.46587
407.54	-6.14641
407.753	-6.14641
407.966	25.46587
408.179	21.25059
408.392	-50.3944
408.605	-50.3944
408.819	12.82031
409.032	-35.64629
409.245	42.32793
409.458	-20.89695
409.671	54.97546
409.884	27.57355
410.097	52.86748
410.31	40.22009
410.523	42.32793
410.736	8.60532
410.949	0.17561
411.162	84.48956
411.375	-39.86016
411.588	-65.14129
411.801	4.39042
412.014	8.60532
412.227	19.14299
412.44	-41.96706
412.653	-1.93175
412.865	0.17561
413.078	-54.60793
413.291	-23.00407
413.504	-4.03909
413.717	17.0354
413.93	-37.75323
414.143	17.0354
414.356	17.0354
414.568	2.283
414.781	-31.43231
414.994	-39.86016
415.207	-25.11117
415.42	-58.82135
415.632	0.17561
415.845	27.57355
416.058	33.89672
416.271	4.39042
416.483	17.0354
416.696	12.82031
416.909	17.0354
417.121	-39.86016
417.334	6.49786
417.547	-33.53931
417.759	-8.2537
417.972	-23.00407
418.185	0.17561
418.397	8.60532
418.61	8.60532
418.823	6.49786
419.035	-52.50118
419.248	6.49786
419.46	42.32793
419.673	14.92785
419.885	29.68125
420.098	63.4076
420.311	-31.43231
420.523	44.4358
420.736	-6.14641
420.948	27.57355
421.161	8.60532
421.373	84.48956
421.586	-50.3944
421.798	-8.2537
422.01	-8.2537
422.223	82.38126
422.435	-25.11117
422.648	50.75953
422.86	-44.07393
423.073	8.60532
423.285	42.32793
423.497	-23.00407
423.71	10.7128
423.922	-16.68263
424.134	-8.2537
424.347	69.73195
424.559	27.57355
424.771	10.7128
424.984	14.92785
425.196	-33.53931
425.408	-16.68263
425.621	-31.43231
425.833	-60.92802
426.045	17.0354
426.257	0.17561
426.47	-4.03909
426.682	42.32793
426.894	-52.50118
427.106	-16.68263
427.318	-27.21824
427.531	8.60532
427.743	-4.03909
427.955	59.19149
428.167	-33.53931
428.379	10.7128
428.591	0.17561
428.804	38.11228
429.016	42.32793
429.228	8.60532
429.44	-8.2537
429.652	-63.03467
429.864	8.60532
430.076	-23.00407
430.288	8.60532
430.5	6.49786
430.712	-6.14641
430.924	25.46587
431.136	8.60532
431.348	-75.67402
431.56	-46.18078
431.772	92.92297
431.984	-8.2537
432.196	21.25059
432.408	-8.2537
432.62	-46.18078
432.832	-6.14641
433.044	-6.14641
433.256	-18.7898
433.468	-33.53931
433.679	84.48956
433.891	17.0354
434.103	12.82031
434.315	-12.46822
434.527	-10.36097
434.739	-48.28761
434.95	95.03138
435.162	-12.46822
435.374	4.39042
435.586	-10.36097
435.798	-23.00407
436.009	63.4076
436.221	-14.57544
436.433	-6.14641
436.645	-4.03909
436.856	-16.68263
437.068	-6.14641
437.28	10.7128
437.491	76.05651
437.703	-67.24789
437.915	-8.2537
438.126	-71.461
438.338	25.46587
438.55	-18.7898
438.761	-41.96706
438.973	-31.43231
439.184	38.11228
439.396	-27.21824
439.608	33.89672
439.819	-14.57544
440.031	-25.11117
440.242	38.11228
440.454	27.57355
440.665	52.86748
440.877	-23.00407
441.088	25.46587
441.3	12.82031
441.511	17.0354
441.723	8.60532
441.934	-4.03909
442.146	-54.60793
442.357	-12.46822
442.569	-16.68263
442.78	-20.89695
442.991	-46.18078
443.203	25.46587
443.414	4.39042
443.626	40.22009
443.837	17.0354
444.048	21.25059
444.26	-41.96706
444.471	-1.93175
444.682	54.97546
444.894	-33.53931
445.105	12.82031
445.316	-67.24789
445.528	-115.69247
445.739	84.48956
445.95	-6.14641
446.161	-16.68263
446.373	31.78897
446.584	17.0354
446.795	-1.93175
447.006	10.7128
447.217	17.0354
447.429	36.00449
447.64	-56.71465
447.851	-12.46822
448.062	-16.68263
448.273	33.89672
448.484	-25.11117
448.695	0.17561
448.907	0.17561
449.118	-12.46822
449.329	-14.57544
449.54	4.39042
449.751	-39.86016
449.962	27.57355
450.173	78.16474
450.384	46.54368
450.595	38.11228
450.806	8.60532
451.017	8.60532
451.228	-33.53931
451.439	-23.00407
451.65	6.49786
451.861	80.27299
452.072	-6.14641
452.283	36.00449
452.494	69.73195
452.705	-41.96706
452.915	17.0354
453.126	-8.2537
453.337	-46.18078
453.548	12.82031
453.759	-100.94993
453.97	-25.11117
454.181	54.97546
454.391	4.39042
454.602	-81.99334
454.813	-25.11117
455.024	-8.2537
455.235	-25.11117
455.445	-31.43231
455.656	10.7128
455.867	46.54368
456.078	-29.32529
456.288	-23.00407
456.499	-23.00407
456.71	0.17561
456.921	-8.2537
457.131	-50.3944
457.342	52.86748
457.553	21.25059
457.763	27.57355
457.974	-29.32529
458.184	23.35822
458.395	-37.75323
458.606	-10.36097
458.816	42.32793
459.027	-14.57544
459.237	-6.14641
459.448	25.46587
459.659	-12.46822
459.869	8.60532
460.08	17.0354
460.29	52.86748
460.501	84.48956
460.711	17.0354
460.922	-8.2537
461.132	4.39042
461.343	-16.68263
461.553	48.65159
461.764	25.46587
461.974	54.97546
462.184	-33.53931
462.395	33.89672
462.605	8.60532
462.816	4.39042
463.026	-1.93175
463.236	-39.86016
463.447	8.60532
463.657	42.32793
463.867	4.39042
464.078	-73.56752
464.288	0.17561
464.498	-4.03909
464.709	-25.11117
464.919	4.39042
465.129	25.46587
465.339	-4.03909
465.55	118.22533
465.76	6.49786
465.97	48.65159
466.18	-4.03909
466.391	0.17561
466.601	33.89672
466.811	-73.56752
467.021	17.0354
467.231	50.75953
467.441	-33.53931
467.651	-48.28761
467.862	25.46587
468.072	-18.7898
468.282	-41.96706
468.492	17.0354
468.702	0.17561
468.912	-10.36097
469.122	12.82031
469.332	-67.24789
469.542	-16.68263
469.752	33.89672
469.962	59.19149
470.172	42.32793
470.382	10.7128
470.592	63.4076
470.802	14.92785
471.012	-25.11117
471.222	21.25059
471.432	38.11228
471.642	-8.2537
471.852	-6.14641
472.062	80.27299
472.272	2.283
472.482	10.7128
472.691	-8.2537
472.901	19.14299
473.111	-6.14641
473.321	33.89672
473.531	-29.32529
473.741	31.78897
473.95	-25.11117
474.16	-77.78048
474.37	-29.32529
474.58	42.32793
474.79	109.79086
474.999	33.89672
475.209	6.49786
475.419	-4.03909
475.628	84.48956
475.838	2.283
476.048	65.5157
476.258	-4.03909
476.467	-12.46822
476.677	40.22009
476.886	38.11228
477.096	46.54368
477.306	69.73195
477.515	19.14299
477.725	12.82031
477.935	25.46587
478.144	21.25059
478.354	-20.89695
478.563	27.57355
478.773	-4.03909
478.982	-8.2537
479.192	4.39042
479.401	0.17561
479.611	103.46523
479.82	33.89672
480.03	0.17561
480.239	23.35822
480.449	42.32793
480.658	-54.60793
480.868	71.84011
481.077	-8.2537
481.287	10.7128
481.496	-12.46822
481.705	38.11228
481.915	0.17561
482.124	-65.14129
482.333	8.60532
482.543	21.25059
482.752	36.00449
482.961	42.32793
483.171	-8.2537
483.38	71.84011
483.589	59.19149
483.799	38.11228
484.008	-81.99334
484.217	19.14299
484.426	-33.53931
484.636	0.17561
484.845	-14.57544
485.054	21.25059
485.263	-4.03909
485.472	52.86748
485.682	27.57355
485.891	44.4358
486.1	-6.14641
486.309	19.14299
486.518	78.16474
486.727	40.22009
486.936	52.86748
487.146	52.86748
487.355	0.17561
487.564	25.46587
487.773	0.17561
487.982	44.4358
488.191	61.29953
488.4	42.32793
488.609	27.57355
488.818	44.4358
489.027	-23.00407
489.236	33.89672
489.445	46.54368
489.654	92.92297
489.863	25.46587
490.072	-6.14641
490.281	-14.57544
490.49	12.82031
490.698	-16.68263
490.907	10.7128
491.116	50.75953
491.325	19.14299
491.534	90.81458
491.743	76.05651
491.952	44.4358
492.16	90.81458
492.369	78.16474
492.578	33.89672
492.787	67.62381
492.996	19.14299
493.204	0.17561
493.413	42.32793
493.622	69.73195
493.831	19.14299
494.039	65.5157
494.248	17.0354
494.457	12.82031
494.665	44.4358
494.874	25.46587
495.083	61.29953
495.291	137.20416
495.5	19.14299
495.709	46.54368
495.917	109.79086
496.126	25.46587
496.335	67.62381
496.543	80.27299
496.752	-25.11117
496.96	52.86748
497.169	109.79086
497.377	-79.88693
497.586	160.40285
497.794	156.18471
498.003	33.89672
498.211	67.62381
498.42	73.9483
498.628	12.82031
498.837	73.9483
499.045	101.35674
499.254	67.62381
499.462	71.84011
499.671	23.35822
499.879	50.75953
500.087	-4.03909
500.296	111.89944
500.504	84.48956
500.713	135.09531
500.921	135.09531
501.129	36.00449
501.338	59.19149
501.546	80.27299
501.754	130.87769
501.962	-8.2537
502.171	101.35674
502.379	67.62381
502.587	52.86748
502.795	8.60532
503.004	76.05651
503.212	82.38126
503.42	33.89672
503.628	111.89944
503.837	185.7134
504.045	160.40285
504.253	84.48956
504.461	80.27299
504.669	154.07568
504.877	151.96666
505.085	69.73195
505.294	111.89944
505.502	130.87769
505.71	46.54368
505.918	57.08346
506.126	67.62381
506.334	86.59788
506.542	71.84011
506.75	162.51195
506.958	61.29953
507.166	63.4076
507.374	48.65159
507.582	139.31302
507.79	88.70622
507.998	59.19149
508.206	107.68229
508.414	80.27299
508.622	135.09531
508.83	154.07568
509.037	126.66015
509.245	36.00449
509.453	141.42191
509.661	145.63975
509.869	164.62107
510.077	223.68471
510.285	221.57502
510.492	69.73195
510.7	101.35674
510.908	143.53082
511.116	130.87769
511.324	170.94855
511.531	114.00805
511.739	118.22533
511.947	208.91732
512.155	76.05651
512.362	177.27622
512.57	109.79086
512.778	156.18471
512.985	170.94855
513.193	130.87769
513.401	124.55141
513.608	135.09531
513.816	187.82274
514.024	154.07568
514.231	139.31302
514.439	168.83937
514.646	151.96666
514.854	139.31302
515.061	160.40285
515.269	168.83937
515.477	118.22533
515.684	145.63975
515.892	97.13981
516.099	147.7487
516.307	168.83937
516.514	204.69824
516.722	227.90414
516.929	143.53082
517.136	109.79086
517.344	162.51195
517.551	122.44269
517.759	187.82274
517.966	185.7134
518.173	204.69824
518.381	154.07568
518.588	200.47924
518.796	278.54336
519.003	270.10273
519.21	160.40285
519.418	234.23344
519.625	154.07568
519.832	257.44235
520.039	206.80777
520.247	337.63597
520.454	267.99262
520.661	246.89255
520.868	194.1509
521.076	265.88252
521.283	295.42551
521.49	272.21286
521.697	227.90414
521.904	253.22237
522.112	265.88252
522.319	253.22237
522.526	238.45306
522.733	244.78265
522.94	227.90414
523.147	249.00247
523.354	236.34324
523.561	261.6624
523.768	310.19835
523.975	234.23344
524.183	255.33235
524.39	289.09456
524.597	267.99262
524.804	339.74668
525.011	293.31517
525.218	280.65356
525.425	274.323
525.632	356.63299
525.838	320.75093
526.045	293.31517
526.252	346.07892
526.459	339.74668
526.666	346.07892
526.873	324.97208
527.08	305.97745
527.287	362.96564
527.494	337.63597
527.701	409.40968
527.907	320.75093
528.114	409.40968
528.321	413.63227
528.528	409.40968
528.735	396.74233
528.941	388.29776
529.148	343.96815
529.355	398.85351
529.562	392.52001
529.768	339.74668
529.975	341.85741
530.182	426.3004
530.388	308.08789
530.595	512.88085
530.802	510.76883
531.008	449.52678
531.215	451.63837
531.422	424.189
531.628	348.18969
531.835	474.86679
532.042	464.30819
532.248	514.99288
532.455	512.88085
532.661	529.77749
532.868	542.45056
533.074	466.41988
533.281	498.09704
533.487	498.09704
533.694	493.87323
533.9	544.56279
534.107	572.02299
534.313	542.45056
534.52	500.20897
534.726	540.33835
534.933	481.20214
535.139	633.28834
535.345	517.10492
535.552	548.78728
535.758	536.11396
535.965	664.98142
536.171	603.71062
536.377	633.28834
536.584	591.03522
536.79	601.59802
536.996	675.54638
537.203	652.30387
537.409	548.78728
537.615	675.54638
537.821	603.71062
538.028	751.6223
538.234	578.36028
538.44	815.02915
538.646	531.88963
538.853	711.46935
539.059	595.2603
539.265	683.99855
539.471	764.30296
539.677	722.03554
539.883	709.35615
540.09	785.43819
540.296	776.98398
540.502	768.52992
540.708	675.54638
540.914	709.35615
541.12	717.80903
541.326	738.94201
541.532	719.92228
541.738	734.71533
541.944	736.82866
542.15	817.14286
542.356	738.94201
542.562	798.1198
542.768	908.04069
542.974	869.98853
543.18	728.37539
543.386	850.96346
543.592	779.09752
543.798	905.92662
544.004	869.98853
544.21	1001.06731
544.415	910.15478
544.621	992.6098
544.827	869.98853
545.033	956.66654
545.239	800.23344
545.445	1015.86821
545.651	886.90028
545.856	1127.9411
546.062	823.48405
546.268	992.6098
546.474	838.28047
546.679	1058.1581
546.885	963.00932
547.091	1001.06731
547.297	884.78628
547.502	1020.09709
547.708	927.06773
547.914	1017.98265
548.119	982.03805
548.325	1089.87697
548.531	967.23788
548.736	1098.33553
548.942	1066.61634
549.147	1153.318
549.353	1113.1382
549.559	1286.55522
549.764	1115.25289
549.97	1140.62947
550.175	1225.22226
550.381	1161.7771
550.586	1193.49929
550.792	1212.53298
550.997	1091.9916
551.203	1275.98042
551.408	1229.45205
551.614	1206.18839
551.819	1288.67019
552.025	1307.70499
552.23	1250.60115
552.435	1271.75052
552.641	1263.29074
552.846	1352.1201
553.052	1275.98042
553.257	1438.83675
553.462	1284.44026
553.668	1307.70499
553.873	1208.30325
554.078	1508.63339
554.283	1398.65083
554.489	1419.8013
554.694	1318.27995
554.899	1525.55371
555.105	1404.99596
555.31	1466.33243
555.515	1462.10233
555.72	1462.10233
555.925	1379.61547
556.131	1495.94313
556.336	1314.04996
556.541	1534.01385
556.746	1324.62495
556.951	1455.75717
557.156	1292.90013
557.361	1597.46422
557.567	1462.10233
557.772	1548.81904
557.977	1567.85421
558.182	1650.33829
558.387	1510.74844
558.592	1472.67759
558.797	1622.84394
559.002	1599.57921
559.207	1523.43867
559.412	1652.45323
559.617	1629.18883
559.822	1749.73703
560.027	1675.71732
560.232	1800.49086
560.437	1616.49904
560.642	1861.81511
560.847	1597.46422
561.051	1749.73703
561.256	1627.07387
561.461	1758.19616
561.666	1639.76359
561.871	1718.01479
562.076	1703.21081
562.281	1796.26147
562.485	1779.34371
562.69	1956.96496
562.895	1610.15412
563.1	1897.7619
563.305	1701.09595
563.509	1916.79194
563.714	1711.67025
563.919	2094.38162
564.123	1802.60556
564.328	2039.4184
564.533	1847.01306
564.737	1948.50765
564.942	1952.73632
565.147	2098.60936
565.351	1982.33628
565.556	1965.42216
565.761	1940.05026
565.965	2028.848
566.17	1990.79319
566.374	2049.98862
566.579	2014.04916
566.784	2035.19026
566.988	1961.19357
567.193	2174.70332
567.397	2005.59254
567.602	2191.61167
567.806	2081.69824
568.011	2223.31337
568.215	1988.67897
568.42	2244.44674
568.624	1944.27897
568.828	2024.6198
569.033	2020.39156
569.237	2174.70332
569.442	2030.96209
569.646	2178.93046
569.85	2054.21666
570.055	2434.60442
570.259	2130.31642
570.463	2248.67331
570.668	2107.06474
570.872	2485.29906
571.076	2252.89984
571.281	2470.51378
571.485	2282.48454
571.689	2276.14511
571.893	2191.61167
572.098	2316.29339
572.302	2142.99875
572.506	2375.4529
572.71	2271.91878
572.914	2671.1225
573.119	2252.89984
573.323	2521.20389
573.527	2375.4529
573.731	2455.72795
573.935	2293.05007
574.139	2612.00698
574.343	2231.76682
574.547	2595.11505
574.751	2358.55098
574.955	2681.6778
575.159	2415.59233
575.364	2675.34466
575.568	2314.18041
575.772	2597.22659
575.976	2580.33398
576.18	2595.11505
576.383	2343.76127
576.587	2759.77697
576.791	2288.82389
576.995	2650.01094
577.199	2605.6726
577.403	2656.34454
577.607	2590.89195
577.811	2681.6778
578.015	2567.66403
578.219	2639.45469
578.422	2527.53969
578.626	2937.01372
578.83	2578.22235
579.034	2816.7567
579.238	2605.6726
579.442	2726.00656
579.645	2628.89813
579.849	2962.32499
580.053	2856.84752
580.257	2922.24784
580.46	2772.43999
580.664	2899.04286
580.868	2907.48124
581.071	2909.5908
581.275	2738.67086
581.479	3071.982
581.682	2835.74772
581.886	2880.05567
582.09	2865.28705
582.293	3135.22652
582.497	2890.60425
582.7	3002.39675
582.904	3025.5937
583.107	3006.61452
583.311	2974.97982
583.515	2977.0889
583.718	2958.10659
583.922	3156.30484
584.125	2924.3573
584.329	3042.46304
584.532	3084.63204
584.735	2926.46674
584.939	2835.74772
585.142	3257.45795
585.346	3162.62802
585.549	3291.1671
585.753	3105.71419
585.956	3345.93516
586.159	3135.22652
586.363	3312.23311
586.566	3295.38044
586.769	3364.89061
586.973	3232.17325
587.176	3354.35998
587.379	3227.9589
587.582	3299.59371
587.786	3232.17325
587.989	3350.1476
588.192	3390.16234
588.395	3556.47036
588.599	3303.80692
588.802	3533.32034
589.005	3219.53
589.208	3676.39338
589.411	3272.20624
589.615	3455.43586
589.818	3369.10274
590.021	3659.56578
590.224	3432.27625
590.427	3625.90693
590.63	3585.93078
590.833	3716.35404
591.036	3430.17072
591.239	3508.06324
591.442	3400.69148
591.645	3613.28361
591.848	3640.63327
592.051	3716.35404
592.254	3440.69818
592.457	3749.99972
592.66	3632.21833
592.863	3888.73516
593.066	3573.30533
593.269	3558.5748
593.472	3756.30773
593.675	4000.08088
593.878	3901.34318
594.081	3960.17104
594.284	3716.35404
594.486	4044.18316
594.689	3804.66333
594.892	3754.20508
595.095	3699.52934
595.298	3951.76803
595.5	4071.48001
595.703	4191.12459
595.906	3829.88821
596.109	3968.57372
596.311	3836.19398
596.514	3943.3647
596.717	3895.03926
596.92	4109.26985
597.122	3880.32941
597.325	4081.97786
597.528	3789.9475
597.73	4180.63219
597.933	3913.95049
598.136	4107.1706
598.338	3825.68426
598.541	4132.36032
598.743	4300.21411
598.946	4241.48077
599.148	4228.89287
599.351	4449.06918
599.554	4180.63219
599.756	4039.98333
599.959	4180.63219
600.161	4147.05294
600.363	4279.23985
600.566	4438.59002
600.768	4434.39821
600.971	4272.94715
601.173	4233.08893
601.376	4474.21692
601.578	4081.97786
601.78	4449.06918
601.983	4113.46831
602.185	4438.59002
602.388	4086.17686
602.59	4392.47524
602.792	4367.31728
602.995	4495.17094
603.197	4375.70361
603.399	4455.35641
603.601	4172.23788
603.804	4421.82224
604.006	4356.83387
604.208	4346.34992
604.41	4165.94193
604.613	4413.43782
604.815	4522.40788
605.017	4583.1537
605.219	4543.35682
605.421	4656.44267
605.623	4419.72616
605.826	4635.50576
606.028	4365.22064
606.23	4530.78772
606.432	4434.39821
606.634	4727.61135
606.836	4340.05929
607.038	4731.79693
607.24	4346.34992
607.442	4639.69332
607.644	4423.91829
607.846	4815.48952
608.048	4555.92512
608.25	4882.41738
608.452	4700.40287
608.654	4681.564
608.856	4493.07564
609.058	4694.12345
609.26	4566.3981
609.462	4798.7539
609.664	4702.49596
609.866	4794.56977
610.067	4524.50287
610.269	4673.19058
610.471	4501.45672
610.673	4947.2314
610.875	4874.05267
611.077	4957.68321
611.278	4798.7539
611.48	4940.96004
611.682	4648.06818
611.884	4878.23507
612.085	4589.43669
612.287	4692.03026
612.489	4949.32181
612.69	4876.14388
612.892	5007.84387
613.094	5166.5981
613.295	4614.56661
613.497	5066.34785
613.699	4765.27832
613.9	4905.41842
614.102	4834.31534
614.304	4884.50849
614.505	4823.85678
614.707	5133.1873
614.908	4945.14097
615.11	4936.77902
615.311	4899.14568
615.513	4953.50255
615.714	4748.53835
615.916	5078.88205
616.117	4811.30575
616.319	5060.08043
616.52	4874.05267
616.722	4982.7652
616.923	4986.94521
617.124	5076.79308
617.326	4959.7735
617.527	5078.88205
617.729	5041.27694
617.93	5103.94796
618.131	4865.6876
618.333	4982.7652
618.534	4907.50929
618.735	5028.74023
618.937	4947.2314
619.138	5212.52823
619.339	5166.5981
619.54	5329.39028
619.742	5187.47683
619.943	5147.80526
620.144	5078.88205
620.345	5287.66225
620.546	5070.52601
620.748	5266.79473
620.949	5020.38196
621.15	5055.90204
621.351	5108.12529
621.552	5202.09056
621.753	4974.4049
621.954	5408.6477
622.155	5185.38906
622.356	5227.13999
622.558	5195.82767
622.759	5481.61795
622.96	5116.47966
623.161	5360.68015
623.362	5076.79308
623.563	5521.2183
623.764	5174.94988
623.965	5594.14406
624.166	5304.35459
624.366	5333.56257
624.567	5122.7452
624.768	5202.09056
624.969	5208.35323
625.17	5533.72191
625.371	5356.50847
625.572	5450.34851
625.773	5268.88159
625.973	5427.41423
626.174	5302.26813
626.375	5396.13562
626.576	5377.36592
626.777	5467.0262
626.977	5337.73476
627.178	5575.39448
627.379	5250.09903
627.58	5404.4771
627.78	5222.96532
627.981	5500.37707
628.182	5379.45154
628.382	5585.81115
628.583	5446.17885
628.784	5464.94157
628.984	5300.18165
629.185	5662.87618
629.386	5300.18165
629.586	5667.04094
629.787	5419.07378
629.987	5625.38912
630.188	5179.12562
630.388	5823.1512
630.589	5346.07887
630.79	5796.1016
630.99	5502.4613
631.191	5677.45242
631.391	5391.96474
631.591	5696.1916
631.792	5533.72191
631.992	5858.51774
632.193	5450.34851
632.393	5750.31627
632.594	5725.33763
632.794	5617.05762
632.994	5554.55937
633.195	5752.39767
633.395	5642.05098
633.595	5650.38134
633.796	5575.39448
633.996	5764.88557
634.196	5546.22467
634.397	6099.66044
634.597	5487.8712
634.797	5862.67806
634.997	5604.55967
635.198	5885.55814
635.398	5692.0275
635.598	5789.85882
635.798	5791.93977
635.998	5954.18124
636.199	5796.1016
636.399	5922.9921
636.599	5704.51951
636.799	6182.73966
636.999	5789.85882
637.199	5816.90934
637.399	5904.27608
637.599	5854.35732
637.799	5721.1742
637.999	6072.6516
638.199	5918.83315
638.399	6228.41722
638.599	5941.70622
638.799	6099.66044
638.999	5960.41843
639.199	6251.25174
639.399	6058.10673
639.599	6033.16998
639.799	5870.99842
639.999	6037.32634
640.199	6053.95084
640.399	6344.63622
640.599	5933.38907
640.799	6240.87276
640.998	5966.65541
641.198	6001.99428
641.398	5993.67986
641.598	6415.16201
641.798	6153.66621
641.997	6344.63622
642.197	5858.51774
642.397	6402.71824
642.597	5991.6012
642.796	6240.87276
642.996	6016.5436
643.196	6265.78133
643.395	6174.43343
643.595	6234.6451
643.795	6047.71683
643.994	6124.58816
644.194	6029.01353
644.394	6442.12064
644.593	6348.78554
644.793	6435.89977
644.992	6330.11285
645.192	6340.4868
645.392	6284.46054
645.591	6427.60495
645.791	6209.73232
645.99	6348.78554
646.19	6330.11285
646.389	6442.12064
646.589	6408.94023
646.788	6593.43086
646.987	6417.2359
647.187	6643.14976
647.386	6562.34979
647.586	6725.98514
647.785	6502.24497
647.984	6493.95312
648.184	6655.57741
648.383	6779.80846
648.582	6448.34131
648.782	6506.39076
648.981	6464.92872
649.18	6595.50274
649.38	6562.34979
649.579	6610.0053
649.778	6672.14632
649.977	6794.29671
650.177	6381.97676
650.376	6622.43516
650.575	6440.04704
650.774	6450.41482
650.973	6398.57013
651.173	6525.04564
651.372	6597.5746
651.571	6775.66875
651.77	6363.30743
651.969	6879.13406
652.168	6580.99905
652.367	6717.70325
652.566	6806.71433
652.765	6796.36637
652.964	6725.98514
653.163	6767.38907
653.362	6551.98828
653.561	6930.84541
653.76	6585.14308
653.959	6879.13406
654.158	6589.28701
654.357	6808.78385
654.556	6694.92618
654.755	6814.99228
654.954	6696.99694
655.153	7023.89025
655.352	6819.13112
655.551	6939.11791
655.749	6932.91357
655.948	6908.09416
656.147	6887.40883
656.346	7228.42926
656.545	6717.70325
656.743	6924.64079
656.942	6634.8642
657.141	7094.16062
657.34	6841.89311
657.538	6928.77723
657.737	6769.45902
657.936	7226.36429
658.135	6854.30758
658.333	6887.40883
658.532	6713.56217
658.731	7028.02452
658.929	6808.78385
659.128	7007.35228
659.326	6759.10901
659.525	7085.89486
659.724	7028.02452
659.922	7019.75589
660.121	6850.16951
660.319	6920.50427
660.518	6715.63272
660.716	7106.55858
660.915	6852.23855
661.113	7185.06042
661.312	7168.53638
661.51	7197.45251
661.709	7011.48691
661.907	7222.2343
662.105	7205.71346
662.304	7174.73306
662.502	7065.2289
662.701	7325.4576
662.899	6889.47746
663.097	7306.88146
663.296	7030.09162
663.494	7313.0737
663.692	6972.20431
663.891	7104.49231
664.089	6945.32205
664.287	7325.4576
664.485	7205.71346
664.684	7379.11203
664.882	7234.62401
665.08	7441.00269
665.278	7036.29279
665.476	7381.17537
665.675	7019.75589
665.873	7230.4942
666.071	7232.55911
666.269	7577.09366
666.467	7112.75727
666.665	7341.96823
666.863	7174.73306
667.061	7234.62401
667.259	7296.56062
667.457	7451.3159
667.655	7397.68128
667.853	7236.68888
668.051	7104.49231
668.249	7108.62483
668.447	7118.95575
668.645	7228.42926
668.843	7401.80755
669.041	7622.43656
669.239	7025.9574
669.437	7478.12772
669.635	7230.4942
669.833	7061.09544
670.031	7090.02778
670.229	7067.29559
670.426	7050.76139
670.624	7358.47746
670.822	7116.88961
671.02	7443.06538
671.218	7158.20814
671.415	7193.3219
671.613	7218.10423
671.811	7564.72562
672.009	7327.5215
672.206	7504.93589
672.404	7036.29279
672.602	7292.43213
672.799	7187.12582
672.997	7523.49325
673.195	7137.54999
673.392	7407.99677
673.59	7182.99499
673.788	7253.20707
673.985	7044.5607
674.183	7372.92189
674.38	7203.64826
674.578	7300.68902
674.775	7129.2861
674.973	7399.74443
675.17	7180.92954
675.368	7515.24575
675.565	7242.88337
675.763	7366.73155
675.96	7271.78835
676.158	7300.68902
676.355	7333.71309
676.553	7377.04867
676.75	7302.75319
676.947	7651.28577
677.145	7203.64826
677.342	7449.2533
677.539	7333.71309
677.737	7696.61185
677.934	7098.29336
678.131	7572.97107
678.329	7333.71309
678.526	7663.64844
678.723	7251.14238
678.92	7490.50117
679.118	7127.22008
679.315	7377.04867
679.512	7484.31454
679.709	7420.37464
679.906	7296.56062
680.104	7379.11203
680.301	7300.68902
680.498	7166.47078
680.695	7321.32972
680.892	7506.9979
681.089	7377.04867
681.286	7721.33085
681.483	7129.2861
681.68	7492.56334
681.877	7313.0737
682.075	7713.09152
682.272	7222.2343
682.469	7498.74971
682.665	7174.73306
682.862	7441.00269
683.059	7263.53023
683.256	7358.47746
683.453	7265.59479
683.65	7333.71309
683.847	7410.05981
684.044	7523.49325
684.241	7172.66752
684.438	7329.58539
684.635	7236.68888
684.831	7263.53023
685.028	7395.61812
685.225	7490.50117
685.422	7370.85846
685.619	7311.00964
685.815	7213.97406
686.012	7387.36525
686.209	7438.93998
686.405	7356.41388
686.602	6916.36766
686.799	7341.96823
686.996	7354.35028
687.192	7519.36954
687.389	7133.41809
687.586	7292.43213
687.782	7218.10423
687.979	7498.74971
688.175	7193.3219
688.372	7764.58183
688.568	7009.41961
688.765	7395.61812
688.962	7211.90894
689.158	7313.0737
689.355	7114.82345
689.551	7482.25229
689.748	7213.97406
689.944	7335.7769
690.14	7222.2343
690.337	7277.98171
690.533	7282.11051
690.73	7449.2533
690.926	7304.81734
691.123	7211.90894
691.319	7193.3219
691.515	7548.2337
691.712	7003.21756
691.908	7422.43755
692.104	7098.29336
692.301	7329.58539
692.497	7071.42892
692.693	7234.62401
692.889	7160.27383
693.086	7280.04612
693.282	7294.49638
693.478	7544.11051
693.674	7234.62401
693.87	7401.80755
694.067	7275.91728
694.263	7494.62548
694.459	7280.04612
694.655	7360.54101
694.851	7296.56062
695.047	7506.9979
695.243	7211.90894
695.439	6972.20431
695.635	7123.08796
695.831	7546.17212
696.027	7265.59479
696.224	7145.81352
696.42	7242.88337
696.615	7490.50117
696.811	7065.2289
697.007	7381.17537
697.203	7152.01093
697.399	7236.68888
697.595	7232.55911
697.791	7228.42926
697.987	7160.27383
698.183	7315.13774
698.379	6829.47782
698.575	7443.06538
698.77	7139.6159
698.966	7447.19068
699.162	7201.58303
699.358	7509.0599
699.554	7102.42602
699.749	7265.59479
699.945	7286.23922
700.141	7317.20175
700.337	7168.53638
700.532	7515.24575
700.728	7354.35028
700.924	7457.50357
701.119	7195.38722
701.315	7180.92954
701.511	6978.40737
701.706	7001.15017
701.902	7265.59479
702.097	7407.99677
702.293	7244.94815
702.489	7352.28666
702.684	7135.48405
702.88	7021.82308
703.075	7220.16928
703.271	7282.11051
703.466	7329.58539
703.662	7172.66752
703.857	7201.58303
704.053	7327.5215
704.248	7300.68902
704.443	7476.0654
704.639	7308.94556
704.834	7436.87726
705.03	7370.85846
705.225	7292.43213
705.42	7317.20175
705.616	7368.79502
705.811	7073.49555
706.006	7403.87064
706.202	7067.29559
706.397	7288.30355
706.592	7257.3364
706.787	7488.43898
706.983	7218.10423
707.178	7333.71309
707.373	7218.10423
707.568	7143.74767
707.763	7032.1587
707.959	7327.5215
708.154	7205.71346
708.349	7042.49375
708.544	7247.01292
708.739	7463.69104
708.934	7042.49375
709.129	6949.45803
709.324	6887.40883
709.519	7102.42602
709.714	6846.03135
709.909	7224.29931
710.104	6959.79759
710.299	6930.84541
710.494	7030.09162
710.689	7197.45251
710.884	7234.62401
711.079	7315.13774
711.274	7158.20814
711.469	7498.74971
711.664	7092.09421
711.859	7300.68902
712.054	7096.227
712.249	7071.42892
712.443	7067.29559
712.638	7090.02778
712.833	6684.57204
713.028	7090.02778
713.223	6854.30758
713.417	7321.32972
713.612	7129.2861
713.807	7329.58539
714.002	7220.16928
714.196	7362.60455
714.391	7044.5607
714.586	7337.8407
714.78	7238.75373
714.975	7649.22525
715.17	7195.38722
715.364	7337.8407
715.559	7275.91728
715.754	7195.38722
715.948	7135.48405
716.143	7129.2861
716.337	7042.49375
716.532	7379.11203
716.726	6982.54262
716.921	7467.81591
717.115	6906.02573
717.31	7238.75373
717.504	7139.6159
717.699	7251.14238
717.893	6906.02573
718.088	7356.41388
718.282	7172.66752
718.476	7044.5607
718.671	7025.9574
718.865	7271.78835
719.059	6852.23855
719.254	6899.8203
719.448	6761.17906
719.642	6881.20279
719.837	6850.16951
720.031	6982.54262
720.225	6862.58343
720.419	7275.91728
720.614	6850.16951
720.808	6841.89311
721.002	6848.10044
721.196	7036.29279
721.39	6864.65234
721.585	7052.82825
721.779	7176.79858
721.973	7263.53023
722.167	6945.32205
722.361	6943.25403
722.555	6877.06531
722.749	7087.96133
722.943	6723.9147
723.137	6906.02573
723.331	6705.27974
723.525	6918.43598
723.719	6630.72128
723.913	6895.68323
724.107	6848.10044
724.301	6953.59392
724.495	6746.68825
724.689	6980.47501
724.883	6728.05555
725.077	6872.92774
725.271	6748.75843
725.465	6676.28832
725.659	6829.47782
725.853	6872.92774
726.046	6622.43516
726.24	6680.43023
726.434	6668.00423
726.628	6773.59887
726.822	6806.71433
727.015	6877.06531
727.209	6730.12594
727.403	6959.79759
727.596	6920.50427
727.79	7135.48405
727.984	7220.16928
728.177	7356.41388
728.371	6968.06883
728.565	7079.6953
728.758	6963.93325
728.952	7034.22575
729.146	6862.58343
729.339	7201.58303
729.533	6966.00105
729.726	7147.87934
729.92	7044.5607
730.113	7178.86407
730.307	7065.2289
730.5	6947.39005
730.694	7141.6818
730.887	7201.58303
731.081	7011.48691
731.274	6932.91357
731.468	6717.70325
731.661	6734.26666
731.854	6783.94807
732.048	7228.42926
732.241	6918.43598
732.435	6895.68323
732.628	6719.77376
732.821	6767.38907
733.014	6846.03135
733.208	6947.39005
733.401	6819.13112
733.594	7011.48691
733.788	6899.8203
733.981	6810.85335
734.174	6773.59887
734.367	7085.89486
734.56	6924.64079
734.754	7044.5607
734.947	6959.79759
735.14	7127.22008
735.333	7005.28493
735.526	7071.42892
735.719	6773.59887
735.912	6821.2005
736.105	6887.40883
736.298	7147.87934
736.491	6957.72972
736.684	6659.71978
736.877	6800.50562
737.07	6713.56217
737.263	6825.33921
737.456	6906.02573
737.649	6622.43516
737.842	6858.44555
738.035	6779.80846
738.228	6906.02573
738.421	6833.61634
738.614	6928.77723
738.807	7106.55858
739	6955.66183
739.192	6665.93315
739.385	7079.6953
739.578	6937.04982
739.771	6841.89311
739.964	6781.87828
740.156	7003.21756
740.349	6854.30758
740.542	7028.02452
740.735	6837.75477
740.927	6841.89311
741.12	6945.32205
741.313	6841.89311
741.505	6705.27974
741.698	6696.99694
741.891	6786.01785
742.083	6790.15733
742.276	6725.98514
742.468	6949.45803
742.661	6593.43086
742.854	6730.12594
743.046	6833.61634
743.239	6688.71377
743.431	6937.04982
743.624	6870.85893
743.816	6879.13406
744.009	6798.43601
744.201	6699.06767
744.393	6829.47782
744.586	6580.99905
744.778	6639.00702
744.971	6632.79275
745.163	6670.07529
745.355	6591.35895
745.548	6562.34979
745.74	6742.54781
745.932	6821.2005
746.125	6868.79009
746.317	7015.62145
746.509	6779.80846
746.702	6932.91357
746.894	6568.56642
747.086	6786.01785
747.278	6781.87828
747.471	6934.98171
747.663	6910.16257
747.855	7094.16062
748.047	6920.50427
748.239	7104.49231
748.431	7036.29279
748.623	7077.62874
748.815	6757.03894
749.008	7017.68868
749.2	6874.99654
749.392	7011.48691
749.584	6709.421
749.776	6887.40883
749.968	6701.13838
750.16	6928.77723
750.352	6721.84424
750.544	6806.71433
750.736	6713.56217
750.928	6649.36369
751.12	6874.99654
751.311	6672.14632
751.503	6738.40728
751.695	6628.64978
751.887	6522.97297
752.079	6899.8203
752.271	6647.2924
752.463	6303.13785
752.654	6597.5746
752.846	6717.70325
753.038	6626.57827
753.23	6711.4916
753.421	6514.68205
753.613	6649.36369
753.805	6475.2951
753.997	6489.80706
754.188	6303.13785
754.38	6489.80706
754.572	6423.4574
754.763	6620.36358
754.955	6367.45634
755.146	6487.73399
755.338	6448.34131
755.53	6672.14632
755.721	6450.41482
755.913	6622.43516
756.104	6570.63858
756.296	6674.21733
756.487	6564.42202
756.679	6547.84351
756.87	6522.97297
757.062	6367.45634
757.253	6384.05101
757.445	6149.51248
757.636	6485.6609
757.827	6539.5537
758.019	6578.92701
758.21	6647.2924
758.401	6510.53645
758.593	6595.50274
758.784	6182.73966
758.975	6355.00935
759.167	6332.18769
759.358	6730.12594
759.549	6282.38516
759.74	6228.41722
759.932	6408.94023
760.123	6392.34779
760.314	6282.38516
760.505	6328.03799
760.696	6319.73832
760.888	6166.12682
761.079	6215.96083
761.27	6464.92872
761.461	6340.4868
761.652	6510.53645
761.843	6415.16201
762.034	6319.73832
762.225	6124.58816
762.416	6328.03799
762.607	6522.97297
762.798	6381.97676
762.989	6325.96311
763.18	6272.00794
763.371	6435.89977
763.562	6305.21299
763.753	6193.12192
763.944	6124.58816
764.135	6203.50359
764.326	6334.2625
764.517	6215.96083
764.708	6284.46054
764.899	5900.1167
765.089	6107.97006
765.28	6076.80707
765.471	6301.06269
765.662	6008.22984
765.853	6149.51248
766.043	6128.74245
766.234	6151.58936
766.425	5958.33939
766.615	6049.79486
766.806	6172.35681
766.997	5933.38907
767.187	6093.42799
767.378	6147.43559
767.569	5999.91571
767.759	6272.00794
767.95	5985.36507
768.141	5829.39285
768.331	5877.23844
768.522	6066.41822
768.712	5981.20753
768.903	6161.97338
769.093	5764.88557
769.284	6128.74245
769.474	5833.55383
769.665	5802.34417
769.855	5796.1016
770.046	5835.63429
770.236	5796.1016
770.426	5637.88566
770.617	5777.37262
770.807	5962.49745
770.998	5702.43757
771.188	5708.68332
771.378	5667.04094
771.569	5862.67806
771.759	5600.3935
771.949	5537.88959
772.139	5868.91836
772.33	5560.81015
772.52	5412.8182
772.71	5916.75364
772.9	5533.72191
773.09	5698.27361
773.281	5621.22342
773.471	5592.06087
773.661	5575.39448
773.851	5408.6477
774.041	5485.78681
774.231	5708.68332
774.421	5467.0262
774.611	5612.89173
774.802	5285.57561
774.992	5642.05098
775.182	5527.47021
775.372	5508.71385
775.562	5404.4771
775.752	5694.10956
775.942	5533.72191
776.131	5654.54638
776.321	5298.09514
776.511	5573.31108
776.701	5352.3367
776.891	5492.03992
777.081	5425.32915
777.271	5416.98861
777.461	5489.95557
777.651	5550.39207
777.84	5139.45228
778.03	5222.96532
778.22	5016.20269
778.41	5208.35323
778.599	5237.57627
778.789	5467.0262
778.979	5404.4771
779.169	5492.03992
779.358	5469.11081
779.548	5535.80576
779.738	5562.8937
779.927	5517.05024
780.117	5487.8712
780.307	5421.15893
780.496	5329.39028
780.686	5642.05098
780.875	5250.09903
781.065	5360.68015
781.254	5041.27694
781.444	5419.07378
781.633	5210.44074
781.823	5391.96474
782.012	5394.0502
782.202	5429.49928
782.391	5227.13999
782.581	5078.88205
782.77	5114.39111
782.96	5333.56257
783.149	5141.54056
783.338	5241.75062
783.528	4968.13444
783.717	5070.52601
783.906	5145.71705
784.096	5110.21392
784.285	5135.27565
784.474	5293.92206
784.663	5122.7452
784.853	5352.3367
785.042	5108.12529
785.231	5204.17814
785.42	5248.01196
785.61	5091.41543
785.799	4993.21505
785.988	4970.22462
786.177	4999.48468
786.366	4968.13444
786.555	5095.59303
786.744	4878.23507
786.933	4863.59628
787.122	5170.77404
787.312	5087.23773
787.501	5118.5682
787.69	4832.22367
787.879	4995.30495
788.068	4823.85678
788.257	4907.50929
788.445	4708.77511
788.634	4976.49501
788.823	4815.48952
789.012	4940.96004
789.201	4581.05933
789.39	4685.75057
789.579	4681.564
789.768	4932.5979
789.957	4957.68321
790.145	4907.50929
790.334	4715.05406
790.523	4940.96004
790.712	4698.30975
790.9	4735.98242
791.089	4608.28443
791.278	4738.07513
791.467	4614.56661
791.655	4819.67319
791.844	4666.91028
792.033	4560.11438
792.221	4507.7423
792.41	4669.00374
792.599	4446.97339
792.787	4704.58904
792.976	4633.41195
793.164	4656.44267
793.353	4702.49596
793.541	4597.81369
793.73	4474.21692
793.918	4790.38555
794.107	4482.59879
794.295	4698.30975
794.484	4664.81681
794.672	4754.81601
794.861	4455.35641
795.049	4514.02768
795.238	4610.37852
795.426	4639.69332
795.614	4367.31728
795.803	4430.2063
795.991	4266.65426
796.179	4482.59879
796.368	4413.43782
796.556	4589.43669
796.744	4463.73908
796.932	4660.62978
797.121	4417.63007
797.309	4478.4079
797.497	4449.06918
797.685	4478.4079
797.874	4455.35641
798.062	4629.22425
798.25	4300.21411
798.438	4591.53097
798.626	4482.59879
798.814	4610.37852
799.002	4421.82224
799.19	4518.21782
799.378	4396.66793
799.566	4472.12139
799.755	4321.18623
799.943	4249.87228
800.131	4518.21782
800.318	4568.49263
800.506	4262.45889
800.694	4228.89287
800.882	4331.67148
801.07	4426.01431
801.258	4497.26622
801.446	4348.44675
801.634	4180.63219
801.822	4266.65426
802.01	4371.51049
802.197	4488.88497
802.385	4153.34946
802.573	4541.26203
802.761	4419.72616
802.949	4564.30355
803.136	4530.78772
803.324	4455.35641
803.512	4275.04474
803.699	4210.00959
803.887	4405.05305
804.075	4465.83469
804.262	4153.34946
804.45	4514.02768
804.638	4411.34166
804.825	4731.79693
805.013	4635.50576
805.201	4560.11438
805.388	4488.88497
805.576	4411.34166
805.763	4377.80014
805.951	4539.16721
806.138	4321.18623
806.326	4574.77608
806.513	4189.02616
806.701	4539.16721
806.888	4247.77443
807.075	4505.64713
807.263	4337.96236
807.45	4759.001
807.638	4249.87228
807.825	4681.564
808.012	4379.89665
808.2	4490.98031
808.387	4329.57447
808.574	4465.83469
808.761	4373.60706
808.949	4388.28246
809.136	4354.73712
809.323	4306.50597
809.51	4216.30421
809.698	4465.83469
809.885	4316.99198
810.072	4507.7423
810.259	4543.35682
810.446	4530.78772
810.633	4474.21692
810.82	4608.28443
811.008	4373.60706
811.195	4752.72347
811.382	4599.90788
811.569	4555.92512
811.756	4472.12139
811.943	4514.02768
812.13	4312.79764
812.317	4568.49263
812.504	4509.83745
812.691	4618.75462
812.878	4614.56661
813.064	4645.9745
813.251	4455.35641
813.438	4723.42567
813.625	4415.53395
813.812	4574.77608
813.999	4331.67148
814.186	4507.7423
814.372	4296.01943
814.559	4602.00205
814.746	4195.32141
814.933	4455.35641
815.12	4379.89665
815.306	4407.14927
815.493	4426.01431
815.68	4788.29341
815.866	4472.12139
816.053	4558.01976
816.24	4560.11438
816.426	4530.78772
816.613	4381.99314
816.799	4478.4079
816.986	4501.45672
817.173	4472.12139
817.359	4352.64035
817.546	4493.07564
817.732	4201.61647
817.919	4480.50335
818.105	4434.39821
818.292	4560.11438
818.478	4486.7896
818.665	4591.53097
818.851	4430.2063
819.037	4497.26622
819.224	4354.73712
819.41	4482.59879
819.597	4302.31142
819.783	4614.56661
819.969	4285.53235
820.156	4530.78772
820.342	4442.78175
820.528	4455.35641
820.714	4270.84954
820.901	4411.34166
821.087	4346.34992
821.273	4589.43669
821.459	4210.00959
821.646	4503.55193
821.832	4270.84954
822.018	4287.62981
822.204	4090.37577
822.39	4331.67148
822.576	4199.51814
822.762	4453.26069
822.948	4218.40238
823.134	4222.59864
823.32	3901.34318
823.507	4077.77878
823.693	4390.37886
823.879	4216.30421
824.065	4178.53364
824.25	4270.84954
824.436	4254.0679
824.622	4304.40871
824.808	4268.75191
824.994	4340.05929
825.18	4065.18104
825.366	4337.96236
825.552	3997.98055
825.738	4293.92206
825.923	4329.57447
826.109	4272.94715
826.295	3901.34318
826.481	4069.38037
826.667	4046.28304
826.852	4606.19033
827.038	4121.86497
827.224	4298.11678
827.409	4054.68236
827.595	4136.55832
827.781	3880.32941
827.966	4073.57962
828.152	3834.09208
828.338	4035.78342
828.523	3930.75909
828.709	3976.97608
828.894	3895.03926
829.08	4077.77878
829.266	3741.58876
829.451	4136.55832
829.637	3838.29587
829.822	4010.58225
830.008	3922.35495
830.193	3981.17714
830.378	3869.82177
830.564	4077.77878
830.749	3993.77982
830.935	4186.92769
831.12	3798.35666
831.305	4052.58256
831.491	3817.27612
831.676	4025.28329
831.861	3909.74813
832.047	4002.1812
832.232	3743.69153
832.417	4111.36909
832.602	3964.37242
832.788	4021.0831
832.973	3838.29587
833.158	3997.98055
833.343	3672.1866
833.528	3943.3647
833.714	3783.64043
833.899	3771.02575
834.084	3623.80309
834.269	3844.60141
834.454	3693.21977
834.639	3829.88821
834.824	3735.28034
835.009	3634.3221
835.194	3606.9717
835.379	3842.49958
835.564	3613.28361
835.749	3905.5457
835.934	3642.73696
836.119	3680.6001
836.304	3560.67921
836.489	3825.68426
836.674	3527.00631
836.859	3743.69153
837.044	3533.32034
837.228	3712.14798
837.413	3674.29
837.598	3836.19398
837.783	3508.06324
837.968	3623.80309
838.152	3299.59371
838.337	3415.43154
838.522	3465.96224
838.707	3516.48257
838.891	3377.52679
839.076	3649.04791
839.261	3362.78452
839.445	3670.08318
839.63	3373.3148
839.815	3621.69923
839.999	3320.65904
840.184	3623.80309
840.368	3552.26143
840.553	3623.80309
840.737	3404.90301
840.922	3310.12659
841.106	3478.5933
841.291	3659.56578
841.475	3194.24171
841.66	3545.9479
841.844	3177.38153
842.029	3331.19106
842.213	3278.52668
842.397	3415.43154
842.582	3208.9935
842.766	3390.16234
842.951	3270.09939
843.135	3432.27625
843.319	3238.49465
843.504	3118.36272
843.688	3120.47075
843.872	3238.49465
844.056	3179.48911
844.241	3249.02998
844.425	3230.06608
844.609	3097.28152
844.793	3086.74033
844.977	3324.8719
845.161	3084.63204
845.346	3270.09939
845.53	3038.24579
845.714	3206.88615
845.898	3055.11439
846.082	3270.09939
846.266	3027.70242
846.45	3333.29741
846.634	2924.3573
846.818	3069.8736
847.002	2818.86687
847.186	3173.16632
847.37	3270.09939
847.554	3303.80692
847.738	2974.97982
847.922	3331.19106
848.106	3105.71419
848.29	3135.22652
848.473	2882.16541
848.657	3076.19874
848.841	2955.99737
849.025	3002.39675
849.209	2899.04286
849.392	3101.49789
849.576	2909.5908
849.76	2831.52759
849.944	2732.33877
850.127	3053.00587
850.311	2726.00656
850.495	2989.7431
850.678	2928.57616
850.862	3118.36272
851.046	2842.07781
851.229	3124.68676
851.413	2726.00656
851.596	3046.68022
851.78	2987.6341
851.964	2945.45105
852.147	2780.88173
852.331	3027.70242
852.514	2763.99803
852.698	2688.01083
852.881	2717.56343
853.065	2679.56677
853.248	2457.84025
853.431	2660.56688
853.615	2546.54648
853.798	2569.77571
853.982	2618.34125
854.165	2622.56404
854.348	2411.3673
854.532	2578.22235
854.715	2495.85964
854.898	2772.43999
855.081	2485.29906
855.265	2861.06731
855.448	2757.66642
855.631	2595.11505
855.814	2434.60442
855.997	2639.45469
856.181	2434.60442
856.364	2597.22659
856.547	2493.74755
856.73	2641.56596
856.913	2309.95442
857.096	2407.14224
857.279	2468.40155
857.462	2491.63544
857.645	2345.87412
857.828	2552.88187
858.011	2396.57938
858.194	2459.95253
858.377	2301.50232
858.56	2415.59233
858.743	2265.57922
858.926	2426.15471
859.109	2299.38927
859.292	2468.40155
859.475	2276.14511
859.658	2478.96258
859.841	2274.03195
860.023	2341.64842
860.206	2400.80455
860.389	2544.43466
860.572	2119.74759
860.755	2303.61536
860.937	2208.51948
861.12	2428.26715
861.303	2284.59767
861.486	2320.51933
861.668	2286.71078
861.851	2426.15471
862.034	2170.47615
862.216	2267.69242
862.399	1910.44864
862.581	2189.49816
862.764	2073.2425
862.947	2347.98695
863.129	2064.78664
863.312	2121.86137
863.494	1973.87927
863.677	2307.84141
863.859	2123.97514
864.042	2280.37141
864.224	1978.10779
864.406	2030.96209
864.589	1965.42216
864.771	2187.38464
864.954	1984.45052
865.136	2088.03996
865.318	1832.21079
865.501	2064.78664
865.683	2003.47836
865.865	2119.74759
866.048	1935.82152
866.23	1887.18947
866.412	1722.24446
866.594	1978.10779
866.777	1929.47838
866.959	2007.7067
867.141	1872.38785
867.323	1946.39331
867.505	1819.52294
867.687	1992.9074
867.869	1792.03205
868.052	2003.47836
868.234	1792.03205
868.416	2043.64651
868.598	1817.40828
868.78	1785.6879
868.962	1576.31424
869.144	1834.32541
869.326	1639.76359
869.508	1732.8186
869.69	1627.07387
869.872	1937.93589
870.054	1872.38785
870.236	1834.32541
870.417	1734.93341
870.599	1849.12766
870.781	1749.73703
870.963	1878.73143
871.145	1724.3593
871.327	1853.35683
871.508	1673.60242
871.69	2003.47836
871.872	1921.02077
872.054	1965.42216
872.235	1720.12963
872.417	1859.70055
872.599	1682.06202
872.78	2066.90062
872.962	1808.94961
873.144	1802.60556
873.325	1627.07387
873.507	1870.27331
873.689	1698.98108
873.87	1813.17895
874.052	1718.01479
874.233	1882.96046
874.415	1614.38407
874.596	1855.4714
874.778	1698.98108
874.959	1749.73703
875.141	1684.17691
875.322	1823.75224
875.503	1660.91294
875.685	1830.09616
875.866	1576.31424
876.048	1813.17895
876.229	1563.62418
876.41	1783.57317
876.592	1652.45323
876.773	1802.60556
876.954	1495.94313
877.136	1698.98108
877.317	1650.33829
877.498	1806.83493
877.679	1574.19924
877.86	1656.68309
878.042	1690.52157
878.223	1751.85182
878.404	1648.22336
878.585	1868.15877
878.766	1538.24391
878.947	1760.31093
879.128	1768.76998
879.309	1878.73143
879.49	1707.44054
879.672	1726.47413
879.853	1749.73703
880.034	1834.32541
880.215	1675.71732
880.396	1785.6879
880.576	1720.12963
880.757	1842.78387
880.938	1707.44054
881.119	1935.82152
881.3	1732.8186
881.481	1971.765
881.662	1897.7619
881.843	1844.89847
882.023	1889.30397
882.204	1804.72024
882.385	1885.07497
882.566	1929.47838
882.747	1861.81511
882.927	1895.64743
883.108	1804.72024
883.289	1844.89847
883.469	1851.24224
883.65	1783.57317
883.831	1574.19924
884.011	1969.65073
884.192	1743.39264
884.373	1827.98152
884.553	1732.8186
884.734	1901.99084
884.914	1753.9666
885.095	1874.50238
885.275	1758.19616
885.456	2007.7067
885.636	1777.22897
885.817	1897.7619
885.997	1893.53295
886.178	1995.02161
886.358	1792.03205
886.538	1956.96496
886.719	1720.12963
886.899	1921.02077
887.08	1798.37617
887.26	2003.47836
887.44	1770.88474
887.621	1997.13581
887.801	1792.03205
887.981	1885.07497
888.161	1830.09616
888.342	1895.64743
888.522	1641.87854
888.702	2049.98862
888.882	1624.95891
889.062	1804.72024
889.242	1779.34371
889.423	1800.49086
889.603	1863.92967
889.783	1838.55465
889.963	1572.08423
890.143	1868.15877
890.323	1707.44054
890.503	1956.96496
890.683	1707.44054
890.863	1844.89847
891.043	1688.40669
891.223	1863.92967
891.403	1781.45845
891.583	1971.765
891.763	1770.88474
891.943	2028.848
892.122	1724.3593
892.302	1927.36399
892.482	1806.83493
892.662	1944.27897
892.842	1718.01479
893.022	1836.44003
893.201	1802.60556
893.381	2007.7067
893.561	1633.41874
893.741	1819.52294
893.92	1758.19616
894.1	1775.11423
894.28	1682.06202
894.459	1876.61691
894.639	1504.40331
894.819	1696.86621
894.998	1597.46422
895.178	1633.41874
895.357	1561.50917
895.537	1722.24446
895.716	1593.23424
895.896	1811.06428
896.075	1741.27784
896.255	1918.90636
896.434	1732.8186
896.614	1665.14277
896.793	1557.27913
896.973	1650.33829
897.152	1495.94313
897.331	1724.3593
897.511	1521.32364
897.69	1690.52157
897.87	1470.56253
898.049	1487.48294
898.228	1286.55522
898.407	1466.33243
898.587	1345.77504
898.766	1620.72898
898.945	1284.44026
899.124	1445.18191
899.304	1314.04996
899.483	1514.97852
899.662	1210.41811
899.841	1362.69522
900.02	1242.14147
900.199	1546.70402
900.378	1352.1201
900.557	1419.8013
900.737	1176.58068
900.916	1259.06086
901.095	1210.41811
901.274	1398.65083
901.453	1072.96009
901.632	1356.35014
901.811	1174.46588
901.989	1301.36004
902.168	1056.04355
902.347	1237.91165
902.526	929.18188
902.705	1185.03996
902.884	1077.18928
903.063	1161.7771
903.242	1087.76234
903.42	1151.20324
903.599	979.92372
903.778	1278.09538
903.957	1136.4
904.135	1176.58068
904.314	1017.98265
904.493	1123.71168
904.672	1005.29611
904.85	1091.9916
905.029	937.63857
905.207	1011.63935
905.386	857.30507
905.565	1049.69993
905.743	971.46647
905.922	973.58077
906.1	872.10247
906.279	1039.12736
906.457	861.53286
906.636	1013.75377
906.814	865.76068
906.993	1013.75377
907.171	895.35635
907.35	895.35635
907.528	787.55177
907.707	793.89256
907.885	836.16667
908.063	815.02915
908.242	730.48869
908.42	836.16667
908.598	624.83732
908.777	768.52992
908.955	601.59802
909.133	726.26209
909.311	787.55177
909.49	738.94201
909.668	762.18949
909.846	705.12977
910.024	588.92269
910.202	713.58257
910.38	667.09439
910.559	789.66536
910.737	734.71533
910.915	806.5744
911.093	787.55177
911.271	749.50889
911.449	776.98398
911.627	728.37539
911.805	743.16873
911.983	800.23344
912.161	700.90343
912.339	853.07732
912.517	783.32462
912.695	831.93909
912.872	734.71533
913.05	848.84961
913.228	863.64677
913.406	916.49708
913.584	796.00618
913.762	937.63857
913.939	776.98398
914.117	776.98398
914.295	751.6223
914.473	912.26887
914.65	819.25658
914.828	905.92662
915.006	840.39428
915.184	768.52992
915.361	639.62674
915.539	789.66536
915.716	766.41643
915.894	787.55177
916.072	584.69769
916.249	768.52992
916.427	734.71533
916.604	770.64342
916.782	650.19098
916.959	825.5978
917.137	637.51393
917.314	770.64342
917.492	599.48543
917.669	675.54638
917.847	578.36028
918.024	688.2247
918.201	633.28834
918.379	686.11162
918.556	607.93586
918.733	730.48869
918.911	470.64331
919.088	641.73957
919.265	639.62674
919.442	633.28834
919.62	607.93586
919.797	726.26209
919.974	574.1354
920.151	667.09439
920.328	531.88963
920.506	755.84914
920.683	607.93586
920.86	736.82866
921.037	508.65683
921.214	582.5852
921.391	542.45056
921.568	595.2603
921.745	519.21698
921.922	683.99855
922.099	591.03522
922.276	620.61188
922.453	495.98513
922.63	593.14775
922.807	449.52678
922.984	534.00179
923.161	428.41181
923.338	567.79819
923.514	462.19651
923.691	607.93586
923.868	472.75504
924.045	540.33835
924.222	495.98513
924.399	474.86679
924.575	470.64331
924.752	595.2603
924.929	489.64947
925.105	415.74358
925.282	481.20214
925.459	428.41181
925.635	428.41181
925.812	601.59802
925.989	432.63468
926.165	451.63837
926.342	489.64947
926.518	474.86679
926.695	432.63468
926.871	474.86679
927.048	358.74385
927.224	398.85351
927.401	415.74358
927.577	343.96815
927.754	261.6624
927.93	476.97856
928.107	310.19835
928.283	381.9645
928.459	396.74233
928.636	373.52039
928.812	337.63597
928.988	375.63139
929.165	297.53586
929.341	331.30395
929.517	354.52214
929.693	329.19331
929.87	240.56291
930.046	329.19331
930.222	314.41933
930.398	289.09456
930.574	263.77245
930.751	270.10273
930.927	320.75093
931.103	381.9645
931.279	322.8615
931.455	297.53586
931.631	206.80777
931.807	329.19331
931.983	198.36978
932.159	291.20486
932.335	244.78265
932.511	208.91732
932.687	105.57375
932.863	223.68471
933.039	177.27622
933.215	217.35571
933.391	270.10273
933.566	227.90414
933.742	213.13647
933.918	236.34324
934.094	69.73195
934.27	272.21286
934.445	257.44235
934.621	204.69824
934.797	173.05775
934.973	215.24608
935.148	168.83937
935.324	234.23344
935.5	196.26033
935.675	215.24608
935.851	194.1509
936.027	111.89944
936.202	95.03138
936.378	156.18471
936.553	208.91732
936.729	111.89944
936.904	92.92297
937.08	120.334
937.255	103.46523
937.431	118.22533
937.606	130.87769
937.782	86.59788
937.957	52.86748
938.133	76.05651
938.308	42.32793
938.483	151.96666
938.659	101.35674
938.834	97.13981
939.009	78.16474
939.185	40.22009
939.36	76.05651
939.535	21.25059
939.71	17.0354
939.886	61.29953
940.061	101.35674
940.236	82.38126
940.411	52.86748
940.586	99.24826
940.761	69.73195
940.937	52.86748
941.112	42.32793
941.287	33.89672
941.462	84.48956
941.637	21.25059
941.812	33.89672
941.987	109.79086
942.162	76.05651
942.337	80.27299
942.512	29.68125
942.687	27.57355
942.862	8.60532
943.037	27.57355
943.212	63.4076
943.386	0.17561
943.561	46.54368
943.736	95.03138
943.911	50.75953
944.086	80.27299
944.26	36.00449
944.435	31.78897
944.61	12.82031
944.785	54.97546
944.959	4.39042
945.134	10.7128
945.309	25.46587
945.483	101.35674
945.658	50.75953
945.833	8.60532
946.007	67.62381
946.182	114.00805
946.357	76.05651
946.531	23.35822
946.706	50.75953
946.88	27.57355
947.055	52.86748
947.229	29.68125
947.404	84.48956
947.578	0.17561
947.752	114.00805
947.927	71.84011
948.101	25.46587
948.276	25.46587
948.45	36.00449
948.624	54.97546
948.799	42.32793
948.973	52.86748
949.147	97.13981
949.321	19.14299
949.496	52.86748
949.67	12.82031
949.844	50.75953
950.018	44.4358
950.193	54.97546
950.367	139.31302
950.541	8.60532
950.715	61.29953
950.889	88.70622
951.063	82.38126
951.237	42.32793
951.411	19.14299
951.585	42.32793
951.759	95.03138
951.933	50.75953
952.107	-39.86016
952.281	27.57355
952.455	122.44269
952.629	10.7128
952.803	95.03138
952.977	-33.53931
953.151	40.22009
953.325	46.54368
953.499	36.00449
953.672	126.66015
953.846	-16.68263
954.02	6.49786
954.194	151.96666
954.368	-20.89695
954.541	67.62381
954.715	33.89672
954.889	36.00449
955.062	76.05651
955.236	8.60532
955.41	36.00449
955.583	71.84011
955.757	59.19149
955.93	0.17561
956.104	44.4358
956.278	71.84011
956.451	80.27299
956.625	52.86748
956.798	2.283
956.972	88.70622
957.145	59.19149
957.319	46.54368
957.492	76.05651
957.665	-25.11117
957.839	44.4358
958.012	25.46587
958.185	36.00449
958.359	76.05651
958.532	40.22009
958.705	101.35674
958.879	54.97546
959.052	42.32793
959.225	59.19149
959.398	61.29953
959.572	50.75953
959.745	97.13981
959.918	59.19149
960.091	21.25059
960.264	2.283
960.438	50.75953
960.611	33.89672
960.784	88.70622
960.957	50.75953
961.13	132.98649
961.303	101.35674
961.476	4.39042
961.649	105.57375
961.822	71.84011
961.995	25.46587
962.168	-8.2537
962.341	103.46523
962.514	52.86748
962.686	4.39042
962.859	0.17561
963.032	17.0354
963.205	27.57355
963.378	92.92297
963.551	63.4076
963.723	69.73195
963.896	46.54368
964.069	36.00449
964.242	109.79086
964.414	103.46523
964.587	67.62381
964.76	38.11228
964.932	6.49786
965.105	69.73195
965.278	59.19149
965.45	25.46587
965.623	40.22009
965.795	42.32793
965.968	44.4358
966.14	36.00449
966.313	27.57355
966.485	44.4358
966.658	40.22009
966.83	90.81458
967.003	-1.93175
967.175	67.62381
967.348	4.39042
967.52	92.92297
967.692	105.57375
967.865	17.0354
968.037	10.7128
968.209	84.48956
968.382	54.97546
968.554	-16.68263
968.726	27.57355
968.898	78.16474
969.071	4.39042
969.243	63.4076
969.415	84.48956
969.587	17.0354
969.759	126.66015
969.932	0.17561
970.104	-31.43231
970.276	12.82031
970.448	42.32793
970.62	61.29953
970.792	95.03138
970.964	-8.2537
971.136	88.70622
971.308	17.0354
971.48	-12.46822
971.652	21.25059
971.824	33.89672
971.996	-12.46822
972.168	84.48956
972.339	57.08346
972.511	0.17561
972.683	36.00449
972.855	42.32793
973.027	6.49786
973.199	52.86748
973.37	10.7128
973.542	27.57355
973.714	-12.46822
973.886	122.44269
974.057	-23.00407
974.229	54.97546
974.401	92.92297
974.572	84.48956
974.744	44.4358
974.915	-20.89695
975.087	-50.3944
975.259	10.7128
975.43	29.68125
975.602	88.70622
975.773	52.86748
975.945	76.05651
976.116	27.57355
976.288	50.75953
976.459	61.29953
976.63	-6.14641
976.802	8.60532
976.973	57.08346
977.145	21.25059
977.316	29.68125
977.487	8.60532
977.659	71.84011
977.83	48.65159
978.001	61.29953
978.172	33.89672
978.344	84.48956
978.515	50.75953
978.686	-27.21824
978.857	-50.3944
979.028	38.11228
979.2	17.0354
979.371	50.75953
979.542	42.32793
979.713	50.75953
979.884	50.75953
980.055	33.89672
980.226	12.82031
980.397	25.46587
980.568	27.57355
980.739	31.78897
980.91	76.05651
981.081	25.46587
981.252	17.0354
981.423	-25.11117
981.594	76.05651
981.765	50.75953
981.936	17.0354
982.106	54.97546
982.277	21.25059
982.448	8.60532
982.619	-1.93175
982.79	42.32793
982.96	-29.32529
983.131	-8.2537
983.302	-4.03909
983.472	36.00449
983.643	6.49786
983.814	17.0354
983.984	-16.68263
984.155	25.46587
984.326	61.29953
984.496	-29.32529
984.667	48.65159
984.837	-25.11117
985.008	0.17561
985.178	-8.2537
985.349	4.39042
985.519	69.73195
985.69	-4.03909
985.86	19.14299
986.031	-25.11117
986.201	84.48956
986.371	31.78897
986.542	17.0354
986.712	44.4358
986.882	52.86748
987.053	-8.2537
987.223	31.78897
987.393	-31.43231
987.563	88.70622
987.734	25.46587
987.904	-18.7898
988.074	101.35674
988.244	-8.2537
988.414	33.89672
988.585	52.86748
988.755	14.92785
988.925	17.0354
989.095	0.17561
989.265	8.60532
989.435	8.60532
989.605	-39.86016
989.775	67.62381
989.945	-8.2537
990.115	2.283
990.285	2.283
990.455	17.0354
990.625	10.7128
990.795	14.92785
990.965	8.60532
991.134	25.46587
991.304	0.17561
991.474	33.89672
991.644	-33.53931
991.814	21.25059
991.984	76.05651
992.153	36.00449
992.323	-41.96706
992.493	50.75953
992.662	-14.57544
992.832	90.81458
993.002	-29.32529
993.171	2.283
993.341	2.283
993.511	2.283
993.68	-16.68263
993.85	50.75953
994.019	42.32793
994.189	63.4076
994.358	38.11228
994.528	50.75953
994.697	17.0354
994.867	82.38126
995.036	40.22009
995.206	44.4358
995.375	29.68125
995.544	33.89672
995.714	10.7128
995.883	27.57355
996.052	50.75953
996.222	2.283
996.391	27.57355
996.56	-92.52504
996.73	33.89672
996.899	-14.57544
997.068	-12.46822
997.237	88.70622
997.406	-16.68263
997.576	0.17561
997.745	31.78897
997.914	-14.57544
998.083	97.13981
998.252	12.82031
998.421	4.39042
998.59	-48.28761
998.759	-41.96706
998.928	69.73195
999.097	-63.03467
999.266	4.39042
999.435	25.46587
999.604	8.60532
999.773	19.14299
999.942	111.89944
1000.111	-12.46822
1000.28	27.57355
1000.448	67.62381
1000.617	2.283
1000.786	8.60532
1000.955	63.4076
1001.124	33.89672
1001.292	0.17561
1001.461	6.49786
1001.63	36.00449
1001.798	27.57355
1001.967	-4.03909
1002.136	19.14299
1002.304	25.46587
1002.473	33.89672
1002.642	-14.57544
1002.81	10.7128
1002.979	0.17561
1003.147	21.25059
1003.316	40.22009
1003.484	40.22009
1003.653	-16.68263
1003.821	-12.46822
1003.99	0.17561
1004.158	14.92785
1004.327	-115.69247
1004.495	50.75953
1004.663	17.0354
1004.832	38.11228
1005	-67.24789
1005.168	50.75953
1005.337	0.17561
1005.505	6.49786
1005.673	25.46587
1005.842	76.05651
1006.01	8.60532
1006.178	44.4358
1006.346	-31.43231
1006.514	-29.32529
1006.683	12.82031
1006.851	29.68125
1007.019	-12.46822
1007.187	38.11228
1007.355	-25.11117
1007.523	-4.03909
1007.691	14.92785
1007.859	6.49786
1008.027	-23.00407
1008.195	-8.2537
1008.363	8.60532
1008.531	-29.32529
1008.699	-1.93175
1008.867	-8.2537
1009.035	-109.3744
1009.203	-4.03909
1009.37	17.0354
1009.538	8.60532
1009.706	-23.00407
1009.874	36.00449
1010.042	-8.2537
1010.209	36.00449
1010.377	-39.86016
1010.545	-27.21824
1010.713	42.32793
1010.88	71.84011
1011.048	-6.14641
1011.216	-41.96706
1011.383	59.19149
1011.551	-25.11117
1011.718	59.19149
1011.886	-27.21824
1012.054	25.46587
1012.221	-37.75323
1012.389	-39.86016
1012.556	-52.50118
1012.724	23.35822
1012.891	-33.53931
1013.058	12.82031
1013.226	61.29953
1013.393	0.17561
1013.561	-67.24789
1013.728	-37.75323
1013.895	84.48956
1014.063	-8.2537
1014.23	-16.68263
1014.397	38.11228
1014.565	-48.28761
1014.732	-58.82135
1014.899	-50.3944
1015.066	-41.96706
1015.233	6.49786
1015.401	0.17561
1015.568	0.17561
1015.735	-16.68263
1015.902	67.62381
1016.069	-16.68263
1016.236	57.08346
1016.403	-23.00407
1016.57	19.14299
1016.737	33.89672
1016.904	-14.57544
1017.071	8.60532
1017.238	-67.24789
1017.405	57.08346
1017.572	67.62381
1017.739	25.46587
1017.906	-8.2537
1018.073	-20.89695
1018.24	14.92785
1018.407	-8.2537
1018.573	-18.7898
1018.74	69.73195
1018.907	-71.461
1019.074	21.25059
1019.241	-56.71465
1019.407	-8.2537
1019.574	59.19149
1019.741	-27.21824
1019.907	17.0354
1020.074	-25.11117
1020.241	36.00449
1020.407	-6.14641
1020.574	19.14299
1020.74	46.54368
1020.907	76.05651
1021.073	-16.68263
1021.24	-6.14641
1021.406	67.62381
1021.573	-16.68263
1021.739	8.60532
1021.906	33.89672
1022.072	12.82031
1022.239	65.5157
1022.405	-8.2537
1022.571	38.11228
1022.738	27.57355
1022.904	25.46587
1023.07	17.0354
1023.237	-69.35446
1023.403	-25.11117
1023.569	-23.00407
1023.735	17.0354
1023.902	8.60532
1024.068	-50.3944
1024.234	27.57355
1024.4	-65.14129
1024.566	33.89672
1024.732	-69.35446
1024.898	-23.00407
1025.065	78.16474
1025.231	29.68125
1025.397	36.00449
1025.563	10.7128
1025.729	61.29953
1025.895	17.0354
1026.061	36.00449
1026.227	-41.96706
1026.392	-44.07393
1026.558	25.46587
1026.724	99.24826
1026.89	10.7128
1027.056	17.0354
1027.222	-25.11117
1027.388	25.46587
1027.553	21.25059
1027.719	-29.32529
1027.885	-90.41875
1028.051	36.00449
1028.216	27.57355
1028.382	-20.89695
1028.548	2.283
1028.713	21.25059
1028.879	-8.2537
1029.045	14.92785
1029.21	38.11228
1029.376	-46.18078
1029.541	23.35822
1029.707	19.14299
1029.873	0.17561
1030.038	25.46587
1030.204	42.32793
1030.369	8.60532
1030.534	38.11228
1030.7	-27.21824
1030.865	42.32793
1031.031	12.82031
1031.196	-10.36097
1031.361	25.46587
1031.527	-56.71465
1031.692	8.60532
1031.857	-75.67402
1032.023	57.08346
1032.188	-12.46822
1032.353	17.0354
1032.518	-4.03909
1032.684	-37.75323
1032.849	-23.00407
1033.014	-29.32529
1033.179	-60.92802
1033.344	-8.2537
1033.509	-39.86016
1033.674	12.82031
1033.839	0.17561
1034.004	52.86748
1034.17	0.17561
1034.335	29.68125
1034.5	-31.43231
1034.664	-23.00407
1034.829	-46.18078
1034.994	42.32793
1035.159	63.4076
1035.324	-8.2537
1035.489	12.82031
1035.654	84.48956
1035.819	54.97546
1035.984	8.60532
1036.148	2.283
1036.313	27.57355
1036.478	2.283
1036.643	17.0354
1036.807	-52.50118
1036.972	17.0354
1037.137	63.4076
1037.301	59.19149
1037.466	25.46587
1037.631	-14.57544
1037.795	-31.43231
1037.96	-60.92802
1038.124	-8.2537
1038.289	-4.03909
1038.454	-16.68263
1038.618	38.11228
1038.783	12.82031
1038.947	61.29953
1039.111	-29.32529
1039.276	-37.75323
1039.44	-8.2537
1039.605	-6.14641
1039.769	17.0354
1039.933	-23.00407
1040.098	42.32793
1040.262	0.17561
1040.426	19.14299
1040.591	23.35822
1040.755	-1.93175
1040.919	6.49786
1041.083	17.0354
1041.248	12.82031
1041.412	-25.11117
1041.576	-33.53931
1041.74	27.57355
1041.904	-8.2537
1042.068	6.49786
1042.232	21.25059
1042.397	-39.86016
1042.561	-23.00407
1042.725	17.0354
1042.889	-23.00407
1043.053	-8.2537
1043.217	-4.03909
1043.381	-63.03467
1043.544	-4.03909
1043.708	-58.82135
1043.872	33.89672
1044.036	-1.93175
1044.2	-6.14641
1044.364	-75.67402
1044.528	-12.46822
1044.691	-8.2537
1044.855	-31.43231
1045.019	0.17561
1045.183	-6.14641
1045.346	46.54368
1045.51	59.19149
1045.674	-44.07393
1045.837	52.86748
1046.001	8.60532
1046.165	8.60532
1046.328	-46.18078
1046.492	14.92785
1046.655	-23.00407
1046.819	-48.28761
1046.983	-4.03909
1047.146	27.57355
1047.31	36.00449
1047.473	-41.96706
1047.636	-90.41875
1047.8	0.17561
1047.963	-25.11117
1048.127	-16.68263
1048.29	4.39042
