Data from mixed_try1_USB4F045381__33__00098.txt Node

Date: Thu Apr 03 19:57:15 EDT 2025
User: mmckonesweet
Spectrometer: USB4F04538
Trigger mode: 4
Integration Time (sec): 2.700000E-3
Scans to average: 1
Electric dark correction enabled: true
Nonlinearity correction enabled: true
Boxcar width: 0
XAxis mode: Wavelengths
Number of Pixels in Spectrum: 3648
>>>>>Begin Spectral Data<<<<<
345.52	-48.28761
345.736	-48.28761
345.952	-48.28761
346.168	19.14299
346.384	-33.53931
346.6	17.0354
346.816	0.17561
347.032	-63.03467
347.248	54.97546
347.464	-50.3944
347.68	-18.7898
347.896	6.49786
348.112	33.89672
348.328	-52.50118
348.544	59.19149
348.76	29.68125
348.975	-16.68263
349.191	25.46587
349.407	12.82031
349.623	8.60532
349.839	-12.46822
350.055	21.25059
350.27	-6.14641
350.486	-25.11117
350.702	67.62381
350.918	-23.00407
351.133	-75.67402
351.349	-71.461
351.565	6.49786
351.781	-25.11117
351.996	-8.2537
352.212	-81.99334
352.428	-79.88693
352.644	54.97546
352.859	-77.78048
353.075	19.14299
353.291	27.57355
353.506	-6.14641
353.722	-50.3944
353.938	8.60532
354.153	-67.24789
354.369	14.92785
354.584	-69.35446
354.8	-44.07393
355.016	52.86748
355.231	-39.86016
355.447	38.11228
355.662	-1.93175
355.878	17.0354
356.093	54.97546
356.309	-25.11117
356.524	-75.67402
356.74	50.75953
356.955	-25.11117
357.171	-37.75323
357.386	76.05651
357.602	-25.11117
357.817	-29.32529
358.033	25.46587
358.248	8.60532
358.464	33.89672
358.679	-50.3944
358.895	-33.53931
359.11	-75.67402
359.325	0.17561
359.541	-25.11117
359.756	29.68125
359.972	-25.11117
360.187	-23.00407
360.402	-23.00407
360.618	-25.11117
360.833	-58.82135
361.048	95.03138
361.264	-50.3944
361.479	27.57355
361.694	-33.53931
361.909	8.60532
362.125	-67.24789
362.34	-84.09974
362.555	-69.35446
362.77	10.7128
362.986	-1.93175
363.201	8.60532
363.416	-50.3944
363.631	-41.96706
363.847	6.49786
364.062	-54.60793
364.277	-67.24789
364.492	-65.14129
364.707	-46.18078
364.922	-50.3944
365.138	2.283
365.353	109.79086
365.568	-58.82135
365.783	42.32793
365.998	-50.3944
366.213	17.0354
366.428	-75.67402
366.643	33.89672
366.858	31.78897
367.073	50.75953
367.288	-63.03467
367.503	0.17561
367.718	8.60532
367.933	33.89672
368.148	-46.18078
368.363	-6.14641
368.578	-25.11117
368.793	-39.86016
369.008	0.17561
369.223	-44.07393
369.438	-8.2537
369.653	-23.00407
369.868	-50.3944
370.083	59.19149
370.298	8.60532
370.513	-8.2537
370.728	-56.71465
370.943	21.25059
371.157	-12.46822
371.372	31.78897
371.587	-12.46822
371.802	-14.57544
372.017	-67.24789
372.232	71.84011
372.446	0.17561
372.661	-31.43231
372.876	-25.11117
373.091	33.89672
373.306	54.97546
373.52	-12.46822
373.735	36.00449
373.95	46.54368
374.165	-4.03909
374.379	25.46587
374.594	-65.14129
374.809	-65.14129
375.023	12.82031
375.238	8.60532
375.453	-33.53931
375.667	54.97546
375.882	-29.32529
376.097	19.14299
376.311	-8.2537
376.526	-33.53931
376.741	25.46587
376.955	-27.21824
377.17	-20.89695
377.384	19.14299
377.599	-16.68263
377.813	-50.3944
378.028	-8.2537
378.242	27.57355
378.457	-4.03909
378.672	71.84011
378.886	-37.75323
379.101	27.57355
379.315	6.49786
379.53	33.89672
379.744	-48.28761
379.958	57.08346
380.173	42.32793
380.387	0.17561
380.602	-31.43231
380.816	-75.67402
381.031	-14.57544
381.245	-8.2537
381.459	42.32793
381.674	40.22009
381.888	-8.2537
382.103	17.0354
382.317	-67.24789
382.531	33.89672
382.746	-12.46822
382.96	-46.18078
383.174	23.35822
383.388	38.11228
383.603	-58.82135
383.817	0.17561
384.031	-6.14641
384.246	88.70622
384.46	-23.00407
384.674	67.62381
384.888	-33.53931
385.103	-33.53931
385.317	-35.64629
385.531	0.17561
385.745	-29.32529
385.959	44.4358
386.174	21.25059
386.388	61.29953
386.602	48.65159
386.816	-25.11117
387.03	-23.00407
387.244	29.68125
387.458	-58.82135
387.672	-23.00407
387.887	-50.3944
388.101	0.17561
388.315	17.0354
388.529	17.0354
388.743	8.60532
388.957	-4.03909
389.171	19.14299
389.385	2.283
389.599	-56.71465
389.813	-6.14641
390.027	-18.7898
390.241	12.82031
390.455	19.14299
390.669	0.17561
390.883	-39.86016
391.097	2.283
391.311	-94.6313
391.525	2.283
391.738	8.60532
391.952	31.78897
392.166	-41.96706
392.38	-6.14641
392.594	-67.24789
392.808	10.7128
393.022	8.60532
393.236	-48.28761
393.449	4.39042
393.663	-25.11117
393.877	0.17561
394.091	10.7128
394.305	8.60532
394.518	-31.43231
394.732	-23.00407
394.946	-6.14641
395.16	-50.3944
395.373	8.60532
395.587	38.11228
395.801	-23.00407
396.015	10.7128
396.228	63.4076
396.442	-8.2537
396.656	2.283
396.869	-63.03467
397.083	10.7128
397.297	-39.86016
397.51	-31.43231
397.724	-50.3944
397.938	2.283
398.151	33.89672
398.365	-48.28761
398.578	-56.71465
398.792	-12.46822
399.005	14.92785
399.219	-23.00407
399.433	-58.82135
399.646	-67.24789
399.86	-31.43231
400.073	17.0354
400.287	-16.68263
400.5	86.59788
400.714	-16.68263
400.927	-44.07393
401.141	19.14299
401.354	82.38126
401.567	84.48956
401.781	-46.18078
401.994	17.0354
402.208	25.46587
402.421	-41.96706
402.635	4.39042
402.848	-63.03467
403.061	-1.93175
403.275	36.00449
403.488	-8.2537
403.701	-29.32529
403.915	8.60532
404.128	25.46587
404.341	-1.93175
404.555	-41.96706
404.768	-1.93175
404.981	42.32793
405.195	-20.89695
405.408	71.84011
405.621	12.82031
405.834	-8.2537
406.048	8.60532
406.261	-16.68263
406.474	-58.82135
406.687	59.19149
406.9	-41.96706
407.114	46.54368
407.327	-16.68263
407.54	-10.36097
407.753	52.86748
407.966	-37.75323
408.179	65.5157
408.392	-79.88693
408.605	86.59788
408.819	36.00449
409.032	52.86748
409.245	17.0354
409.458	59.19149
409.671	-23.00407
409.884	-10.36097
410.097	17.0354
410.31	65.5157
410.523	-84.09974
410.736	4.39042
410.949	4.39042
411.162	36.00449
411.375	-20.89695
411.588	8.60532
411.801	17.0354
412.014	-41.96706
412.227	17.0354
412.44	2.283
412.653	-4.03909
412.865	50.75953
413.078	65.5157
413.291	29.68125
413.504	-8.2537
413.717	25.46587
413.93	73.9483
414.143	21.25059
414.356	-25.11117
414.568	25.46587
414.781	12.82031
414.994	-16.68263
415.207	48.65159
415.42	-16.68263
415.632	27.57355
415.845	-23.00407
416.058	17.0354
416.271	-16.68263
416.483	-16.68263
416.696	4.39042
416.909	-23.00407
417.121	78.16474
417.334	19.14299
417.547	10.7128
417.759	44.4358
417.972	67.62381
418.185	42.32793
418.397	59.19149
418.61	-60.92802
418.823	4.39042
419.035	25.46587
419.248	8.60532
419.46	-1.93175
419.673	67.62381
419.885	-39.86016
420.098	10.7128
420.311	-37.75323
420.523	-65.14129
420.736	-75.67402
420.948	61.29953
421.161	-35.64629
421.373	10.7128
421.586	-20.89695
421.798	2.283
422.01	-44.07393
422.223	-12.46822
422.435	19.14299
422.648	19.14299
422.86	25.46587
423.073	12.82031
423.285	-8.2537
423.497	-4.03909
423.71	52.86748
423.922	42.32793
424.134	33.89672
424.347	76.05651
424.559	50.75953
424.771	17.0354
424.984	38.11228
425.196	-18.7898
425.408	-8.2537
425.621	-6.14641
425.833	-16.68263
426.045	-8.2537
426.257	61.29953
426.47	-4.03909
426.682	17.0354
426.894	27.57355
427.106	-54.60793
427.318	33.89672
427.531	4.39042
427.743	73.9483
427.955	84.48956
428.167	69.73195
428.379	19.14299
428.591	-39.86016
428.804	52.86748
429.016	67.62381
429.228	61.29953
429.44	-37.75323
429.652	27.57355
429.864	130.87769
430.076	17.0354
430.288	17.0354
430.5	46.54368
430.712	-14.57544
430.924	17.0354
431.136	50.75953
431.348	78.16474
431.56	-77.78048
431.772	31.78897
431.984	-14.57544
432.196	25.46587
432.408	44.4358
432.62	-37.75323
432.832	-12.46822
433.044	84.48956
433.256	8.60532
433.468	-12.46822
433.679	50.75953
433.891	46.54368
434.103	52.86748
434.315	92.92297
434.527	82.38126
434.739	59.19149
434.95	71.84011
435.162	67.62381
435.374	63.4076
435.586	84.48956
435.798	33.89672
436.009	-14.57544
436.221	21.25059
436.433	59.19149
436.645	17.0354
436.856	4.39042
437.068	69.73195
437.28	-12.46822
437.491	61.29953
437.703	50.75953
437.915	54.97546
438.126	59.19149
438.338	71.84011
438.55	84.48956
438.761	114.00805
438.973	67.62381
439.184	25.46587
439.396	84.48956
439.608	54.97546
439.819	92.92297
440.031	84.48956
440.242	27.57355
440.454	101.35674
440.665	33.89672
440.877	12.82031
441.088	67.62381
441.3	33.89672
441.511	0.17561
441.723	61.29953
441.934	143.53082
442.146	78.16474
442.357	40.22009
442.569	40.22009
442.78	162.51195
442.991	118.22533
443.203	111.89944
443.414	101.35674
443.626	40.22009
443.837	67.62381
444.048	82.38126
444.26	27.57355
444.471	59.19149
444.682	-1.93175
444.894	50.75953
445.105	151.96666
445.316	141.42191
445.528	25.46587
445.739	2.283
445.95	177.27622
446.161	-8.2537
446.373	78.16474
446.584	88.70622
446.795	135.09531
447.006	109.79086
447.217	52.86748
447.429	0.17561
447.64	137.20416
447.851	105.57375
448.062	-12.46822
448.273	130.87769
448.484	78.16474
448.695	99.24826
448.907	107.68229
449.118	137.20416
449.329	52.86748
449.54	130.87769
449.751	168.83937
449.962	52.86748
450.173	111.89944
450.384	156.18471
450.595	52.86748
450.806	17.0354
451.017	84.48956
451.228	103.46523
451.439	151.96666
451.65	206.80777
451.861	151.96666
452.072	139.31302
452.283	132.98649
452.494	158.29377
452.705	194.1509
452.915	160.40285
453.126	173.05775
453.337	118.22533
453.548	88.70622
453.759	92.92297
453.97	156.18471
454.181	126.66015
454.391	107.68229
454.602	99.24826
454.813	221.57502
455.024	103.46523
455.235	194.1509
455.445	122.44269
455.656	227.90414
455.867	122.44269
456.078	156.18471
456.288	198.36978
456.499	211.02688
456.71	213.13647
456.921	151.96666
457.131	211.02688
457.342	244.78265
457.553	251.11241
457.763	158.29377
457.974	230.01389
458.184	251.11241
458.395	244.78265
458.606	208.91732
458.816	297.53586
459.027	274.323
459.237	265.88252
459.448	322.8615
459.659	232.12365
459.869	312.30883
460.08	244.78265
460.29	263.77245
460.501	305.97745
460.711	284.87402
460.922	303.86702
461.132	280.65356
461.343	356.63299
461.553	316.52984
461.764	341.85741
461.974	289.09456
462.184	308.08789
462.395	413.63227
462.605	449.52678
462.816	398.85351
463.026	362.96564
463.236	400.96472
463.447	445.30366
463.657	403.07593
463.867	432.63468
464.078	365.07655
464.288	498.09704
464.498	565.68581
464.709	523.44114
464.919	398.85351
465.129	506.54484
465.339	527.66536
465.55	546.67503
465.76	612.16115
465.97	525.55324
466.18	525.55324
466.391	633.28834
466.601	591.03522
466.811	658.64259
467.021	768.52992
467.231	791.77895
467.441	531.88963
467.651	836.16667
467.862	734.71533
468.072	872.10247
468.282	747.39549
468.492	781.21107
468.702	848.84961
468.912	800.23344
469.122	700.90343
469.332	958.78079
469.542	886.90028
469.752	1037.01286
469.962	1001.06731
470.172	1121.59697
470.382	1113.1382
470.592	1166.00668
470.802	1083.5331
471.012	1172.35107
471.222	1261.1758
471.432	1208.30325
471.642	1187.15478
471.852	1440.9518
472.062	1271.75052
472.272	1362.69522
472.482	1440.9518
472.691	1709.55539
472.901	1404.99596
473.111	1576.31424
473.321	1506.51835
473.531	1591.11924
473.741	1654.56816
473.95	1737.04823
474.16	1709.55539
474.37	1800.49086
474.58	1677.83222
474.79	1971.765
474.999	1825.86688
475.209	1893.53295
475.419	1997.13581
475.628	2140.88505
475.838	2079.58431
476.048	2085.92606
476.258	2238.10682
476.467	2343.76127
476.677	2371.22748
476.886	2459.95253
477.096	2624.67541
477.306	2628.89813
477.515	2430.37959
477.725	2599.33811
477.935	2641.56596
478.144	2723.8958
478.354	2747.11346
478.563	2873.72634
478.773	2996.06999
478.982	2947.56034
479.192	3198.45659
479.401	3093.06509
479.611	3015.04986
479.82	3297.48709
480.03	3345.93516
480.239	3489.11869
480.449	3341.72264
480.658	3564.88799
480.868	3449.11982
481.077	3632.21833
481.287	3476.48817
481.496	3676.39338
481.705	3726.86885
481.915	4029.48341
482.124	3867.72018
482.333	3880.32941
482.543	4023.1832
482.752	3962.27174
482.961	3968.57372
483.171	4249.87228
483.38	4340.05929
483.589	4413.43782
483.799	4272.94715
484.008	4568.49263
484.217	4266.65426
484.426	4461.64344
484.636	4622.94254
484.845	4740.16782
485.054	4685.75057
485.263	4905.41842
485.472	4773.64776
485.682	4871.96144
485.891	4940.96004
486.1	5007.84387
486.309	5099.77054
486.518	5074.70408
486.727	5110.21392
486.936	5241.75062
487.146	5352.3367
487.355	5546.22467
487.564	5291.83548
487.773	5496.20854
487.982	5512.88209
488.191	5508.71385
488.4	5654.54638
488.609	5671.2056
488.818	5825.23178
489.027	5766.9668
489.236	5999.91571
489.445	5866.83829
489.654	5929.23036
489.863	6290.68652
490.072	5887.638
490.281	6373.67952
490.49	6209.73232
490.698	6464.92872
490.907	6257.47885
491.116	6444.19422
491.325	6435.89977
491.534	6576.85493
491.743	6547.84351
491.952	6980.47501
492.16	6723.9147
492.369	6701.13838
492.578	6761.17906
492.787	6866.72123
492.996	6763.24908
493.204	7065.2289
493.413	7011.48691
493.622	7085.89486
493.831	7069.36227
494.039	7259.40103
494.248	7038.3598
494.457	7156.14242
494.665	7275.91728
494.874	7465.75349
495.083	7542.04888
495.291	7492.56334
495.5	7399.74443
495.709	7645.10415
495.917	7492.56334
496.126	7719.27105
496.335	7542.04888
496.543	7752.22535
496.752	7535.86386
496.96	7805.76464
497.169	7857.23144
497.377	7700.73189
497.586	7937.49381
497.794	8202.75633
498.003	7997.15583
498.211	8052.68782
498.42	8167.81839
498.628	8326.02105
498.837	8215.08599
499.045	8278.77794
499.254	8184.26049
499.462	8539.51427
499.671	8447.16288
499.879	8594.90669
500.087	8574.39258
500.296	8465.63625
500.504	8621.57223
500.713	8775.35068
500.921	8820.43946
501.129	8717.95218
501.338	8449.21555
501.546	8912.63932
501.754	8609.26545
501.962	8924.9299
502.171	8783.54929
502.379	9274.94751
502.587	8857.32377
502.795	9176.74762
503.004	8873.71493
503.212	9238.1271
503.42	9127.63303
503.628	9268.81115
503.837	9281.08372
504.045	9328.12301
504.253	9289.2651
504.461	9469.18871
504.669	9518.23698
504.877	9467.14483
505.085	9751.09248
505.294	9469.18871
505.502	9577.4914
505.71	9871.52731
505.918	9567.27607
506.126	9971.51026
506.334	9618.3488
506.542	9775.59194
506.75	9779.67497
506.958	9926.6243
507.166	10008.22992
507.374	9893.97553
507.582	9906.21926
507.79	10155.06247
507.998	9928.66472
508.206	10173.41143
508.414	10108.16556
508.622	10263.10145
508.83	10338.50233
509.037	10499.43303
509.245	10038.82609
509.453	10434.25568
509.661	10326.2764
509.869	10301.82311
510.077	10295.70949
510.285	10865.81879
510.492	10505.54273
510.7	10591.06665
510.908	10888.19651
511.116	10643.999
511.324	10652.1417
511.531	10924.81161
511.739	10802.74676
511.947	10611.42624
512.155	10542.19856
512.362	10739.66344
512.57	10782.39854
512.778	10821.05915
512.985	11034.63499
513.193	10928.87972
513.401	11325.31146
513.608	11229.79806
513.816	10857.68109
514.024	11113.93188
514.231	11270.44482
514.439	11376.10736
514.646	10985.82862
514.854	11359.85335
515.061	11012.2662
515.269	11727.45098
515.477	11231.8305
515.684	11321.24752
515.892	11463.46191
516.099	11520.33434
516.307	11424.86561
516.514	11573.13783
516.722	11286.70238
516.929	11538.61319
517.136	11565.01463
517.344	11522.36536
517.551	11603.59852
517.759	11906.06613
517.966	11627.96559
518.173	11694.96831
518.381	11993.32055
518.588	11962.88466
518.796	11895.91929
519.003	12179.95558
519.21	11977.0883
519.418	12224.57624
519.625	11806.61811
519.832	12307.7236
520.039	12165.75735
520.247	12325.97386
520.454	12346.25128
520.661	12360.44506
520.868	12271.22136
521.076	12771.92671
521.283	12390.85916
521.49	12496.28308
521.697	12411.13439
521.904	12459.79221
522.112	12001.43648
522.319	12852.97777
522.526	12390.85916
522.733	12778.00585
522.94	12729.3713
523.147	12763.82111
523.354	12727.34479
523.561	13106.2079
523.768	13017.0799
523.975	13071.7732
524.183	12798.26928
524.39	12927.94225
524.597	13035.3114
524.804	13114.30999
525.011	13136.59033
525.218	13260.13493
525.425	13152.79386
525.632	12946.17576
525.838	13181.14933
526.045	13407.96233
526.252	13322.91365
526.459	13420.11157
526.666	13310.76324
526.873	13598.28481
527.08	13517.30049
527.287	13711.65365
527.494	13416.06184
527.701	13905.97762
527.907	13665.0927
528.114	13551.71952
528.321	14043.60851
528.528	14003.13004
528.735	13770.35855
528.941	13802.74637
529.148	13584.11296
529.355	13825.01256
529.562	13988.96234
529.768	13968.72257
529.975	13620.55451
530.182	14096.22912
530.388	13879.66446
530.595	14187.29972
530.802	14035.51289
531.008	14565.70927
531.215	14436.20627
531.422	14589.9905
531.628	14266.22422
531.835	14318.83898
532.042	14424.06507
532.248	14670.9268
532.455	14458.46499
532.661	14658.78646
532.868	15049.28764
533.074	14915.75072
533.281	14751.86155
533.487	14695.20738
533.694	14764.00164
533.9	14976.44951
534.107	14741.74478
534.313	14938.00699
534.52	15033.10142
534.726	15154.49782
534.933	15063.45057
535.139	15103.91604
535.345	15116.05567
535.552	15079.63677
535.758	14917.77402
535.965	15387.17476
536.171	15316.35973
536.377	15395.26794
536.584	15328.49942
536.79	15225.31231
536.996	15425.61741
537.203	15573.31989
537.409	15283.98726
537.615	15389.19805
537.821	15559.1565
538.028	15793.86956
538.234	15781.72892
538.44	15953.72531
538.646	15613.78695
538.853	15696.74543
539.059	15640.0907
539.265	16004.31424
539.471	15828.26828
539.677	15986.10213
539.883	15832.3152
540.09	16178.34718
540.296	16093.35292
540.502	16117.63671
540.708	16099.42385
540.914	16105.49479
541.12	16081.21111
541.326	16360.48788
541.532	16398.94172
541.738	16680.28469
541.944	16496.09147
542.15	16516.3316
542.356	16390.84611
542.562	16550.74031
542.768	16747.08469
542.974	16826.03353
543.18	16568.95694
543.386	16953.57433
543.592	16785.54648
543.798	16900.9372
544.004	16617.53549
544.21	16651.94607
544.415	16860.4483
544.621	17156.04174
544.827	16860.4483
545.033	17085.17501
545.239	17093.27389
545.445	17597.52201
545.651	16682.3089
545.856	17214.76252
546.062	17172.24033
546.268	17287.6607
546.474	17048.7306
546.679	17012.28707
546.885	16787.57081
547.091	16862.47272
547.297	17032.53336
547.502	17245.1363
547.708	17180.3397
547.914	17690.69753
548.119	17593.47106
548.325	17449.67057
548.531	17081.12559
548.736	17601.57298
548.942	17253.23608
549.147	17350.43721
549.353	17463.84738
549.559	17885.17363
549.764	17386.88942
549.97	17540.80986
550.175	17469.92319
550.381	17919.6154
550.586	17846.68107
550.792	17960.13643
550.997	17619.80248
551.203	18310.70332
551.408	17945.95391
551.614	18170.86877
551.819	18264.08984
552.025	18276.24969
552.23	18138.44586
552.435	18253.95674
552.641	18225.58454
552.846	18276.24969
553.052	18351.23839
553.257	18410.01692
553.462	18730.31529
553.668	18645.16322
553.873	18602.58977
554.078	18854.00094
554.283	18618.80803
554.489	18927.0027
554.694	18827.64046
554.899	18839.80675
555.105	18774.92152
555.31	18882.3899
555.515	18703.95795
555.72	19046.65577
555.925	18537.71925
556.131	19221.09065
556.336	18951.33778
556.541	19077.07829
556.746	19010.14995
556.951	19235.29017
557.156	18912.80751
557.361	19060.85283
557.567	19610.6366
557.772	19750.66717
557.977	19677.60525
558.182	19344.83609
558.387	19190.66378
558.592	19553.81827
558.797	19300.20482
559.002	19417.8734
559.207	19659.34062
559.412	19352.95109
559.617	19091.27577
559.822	19340.77862
560.027	19314.40546
560.232	19492.94513
560.437	19249.48989
560.642	19535.55594
560.847	19860.27023
561.051	19880.56844
561.256	19428.0179
561.461	19933.34574
561.666	19626.871
561.871	19971.91557
562.076	19655.28186
562.281	19742.54891
562.485	19590.34396
562.69	19655.28186
562.895	19557.87662
563.1	19754.72632
563.305	19608.60731
563.509	19874.47893
563.714	19917.10627
563.919	19947.5555
564.123	19854.18085
564.328	19984.09583
564.533	19787.20016
564.737	20065.30144
564.942	20331.29692
565.147	20233.82455
565.351	20166.81792
565.556	20028.75808
565.761	20207.42745
565.965	20138.39224
566.17	20233.82455
566.374	20329.26615
566.579	20481.58577
566.784	20174.93969
566.988	20367.85155
567.193	20581.11397
567.397	20221.64119
567.602	20256.16112
567.806	20487.67904
568.011	20274.43686
568.215	20814.73987
568.42	21040.29157
568.624	21013.87298
568.828	20934.6214
569.033	20698.93581
569.237	20717.21977
569.442	21054.51724
569.646	20715.1882
569.85	20808.64459
570.055	20859.43978
570.259	20778.16872
570.463	20851.31237
570.668	21206.94776
570.872	20877.72668
571.076	20800.5176
571.281	21125.64863
571.485	21188.65489
571.689	21174.42733
571.893	21188.65489
572.098	21194.75248
572.302	21052.48499
572.506	21351.26965
572.71	21544.40802
572.914	21507.81063
573.119	21038.25934
573.323	21145.97281
573.527	21361.43393
573.731	21497.64491
573.935	21412.25683
574.139	21463.08222
574.343	21156.13504
574.547	21471.21452
574.751	21774.18746
574.955	21534.24195
575.159	21764.01917
575.364	21536.27516
575.568	21639.97392
575.772	21456.98304
575.976	21601.33985
576.18	21644.04075
576.383	21914.51966
576.587	21766.05282
576.791	21444.78479
576.995	22119.96625
577.199	21764.01917
577.403	21863.67254
577.607	22414.98089
577.811	22311.2083
578.015	21932.82521
578.219	22217.61767
578.422	21827.0641
578.626	22024.35759
578.83	21924.68937
579.034	22056.90428
579.238	21965.36917
579.442	22270.51577
579.645	22233.89374
579.849	22712.10701
580.053	22469.92314
580.257	22282.72337
580.46	22437.36445
580.664	22683.6122
580.868	22447.53894
581.071	22425.15518
581.275	22478.06296
581.479	22822.02194
581.682	22565.56959
581.886	22626.62463
582.09	22447.53894
582.293	22209.47973
582.497	22258.30829
582.7	22620.51898
582.904	22549.28879
583.107	22881.05447
583.311	22417.01574
583.515	22622.5542
583.718	22555.39406
583.922	22858.66249
584.125	22893.26846
584.329	23015.41501
584.532	22773.16962
584.735	23412.47312
584.939	23086.67272
585.142	23182.36801
585.346	22765.02775
585.549	23137.57357
585.753	23345.27007
585.956	23308.61532
586.159	23221.05538
586.363	23318.79709
586.566	23322.86983
586.769	23229.20024
586.973	23436.91144
587.176	23705.76221
587.379	23310.65167
587.582	23699.65138
587.786	23638.54455
587.989	23269.92531
588.192	23074.45683
588.395	23591.69782
588.599	23300.46996
588.802	23868.7275
589.005	23766.87199
589.208	23917.62073
589.411	23986.88895
589.615	24011.33735
589.818	23948.17983
590.021	23720.02092
590.224	23848.35582
590.427	23597.80817
590.63	23868.7275
590.833	23946.14254
591.036	24025.5991
591.239	23931.88157
591.442	23779.09427
591.645	24261.95641
591.848	24431.09638
592.051	24549.3012
592.254	24284.3715
592.457	24486.12169
592.66	24137.66046
592.863	24643.05591
593.066	24388.30022
593.269	24200.82599
593.472	24376.07295
593.675	24553.37738
593.878	24667.51452
594.081	24763.31416
594.284	24804.08158
594.486	24602.29234
594.689	24616.55948
594.892	24302.71136
595.095	24908.04283
595.298	24545.22503
595.5	24567.6441
595.703	25136.37098
595.906	24755.16079
596.109	24622.674
596.311	24323.08924
596.514	24583.94906
596.717	24869.31145
596.92	24938.62082
597.122	24712.35623
597.325	24722.5477
597.528	24751.08412
597.73	25211.80699
597.933	24948.81361
598.136	25434.05454
598.338	25134.33221
598.541	25340.25893
598.743	25354.53189
598.946	25083.3637
599.148	25150.64243
599.351	25150.64243
599.554	25189.37976
599.756	25077.24757
599.959	25686.91635
600.161	25576.79533
600.363	25768.49114
600.566	25552.32478
600.768	25591.06996
600.971	25279.09028
601.173	25297.44067
601.376	25109.86715
601.578	25344.33691
601.78	25574.75611
601.983	25478.91486
602.185	25556.40319
602.388	25489.11052
602.59	25478.91486
602.792	25621.65876
602.995	25564.56002
603.197	25548.24638
603.399	25729.74273
603.601	25533.97205
603.804	25552.32478
604.006	25972.44126
604.208	25737.90023
604.41	25589.03072
604.613	25739.93961
604.815	25374.92201
605.017	25821.51638
605.219	25731.7821
605.421	25848.02948
605.623	25782.76704
605.826	25690.99502
606.028	25746.05777
606.23	25721.58526
606.432	25717.50654
606.634	25960.20374
606.836	25613.5017
607.038	25705.27041
607.24	25650.20871
607.442	25603.30542
607.644	25799.08247
607.846	26047.90744
608.048	26137.65415
608.25	26243.72277
608.452	26443.63361
608.654	26549.71505
608.856	26241.68294
609.058	26537.47466
609.26	26527.27439
609.462	26706.80489
609.664	26347.75603
609.866	26610.9178
610.067	26390.59451
610.269	26537.47466
610.471	25899.01709
610.673	26262.08126
610.875	26121.33632
611.077	26221.28479
611.278	26000.99575
611.48	26390.59451
611.682	26031.59022
611.884	26537.47466
612.085	25646.13012
612.287	26086.66129
612.489	26211.08578
612.69	26735.36765
612.892	26566.03565
613.094	26510.95403
613.295	26054.02643
613.497	26594.59693
613.699	26692.52362
613.9	26788.41354
614.102	26894.50828
614.304	26598.67714
614.505	26121.33632
614.707	26219.24499
614.908	25874.54289
615.11	26139.69389
615.311	25996.91651
615.513	25915.33337
615.714	25966.32249
615.916	26355.91569
616.117	26003.03536
616.319	26323.27723
616.52	26204.96639
616.722	26335.5166
616.923	26651.72041
617.124	26876.14545
617.326	26427.31377
617.527	26696.60398
617.729	26749.64913
617.93	26572.1559
618.131	26500.75385
618.333	26743.52849
618.534	26680.2826
618.735	26704.76471
618.937	26496.67379
619.138	26174.36969
619.339	26284.51961
619.54	26692.52362
619.742	26429.35374
619.943	26647.64012
620.144	26398.7543
620.345	26765.97092
620.546	26659.881
620.748	26890.42764
620.949	26410.99403
621.15	26694.5638
621.351	26500.75385
621.552	26500.75385
621.753	26472.19357
621.954	26782.29281
622.155	26168.25039
622.356	26692.52362
622.558	26690.48345
622.759	26712.92546
622.96	26527.27439
623.161	26743.52849
623.362	26806.77581
623.563	27425.03813
623.764	26918.99224
623.965	26994.48572
624.166	26947.55711
624.366	26706.80489
624.567	26688.44328
624.768	27084.26424
624.969	26198.84702
625.17	26814.93685
625.371	26563.99557
625.572	26706.80489
625.773	26865.94393
625.973	27059.77892
626.174	26914.91156
626.375	27076.10244
626.576	27076.10244
626.777	27088.34514
626.977	26876.14545
627.178	26945.51675
627.379	26702.72452
627.58	26814.93685
627.78	26998.5665
627.981	26959.79929
628.182	26906.75023
628.382	26710.88527
628.583	26874.10514
628.784	26821.05766
628.984	26849.62157
629.185	27610.74432
629.386	26584.39644
629.586	27502.58452
629.787	26547.67498
629.987	26725.16663
630.188	26886.34701
630.388	27422.99746
630.589	26863.90363
630.79	27045.49591
630.99	26882.26638
631.191	26653.76056
631.391	26965.92039
631.591	27298.51901
631.792	27110.79022
631.992	27363.81859
632.193	27722.98922
632.393	27267.91029
632.594	27078.14289
632.794	27302.6002
632.994	27249.5452
633.195	27000.6069
633.395	27345.45295
633.595	26980.20302
633.796	27414.8348
633.996	27447.48559
634.196	27706.66247
634.397	27431.16015
634.597	27249.5452
634.797	27453.60764
634.997	27218.93696
635.198	27165.88337
635.398	26980.20302
635.598	27563.80662
635.798	27204.65321
635.998	27612.7851
636.199	27306.68139
636.399	27639.3154
636.599	27021.01091
636.799	27725.03007
636.999	27504.62524
637.199	27323.0062
637.399	27290.35666
637.599	27749.52037
637.799	26998.5665
637.999	27669.92754
638.199	27329.12802
638.399	27296.47842
638.599	27090.3856
638.799	27749.52037
638.999	27782.17435
639.199	27714.82583
639.399	27871.97437
639.599	27763.80645
639.799	27478.09599
639.999	27904.62947
640.199	27774.01083
640.399	28110.77156
640.599	27018.9705
640.799	28135.26445
640.998	27980.14553
641.198	27680.13165
641.398	27539.31765
641.598	27537.27691
641.798	27553.60286
641.997	27467.89249
642.197	27118.9521
642.397	27690.33579
642.597	27527.07323
642.796	27871.97437
642.996	27774.01083
643.196	27861.76971
643.395	28084.23778
643.595	27937.28487
643.795	28288.34862
643.994	28131.1823
644.194	28004.63756
644.394	27712.78499
644.593	27255.66689
644.793	27592.37732
644.992	28343.46041
645.192	28288.34862
645.392	28041.37591
645.591	28280.18397
645.791	27698.49912
645.99	27596.45886
646.19	27788.29701
646.389	27886.26094
646.589	28190.37404
646.788	28367.9548
646.987	27671.96836
647.187	28098.52518
647.386	28298.55444
647.586	28610.86578
647.785	28357.74879
647.984	28465.93389
648.184	28768.05143
648.383	28537.37852
648.582	28467.97514
648.782	28612.90711
648.981	28343.46041
649.18	28047.49901
649.38	28200.57961
649.579	28220.99083
649.778	28457.76887
649.977	28363.87239
650.177	28494.51158
650.376	28339.37803
650.575	27986.26853
650.774	27849.52415
650.973	27935.2439
651.173	27800.54235
651.372	27969.94057
651.571	28323.04854
651.77	28492.47031
651.969	28306.71913
652.168	28190.37404
652.367	28349.584
652.566	28937.49224
652.765	28678.2303
652.964	28155.67532
653.163	28578.20461
653.362	28514.92435
653.561	28441.43888
653.76	28496.55286
653.959	28302.63678
654.158	28329.17209
654.357	27774.01083
654.556	27892.38377
654.755	28204.66184
654.954	28327.13091
655.153	28031.17078
655.352	28533.29593
655.551	28059.74522
655.749	28161.7986
655.948	28559.83281
656.147	28312.84265
656.346	28780.29992
656.545	28943.61674
656.743	28490.42904
656.942	28817.04563
657.141	28804.79702
657.34	28657.81669
657.538	28747.63736
657.737	28343.46041
657.936	28725.182
658.135	28763.96861
658.333	28657.81669
658.532	28372.03721
658.731	28092.402
658.929	28457.76887
659.128	28627.19647
659.326	28731.30618
659.525	28774.17567
659.724	28488.38777
659.922	28549.6263
660.121	28210.7852
660.319	28055.66315
660.518	28004.63756
660.716	28461.85138
660.915	28857.87458
661.113	28735.38897
661.312	28708.85091
661.51	28616.98978
661.709	28823.16994
661.907	28741.51316
662.105	28545.5437
662.304	28861.9575
662.502	28627.19647
662.701	29035.48537
662.899	28467.97514
663.097	28629.23781
663.296	28902.78691
663.494	29068.15028
663.692	28602.70046
663.891	28790.50703
664.089	28310.80147
664.287	28825.21138
664.485	28927.28476
664.684	29198.81256
664.882	29145.7305
665.08	28902.78691
665.278	28443.48013
665.476	28543.5024
665.675	28447.56262
665.873	28600.65913
666.071	28490.42904
666.269	29062.02559
666.467	28463.89263
666.665	28727.22339
666.863	28335.29565
667.061	28596.57648
667.259	28257.73129
667.457	28702.72677
667.655	28451.64512
667.853	28668.02348
668.051	28176.08629
668.249	28361.83119
668.447	28308.7603
668.645	28212.82633
668.843	28341.41922
669.041	28619.03111
669.239	28331.21328
669.437	28296.51328
669.635	28257.73129
669.833	28612.90711
670.031	27816.86955
670.229	28247.52557
670.426	28521.0482
670.624	28418.98527
670.822	28439.39764
671.02	28429.19144
671.218	28529.21335
671.415	28263.85474
671.613	28357.74879
671.811	28431.23268
672.009	28539.41981
672.206	28359.78999
672.404	28296.51328
672.602	28329.17209
672.799	28292.43094
672.997	28090.36094
673.195	28043.41694
673.392	28386.32569
673.59	28172.00409
673.788	28018.92466
673.985	28443.48013
674.183	28663.94076
674.38	28135.26445
674.578	27984.22753
674.775	28047.49901
674.973	28239.36101
675.17	28165.88079
675.368	28290.38978
675.565	28361.83119
675.763	28247.52557
675.96	28161.7986
676.158	28071.99148
676.355	28431.23268
676.553	29080.39969
676.75	28529.21335
676.947	28755.80298
677.145	27796.46057
677.342	27880.13812
677.539	27876.05624
677.737	28220.99083
677.934	27980.14553
678.131	27943.4078
678.329	28182.20961
678.526	28349.584
678.723	28796.63131
678.92	28672.1062
679.118	28488.38777
679.315	28253.649
679.512	28135.26445
679.709	28388.36691
679.906	27920.95714
680.104	28112.81263
680.301	27486.25882
680.498	27467.89249
680.695	27476.05529
680.892	27574.01041
681.089	27590.33654
681.286	27961.77662
681.483	27549.52137
681.68	27976.06354
681.877	27825.03317
682.075	28061.78626
682.272	27692.37662
682.469	27971.98156
682.665	27637.2746
682.862	27947.48975
683.059	27933.20293
683.256	27794.41968
683.453	27180.16694
683.65	27427.0788
683.847	27314.84378
684.044	27010.80889
684.241	27498.50309
684.438	27782.17435
684.635	27288.31607
684.831	27859.72878
685.028	27245.46409
685.225	27467.89249
685.422	26931.23429
685.619	27018.9705
685.815	27167.92387
686.012	27420.9568
686.209	26904.7099
686.405	27776.05171
686.602	27453.60764
686.799	26853.70215
686.996	27259.74802
687.192	27390.34692
687.389	27063.85979
687.586	26918.99224
687.782	26898.58893
687.979	27384.22498
688.175	26633.35916
688.372	26941.43604
688.568	27210.77481
688.765	27155.68086
688.962	27325.04681
689.158	27072.02155
689.355	26706.80489
689.551	27157.72136
689.748	26861.86333
689.944	26353.87577
690.14	26837.37985
690.337	26541.55479
690.533	26768.01115
690.73	26668.04162
690.926	26910.8309
691.123	26743.52849
691.319	26614.99804
691.515	27133.23546
691.712	27112.83069
691.908	26931.23429
692.104	26543.59485
692.301	26531.35449
692.497	26327.35701
692.693	26588.47663
692.889	26741.48828
693.086	26735.36765
693.282	26710.88527
693.478	27135.27594
693.674	26714.96565
693.87	26566.03565
694.067	26639.47956
694.263	26945.51675
694.459	26874.10514
694.655	26798.61478
694.851	26515.03411
695.047	26143.77337
695.243	26470.15357
695.439	26141.73363
695.635	26253.92192
695.831	26466.07356
696.027	25905.13568
696.224	26239.64312
696.42	25921.452
696.615	26153.9721
696.811	26158.0516
697.007	26313.0778
697.203	25584.95225
697.399	26241.68294
697.595	25917.37291
697.791	26074.42316
697.987	26009.15423
698.183	26419.15389
698.379	26255.96175
698.575	26733.32744
698.77	26419.15389
698.966	26392.63445
699.162	26486.47367
699.358	26266.16095
699.554	26427.31377
699.749	26449.75357
699.945	26637.43943
700.141	26702.72452
700.337	26427.31377
700.532	26276.36019
700.728	26576.23607
700.924	26188.6481
701.119	26196.80723
701.315	26111.13773
701.511	25770.53054
701.706	26302.87841
701.902	26047.90744
702.097	25843.95052
702.293	25839.87157
702.489	26023.43166
702.684	26102.97889
702.88	26264.12111
703.075	25962.24332
703.271	25819.47692
703.466	26258.00159
703.662	26225.36441
703.857	25754.21533
704.053	25837.83209
704.248	25992.83729
704.443	25854.14793
704.639	25958.16416
704.834	25874.54289
705.03	25652.24801
705.225	25923.49155
705.42	25831.71369
705.616	25574.75611
705.811	25601.26617
706.006	25758.29412
706.202	25731.7821
706.397	25964.28291
706.592	25750.13654
706.787	25956.12458
706.983	26153.9721
707.178	25672.64108
707.373	25633.89441
707.568	25409.58569
707.763	25460.56279
707.959	25313.75228
708.154	25407.54664
708.349	25142.4873
708.544	24865.23451
708.739	24944.73649
708.934	25254.62336
709.129	25297.44067
709.324	25138.40975
709.519	25719.5459
709.714	25236.27337
709.909	25462.6019
710.104	24916.19691
710.299	25219.96242
710.494	25173.0692
710.689	25792.96417
710.884	25138.40975
711.079	25171.0304
711.274	25177.14683
711.469	25797.04303
711.664	25073.17016
711.859	25036.4739
712.054	24808.15838
712.249	24865.23451
712.443	24887.65779
712.638	25040.55123
712.833	24261.95641
713.028	24555.41548
713.223	24155.99857
713.417	24206.93892
713.612	24427.0205
713.807	25171.0304
714.002	24975.31511
714.196	25154.72
714.391	24779.62101
714.586	25079.28628
714.78	24575.79656
714.975	25091.51857
715.17	24465.74173
715.364	24895.81177
715.559	25115.98338
715.754	25022.20334
715.948	24963.0836
716.143	24557.45357
716.337	24473.89368
716.532	24602.29234
716.726	24755.16079
716.921	24612.48314
717.115	24687.89697
717.31	24675.66747
717.504	24724.586
717.699	24636.94131
717.893	24410.71711
718.088	24744.96913
718.282	24510.57799
718.476	24361.80793
718.671	23783.16838
718.865	24296.59805
719.059	24056.16045
719.254	24532.99658
719.448	24339.39173
719.642	24655.28517
719.837	23870.76469
720.031	23789.27958
720.225	23860.5788
720.419	23993.00101
720.614	23956.32904
720.808	24388.30022
721.002	23990.96366
721.196	24465.74173
721.39	24286.40925
721.585	24535.03465
721.779	24394.41388
721.973	24308.8247
722.167	24023.56169
722.361	24382.18657
722.555	24290.48476
722.749	23591.69782
722.943	23524.48576
723.137	23131.46536
723.331	23162.0067
723.525	23740.39076
723.719	23677.24523
723.913	24068.38517
724.107	23498.0092
724.301	23734.27978
724.495	23709.83611
724.689	23734.27978
724.883	23589.66104
725.077	23819.83595
725.271	23587.62427
725.465	23897.24835
725.659	23190.51262
725.853	23520.41241
726.046	23483.7528
726.24	23304.54263
726.434	22781.31153
726.628	23901.3228
726.822	23157.93448
727.015	23343.23367
727.209	22942.12562
727.403	23724.09486
727.596	23457.27705
727.79	23644.65511
727.984	23770.94607
728.177	23807.61332
728.371	23571.33018
728.565	23652.80257
728.758	23426.72875
728.952	23587.62427
729.146	23449.13076
729.339	23777.05721
729.533	23648.72883
729.726	23367.67071
729.92	23196.62112
730.113	23612.06577
730.307	23709.83611
730.5	23322.86983
730.694	23394.14467
730.887	23373.78004
731.081	23324.9062
731.274	23212.91058
731.468	22490.27279
731.661	22730.42546
731.854	22571.67495
732.048	22885.12579
732.241	22817.95084
732.435	23119.24903
732.628	23404.32711
732.821	23665.02384
733.014	23559.10974
733.208	23689.46672
733.401	23493.93593
733.594	23280.10678
733.788	23363.59784
733.981	23720.02092
734.174	23422.6557
734.367	23202.72964
734.56	23528.55912
734.754	23351.3793
734.947	23555.03628
735.14	23445.05764
735.333	23791.31665
735.526	23088.70872
735.719	23223.09159
735.912	22972.66234
736.105	23349.34289
736.298	23316.76073
736.491	23072.42085
736.684	23107.03281
736.877	22783.34702
737.07	23320.83346
737.263	23029.66622
737.456	22730.42546
737.649	22828.12862
737.842	22775.20509
738.035	23267.88903
738.228	22689.71817
738.421	23269.92531
738.614	23143.68181
738.807	22993.02057
739	22962.48335
739.192	22836.27091
739.385	22732.46086
739.578	22659.18862
739.771	22921.76824
739.964	22726.35467
740.156	22899.3755
740.349	23178.29572
740.542	23102.96077
740.735	23066.31296
740.927	23007.27153
741.12	22701.93021
741.313	22618.48378
741.505	22697.85952
741.698	22522.83297
741.891	22608.30779
742.083	22669.36505
742.276	22655.11807
742.468	22612.37817
742.661	22203.37631
742.854	22272.55036
743.046	21851.46959
743.239	22541.14847
743.431	22661.2239
743.624	22649.01227
743.816	22457.71352
744.009	22362.07604
744.201	22299.00039
744.393	22286.79261
744.586	21841.30057
744.778	22097.58901
744.971	22014.18694
745.163	22620.51898
745.355	22294.93111
745.548	22176.92854
745.74	21865.70638
745.932	22012.15283
746.125	22258.30829
746.317	22278.65416
746.509	22185.06625
746.702	22860.6981
746.894	22465.85325
747.086	22187.10068
747.278	22103.69185
747.471	21818.92906
747.663	21759.95188
747.855	22093.52047
748.047	22095.55474
748.239	22355.97179
748.431	22239.99733
748.623	22551.32388
748.815	22714.14238
749.008	22555.39406
749.2	21997.91411
749.392	22284.75799
749.584	21534.24195
749.776	21816.89531
749.968	21635.90711
750.16	21989.77779
750.352	21908.41788
750.544	21837.23299
750.736	21599.30652
750.928	22022.32345
751.12	21995.88002
751.311	21881.97723
751.503	21731.48131
751.695	21774.18746
751.887	21424.45469
752.079	21471.21452
752.271	21294.35155
752.463	21558.64069
752.654	21475.28069
752.846	21503.74433
753.038	21526.10916
753.23	21562.7072
753.421	21221.17577
753.613	21465.11529
753.805	21932.82521
753.997	21822.99658
754.188	21351.26965
754.38	21064.67857
754.572	21109.38959
754.763	20818.80342
754.955	20812.70811
755.146	21148.00525
755.338	21046.38826
755.53	20841.15321
755.721	20963.06997
755.913	21121.58385
756.104	21188.65489
756.296	21355.33535
756.487	21379.72989
756.679	20853.34422
756.87	20959.00583
757.062	20898.04585
757.253	21046.38826
757.445	20989.48722
757.636	21048.4205
757.827	21160.19997
758.019	21320.77742
758.21	21062.64629
758.401	20889.91813
758.593	20434.87191
758.784	20168.84836
758.975	20148.54418
759.167	20536.4266
759.358	20867.56725
759.549	20615.64651
759.74	20353.6357
759.932	20349.57407
760.123	20111.99771
760.314	20447.05792
760.505	20369.88241
760.696	20168.84836
760.888	20652.21168
761.079	20107.93708
761.27	20319.11235
761.461	20120.11903
761.652	20457.21304
761.843	20349.57407
762.034	20363.78986
762.225	20010.48692
762.416	20061.241
762.607	20140.42262
762.798	20503.92796
762.989	20451.11996
763.18	20241.94688
763.371	19890.7177
763.562	19766.90388
763.753	19649.19375
763.944	20059.21079
764.135	19785.17051
764.326	20006.4267
764.517	19835.91293
764.708	19925.22597
764.899	19685.72297
765.089	19661.37001
765.28	19415.84452
765.471	19012.17802
765.662	18710.04036
765.853	19012.17802
766.043	19158.20948
766.234	19415.84452
766.425	19091.27577
766.615	19273.83273
766.806	19450.33615
766.997	19714.13553
767.187	19490.91609
767.378	19460.48098
767.569	19137.92607
767.759	19233.26165
767.95	19462.50996
768.141	19454.39407
768.331	19115.61479
768.522	19052.7402
768.712	18854.00094
768.903	18993.92557
769.093	18827.64046
769.284	18685.71096
769.474	18610.69887
769.665	18436.36696
769.855	18562.04523
770.046	18555.96368
770.236	18274.22304
770.426	18418.12456
770.617	18781.00434
770.807	18900.64036
770.998	18843.86221
771.188	18791.14245
771.378	18630.97188
771.569	18708.01288
771.759	18687.73839
771.949	18407.99003
772.139	18610.69887
772.33	18164.7894
772.52	17927.7195
772.71	18505.28547
772.9	18363.39921
773.09	18391.77497
773.281	18458.66364
773.471	18511.36673
773.661	18004.7112
773.851	18349.21161
774.041	18233.69081
774.231	17952.03212
774.421	17710.954
774.611	17636.00671
774.802	17646.13445
774.992	17603.59846
775.182	17731.21081
775.372	17295.76073
775.562	17587.39465
775.752	17554.98766
775.942	17253.23608
776.131	17374.73858
776.321	17753.49368
776.511	17745.39077
776.701	18073.60285
776.891	18316.78349
777.081	17958.11035
777.271	17962.16252
777.461	17919.6154
777.651	17824.39647
777.84	17775.77697
778.03	17678.5438
778.22	17411.19145
778.41	17557.01307
778.599	17516.50542
778.789	17571.19105
778.979	17451.69582
779.169	17050.75526
779.358	16933.32907
779.548	17071.00208
779.738	17309.9359
779.927	17380.81399
780.117	17554.98766
780.307	17542.83525
780.496	17332.21147
780.686	17336.26161
780.875	17316.01102
781.065	17275.51073
781.254	17064.928
781.444	17036.58265
781.633	17133.76897
781.823	17186.41426
782.012	16987.99187
782.202	17279.56071
782.391	17160.09137
782.581	17016.3363
782.77	16674.21209
782.96	17024.43481
783.149	16237.03538
783.338	16611.4631
783.528	16425.25265
783.717	16629.68032
783.906	16593.24605
784.096	16530.49982
784.285	16447.51601
784.474	16328.10623
784.663	16409.06127
784.853	16392.87001
785.042	16087.28201
785.231	16054.90405
785.42	16200.60805
785.61	16214.77417
785.799	16000.2671
785.988	15973.96078
786.177	16046.80962
786.366	15538.92313
786.555	15785.7758
786.744	15812.08061
786.933	15597.60009
787.122	15779.70548
787.312	15799.9399
787.501	16006.33782
787.69	16008.36139
787.879	15897.06671
788.068	15682.58168
788.257	15621.8804
788.445	15581.41328
788.634	15646.16082
788.823	15765.54145
789.012	15832.3152
789.201	15799.9399
789.39	16054.90405
789.579	15917.30181
789.768	16115.61305
789.957	15808.0337
790.145	16253.22549
790.334	16239.05914
790.523	16253.22549
790.712	16127.75502
790.9	15990.14926
791.089	15808.0337
791.278	15460.0136
791.467	15880.87871
791.655	15882.90221
791.844	15753.40089
792.033	15225.31231
792.221	15136.28839
792.41	15391.22135
792.599	14982.51937
792.787	15306.24333
792.976	15047.26436
793.164	15154.49782
793.353	14630.45887
793.541	15105.93932
793.73	14944.07687
793.918	14996.68236
794.107	15012.86862
794.295	15035.1247
794.484	15318.38301
794.672	15557.13316
794.861	15071.54367
795.049	15251.61486
795.238	15132.24184
795.426	15494.40995
795.614	15067.49712
795.803	15168.66072
795.991	14792.32842
796.179	14755.90825
796.368	14747.81484
796.556	14535.35748
796.744	14731.62799
796.932	14776.14171
797.121	14670.9268
797.309	14853.02819
797.497	14952.17004
797.685	14733.65135
797.874	14507.0289
798.062	14679.02034
798.25	14343.12232
798.438	14672.95019
798.626	14711.39435
798.814	14822.67838
799.002	14573.80303
799.19	14715.44109
799.378	14577.84991
799.566	14638.55249
799.755	14541.42786
799.943	14782.21173
800.131	14608.20132
800.318	14589.9905
800.506	14363.35825
800.694	14347.16952
800.882	14063.84739
801.07	14482.74704
801.258	14086.10989
801.446	14436.20627
801.634	14001.10609
801.822	14415.9709
802.01	14185.27597
802.197	14523.21669
802.385	14243.96376
802.573	14438.22979
802.761	14256.10586
802.949	14411.92381
803.136	14205.51333
803.324	14537.38094
803.512	14397.75895
803.699	14399.78251
803.887	14642.59929
804.075	14693.184
804.262	14666.88003
804.45	14302.64996
804.638	14308.72085
804.825	14743.76814
805.013	14209.56078
805.201	14502.98193
805.388	14333.00429
805.576	14347.16952
805.763	14324.90984
805.951	14498.93497
806.138	14417.99445
806.326	14298.60268
806.513	14110.39594
806.701	14529.28709
806.888	13995.03423
807.075	14045.63241
807.263	14003.13004
807.45	14553.56859
807.638	14132.65788
807.825	14612.24816
808.012	14306.69722
808.2	14328.95707
808.387	14156.94333
808.574	14361.33466
808.761	14399.78251
808.949	14420.01799
809.136	14571.77959
809.323	14818.63173
809.51	14539.4044
809.698	14549.52168
809.885	14258.12954
810.072	14681.04373
810.259	14428.11214
810.446	14592.01393
810.633	14250.03482
810.82	14470.60604
811.008	14428.11214
811.195	14371.45257
811.382	14023.3694
811.569	14280.38986
811.756	14152.89577
811.943	14296.57904
812.13	14148.84821
812.317	14241.94007
812.504	14243.96376
812.691	14189.32346
812.878	14264.20056
813.064	14545.47478
813.251	14065.87127
813.438	14438.22979
813.625	14138.72927
813.812	14084.08604
813.999	14272.29522
814.186	14432.15921
814.372	14122.53885
814.559	14294.5554
814.746	14080.03833
814.933	14169.08594
815.12	14130.63408
815.306	14201.46587
815.493	14193.37094
815.68	14339.07511
815.866	14215.63193
816.053	14391.68827
816.24	14132.65788
816.426	14339.07511
816.613	14055.75187
816.799	14333.00429
816.986	14359.31107
817.173	14300.62632
817.359	13950.50655
817.546	14233.84529
817.732	13924.19416
817.919	13857.39912
818.105	13586.13752
818.292	13723.7997
818.478	13843.23009
818.665	13622.57901
818.851	13537.54711
819.037	13845.25425
819.224	13746.06718
819.41	13980.86646
819.597	13646.87272
819.783	13735.94565
819.969	13982.89044
820.156	13756.18864
820.342	13573.99011
820.528	13780.47983
820.714	13367.46385
820.901	13859.42326
821.087	13760.2372
821.273	14067.89514
821.459	13545.64565
821.646	14053.72798
821.832	13816.91581
822.018	13565.89176
822.204	13351.264
822.39	13584.11296
822.576	13729.87269
822.762	13559.81797
822.948	13432.26066
823.134	13416.06184
823.32	13035.3114
823.507	13464.65757
823.693	13021.13138
823.879	13300.63779
824.065	13339.11395
824.25	13541.59639
824.436	13304.68799
824.622	12934.02013
824.808	13310.76324
824.994	13331.01383
825.18	13426.18613
825.366	13721.77537
825.552	13661.04384
825.738	13845.25425
825.923	13480.85566
826.109	13825.01256
826.295	13290.51224
826.481	13381.6385
826.667	13511.22644
826.852	13468.70712
827.038	13602.33387
827.224	13580.06383
827.409	13414.03697
827.595	13403.91256
827.781	13013.0284
827.966	13389.73821
828.152	13166.97171
828.338	13290.51224
828.523	12913.76034
828.709	13092.02907
828.894	12796.24297
829.08	12919.83833
829.266	12731.39781
829.451	13160.89552
829.637	12609.79703
829.822	12508.44624
830.008	12660.46663
830.193	12828.66338
830.378	12668.57341
830.564	13035.3114
830.749	12656.4132
830.935	12838.79448
831.12	12261.08144
831.305	12782.05858
831.491	12536.82605
831.676	12599.66265
831.861	12465.87417
832.047	12561.15061
832.232	12413.16188
832.417	12670.6001
832.602	12451.68284
832.788	12522.6363
832.973	12820.55841
833.158	12844.87306
833.343	12473.98335
833.528	12634.11891
833.714	12512.50058
833.899	12386.80404
834.084	12317.86271
834.269	12573.31255
834.454	12096.78929
834.639	12100.84648
834.824	12082.58889
835.009	12192.1252
835.194	11983.17545
835.379	12064.33069
835.564	11899.97805
835.749	12147.50194
835.934	12113.01785
836.119	12070.41683
836.304	11798.499
836.489	12015.63906
836.674	11861.41849
836.859	11569.07625
837.044	11599.53722
837.228	11603.59852
837.413	11656.39218
837.598	11968.97198
837.783	11619.84338
837.968	12196.18169
838.152	12015.63906
838.337	12476.01064
838.522	11938.53464
838.707	11995.34954
838.891	11583.29163
839.076	11800.52879
839.261	11441.11711
839.445	11662.48337
839.63	11477.68072
839.815	11481.74315
839.999	11528.45837
840.184	11601.56788
840.368	11453.30532
840.553	11701.05898
840.737	11378.13907
840.922	11500.02361
841.106	11347.66243
841.291	11479.71194
841.475	11150.52491
841.66	11599.53722
841.844	11018.36691
842.029	11223.70069
842.213	11036.66845
842.397	10993.96346
842.582	10800.71199
842.766	11107.83271
842.951	10711.17044
843.135	11002.09812
843.319	10959.38916
843.504	10928.87972
843.688	10615.498
843.872	11152.55776
844.056	11215.57072
844.241	11636.08766
844.425	11174.91836
844.609	11018.36691
844.793	10875.99065
844.977	10981.76113
845.161	10762.04914
845.346	11052.93574
845.53	10831.23229
845.714	11132.22883
845.898	10566.63351
846.082	10912.60699
846.266	10766.11912
846.45	10643.999
846.634	10757.97912
846.818	10684.71054
847.002	10650.10604
847.186	10900.40195
847.37	10413.88505
847.554	10654.17734
847.738	10452.58814
847.922	10578.8503
848.106	10544.23487
848.29	10415.92217
848.473	10542.19856
848.657	10185.64345
848.841	10195.83642
849.025	10242.71967
849.209	9698.00281
849.392	10069.41904
849.576	9759.25921
849.76	10002.1103
849.944	10026.588
850.127	10338.50233
850.311	10130.59544
850.495	10281.4439
850.678	10330.35177
850.862	10554.41626
851.046	10153.02362
851.229	10271.25378
851.413	10016.38921
851.596	10256.98706
851.78	10002.1103
851.964	10285.51985
852.147	9691.87641
852.331	9561.14668
852.514	9636.73259
852.698	9671.45409
852.881	9240.17282
853.065	9632.64741
853.248	9387.42096
853.431	9785.7994
853.615	9503.93219
853.798	9781.71646
853.982	9859.28208
854.165	9840.91322
854.348	9575.44837
854.532	9714.33919
854.715	9121.49301
854.898	9505.97578
855.081	9416.04263
855.265	9693.91856
855.448	9328.12301
855.631	9642.86024
855.814	9389.46547
855.997	9503.93219
856.181	9197.20914
856.364	9512.10645
856.547	9340.39269
856.73	9366.97495
856.913	8978.18169
857.096	9246.30988
857.279	9051.8953
857.462	8941.31634
857.645	8955.65355
857.828	9170.60884
858.011	9010.9461
858.194	9215.62306
858.377	8683.09607
858.56	8828.63648
858.743	8847.07872
858.926	8658.48854
859.109	8678.995
859.292	8652.33624
859.475	8560.03158
859.658	8791.74762
859.841	8681.04555
860.023	8662.58998
860.206	8280.8322
860.389	8660.53927
860.572	8783.54929
860.755	8687.19707
860.937	8623.62329
861.12	8584.64987
861.303	8510.78685
861.486	8362.98672
861.668	8430.74081
861.851	8557.97993
862.034	8455.37346
862.216	8469.74123
862.399	8186.31566
862.581	8496.42175
862.764	8176.0396
862.947	8674.89386
863.129	8377.36056
863.312	8309.58984
863.494	7960.12626
863.677	8354.77267
863.859	7853.11457
864.042	8085.5887
864.224	7844.88059
864.406	7910.74317
864.589	7906.62738
864.771	7797.52875
864.954	7572.97107
865.136	7768.70048
865.318	7826.35292
865.501	7964.24098
865.683	7756.34426
865.865	7947.78159
866.048	7548.2337
866.23	7814.0002
866.412	7741.92771
866.594	7783.11513
866.777	7667.76916
866.959	7986.8705
867.141	7789.29252
867.323	7906.62738
867.505	7723.39063
867.687	7877.81453
867.869	7647.16471
868.052	7896.33754
868.234	7581.21617
868.416	7721.33085
868.598	7527.61688
868.78	7713.09152
868.962	7523.49325
869.144	7888.10529
869.326	7552.35681
869.508	7692.49172
869.69	7632.74033
869.872	7531.74041
870.054	7700.73189
870.236	7791.35161
870.417	7531.74041
870.599	7614.19316
870.781	7453.37848
870.963	7410.05981
871.145	7298.62483
871.327	7496.68761
871.508	7457.50357
871.69	7711.03164
871.872	7447.19068
872.054	7680.13082
872.235	7393.55494
872.417	7581.21617
872.599	7374.98529
872.78	7741.92771
872.962	7496.68761
873.144	7348.15935
873.325	7218.10423
873.507	7234.62401
873.689	7030.09162
873.87	7410.05981
874.052	6988.74534
874.233	7255.27175
874.415	7228.42926
874.596	7133.41809
874.778	7011.48691
874.959	7197.45251
875.141	6930.84541
875.322	7201.58303
875.503	6872.92774
875.685	7025.9574
875.866	7005.28493
876.048	7096.227
876.229	7166.47078
876.41	7236.68888
876.592	6988.74534
876.773	7129.2861
876.954	6994.94786
877.136	7292.43213
877.317	7059.02867
877.498	7137.54999
877.679	7042.49375
877.86	7156.14242
878.042	6988.74534
878.223	7280.04612
878.404	7185.06042
878.585	7094.16062
878.766	6978.40737
878.947	7370.85846
879.128	7003.21756
879.309	7449.2533
879.49	7096.227
879.672	7546.17212
879.853	7317.20175
880.034	7517.30766
880.215	7533.80215
880.396	7430.68894
880.576	7273.85283
880.757	7449.2533
880.938	7294.49638
881.119	7731.62954
881.3	7205.71346
881.481	7443.06538
881.662	7205.71346
881.843	7280.04612
882.023	7399.74443
882.204	7525.55508
882.385	7127.22008
882.566	7298.62483
882.747	7490.50117
882.927	7393.55494
883.108	7242.88337
883.289	7234.62401
883.469	7013.55419
883.65	7044.5607
883.831	6980.47501
884.011	7135.48405
884.192	6881.20279
884.373	7193.3219
884.553	6914.29932
884.734	7185.06042
884.914	7127.22008
885.095	7244.94815
885.275	6895.68323
885.456	7232.55911
885.636	7383.23868
885.817	7548.2337
885.997	7085.89486
886.178	7449.2533
886.358	7263.53023
886.538	7585.33859
886.719	7238.75373
886.899	7368.79502
887.08	7284.17488
887.26	7649.22525
887.44	7513.18382
887.621	7931.32089
887.801	7461.62857
887.981	7410.05981
888.161	7121.02186
888.342	7424.50043
888.522	7112.75727
888.702	7469.87832
888.882	7261.46564
889.062	7321.32972
889.242	7391.49173
889.423	7509.0599
889.603	7455.44103
889.783	7570.90974
889.963	7605.94943
890.143	7556.47983
890.323	7432.75173
890.503	7451.3159
890.683	7294.49638
890.863	7418.31172
891.043	7218.10423
891.223	7647.16471
891.403	7300.68902
891.583	7626.55813
891.763	7465.75349
891.943	7401.80755
892.122	7275.91728
892.302	7407.99677
892.482	6994.94786
892.662	7399.74443
892.842	7007.35228
893.022	7135.48405
893.201	6897.75178
893.381	7482.25229
893.561	7185.06042
893.741	7337.8407
893.92	7197.45251
894.1	7079.6953
894.28	6864.65234
894.459	6928.77723
894.639	7028.02452
894.819	7013.55419
894.998	6792.22703
895.178	6930.84541
895.357	6955.66183
895.537	6852.23855
895.716	7032.1587
895.896	6990.81287
896.075	6750.82859
896.255	6862.58343
896.434	6634.8642
896.614	6827.40852
896.793	6458.70862
896.973	6605.86183
897.152	6485.6609
897.331	6781.87828
897.511	6510.53645
897.69	6539.5537
897.87	6624.50673
898.049	6527.11829
898.228	6489.80706
898.407	6452.4883
898.587	6419.30975
898.766	6419.30975
898.945	6257.47885
899.124	6792.22703
899.304	6298.9875
899.483	6444.19422
899.662	6122.51098
899.841	6344.63622
900.02	6008.22984
900.199	6161.97338
900.378	5810.66727
900.557	6033.16998
900.737	5937.5477
900.916	6272.00794
901.095	5848.11653
901.274	5918.83315
901.453	5764.88557
901.632	5812.74798
901.811	5614.97469
901.989	5760.72303
902.168	5552.47573
902.347	5637.88566
902.526	5469.11081
902.705	5825.23178
902.884	5791.93977
903.063	5916.75364
903.242	5712.84704
903.42	5927.15096
903.599	5554.55937
903.778	5885.55814
903.957	5444.09399
904.135	5521.2183
904.314	5241.75062
904.493	5387.79377
904.672	5116.47966
904.85	5116.47966
905.029	5080.97101
905.207	5333.56257
905.386	5060.08043
905.565	5241.75062
905.743	4945.14097
905.922	5126.92211
906.1	4742.26048
906.279	5218.79056
906.457	4951.41219
906.636	5214.6157
906.814	4932.5979
906.993	5070.52601
907.171	4740.16782
907.35	4744.35313
907.528	4446.97339
907.707	4773.64776
907.885	4379.89665
908.063	4426.01431
908.242	4256.16568
908.42	4505.64713
908.598	4199.51814
908.777	4421.82224
908.955	4440.6859
909.133	4564.30355
909.311	4121.86497
909.49	4151.25064
909.668	4119.76584
909.846	4348.44675
910.024	4012.68246
910.202	4212.10782
910.38	3979.07662
910.559	4270.84954
910.737	4142.85515
910.915	4507.7423
911.093	4172.23788
911.271	4413.43782
911.449	4287.62981
911.627	4296.01943
911.805	4333.76846
911.983	4591.53097
912.161	4421.82224
912.339	4832.22367
912.517	4591.53097
912.695	4725.51852
912.872	4396.66793
913.05	4620.84859
913.228	4333.76846
913.406	4591.53097
913.584	4493.07564
913.762	4514.02768
913.939	4203.71478
914.117	4476.31242
914.295	4021.0831
914.473	4505.64713
914.65	4304.40871
914.828	4388.28246
915.006	4178.53364
915.184	4335.86542
915.361	4092.4752
915.539	4264.55659
915.716	4207.91135
915.894	4532.88263
916.072	4342.15618
916.249	4287.62981
916.427	4220.50052
916.604	4495.17094
916.782	4119.76584
916.959	4218.40238
917.137	4065.18104
917.314	4111.36909
917.492	3949.66723
917.669	4132.36032
917.847	4088.27633
918.024	4256.16568
918.201	3930.75909
918.379	4130.26129
918.556	3964.37242
918.733	3892.93792
918.911	3634.3221
919.088	3771.02575
919.265	3558.5748
919.442	3802.56113
919.62	3548.05243
919.797	3855.11024
919.974	3728.97175
920.151	3907.64693
920.328	3842.49958
920.506	3911.84932
920.683	3684.80673
920.86	3775.23072
921.037	3541.73879
921.214	3890.83655
921.391	3510.1681
921.568	3878.22792
921.745	3674.29
921.922	4006.38176
922.099	3419.64282
922.276	3640.63327
922.453	3308.02005
922.63	3520.69212
922.807	3430.17072
922.984	3497.53867
923.161	3413.32587
923.338	3581.72237
923.514	3278.52668
923.691	3453.33053
923.868	3152.0893
924.045	3543.84335
924.222	3152.0893
924.399	3354.35998
924.575	3021.37621
924.752	3436.48725
924.929	3059.33139
925.105	3337.51006
925.282	2896.93323
925.459	3286.9537
925.635	3069.8736
925.812	3366.99668
925.989	3156.30484
926.165	3135.22652
926.342	3099.38971
926.518	3312.23311
926.695	2907.48124
926.871	3088.8486
927.048	2877.94591
927.224	2960.2158
927.401	2618.34125
927.577	2791.4336
927.754	2785.10252
927.93	3019.26744
928.107	2595.11505
928.283	2806.20565
928.459	2799.87486
928.636	2848.40777
928.812	2612.00698
928.988	2736.56018
929.165	2400.80455
929.341	2704.89834
929.517	2297.27621
929.693	2438.82922
929.87	2172.58974
930.046	2333.1969
930.222	2263.46601
930.398	2546.54648
930.574	2314.18041
930.751	2286.71078
930.927	2221.19998
931.103	2379.67828
931.279	2202.17912
931.455	2331.08399
931.631	1988.67897
931.807	2206.40604
931.983	1948.50765
932.159	2231.76682
932.335	1914.67751
932.511	2145.11245
932.687	1766.65523
932.863	2043.64651
933.039	1766.65523
933.215	2058.44468
933.391	1893.53295
933.566	1927.36399
933.742	1825.86688
933.918	1838.55465
934.094	1711.67025
934.27	1656.68309
934.445	1565.7392
934.621	1559.39415
934.797	1474.79264
934.973	1724.3593
935.148	1538.24391
935.324	1637.64864
935.5	1404.99596
935.675	1453.64212
935.851	1242.14147
936.027	1565.7392
936.202	1225.22226
936.378	1316.16495
936.553	1075.07468
936.729	1013.75377
936.904	988.38108
937.08	1009.52493
937.255	802.34708
937.431	967.23788
937.606	734.71533
937.782	869.98853
937.957	675.54638
938.133	675.54638
938.308	588.92269
938.483	700.90343
938.659	557.23644
938.834	607.93586
939.009	519.21698
939.185	591.03522
939.36	498.09704
939.535	559.34876
939.71	362.96564
939.886	508.65683
940.061	409.40968
940.236	466.41988
940.411	322.8615
940.586	362.96564
940.761	381.9645
940.937	392.52001
941.112	424.189
941.287	337.63597
941.462	352.41131
941.637	327.08269
941.812	259.55236
941.987	333.4146
942.162	206.80777
942.337	240.56291
942.512	244.78265
942.687	265.88252
942.862	225.79441
943.037	341.85741
943.212	208.91732
943.386	278.54336
943.561	253.22237
943.736	227.90414
943.911	242.67277
944.086	297.53586
944.26	173.05775
944.435	280.65356
944.61	253.22237
944.785	164.62107
944.959	202.58873
945.134	175.16697
945.309	213.13647
945.483	246.89255
945.658	185.7134
945.833	236.34324
946.007	126.66015
946.182	187.82274
946.357	270.10273
946.531	261.6624
946.706	240.56291
946.88	236.34324
947.055	303.86702
947.229	276.43317
947.404	192.04149
947.578	227.90414
947.752	219.46535
947.927	318.64038
948.101	291.20486
948.276	276.43317
948.45	227.90414
948.624	234.23344
948.799	244.78265
948.973	227.90414
949.147	219.46535
949.321	244.78265
949.496	128.76891
949.67	189.93211
949.844	278.54336
950.018	265.88252
950.193	168.83937
950.367	333.4146
950.541	249.00247
950.715	263.77245
950.889	346.07892
951.063	270.10273
951.237	257.44235
951.411	291.20486
951.585	270.10273
951.759	297.53586
951.933	261.6624
952.107	232.12365
952.281	204.69824
952.455	329.19331
952.629	331.30395
952.803	270.10273
952.977	291.20486
953.151	314.41933
953.325	312.30883
953.499	333.4146
953.672	255.33235
953.846	249.00247
954.02	181.49477
954.194	329.19331
954.368	215.24608
954.541	322.8615
954.715	265.88252
954.889	373.52039
955.062	202.58873
955.236	348.18969
955.41	303.86702
955.583	346.07892
955.757	388.29776
955.93	320.75093
956.104	274.323
956.278	278.54336
956.451	215.24608
956.625	175.16697
956.798	255.33235
956.972	354.52214
957.145	240.56291
957.319	329.19331
957.492	257.44235
957.665	356.63299
957.839	280.65356
958.012	257.44235
958.185	232.12365
958.359	354.52214
958.532	291.20486
958.705	381.9645
958.879	227.90414
959.052	257.44235
959.225	230.01389
959.398	324.97208
959.572	329.19331
959.745	263.77245
959.918	227.90414
960.091	394.63116
960.264	236.34324
960.438	398.85351
960.611	253.22237
960.784	253.22237
960.957	208.91732
961.13	308.08789
961.303	322.8615
961.476	354.52214
961.649	147.7487
961.822	305.97745
961.995	219.46535
962.168	301.75662
962.341	253.22237
962.514	265.88252
962.686	170.94855
962.859	168.83937
963.032	219.46535
963.205	278.54336
963.378	204.69824
963.551	257.44235
963.723	179.38548
963.896	215.24608
964.069	213.13647
964.242	223.68471
964.414	194.1509
964.587	151.96666
964.76	194.1509
964.932	111.89944
965.105	151.96666
965.278	230.01389
965.45	128.76891
965.623	246.89255
965.795	238.45306
965.968	168.83937
966.14	198.36978
966.313	259.55236
966.485	168.83937
966.658	303.86702
966.83	126.66015
967.003	211.02688
967.175	192.04149
967.348	177.27622
967.52	211.02688
967.692	194.1509
967.865	211.02688
968.037	202.58873
968.209	202.58873
968.382	206.80777
968.554	109.79086
968.726	143.53082
968.898	240.56291
969.071	173.05775
969.243	160.40285
969.415	168.83937
969.587	219.46535
969.759	78.16474
969.932	166.73021
970.104	177.27622
970.276	213.13647
970.448	202.58873
970.62	151.96666
970.792	221.57502
970.964	179.38548
971.136	114.00805
971.308	154.07568
971.48	97.13981
971.652	213.13647
971.824	187.82274
971.996	80.27299
972.168	173.05775
972.339	166.73021
972.511	181.49477
972.683	170.94855
972.855	154.07568
973.027	147.7487
973.199	128.76891
973.37	170.94855
973.542	156.18471
973.714	135.09531
973.886	196.26033
974.057	149.85767
974.229	130.87769
974.401	118.22533
974.572	103.46523
974.744	95.03138
974.915	238.45306
975.087	126.66015
975.259	141.42191
975.43	143.53082
975.602	107.68229
975.773	145.63975
975.945	160.40285
976.116	164.62107
976.288	147.7487
976.459	164.62107
976.63	84.48956
976.802	151.96666
976.973	175.16697
977.145	158.29377
977.316	120.334
977.487	59.19149
977.659	126.66015
977.83	84.48956
978.001	130.87769
978.172	147.7487
978.344	92.92297
978.515	67.62381
978.686	71.84011
978.857	57.08346
979.028	88.70622
979.2	36.00449
979.371	114.00805
979.542	21.25059
979.713	38.11228
979.884	90.81458
980.055	126.66015
980.226	67.62381
980.397	84.48956
980.568	71.84011
980.739	111.89944
980.91	67.62381
981.081	88.70622
981.252	33.89672
981.423	38.11228
981.594	118.22533
981.765	130.87769
981.936	101.35674
982.106	76.05651
982.277	109.79086
982.448	50.75953
982.619	128.76891
982.79	109.79086
982.96	86.59788
983.131	105.57375
983.302	17.0354
983.472	92.92297
983.643	95.03138
983.814	88.70622
983.984	90.81458
984.155	103.46523
984.326	46.54368
984.496	-12.46822
984.667	109.79086
984.837	78.16474
985.008	118.22533
985.178	29.68125
985.349	-39.86016
985.519	105.57375
985.69	69.73195
985.86	42.32793
986.031	67.62381
986.201	111.89944
986.371	86.59788
986.542	76.05651
986.712	-16.68263
986.882	44.4358
987.053	101.35674
987.223	78.16474
987.393	54.97546
987.563	122.44269
987.734	69.73195
987.904	42.32793
988.074	44.4358
988.244	27.57355
988.414	52.86748
988.585	50.75953
988.755	-33.53931
988.925	111.89944
989.095	50.75953
989.265	69.73195
989.435	29.68125
989.605	141.42191
989.775	71.84011
989.945	27.57355
990.115	42.32793
990.285	118.22533
990.455	61.29953
990.625	111.89944
990.795	25.46587
990.965	17.0354
991.134	46.54368
991.304	29.68125
991.474	101.35674
991.644	25.46587
991.814	50.75953
991.984	80.27299
992.153	29.68125
992.323	86.59788
992.493	33.89672
992.662	42.32793
992.832	59.19149
993.002	78.16474
993.171	-6.14641
993.341	19.14299
993.511	73.9483
993.68	78.16474
993.85	50.75953
994.019	31.78897
994.189	63.4076
994.358	42.32793
994.528	2.283
994.697	-41.96706
994.867	59.19149
995.036	76.05651
995.206	21.25059
995.375	132.98649
995.544	54.97546
995.714	42.32793
995.883	69.73195
996.052	78.16474
996.222	59.19149
996.391	-12.46822
996.56	40.22009
996.73	-16.68263
996.899	38.11228
997.068	59.19149
997.237	67.62381
997.406	67.62381
997.576	-10.36097
997.745	76.05651
997.914	-31.43231
998.083	-4.03909
998.252	27.57355
998.421	-50.3944
998.59	46.54368
998.759	17.0354
998.928	-56.71465
999.097	25.46587
999.266	8.60532
999.435	-58.82135
999.604	33.89672
999.773	46.54368
999.942	-27.21824
1000.111	-56.71465
1000.28	17.0354
1000.448	25.46587
1000.617	33.89672
1000.786	44.4358
1000.955	17.0354
1001.124	36.00449
1001.292	-25.11117
1001.461	-18.7898
1001.63	-56.71465
1001.798	-16.68263
1001.967	21.25059
1002.136	6.49786
1002.304	84.48956
1002.473	10.7128
1002.642	12.82031
1002.81	-48.28761
1002.979	38.11228
1003.147	-73.56752
1003.316	12.82031
1003.484	-16.68263
1003.653	36.00449
1003.821	42.32793
1003.99	63.4076
1004.158	61.29953
1004.327	-1.93175
1004.495	61.29953
1004.663	31.78897
1004.832	48.65159
1005	-4.03909
1005.168	-4.03909
1005.337	42.32793
1005.505	25.46587
1005.673	33.89672
1005.842	50.75953
1006.01	86.59788
1006.178	-1.93175
1006.346	12.82031
1006.514	-6.14641
1006.683	29.68125
1006.851	21.25059
1007.019	19.14299
1007.187	-16.68263
1007.355	50.75953
1007.523	-10.36097
1007.691	42.32793
1007.859	-20.89695
1008.027	-14.57544
1008.195	-20.89695
1008.363	-29.32529
1008.531	31.78897
1008.699	36.00449
1008.867	2.283
1009.035	-48.28761
1009.203	-33.53931
1009.37	-50.3944
1009.538	2.283
1009.706	0.17561
1009.874	46.54368
1010.042	-4.03909
1010.209	52.86748
1010.377	21.25059
1010.545	46.54368
1010.713	59.19149
1010.88	-41.96706
1011.048	-6.14641
1011.216	59.19149
1011.383	29.68125
1011.551	-4.03909
1011.718	-41.96706
1011.886	-10.36097
1012.054	-4.03909
1012.221	-69.35446
1012.389	50.75953
1012.556	-31.43231
1012.724	38.11228
1012.891	-8.2537
1013.058	21.25059
1013.226	50.75953
1013.393	-31.43231
1013.561	2.283
1013.728	-29.32529
1013.895	46.54368
1014.063	67.62381
1014.23	-16.68263
1014.397	-33.53931
1014.565	6.49786
1014.732	-37.75323
1014.899	12.82031
1015.066	31.78897
1015.233	38.11228
1015.401	-6.14641
1015.568	-20.89695
1015.735	44.4358
1015.902	0.17561
1016.069	44.4358
1016.236	-4.03909
1016.403	42.32793
1016.57	8.60532
1016.737	10.7128
1016.904	-31.43231
1017.071	-14.57544
1017.238	48.65159
1017.405	76.05651
1017.572	-25.11117
1017.739	-16.68263
1017.906	27.57355
1018.073	8.60532
1018.24	-16.68263
1018.407	-20.89695
1018.573	8.60532
1018.74	-20.89695
1018.907	59.19149
1019.074	-54.60793
1019.241	29.68125
1019.407	25.46587
1019.574	2.283
1019.741	82.38126
1019.907	44.4358
1020.074	-14.57544
1020.241	25.46587
1020.407	-23.00407
1020.574	-16.68263
1020.74	97.13981
1020.907	-41.96706
1021.073	-29.32529
1021.24	-12.46822
1021.406	38.11228
1021.573	-25.11117
1021.739	0.17561
1021.906	-23.00407
1022.072	-25.11117
1022.239	38.11228
1022.405	-8.2537
1022.571	42.32793
1022.738	54.97546
1022.904	36.00449
1023.07	52.86748
1023.237	-23.00407
1023.403	-12.46822
1023.569	-50.3944
1023.735	-6.14641
1023.902	-4.03909
1024.068	29.68125
1024.234	8.60532
1024.4	57.08346
1024.566	-31.43231
1024.732	-33.53931
1024.898	-54.60793
1025.065	-92.52504
1025.231	17.0354
1025.397	17.0354
1025.563	12.82031
1025.729	33.89672
1025.895	17.0354
1026.061	-4.03909
1026.227	-58.82135
1026.392	33.89672
1026.558	27.57355
1026.724	8.60532
1026.89	76.05651
1027.056	-41.96706
1027.222	-56.71465
1027.388	-14.57544
1027.553	-16.68263
1027.719	-84.09974
1027.885	0.17561
1028.051	6.49786
1028.216	-4.03909
1028.382	12.82031
1028.548	-20.89695
1028.713	8.60532
1028.879	10.7128
1029.045	4.39042
1029.21	29.68125
1029.376	44.4358
1029.541	-41.96706
1029.707	-46.18078
1029.873	-50.3944
1030.038	33.89672
1030.204	-8.2537
1030.369	54.97546
1030.534	52.86748
1030.7	54.97546
1030.865	84.48956
1031.031	-65.14129
1031.196	-8.2537
1031.361	-1.93175
1031.527	25.46587
1031.692	-25.11117
1031.857	2.283
1032.023	4.39042
1032.188	-56.71465
1032.353	33.89672
1032.518	-58.82135
1032.684	0.17561
1032.849	33.89672
1033.014	-46.18078
1033.179	-8.2537
1033.344	-6.14641
1033.509	17.0354
1033.674	-58.82135
1033.839	0.17561
1034.004	-23.00407
1034.17	52.86748
1034.335	-39.86016
1034.5	12.82031
1034.664	44.4358
1034.829	-46.18078
1034.994	88.70622
1035.159	-33.53931
1035.324	50.75953
1035.489	-92.52504
1035.654	50.75953
1035.819	10.7128
1035.984	25.46587
1036.148	-46.18078
1036.313	-33.53931
1036.478	-8.2537
1036.643	27.57355
1036.807	-6.14641
1036.972	-33.53931
1037.137	33.89672
1037.301	71.84011
1037.466	-79.88693
1037.631	-58.82135
1037.795	57.08346
1037.96	25.46587
1038.124	8.60532
1038.289	33.89672
1038.454	-4.03909
1038.618	-25.11117
1038.783	44.4358
1038.947	-8.2537
1039.111	99.24826
1039.276	-39.86016
1039.44	38.11228
1039.605	-39.86016
1039.769	-33.53931
1039.933	14.92785
1040.098	33.89672
1040.262	4.39042
1040.426	21.25059
1040.591	-18.7898
1040.755	6.49786
1040.919	-16.68263
1041.083	-75.67402
1041.248	-29.32529
1041.412	25.46587
1041.576	-48.28761
1041.74	33.89672
1041.904	-10.36097
1042.068	-25.11117
1042.232	12.82031
1042.397	-56.71465
1042.561	12.82031
1042.725	-56.71465
1042.889	-54.60793
1043.053	-25.11117
1043.217	36.00449
1043.381	61.29953
1043.544	19.14299
1043.708	-73.56752
1043.872	-37.75323
1044.036	-6.14641
1044.2	14.92785
1044.364	48.65159
1044.528	-33.53931
1044.691	-46.18078
1044.855	-8.2537
1045.019	67.62381
1045.183	-25.11117
1045.346	-50.3944
1045.51	-27.21824
1045.674	-8.2537
1045.837	29.68125
1046.001	-71.461
1046.165	33.89672
1046.328	61.29953
1046.492	0.17561
1046.655	-12.46822
1046.819	36.00449
1046.983	44.4358
1047.146	-31.43231
1047.31	-10.36097
1047.473	-6.14641
1047.636	-58.82135
1047.8	12.82031
1047.963	17.0354
1048.127	46.54368
1048.29	-20.89695
