Data from mixed_try1_USB4F045381__21__00086.txt Node

Date: Thu Apr 03 19:53:11 EDT 2025
User: mmckonesweet
Spectrometer: USB4F04538
Trigger mode: 4
Integration Time (sec): 2.700000E-3
Scans to average: 1
Electric dark correction enabled: true
Nonlinearity correction enabled: true
Boxcar width: 0
XAxis mode: Wavelengths
Number of Pixels in Spectrum: 3648
>>>>>Begin Spectral Data<<<<<
345.52	32.66719
345.736	32.66719
345.952	32.66719
346.168	3.16109
346.384	-26.3403
346.6	79.04317
346.816	-13.69743
347.032	-51.62336
347.248	-81.11567
347.464	11.59093
347.68	17.91356
347.896	-26.3403
348.112	-24.23321
348.328	24.2364
348.544	49.5299
348.76	-38.98228
348.975	53.7458
349.191	17.91356
349.407	51.63784
349.623	-26.3403
349.839	-9.48295
350.055	28.45175
350.27	-3.16104
350.486	9.48343
350.702	-5.26836
350.918	1.05369
351.133	32.66719
351.349	36.88273
351.565	91.69308
351.781	-1.05368
351.996	15.80599
352.212	-34.76838
352.428	3.16109
352.644	-7.37567
352.859	-1.05368
353.075	-62.1569
353.291	-13.69743
353.506	34.77495
353.722	-68.47672
353.938	15.80599
354.153	-41.08919
354.369	11.59093
354.584	-28.44736
354.8	-26.3403
355.016	32.66719
355.231	-9.48295
355.447	7.37596
355.662	-76.90279
355.878	57.9618
356.093	7.37596
356.309	-17.91182
356.524	-26.3403
356.74	-30.55439
356.955	-13.69743
357.171	85.36802
357.386	-9.48295
357.602	-24.23321
357.817	-38.98228
358.033	49.5299
358.248	-20.01897
358.464	24.2364
358.679	7.37596
358.895	51.63784
359.11	-3.16104
359.325	-13.69743
359.541	24.2364
359.756	20.02115
359.972	3.16109
360.187	17.91356
360.402	17.91356
360.618	81.15143
360.833	-15.80464
361.048	-24.23321
361.264	7.37596
361.479	-1.05368
361.694	11.59093
361.909	-55.83685
362.125	-38.98228
362.34	-7.37567
362.555	74.82672
362.77	-22.12611
362.986	-47.40976
363.201	-34.76838
363.416	-41.08919
363.631	1.05369
363.847	-24.23321
364.062	70.61035
364.277	-26.3403
364.492	-7.37567
364.707	32.66719
364.922	3.16109
365.138	66.39408
365.353	-7.37567
365.568	87.47635
365.783	15.80599
365.998	-43.19607
366.213	20.02115
366.428	-26.3403
366.643	-5.26836
366.858	9.48343
367.073	-1.05368
367.288	11.59093
367.503	41.09836
367.718	66.39408
367.933	7.37596
368.148	-9.48295
368.363	1.05369
368.578	-15.80464
368.793	49.5299
369.008	11.59093
369.223	3.16109
369.438	11.59093
369.653	53.7458
369.868	51.63784
370.083	-9.48295
370.298	7.37596
370.513	24.2364
370.728	11.59093
370.943	-20.01897
371.157	-22.12611
371.372	41.09836
371.587	-11.5902
371.802	3.16109
372.017	-32.6614
372.232	-13.69743
372.446	28.45175
372.661	7.37596
372.876	-13.69743
373.091	28.45175
373.306	13.69845
373.52	7.37596
373.735	-68.47672
373.95	41.09836
374.165	15.80599
374.379	-81.11567
374.594	36.88273
374.809	76.93493
375.023	-7.37567
375.238	-5.26836
375.453	47.42198
375.667	74.82672
375.882	26.34407
376.097	17.91356
376.311	20.02115
376.526	-30.55439
376.741	9.48343
376.955	7.37596
377.17	60.06984
377.384	-24.23321
377.599	7.37596
377.813	-70.58328
378.028	-49.51657
378.242	1.05369
378.457	-17.91182
378.672	9.48343
378.886	20.02115
379.101	62.17789
379.315	-24.23321
379.53	7.37596
379.744	15.80599
379.958	34.77495
380.173	32.66719
380.387	-26.3403
380.602	41.09836
380.816	45.31408
381.031	9.48343
381.245	1.05369
381.459	43.20621
381.674	45.31408
381.888	41.09836
382.103	-5.26836
382.317	26.34407
382.531	-5.26836
382.746	66.39408
382.96	11.59093
383.174	-1.05368
383.388	7.37596
383.603	26.34407
383.817	-32.6614
384.031	32.66719
384.246	49.5299
384.46	15.80599
384.674	-5.26836
384.888	43.20621
385.103	-15.80464
385.317	36.88273
385.531	15.80599
385.745	26.34407
385.959	32.66719
386.174	72.71852
386.388	-11.5902
386.602	-38.98228
386.816	-17.91182
387.03	47.42198
387.244	3.16109
387.458	76.93493
387.672	-5.26836
387.887	-13.69743
388.101	41.09836
388.315	-22.12611
388.529	7.37596
388.743	15.80599
388.957	7.37596
389.171	57.9618
389.385	1.05369
389.599	20.02115
389.813	41.09836
390.027	81.15143
390.241	-13.69743
390.455	57.9618
390.669	15.80599
390.883	-5.26836
391.097	-36.87534
391.311	41.09836
391.525	43.20621
391.738	68.5022
391.952	-1.05368
392.166	91.69308
392.38	66.39408
392.594	32.66719
392.808	-15.80464
393.022	57.9618
393.236	-26.3403
393.449	1.05369
393.663	51.63784
393.877	-11.5902
394.091	60.06984
394.305	-51.62336
394.518	-22.12611
394.732	-20.01897
394.946	-3.16104
395.16	22.12877
395.373	3.16109
395.587	3.16109
395.801	95.90989
396.015	-22.12611
396.228	28.45175
396.442	9.48343
396.656	-7.37567
396.869	1.05369
397.083	22.12877
397.297	-51.62336
397.51	28.45175
397.724	34.77495
397.938	-57.94356
398.151	7.37596
398.365	36.88273
398.578	91.69308
398.792	55.85379
399.005	-24.23321
399.219	41.09836
399.433	49.5299
399.646	-22.12611
399.86	13.69845
400.073	-7.37567
400.287	-66.37014
400.5	9.48343
400.714	28.45175
400.927	60.06984
401.141	11.59093
401.354	-3.16104
401.567	-26.3403
401.781	70.61035
401.994	32.66719
402.208	-55.83685
402.421	17.91356
402.635	76.93493
402.848	17.91356
403.061	60.06984
403.275	49.5299
403.488	57.9618
403.701	-17.91182
403.915	24.2364
404.128	49.5299
404.341	49.5299
404.555	32.66719
404.768	3.16109
404.981	93.80147
405.195	-5.26836
405.408	7.37596
405.621	43.20621
405.834	49.5299
406.048	-57.94356
406.261	9.48343
406.474	11.59093
406.687	68.5022
406.9	1.05369
407.114	57.9618
407.327	32.66719
407.54	-41.08919
407.753	3.16109
407.966	51.63784
408.179	74.82672
408.392	-13.69743
408.605	-43.19607
408.819	-3.16104
409.032	-13.69743
409.245	20.02115
409.458	20.02115
409.671	1.05369
409.884	62.17789
410.097	9.48343
410.31	1.05369
410.523	-3.16104
410.736	36.88273
410.949	-22.12611
411.162	-9.48295
411.375	1.05369
411.588	-34.76838
411.801	-9.48295
412.014	15.80599
412.227	43.20621
412.44	26.34407
412.653	15.80599
412.865	24.2364
413.078	24.2364
413.291	-15.80464
413.504	-13.69743
413.717	62.17789
413.93	74.82672
414.143	49.5299
414.356	26.34407
414.568	7.37596
414.781	3.16109
414.994	49.5299
415.207	20.02115
415.42	91.69308
415.632	-32.6614
415.845	85.36802
416.058	32.66719
416.271	-34.76838
416.483	57.9618
416.696	15.80599
416.909	51.63784
417.121	3.16109
417.334	-45.30293
417.547	-9.48295
417.759	-5.26836
417.972	3.16109
418.185	28.45175
418.397	57.9618
418.61	-43.19607
418.823	100.12679
419.035	32.66719
419.248	-22.12611
419.46	32.66719
419.673	57.9618
419.885	-43.19607
420.098	24.2364
420.311	74.82672
420.523	45.31408
420.736	45.31408
420.948	47.42198
421.161	7.37596
421.373	22.12877
421.586	-11.5902
421.798	-1.05368
422.01	-9.48295
422.223	-26.3403
422.435	15.80599
422.648	13.69845
422.86	79.04317
423.073	15.80599
423.285	32.66719
423.497	41.09836
423.71	3.16109
423.922	95.90989
424.134	26.34407
424.347	91.69308
424.559	-9.48295
424.771	-85.32845
424.984	100.12679
425.196	49.5299
425.408	24.2364
425.621	-5.26836
425.833	76.93493
426.045	53.7458
426.257	-20.01897
426.47	-17.91182
426.682	68.5022
426.894	32.66719
427.106	87.47635
427.318	57.9618
427.531	-13.69743
427.743	24.2364
427.955	-15.80464
428.167	-9.48295
428.379	-81.11567
428.591	51.63784
428.804	15.80599
429.016	74.82672
429.228	76.93493
429.44	-43.19607
429.652	-36.87534
429.864	28.45175
430.076	-41.08919
430.288	68.5022
430.5	49.5299
430.712	-3.16104
430.924	49.5299
431.136	-13.69743
431.348	34.77495
431.56	41.09836
431.772	-41.08919
431.984	45.31408
432.196	51.63784
432.408	7.37596
432.62	47.42198
432.832	15.80599
433.044	32.66719
433.256	36.88273
433.468	51.63784
433.679	-49.51657
433.891	-55.83685
434.103	-45.30293
434.315	41.09836
434.527	62.17789
434.739	34.77495
434.95	24.2364
435.162	74.82672
435.374	-17.91182
435.586	-43.19607
435.798	70.61035
436.009	100.12679
436.221	43.20621
436.433	43.20621
436.645	15.80599
436.856	51.63784
437.068	-15.80464
437.28	60.06984
437.491	-47.40976
437.703	-7.37567
437.915	1.05369
438.126	24.2364
438.338	-1.05368
438.55	68.5022
438.761	32.66719
438.973	24.2364
439.184	43.20621
439.396	102.23527
439.608	68.5022
439.819	28.45175
440.031	-1.05368
440.242	76.93493
440.454	7.37596
440.665	49.5299
440.877	5.26851
441.088	36.88273
441.3	34.77495
441.511	-1.05368
441.723	74.82672
441.934	3.16109
442.146	-1.05368
442.357	-1.05368
442.569	-1.05368
442.78	74.82672
442.991	-72.68981
443.203	-1.05368
443.414	17.91356
443.626	85.36802
443.837	-30.55439
444.048	123.32132
444.26	28.45175
444.471	-7.37567
444.682	-47.40976
444.894	34.77495
445.105	85.36802
445.316	89.5847
445.528	28.45175
445.739	60.06984
445.95	34.77495
446.161	5.26851
446.373	-13.69743
446.584	22.12877
446.795	20.02115
447.006	7.37596
447.217	49.5299
447.429	13.69845
447.64	20.02115
447.851	104.34378
448.062	-17.91182
448.273	3.16109
448.484	57.9618
448.695	-1.05368
448.907	5.26851
449.118	57.9618
449.329	-11.5902
449.54	-13.69743
449.751	62.17789
449.962	85.36802
450.173	-17.91182
450.384	11.59093
450.595	43.20621
450.806	62.17789
451.017	34.77495
451.228	100.12679
451.439	85.36802
451.65	22.12877
451.861	91.69308
452.072	-20.01897
452.283	72.71852
452.494	5.26851
452.705	36.88273
452.915	28.45175
453.126	11.59093
453.337	-15.80464
453.548	-5.26836
453.759	30.55946
453.97	24.2364
454.181	24.2364
454.391	-1.05368
454.602	34.77495
454.813	41.09836
455.024	-1.05368
455.235	79.04317
455.445	60.06984
455.656	43.20621
455.867	43.20621
456.078	87.47635
456.288	87.47635
456.499	-15.80464
456.71	28.45175
456.921	49.5299
457.131	24.2364
457.342	98.01833
457.553	68.5022
457.763	45.31408
457.974	20.02115
458.184	-13.69743
458.395	34.77495
458.606	41.09836
458.816	-26.3403
459.027	-34.76838
459.237	34.77495
459.448	49.5299
459.659	1.05369
459.869	51.63784
460.08	55.85379
460.29	53.7458
460.501	30.55946
460.711	7.37596
460.922	87.47635
461.132	5.26851
461.343	-1.05368
461.553	11.59093
461.764	57.9618
461.974	116.99528
462.184	32.66719
462.395	133.86516
462.605	87.47635
462.816	24.2364
463.026	55.85379
463.236	70.61035
463.447	116.99528
463.657	36.88273
463.867	119.10394
464.078	100.12679
464.288	180.26435
464.498	100.12679
464.709	32.66719
464.919	43.20621
465.129	24.2364
465.339	51.63784
465.55	68.5022
465.76	133.86516
465.97	3.16109
466.18	102.23527
466.391	72.71852
466.601	116.99528
466.811	100.12679
467.021	53.7458
467.231	161.28164
467.441	66.39408
467.651	57.9618
467.862	104.34378
468.072	135.97399
468.282	142.30062
468.492	125.43005
468.702	62.17789
468.912	108.56086
469.122	178.15507
469.332	85.36802
469.542	87.47635
469.752	195.02983
469.962	100.12679
470.172	119.10394
470.382	216.12509
470.592	100.12679
470.802	131.75635
471.012	68.5022
471.222	182.37364
471.432	125.43005
471.642	201.3582
471.852	76.93493
472.062	135.97399
472.272	161.28164
472.482	184.48295
472.691	135.97399
472.901	142.30062
473.111	192.92041
473.321	184.48295
473.531	222.45405
473.741	197.13926
473.95	239.33216
474.16	140.19172
474.37	270.98194
474.58	186.59229
474.79	285.7533
474.999	256.21151
475.209	214.01547
475.419	268.87183
475.628	247.77168
475.838	294.19448
476.048	245.66178
476.258	256.21151
476.467	372.28898
476.677	260.43154
476.886	294.19448
477.096	391.28851
477.306	315.29871
477.515	306.8568
477.725	353.29082
477.935	361.73427
478.144	389.17739
478.354	353.29082
478.563	446.18347
478.773	412.40067
478.982	515.8729
479.192	425.06875
479.401	496.86509
479.611	437.73739
479.82	517.98495
480.03	530.65755
480.239	460.96471
480.449	556.00426
480.658	524.32118
480.868	625.71762
481.077	556.00426
481.287	606.70349
481.496	558.11657
481.705	657.41006
481.915	665.86183
482.124	670.08778
482.333	676.4268
482.543	708.12345
482.752	720.80281
482.961	720.80281
483.171	750.38947
483.38	716.57631
483.589	843.38886
483.799	792.65962
484.008	750.38947
484.217	858.18586
484.426	1063.26828
484.636	864.52756
484.845	966.00455
485.054	919.49208
485.263	1050.58099
485.472	1029.43596
485.682	1211.29931
485.891	953.31898
486.1	1046.35194
486.309	1054.81006
486.518	1236.67796
486.727	1137.28114
486.936	1300.1263
487.146	1152.08439
487.355	1234.56305
487.564	1240.90777
487.773	1357.2314
487.982	1247.25252
488.191	1353.00136
488.4	1405.87723
488.609	1420.68257
488.818	1302.24128
489.027	1454.52339
489.236	1410.10733
489.445	1431.25782
489.654	1448.17823
489.863	1587.7705
490.072	1471.44381
490.281	1727.35531
490.49	1642.75976
490.698	1744.27381
490.907	1661.79415
491.116	1824.63334
491.325	1606.8054
491.534	1862.69617
491.743	1795.02789
491.952	1951.50296
492.16	1913.44409
492.369	2065.66747
492.578	1943.0456
492.787	1943.0456
492.996	1938.81688
493.204	2152.33418
493.413	2086.80686
493.622	2243.21398
493.831	2010.70176
494.039	1976.87447
494.248	2006.47344
494.457	2205.17319
494.665	2101.60399
494.874	2435.48459
495.083	2293.93052
495.291	2551.65
495.5	2312.94783
495.709	2551.65
495.917	2289.70434
496.126	2712.11047
496.335	2408.02246
496.543	2595.99486
496.752	2454.49578
496.96	2595.99486
497.169	2576.99056
497.377	2798.64386
497.586	2522.08387
497.794	2935.78326
498.003	2503.07588
498.211	2741.66097
498.42	2606.55238
498.628	2842.95698
498.837	2661.44653
499.045	2828.18662
499.254	2716.33212
499.462	3024.3636
499.671	2845.06697
499.879	3009.60206
500.087	3011.7109
500.296	3112.91689
500.504	3081.29389
500.713	3110.8088
500.921	3112.91689
501.129	3218.30076
501.338	2921.01732
501.546	3125.56509
501.754	3243.58678
501.962	3298.36485
502.171	3252.01492
502.379	3433.15355
502.587	3260.44279
502.795	3462.62894
503.004	3294.15156
503.212	3576.2864
503.42	3374.1923
503.628	3405.78041
503.837	3369.98026
504.045	3525.77857
504.253	3372.08629
504.461	3504.73051
504.669	3513.14995
504.877	3626.78352
505.085	3599.43225
505.294	3919.02822
505.502	3624.67969
505.71	3916.9271
505.918	3717.23029
506.126	3898.01614
506.334	3750.87584
506.542	4003.05632
506.75	3694.09611
506.958	3853.88424
507.166	3727.74506
507.374	3912.72481
507.582	3807.64141
507.79	4034.55843
507.998	3919.02822
508.206	3954.74414
508.414	3927.43249
508.622	4236.06108
508.83	3971.5496
509.037	4231.86509
509.245	3994.65498
509.453	4349.32042
509.661	4158.42152
509.869	4271.72355
510.077	4229.76706
510.285	4359.80422
510.492	4221.37474
510.7	4380.77019
510.908	4273.82115
511.116	4535.85037
511.324	4303.18529
511.531	4351.41723
511.739	4254.94198
511.947	4445.75084
512.155	4575.64876
512.362	4389.15597
512.57	4363.99759
512.778	4378.67369
512.985	4416.40734
513.193	4546.32441
513.401	4609.15697
513.608	4657.31499
513.816	4713.83317
514.024	4659.40855
514.231	4563.08172
514.439	4734.76166
514.646	4646.84687
514.854	4914.65291
515.061	4454.13391
515.269	4766.15015
515.477	4914.65291
515.684	4946.01198
515.892	4738.94709
516.099	4983.63604
516.307	4927.19716
516.514	5138.2341
516.722	5014.98372
516.929	5060.95092
517.136	5004.53507
517.344	5111.08417
517.551	5014.98372
517.759	5086.01922
517.966	4897.92596
518.173	5117.34989
518.381	5140.3224
518.588	5303.13749
518.796	5225.92239
519.003	5459.55617
519.21	5081.8414
519.418	5369.89227
519.625	5167.4681
519.832	5426.19794
520.039	5253.05567
520.247	5559.59474
520.454	5503.32972
520.661	5774.07751
520.868	5432.45307
521.076	5792.80683
521.283	5522.08664
521.49	5590.84566
521.697	5678.32002
521.904	5747.02067
522.112	5472.06396
522.319	5799.04951
522.526	5665.82623
522.733	6021.56631
522.94	5842.74233
523.147	5684.56659
523.354	5778.23974
523.561	5923.85854
523.768	5809.45351
523.975	5950.8893
524.183	5792.80683
524.39	5952.96843
524.597	5950.8893
524.804	6297.77697
525.011	6247.96513
525.218	6019.48797
525.425	6098.44859
525.632	6227.20622
525.838	6098.44859
526.045	6183.60487
526.252	6368.32068
526.459	6507.25445
526.666	6206.44496
526.873	6490.67083
527.08	6409.80438
527.287	6426.39525
527.494	6347.57533
527.701	6546.63461
527.907	6509.3273
528.114	6639.8701
528.321	6389.0637
528.528	6637.79871
528.735	6683.36402
528.941	6706.14251
529.148	6745.48063
529.355	6519.69119
529.562	6639.8701
529.768	6670.93822
529.975	6449.20527
530.182	6853.10065
530.388	6455.4257
530.595	6838.61693
530.802	6902.75067
531.008	7035.08702
531.215	6803.43754
531.422	7095.02161
531.628	6960.65919
531.835	6973.06586
532.042	7024.75157
532.248	7159.06885
532.455	7175.5937
532.661	7342.82812
532.868	7212.76941
533.074	7134.27891
533.281	7466.61283
533.487	7332.50918
533.694	7103.28698
533.9	7252.00267
534.107	7121.88274
534.313	7586.19742
534.52	7439.79945
534.726	7631.53825
534.933	7582.07501
535.139	7511.98102
535.345	7499.60891
535.552	7612.99097
535.758	7464.5504
535.965	7738.66668
536.171	7571.76863
536.377	7695.41015
536.584	7786.03225
536.79	7602.68619
536.996	7802.50464
537.203	7738.66668
537.409	7658.32572
537.615	7928.06289
537.821	7823.09325
538.028	8160.45328
538.234	8018.58196
538.44	8006.24078
538.646	7901.31102
538.853	7932.17825
539.059	7769.55853
539.265	7977.44183
539.471	8008.29769
539.677	8312.49962
539.883	8181.00642
540.09	8281.68814
540.296	8123.4526
540.502	8261.1447
540.708	8084.38928
540.914	8273.471
541.12	8448.01816
541.326	8433.64897
541.532	8495.22462
541.738	8386.42927
541.944	8345.36036
542.15	8554.73146
542.356	8328.93061
542.562	8669.59644
542.768	8454.1761
542.974	8694.20277
543.18	8528.05795
543.386	8886.86117
543.592	8796.70063
543.798	8858.17751
544.004	8788.50248
544.21	8960.6031
544.415	9024.08473
544.621	9067.07886
544.827	8991.32212
545.033	9300.34362
545.239	9009.75164
545.445	9281.93596
545.651	9134.62564
545.856	9079.36149
546.062	8864.3243
546.268	9067.07886
546.474	8784.4033
546.679	8808.99731
546.885	8757.75683
547.091	8888.90987
547.297	9153.04424
547.502	9005.65631
547.708	9052.74834
547.914	9126.43915
548.119	9095.73736
548.325	8993.36992
548.531	9126.43915
548.736	9433.24816
548.942	9073.22025
549.147	9230.79646
549.353	9263.52695
549.559	9435.29231
549.764	9367.8269
549.97	9486.39072
550.175	9486.39072
550.381	9361.6928
550.586	9234.88801
550.792	9839.72261
550.997	9590.6005
551.203	9692.72731
551.408	9561.998
551.614	9498.65284
551.819	9643.71129
552.025	9762.15154
552.23	9876.45927
552.435	9974.4004
552.641	9966.23992
552.846	10096.78005
553.052	10021.31867
553.257	10111.05435
553.462	10013.15952
553.668	10015.19933
553.873	9960.11941
554.078	9833.59936
554.283	9929.5149
554.489	10072.30821
554.694	10051.91346
554.899	10066.18994
555.105	10098.81928
555.31	10532.86529
555.515	10039.67593
555.72	10479.91515
555.925	10270.06492
556.131	10620.41799
556.336	10206.87842
556.541	10400.47367
556.746	10157.9508
556.951	10467.69466
557.156	10276.17905
557.361	10663.16796
557.567	10577.66258
557.772	10488.06188
557.977	10400.47367
558.182	10408.62242
558.387	10618.38214
558.592	10734.40598
558.797	10512.50087
559.002	10701.84186
559.207	10701.84186
559.412	10769.00199
559.617	10789.35098
559.822	10923.62507
560.027	10724.23002
560.232	10783.24641
560.437	10669.27466
560.642	10887.00985
560.847	10720.15955
561.051	10807.66407
561.256	10773.07188
561.461	11000.91183
561.666	10862.59764
561.871	11090.38175
562.076	11045.64944
562.281	11145.27335
562.485	10799.52503
562.69	10803.59457
562.895	10854.45986
563.1	10968.37201
563.305	10952.10102
563.509	10982.60853
563.714	11143.24047
563.919	11045.64944
564.123	11065.98296
564.328	11265.19485
564.533	11179.83074
564.737	11019.21422
564.942	11200.15719
565.147	11523.21162
565.351	11366.79525
565.556	11315.9982
565.761	11155.43761
565.965	11277.38823
566.17	11167.63436
566.374	11277.38823
566.579	11545.55218
566.784	11427.74352
566.988	11441.96352
567.193	11663.32936
567.397	11429.77498
567.602	11683.63268
567.806	11366.79525
568.011	11722.20653
568.215	11657.23819
568.42	11712.05583
568.624	11649.1165
568.828	11722.20653
569.033	11437.90071
569.237	11892.70608
569.442	11878.50007
569.646	11837.9092
569.85	11699.87469
570.055	12101.69172
570.259	11712.05583
570.463	12036.77313
570.668	11848.05723
570.872	11781.0763
571.076	11716.11613
571.281	12067.20471
571.485	12069.23341
571.689	12119.94866
571.893	12012.4266
572.098	12194.99855
572.302	11862.26412
572.506	12308.56853
572.71	12464.69157
572.914	12326.81877
573.119	12107.77743
573.323	12126.03416
573.527	12136.17653
573.731	12284.23399
573.935	12158.48907
574.139	12458.6096
574.343	11986.04991
574.547	12401.84166
574.751	12203.11144
574.955	12290.31772
575.159	12162.54579
575.364	12190.94206
575.568	12316.67982
575.772	12420.08907
575.976	12166.60249
576.18	12188.9138
576.383	12144.29028
576.587	12519.42667
576.791	12265.98242
576.995	12645.09725
577.199	12422.11652
577.403	12602.53407
577.607	12677.52455
577.811	12711.97689
578.015	12517.39953
578.219	13086.79635
578.422	12724.13613
578.626	12900.42235
578.83	12746.42754
579.034	12912.5785
579.238	12788.98195
579.442	13125.28144
579.645	12819.37643
579.849	13285.28066
580.053	13009.82095
580.257	12991.58889
580.46	13030.07832
580.664	13275.15494
580.868	13054.38652
581.071	13327.80752
581.275	13263.00394
581.479	13317.68224
581.682	13113.12844
581.886	13163.76483
582.09	13105.02634
582.293	13046.28386
582.497	13356.15773
582.7	13285.28066
582.904	13246.80236
583.107	13265.02912
583.311	13254.90319
583.515	13289.33092
583.718	13289.33092
583.922	13246.80236
584.125	13556.61234
584.329	13431.07951
584.532	13232.62575
584.735	13623.42255
584.939	13528.26745
585.142	13510.04537
585.346	13382.48222
585.549	13582.93196
585.753	13398.68157
585.956	13761.08065
586.159	13674.03388
586.363	13848.1218
586.566	13580.9074
586.769	13961.46992
586.973	13807.63822
587.176	14147.66767
587.379	13629.49602
587.582	14032.30837
587.786	13728.69183
587.989	14066.71455
588.192	13987.7817
588.395	13981.70979
588.599	13823.83179
588.802	14303.49314
589.005	13872.4114
589.208	14171.95293
589.411	14127.42972
589.615	14271.11475
589.818	14196.2379
590.021	13969.5659
590.224	13892.65243
590.427	14171.95293
590.63	14111.2392
590.833	14433.00234
591.036	14208.38027
591.239	14279.20939
591.442	14010.04518
591.645	14503.82505
591.848	14497.7546
592.051	14683.91018
592.254	14238.73589
592.457	14220.52257
592.66	14258.97274
592.863	14414.7905
593.066	14382.4136
593.269	14770.91474
593.472	14380.39003
593.675	14669.74649
593.878	14880.1743
594.081	14870.05775
594.284	14732.47106
594.486	14884.22091
594.689	14738.54113
594.892	14787.10146
595.095	14536.20059
595.298	14748.65791
595.5	14677.84004
595.703	14942.89662
595.906	14983.36241
596.109	15118.92198
596.311	15023.82806
596.514	15029.8979
596.717	15256.50444
596.92	15282.80702
597.122	15286.85357
597.325	14995.50212
597.528	15082.50307
597.73	15398.13427
597.933	15214.01571
598.136	15290.90013
598.338	14779.00811
598.541	14985.38569
598.743	15246.38807
598.946	15214.01571
599.148	15264.59753
599.351	14995.50212
599.554	15313.1562
599.756	15590.34974
599.959	15527.62619
600.161	15485.13641
600.363	15329.34245
600.566	15503.34628
600.768	15600.46651
600.971	15790.66578
601.173	15772.45484
601.376	15754.24398
601.578	15671.28444
601.78	15810.90026
601.983	15434.55366
602.185	15897.90983
602.388	15450.7401
602.59	15839.22872
602.792	15509.41625
602.995	15752.22056
603.197	15515.48623
603.399	15768.40798
603.601	15244.36479
603.804	15582.25634
604.006	15709.72891
604.208	15543.81285
604.41	15679.37799
604.613	15814.94717
604.815	15600.46651
605.017	16247.99742
605.219	15746.1503
605.421	15778.52514
605.623	15891.83933
605.826	16084.07793
606.028	15790.66578
606.23	15788.64234
606.432	16086.10156
606.634	16252.04496
606.836	15796.73611
607.038	16140.74024
607.24	16053.72361
607.442	16082.05429
607.644	16035.51118
607.846	16197.40382
608.048	16053.72361
608.25	16426.09596
608.452	16221.68862
608.654	16126.57455
608.856	16134.66922
609.058	16189.30895
609.26	16280.3779
609.462	16235.85486
609.664	16221.68862
609.866	16187.28523
610.067	16332.99718
610.269	16405.85674
610.471	16134.66922
610.673	16078.00704
610.875	16282.4017
611.077	16341.09256
611.278	16332.99718
611.48	16140.74024
611.682	16391.68941
611.884	16484.79083
612.085	16391.68941
612.287	16683.15232
612.489	16343.11641
612.69	16260.14005
612.892	16187.28523
613.094	16341.09256
613.295	16059.79445
613.497	16029.4404
613.699	16094.19611
613.9	16223.71236
614.102	16146.81128
614.304	16760.07388
614.505	16454.4312
614.707	16644.6928
614.908	16446.33537
615.11	16656.83782
615.311	16191.33266
615.513	16296.56832
615.714	16486.81482
615.916	16284.4255
616.117	16298.59213
616.319	16525.27106
616.52	16033.48759
616.722	16624.45129
616.923	16488.83881
617.124	16624.45129
617.326	16555.6318
617.527	16774.24402
617.729	16454.4312
617.93	16673.03131
618.131	16513.1269
618.333	16634.57202
618.534	16780.31697
618.735	16555.6318
618.937	16446.33537
619.138	16551.58367
619.339	16494.91081
619.54	16796.51162
619.742	16422.0481
619.943	16411.92848
620.144	16581.94483
620.345	16717.56417
620.546	16496.93481
620.748	16747.92814
620.949	16798.53597
621.15	16853.19414
621.351	16820.80389
621.552	17094.11753
621.753	16717.56417
621.954	16648.74114
622.155	16681.12811
622.356	17061.72225
622.558	16956.44243
622.759	17241.93015
622.96	16784.36562
623.161	17025.27841
623.362	16693.27338
623.563	17092.0928
623.764	16853.19414
623.965	16832.95016
624.166	17146.76138
624.366	16889.63395
624.567	16723.63693
624.768	16994.90921
624.969	16652.78948
625.17	17355.3312
625.371	17061.72225
625.572	17211.55644
625.773	17071.8457
625.973	17063.74694
626.174	17031.35232
626.375	17029.32768
626.576	16970.61429
626.777	17138.6622
626.977	16913.92761
627.178	17401.90937
627.379	17088.04336
627.58	17199.40714
627.78	17071.8457
627.981	17401.90937
628.182	17231.8055
628.382	17365.45675
628.583	17280.40446
628.784	17304.70457
628.984	17243.95508
629.185	17582.16222
629.386	17282.42945
629.586	17576.08587
629.787	17357.3563
629.987	17517.34932
630.188	17318.87984
630.388	17590.26406
630.589	17130.56307
630.79	17086.01864
630.99	17049.57421
631.191	17294.57947
631.391	17367.48187
631.591	17173.08402
631.792	17223.70584
631.992	17616.59542
632.193	17547.72996
632.393	17746.23482
632.594	17486.96939
632.794	17397.85903
632.994	17543.67916
633.195	17341.15555
633.395	17104.2412
633.595	17460.6407
633.796	17616.59542
633.996	17845.4993
634.196	17260.15469
634.397	18090.65756
634.597	17298.6295
634.797	17740.15767
634.997	17486.96939
635.198	17798.90475
635.398	17651.02956
635.598	17754.33774
635.798	17774.59527
635.998	17646.97844
636.199	17813.08551
636.399	17746.23482
636.599	17758.38922
636.799	17604.44242
636.999	17422.16126
637.199	17673.31099
637.399	17766.49222
637.599	17620.64645
637.799	17298.6295
637.999	17638.87623
638.199	17719.90072
638.399	17894.12164
638.599	17559.88241
638.799	17867.78429
638.999	17671.28539
639.199	18017.71249
639.399	17719.90072
639.599	17760.41496
639.799	17584.18768
639.999	18005.55543
640.199	17632.7996
640.399	17869.81022
640.599	17446.46394
640.799	18027.84347
640.998	17877.91397
641.198	18279.12079
641.398	18009.60777
641.598	18119.02634
641.798	17857.6547
641.997	17920.45958
642.197	18157.52798
642.397	18275.06748
642.597	18076.47343
642.796	18279.12079
642.996	17740.15767
643.196	18054.18444
643.395	18013.66012
643.595	18133.211
643.795	17936.66783
643.994	18177.79253
644.194	17942.74599
644.394	18435.18457
644.593	18161.58086
644.793	18587.21645
644.992	18234.53521
645.192	18242.64155
645.392	18273.04083
645.591	18418.96911
645.791	18481.80538
645.99	18577.08032
646.19	18256.82778
646.389	18303.44095
646.589	18017.71249
646.788	18283.17411
646.987	18074.44714
647.187	18765.6284
647.386	18238.58837
647.586	18605.46174
647.785	18425.04988
647.984	18489.91356
648.184	18441.26543
648.383	18520.31976
648.582	18765.6284
648.782	18864.98467
648.981	18427.07681
649.18	18564.91709
649.38	18585.18922
649.579	18672.36382
649.778	18678.44604
649.977	18925.81976
650.177	18445.31936
650.376	18540.59104
650.575	18343.97575
650.774	18745.35278
650.973	18641.95326
651.173	18802.12551
651.372	18779.82157
651.571	18996.79862
651.77	18885.26263
651.969	18858.90135
652.168	18690.61058
652.367	18702.77527
652.566	18560.86271
652.765	18759.54567
652.964	19177.31006
653.163	18931.90347
653.362	18619.65273
653.561	18690.61058
653.76	18927.84766
653.959	19090.09264
654.158	18911.62459
654.357	18773.73876
654.556	18570.99868
654.755	19118.48818
654.954	18664.25425
655.153	18718.99507
655.352	18718.99507
655.551	18899.45745
655.749	19057.64157
655.948	19134.71456
656.147	19163.11136
656.346	19169.19649
656.545	19347.71015
656.743	19242.22096
656.942	19116.4599
657.141	18998.82666
657.34	19033.30395
657.538	19037.36018
657.737	18950.15482
657.936	19296.9928
658.135	19084.00799
658.333	18860.92912
658.532	18960.29459
658.731	19071.83879
658.929	19039.3883
659.128	19033.30395
659.326	18848.76258
659.525	19201.65115
659.724	18980.57444
659.922	19161.08299
660.121	18652.09001
660.319	18769.68357
660.518	18860.92912
660.716	19088.06442
660.915	19331.48031
661.113	19558.72211
661.312	19228.02134
661.51	19051.55711
661.709	18765.6284
661.907	19114.43163
662.105	19187.45211
662.304	19303.07874
662.502	18972.46245
662.701	19159.05463
662.899	18867.01245
663.097	19453.21051
663.296	19434.95003
663.494	19497.84866
663.692	19461.32639
663.891	19217.87888
664.089	19221.93585
664.287	19262.50647
664.485	19264.53505
664.684	19804.28318
664.882	19055.61342
665.08	19534.37228
665.278	19382.19942
665.476	19576.98487
665.675	19049.52897
665.873	19043.44456
666.071	19258.44934
666.269	19333.50903
666.467	19088.06442
666.665	19327.4229
666.863	18761.57324
667.061	19049.52897
667.259	19106.31857
667.457	19057.64157
667.655	19148.91286
667.853	19353.7964
668.051	18976.51844
668.249	19037.36018
668.447	19219.90736
668.645	19288.87826
668.843	19187.45211
669.041	19276.70658
669.239	18942.04307
669.437	19090.09264
669.635	19130.65794
669.833	19315.25075
670.031	19025.19154
670.229	19169.19649
670.426	19045.47269
670.624	19294.96416
670.822	19307.13606
671.02	19292.93552
671.218	19069.8106
671.415	19347.71015
671.613	18942.04307
671.811	19191.50896
672.009	18806.18082
672.206	19252.36366
672.404	18988.6865
672.602	19140.79953
672.799	19325.39419
672.997	19392.34355
673.195	19349.73889
673.392	19221.93585
673.59	19185.42369
673.788	19112.40336
673.985	19025.19154
674.183	19396.40123
674.38	19305.1074
674.578	19394.37239
674.775	19039.3883
674.973	19088.06442
675.17	18846.73484
675.368	19035.33207
675.565	19181.36687
675.763	19219.90736
675.96	19148.91286
676.158	19102.26206
676.355	18974.49045
676.553	19094.1491
676.75	18800.09786
676.947	19154.99791
677.145	18747.38033
677.342	19031.27584
677.539	18846.73484
677.737	18830.51304
677.934	18629.78928
678.131	19053.58526
678.329	19150.94121
678.526	19526.2558
678.723	19378.14179
678.92	19710.92216
679.118	19432.92111
679.315	19116.4599
679.512	19355.82516
679.709	19296.9928
679.906	18915.68033
680.104	18668.30903
680.301	18662.22687
680.498	18739.27017
680.695	18895.40176
680.892	18765.6284
681.089	19023.16345
681.286	18990.71452
681.483	18510.18426
681.68	19027.21964
681.877	18721.02256
682.075	19096.17733
682.272	18753.46298
682.469	19079.95157
682.665	18956.23867
682.862	19049.52897
683.059	19140.79953
683.256	19136.74288
683.453	18871.06801
683.65	18731.16008
683.847	18954.21071
684.044	19157.02627
684.241	18901.48529
684.438	18942.04307
684.635	18903.51314
684.831	18935.9593
685.028	19193.53739
685.225	18862.95689
685.422	18798.07021
685.619	18654.11738
685.815	18763.60082
686.012	19447.12365
686.209	18755.49054
686.405	18883.23482
686.602	18716.96758
686.799	18684.52829
686.996	18635.87125
687.192	18800.09786
687.389	18822.40224
687.586	18447.34633
687.782	18552.75399
687.979	18828.48534
688.175	18761.57324
688.372	18909.59672
688.568	18745.35278
688.765	18702.77527
688.962	18791.9873
689.158	18625.73465
689.355	18721.02256
689.551	18646.00795
689.748	18354.10969
689.944	18062.28948
690.14	18125.10546
690.337	18656.14474
690.533	18639.92592
690.73	18384.51206
690.926	18372.35101
691.123	18088.63124
691.319	18593.29818
691.515	18485.85946
691.712	18471.67025
691.908	18735.21512
692.104	18516.26555
692.301	18414.91528
692.497	17928.56368
692.693	18518.29265
692.889	18125.10546
693.086	18461.53521
693.282	18412.88837
693.478	18337.89543
693.674	18027.84347
693.87	18418.96911
694.067	18433.15762
694.263	18364.24372
694.459	18240.61496
694.655	18420.99603
694.851	18082.55232
695.047	18370.32418
695.243	18366.27053
695.439	18317.62796
695.635	18129.15823
695.831	18171.71312
696.027	18121.05271
696.224	18279.12079
696.42	18506.13009
696.615	18390.59263
696.811	18216.29618
697.007	18198.05744
697.203	17890.0697
697.399	18102.81552
697.595	18106.86821
697.791	18242.64155
697.987	18096.73652
698.183	18238.58837
698.379	17892.09567
698.575	18356.13648
698.77	17965.03282
698.966	18181.84548
699.162	18202.11047
699.358	18463.56221
699.554	18295.33417
699.749	18189.95143
699.945	18058.23695
700.141	18175.76606
700.337	17894.12164
700.532	18321.68142
700.728	17782.69837
700.924	17855.62879
701.119	18050.13195
701.315	17981.2417
701.511	17770.54374
701.706	18094.7102
701.902	17653.05513
702.097	17792.82733
702.293	17853.60288
702.489	18159.55442
702.684	18096.73652
702.88	18110.9209
703.075	18149.42226
703.271	17833.34403
703.466	17871.83615
703.662	17687.49028
703.857	18098.76285
704.053	18116.99998
704.248	18266.96091
704.443	18479.77835
704.639	18060.26322
704.834	18520.31976
705.03	18214.26964
705.225	17900.19957
705.42	17950.85024
705.616	18262.90764
705.811	17681.41342
706.006	18279.12079
706.202	17855.62879
706.397	17900.19957
706.592	18088.63124
706.787	17958.95455
706.983	17719.90072
707.178	18185.89845
707.373	18147.39584
707.568	17981.2417
707.763	17873.86209
707.959	17863.73244
708.154	18100.78919
708.349	18031.89589
708.544	18139.2902
708.739	17764.46646
708.934	17916.40755
709.129	17770.54374
709.324	17632.7996
709.519	17596.34048
709.714	17258.12973
709.909	17580.13677
710.104	17231.8055
710.299	17460.6407
710.494	17598.36596
710.689	17790.80154
710.884	17634.82514
711.079	17563.93326
711.274	17671.28539
711.469	18208.19004
711.664	17748.26055
711.859	18003.52927
712.054	17922.4856
712.249	17786.74995
712.443	17888.04374
712.638	17906.27754
712.833	17505.19726
713.028	17843.47341
713.223	17495.07064
713.417	17738.13196
713.612	17523.42539
713.807	17705.72105
714.002	17572.03499
714.196	17576.08587
714.391	17438.363
714.586	17622.67196
714.78	17454.56493
714.975	17460.6407
715.17	17193.33253
715.364	17531.52686
715.559	17659.13185
715.754	17401.90937
715.948	17341.15555
716.143	17600.39144
716.337	17503.17193
716.532	17428.23689
716.726	17379.63265
716.921	17397.85903
717.115	17395.83387
717.31	17436.33777
717.504	17223.70584
717.699	17531.52686
717.893	17333.05525
718.088	17736.10625
718.282	17600.39144
718.476	17466.71651
718.671	17276.35448
718.865	17298.6295
719.059	17181.18339
719.254	17365.45675
719.448	17162.95987
719.642	17049.57421
719.837	16654.81365
720.031	17205.48178
720.225	16666.95874
720.419	17128.53829
720.614	17256.10477
720.808	17045.52488
721.002	16883.56059
721.196	16614.33061
721.39	16713.51569
721.585	16960.49152
721.779	17053.62354
721.973	17098.16699
722.167	16632.54787
722.361	16822.82826
722.555	16470.62294
722.749	16490.86281
722.943	16567.77623
723.137	16737.80676
723.331	16644.6928
723.525	17094.11753
723.719	16782.3413
723.913	17025.27841
724.107	16569.80031
724.301	16758.04959
724.495	16899.75626
724.689	17059.69757
724.883	16673.03131
725.077	16887.60949
725.271	16897.73179
725.465	16709.46721
725.659	16357.28342
725.853	16922.02558
726.046	16867.36508
726.24	16486.81482
726.434	16328.9495
726.628	16713.51569
726.822	16120.50356
727.015	16482.76684
727.209	16260.14005
727.403	17037.42626
727.596	16774.24402
727.79	16798.53597
727.984	17191.30767
728.177	17341.15555
728.371	16802.58466
728.565	16899.75626
728.758	16974.66341
728.952	16930.1236
729.146	16666.95874
729.339	16976.68798
729.533	16792.46295
729.726	17029.32768
729.92	16857.24297
730.113	16802.58466
730.307	16608.25824
730.5	16533.36721
730.694	16691.24916
730.887	16824.85264
731.081	16768.17109
731.274	16490.86281
731.468	16359.30729
731.661	16685.17653
731.854	16308.7112
732.048	16393.7133
732.241	16681.12811
732.435	16610.28236
732.628	16312.75885
732.821	16367.40277
733.014	16604.20999
733.208	16713.51569
733.401	16596.11354
733.594	16324.90182
733.788	16549.55961
733.981	16484.79083
734.174	16509.07887
734.367	16448.35933
734.56	16583.96893
734.754	16788.41428
734.947	16561.704
735.14	16822.82826
735.333	16559.67993
735.526	16569.80031
735.719	16361.33115
735.912	16250.02119
736.105	16156.92971
736.298	16191.33266
736.491	16021.34604
736.684	16189.30895
736.877	16183.23781
737.07	16296.56832
737.263	16037.53478
737.456	16430.14382
737.649	16090.14883
737.842	16213.59366
738.035	16114.43259
738.228	16033.48759
738.421	16199.42755
738.614	16407.88065
738.807	16462.52705
739	16219.66487
739.192	16146.81128
739.385	16583.96893
739.578	16422.0481
739.771	16422.0481
739.964	16069.91254
740.156	16470.62294
740.349	16065.8653
740.542	16140.74024
740.735	16193.35638
740.927	16252.04496
741.12	15948.49784
741.313	16007.18097
741.505	16003.13382
741.698	16179.19039
741.891	15988.96884
742.083	15974.80393
742.276	16029.4404
742.468	16134.66922
742.661	15736.03321
742.854	15879.69834
743.046	15547.85952
743.239	15624.74683
743.431	16239.90237
743.624	16057.77083
743.816	16191.33266
744.009	16154.90602
744.201	16023.36963
744.393	15835.18178
744.586	15604.51322
744.778	16148.83496
744.971	15964.68618
745.163	15912.07439
745.355	15958.61554
745.548	15744.12688
745.74	15883.74533
745.932	15922.19198
746.125	16256.0925
746.317	15988.96884
746.509	15986.94528
746.702	16523.24703
746.894	16112.40893
747.086	16181.2141
747.278	15901.95684
747.471	15693.54172
747.663	15685.44815
747.855	15968.73327
748.047	15954.56846
748.239	15871.60438
748.431	15978.85104
748.623	16118.4799
748.815	16021.34604
749.008	16082.05429
749.2	16053.72361
749.392	16175.14298
749.584	15622.72346
749.776	15861.48695
749.968	16069.91254
750.16	15976.82748
750.352	15887.79233
750.544	16142.76392
750.736	16043.60558
750.928	15960.63908
751.12	15831.13485
751.311	15839.22872
751.503	15731.98639
751.695	15353.62187
751.887	15329.34245
752.079	15572.13961
752.271	15487.15972
752.463	15535.71952
752.654	15557.97621
752.846	15695.56512
753.038	15501.32296
753.23	15398.13427
753.421	15029.8979
753.613	15169.50374
753.805	15450.7401
753.997	15244.36479
754.188	15566.06958
754.38	15649.02727
754.572	15721.86934
754.763	15808.87681
754.955	15533.69619
755.146	15468.94989
755.338	14957.05966
755.53	15175.57356
755.721	15080.4798
755.913	15298.99324
756.104	15282.80702
756.296	15309.10964
756.487	14981.33912
756.679	15181.64337
756.87	14934.80344
757.062	14908.50057
757.253	15060.24705
757.445	14924.68696
757.636	15220.08552
757.827	15199.85281
758.019	15177.59683
758.21	15371.83147
758.401	15292.92341
758.593	14957.05966
758.784	14942.89662
758.975	15060.24705
759.167	14997.5254
759.358	14920.64036
759.549	14704.14394
759.74	14550.36479
759.932	14726.40098
760.123	14689.98032
760.314	14843.75465
760.505	14629.27854
760.696	14471.44917
760.888	14793.17147
761.079	14481.56667
761.27	14536.20059
761.461	14273.13841
761.652	14819.47478
761.843	14511.91897
762.034	14224.56999
762.225	14380.39003
762.416	14544.29443
762.607	14570.59925
762.798	14633.32536
762.989	14544.29443
763.18	14594.88045
763.371	14370.27215
763.562	14661.65294
763.753	14291.3513
763.944	14592.85703
764.135	14386.46073
764.326	14926.71026
764.517	14681.8868
764.708	14746.63455
764.899	14097.07239
765.089	14161.83411
765.28	14052.54738
765.471	14418.83759
765.662	13981.70979
765.853	14113.26303
766.043	13890.62834
766.234	14428.95528
766.425	13892.65243
766.615	14244.80697
766.806	13918.96536
766.997	14066.71455
767.187	13943.25382
767.378	14289.32765
767.569	14159.81034
767.759	14329.80024
767.95	14032.30837
768.141	14026.23662
768.331	13831.9285
768.522	13872.4114
768.712	13708.44842
768.903	13813.71083
769.093	13791.44446
769.284	13868.36316
769.474	13674.03388
769.665	13540.41535
769.855	13548.51387
770.046	14060.64292
770.236	13435.12918
770.426	13483.72405
770.617	13576.85826
770.807	13546.48925
770.998	13823.83179
771.188	13655.81404
771.378	13540.41535
771.569	13433.10435
771.759	13505.99597
771.949	13267.05429
772.139	13714.52148
772.33	13309.58195
772.52	13477.64981
772.71	13481.69931
772.9	13192.11996
773.09	13544.46462
773.281	13512.07006
773.471	13307.55686
773.661	13155.66321
773.851	12942.96804
774.041	13208.32249
774.231	13350.08275
774.421	13058.43781
774.611	12851.79584
774.802	12888.26601
774.992	13094.89862
775.182	12880.16168
775.372	13078.69401
775.562	13015.89821
775.752	12791.00829
775.942	12793.03462
776.131	12839.63873
776.321	12748.454
776.511	12997.66629
776.701	13032.10403
776.891	13001.71786
777.081	13109.0774
777.271	13050.3352
777.461	12720.08308
777.651	12718.05654
777.84	12689.68439
778.03	12780.87654
778.22	12768.71826
778.41	13050.3352
778.599	12677.52455
778.789	12687.65777
778.979	12659.28438
779.169	12551.86008
779.358	12626.85622
779.548	12756.55977
779.738	12795.06094
779.927	12535.64358
780.117	12369.40048
780.307	12602.53407
780.496	12535.64358
780.686	12308.56853
780.875	12349.12385
781.065	12442.39072
781.254	12606.58782
781.444	12776.8238
781.633	12474.82806
781.823	12521.45381
782.012	12389.67642
782.202	12551.86008
782.391	12332.90206
782.581	12201.08323
782.77	12032.71546
782.96	12314.65201
783.149	11967.78834
783.338	12434.28112
783.528	12259.89844
783.717	12432.2537
783.906	12130.09113
784.096	11994.16596
784.285	12111.83454
784.474	12132.1196
784.663	11862.26412
784.853	12103.7203
785.042	11902.85299
785.231	11939.38015
785.42	11975.90468
785.61	11789.1957
785.799	11653.17736
785.988	11969.81744
786.177	11789.1957
786.366	11580.07628
786.555	11811.52333
786.744	11378.98561
786.933	11714.08598
787.122	11829.79062
787.312	11533.36656
787.501	11230.64491
787.69	11189.9941
787.879	11839.93882
788.068	11395.23888
788.257	11387.11232
788.445	11427.74352
788.634	11569.92241
788.823	11663.32936
789.012	11781.0763
789.201	11425.71206
789.39	11565.8608
789.579	11330.222
789.768	11695.81424
789.957	11630.84217
790.145	11710.02566
790.334	11602.41398
790.523	11555.70661
790.712	11454.15172
790.9	11326.15811
791.089	11342.41345
791.278	11618.65888
791.467	11070.04954
791.655	11374.9222
791.844	11027.34833
792.033	11352.5727
792.221	11391.17562
792.41	11421.64909
792.599	10838.18376
792.787	11041.5826
792.976	11198.12459
793.164	11545.55218
793.353	11265.19485
793.541	11513.05644
793.73	11253.00109
793.918	11311.93417
794.107	10880.90695
794.295	10659.09677
794.484	10919.55689
794.672	10996.8445
794.861	11061.91635
795.049	11259.09802
795.238	10919.55689
795.426	11204.22236
795.614	10964.30433
795.803	11074.11607
795.991	10868.70084
796.179	11126.97702
796.368	10950.0671
796.556	10828.01082
796.744	10579.69868
796.932	11029.38183
797.121	10652.98989
797.309	10724.23002
797.497	10750.68688
797.685	10862.59764
797.874	10813.76822
798.062	10978.54101
798.25	10490.09854
798.438	11090.38175
798.626	10840.21832
798.814	10793.42064
799.002	10571.55422
799.19	10764.93205
799.378	10595.987
799.566	10638.74007
799.755	10455.47371
799.943	10620.41799
800.131	10555.26469
800.318	10626.52546
800.506	10541.0107
800.694	10496.20842
800.882	10325.08775
801.07	10577.66258
801.258	10308.7857
801.446	10618.38214
801.634	10247.64539
801.822	10636.70433
802.01	10447.32615
802.197	10834.11462
802.385	10724.23002
802.573	10724.23002
802.761	10624.48965
802.949	10634.66858
803.136	10703.87721
803.324	10791.38582
803.512	10703.87721
803.699	10669.27466
803.887	10797.49025
804.075	10864.63205
804.262	10777.14173
804.45	10819.87226
804.638	10705.91255
804.825	10785.28128
805.013	10512.50087
805.201	10355.65178
805.388	10345.4641
805.576	10508.42783
805.763	10585.80689
805.951	10573.59035
806.138	10640.77579
806.326	10435.10443
806.513	10314.89907
806.701	10308.7857
806.888	10223.18586
807.075	10327.12544
807.263	10447.32615
807.45	10650.95424
807.638	10483.98854
807.825	10577.66258
808.012	10508.42783
808.2	10490.09854
808.387	10475.8417
808.574	10787.31613
808.761	10553.22845
808.949	10650.95424
809.136	10416.77096
809.323	10400.47367
809.51	10716.08904
809.698	10752.72194
809.885	10673.34573
810.072	10870.73522
810.259	10630.59705
810.446	10785.28128
810.633	10457.51057
810.82	10756.79202
811.008	10724.23002
811.195	10618.38214
811.382	10439.17839
811.569	10561.37336
811.756	10581.73476
811.943	10819.87226
812.13	10565.44574
812.317	10524.71967
812.504	10361.76423
812.691	10608.20272
812.878	10644.84721
813.064	10569.51807
813.251	10536.93802
813.438	10687.59409
813.625	10373.98878
813.812	10268.02685
813.999	10392.32471
814.186	10935.82932
814.372	10296.55861
814.559	10439.17839
814.746	10306.74789
814.933	10337.31372
815.12	10791.38582
815.306	10486.02522
815.493	10569.51807
815.68	10583.77083
815.866	10404.54807
816.053	10650.95424
816.24	10227.26259
816.426	10506.39129
816.613	10504.35474
816.799	10433.06743
816.986	10510.46435
817.173	10807.66407
817.359	10327.12544
817.546	10504.35474
817.732	10200.7629
817.919	10323.05004
818.105	10259.87443
818.292	10353.61428
818.478	10233.37757
818.665	10316.93683
818.851	10223.18586
819.037	10219.10908
819.224	10388.25015
819.41	10292.4828
819.597	10286.369
819.783	10677.41675
819.969	10569.51807
820.156	10343.42653
820.342	10512.50087
820.528	10219.10908
820.714	10215.03225
820.901	10502.31818
821.087	10363.80169
821.273	10367.87657
821.459	10314.89907
821.646	10194.64726
821.832	10331.20079
822.018	10498.24502
822.204	10508.42783
822.39	10263.95066
822.576	10178.33827
822.762	10074.34761
822.948	9970.32019
823.134	10159.98961
823.32	9866.25512
823.507	10121.24986
823.693	10145.71766
823.879	10321.01232
824.065	10219.10908
824.25	10123.28892
824.436	10039.67593
824.622	10096.78005
824.808	9617.15721
824.994	10064.15048
825.18	9935.63606
825.366	10135.52298
825.552	9921.35314
825.738	10062.11102
825.923	10074.34761
826.109	10102.89769
826.295	9696.81158
826.481	9921.35314
826.667	9851.9687
826.852	9655.96613
827.038	9725.39973
827.224	9894.8258
827.409	9611.02898
827.595	9753.98489
827.781	9527.26222
827.966	9672.30505
828.152	9318.74994
828.338	9772.3595
828.523	9611.02898
828.709	9668.22041
828.894	9478.21565
829.08	9819.31127
829.266	9429.15982
829.451	9723.35782
829.637	9339.19983
829.822	9635.54108
830.008	9380.09466
830.193	9549.73883
830.378	9079.36149
830.564	9502.74008
830.749	9402.58403
830.935	9461.86474
831.12	9005.65631
831.305	9300.34362
831.491	9173.50773
831.676	9281.93596
831.861	9007.70399
832.047	9347.37932
832.232	9011.79928
832.417	9159.18346
832.602	9091.6435
832.788	9308.52437
832.973	9238.97949
833.158	9561.998
833.343	9232.84224
833.528	9320.795
833.714	9210.33772
833.899	8942.16977
834.084	8893.00721
834.269	9110.06534
834.454	8714.70601
834.639	9132.57904
834.824	8808.99731
835.009	9263.52695
835.194	9024.08473
835.379	9007.70399
835.564	9175.55398
835.749	9062.98451
835.934	9050.70105
836.119	9283.98132
836.304	9103.92488
836.489	9079.36149
836.674	9011.79928
836.859	9081.40854
837.044	9243.0709
837.228	8944.21799
837.413	8903.25026
837.598	9103.92488
837.783	8768.00584
837.968	9024.08473
838.152	8642.93657
838.337	8831.53952
838.522	8372.05604
838.707	8655.24152
838.891	8324.82298
839.076	8712.65577
839.261	8396.69529
839.445	8534.21366
839.63	8308.39168
839.815	8665.49512
839.999	8195.39243
840.184	8657.29227
840.368	8523.95405
840.553	8735.20741
840.737	8493.17237
840.922	8443.91277
841.106	8162.50869
841.291	8211.8324
841.475	8228.2711
841.66	8415.17291
841.844	7909.54274
842.029	8131.67554
842.213	7952.75384
842.397	8257.03577
842.582	8090.55766
842.766	7989.78473
842.951	7944.52385
843.135	7950.69637
843.319	8109.0617
843.504	8088.50155
843.688	8291.95912
843.872	8464.43894
844.056	8341.25304
844.241	8026.80901
844.425	8183.06163
844.609	8378.21611
844.793	7722.1891
844.977	8139.89815
845.161	7757.20235
845.346	7917.77412
845.53	7998.01292
845.714	8041.20557
845.898	7683.04943
846.082	8135.78688
846.266	8267.30794
846.45	8004.18384
846.634	8148.12044
846.818	8267.30794
847.002	8141.95375
847.186	8277.57961
847.37	8139.89815
847.554	8203.61258
847.738	8240.59929
847.922	8152.23147
848.106	8100.83788
848.29	7932.17825
848.473	7827.21072
848.657	7969.21283
848.841	7812.7992
849.025	7732.48774
849.209	7507.85707
849.392	7648.02327
849.576	7379.97176
849.76	7674.80853
849.944	7547.03111
850.127	7598.56412
850.311	7382.03509
850.495	7495.4847
850.678	7258.19667
850.862	7518.16678
851.046	7398.54093
851.229	7458.36295
851.413	7351.08287
851.596	7557.33879
851.78	7049.55572
851.964	7445.98748
852.147	6973.06586
852.331	7423.29708
852.514	7247.87323
852.698	7400.60406
852.881	7154.93741
853.065	7309.8056
853.248	7078.48981
853.431	7095.02161
853.615	7035.08702
853.798	7144.60844
853.982	6970.99814
854.165	7101.22067
854.348	6886.20211
854.532	7252.00267
854.715	7074.35664
854.898	7150.80589
855.081	6654.3692
855.265	6913.09277
855.448	6811.71563
855.631	7088.82235
855.814	7049.55572
855.997	6931.70714
856.181	6673.00925
856.364	6819.99336
856.547	6762.04157
856.73	6960.65919
856.913	6842.75525
857.096	6933.77529
857.279	6803.43754
857.462	6950.31968
857.645	6826.20142
857.828	6739.2699
858.011	6467.86592
858.194	6970.99814
858.377	6687.50577
858.56	6633.65585
858.743	6673.00925
858.926	6604.6533
859.109	6401.50839
859.292	6453.35225
859.475	6297.77697
859.658	6449.20527
859.841	6160.76194
860.023	6225.1302
860.206	6098.44859
860.389	6397.36025
860.572	6090.13855
860.755	6347.57533
860.937	6160.76194
861.12	6009.09588
861.303	6119.22206
861.486	6274.94821
861.668	6040.27037
861.851	6166.99211
862.034	5928.01738
862.216	6235.51006
862.399	5794.88775
862.581	6112.99027
862.764	6019.48797
862.947	6133.76209
863.129	6048.58268
863.312	6040.27037
863.494	6029.87946
863.677	6148.30096
863.859	6058.97253
864.042	6019.48797
864.224	6015.3312
864.406	5809.45351
864.589	5717.87808
864.771	5959.20566
864.954	5832.34022
865.136	6007.01739
865.318	5871.8651
865.501	5749.10211
865.683	5615.84258
865.865	5674.15552
866.048	5617.9255
866.23	5557.51116
866.412	5499.16126
866.594	5713.71447
866.777	5553.34392
866.959	5688.73086
867.141	5549.17659
867.323	5711.63264
867.505	5667.90859
867.687	5601.26146
867.869	5269.75111
868.052	5626.25696
868.234	5438.70798
868.416	5788.64492
868.598	5592.92887
868.78	5611.67666
868.962	5657.49656
869.144	5690.81296
869.326	5436.62303
869.508	5749.10211
869.69	5407.43129
869.872	5669.99092
870.054	5465.81017
870.236	5474.14851
870.417	5411.60182
870.599	5651.24907
870.781	5686.64874
870.963	5555.42755
871.145	5248.88157
871.327	5501.2455
871.508	5202.96038
871.69	5540.84164
871.872	5394.91913
872.054	5582.5126
872.235	5127.79229
872.417	5326.08715
872.599	5042.14751
872.78	5223.83505
872.962	5207.1355
873.144	5399.08994
873.325	5257.22967
873.507	5424.11285
873.689	5246.79449
873.87	5367.80655
874.052	5465.81017
874.233	5342.77604
874.415	5244.70739
874.596	5265.57739
874.778	4914.65291
874.959	5194.60986
875.141	5415.77225
875.322	5357.37758
875.503	5052.59408
875.685	5545.00916
875.866	5058.86174
876.048	5248.88157
876.229	5010.80433
876.41	4943.92154
876.592	5063.04007
876.773	5340.69001
876.954	5054.68332
877.136	4906.28962
877.317	4958.55416
877.498	5083.93032
877.679	4943.92154
877.86	5315.65584
878.042	5138.2341
878.223	5219.66031
878.404	5044.23687
878.585	5278.09826
878.766	5040.05813
878.947	5198.78517
879.128	4920.92514
879.309	5167.4681
879.49	4952.28318
879.672	5167.4681
879.853	4998.2656
880.034	5228.00971
880.215	5152.85167
880.396	5309.39677
880.576	5073.48548
880.757	5225.92239
880.938	4910.47131
881.119	5309.39677
881.3	5102.72956
881.481	5578.34593
881.662	5349.03398
881.843	5467.89479
882.023	5228.00971
882.204	5282.2717
882.385	5284.35839
882.566	5365.7208
882.747	5088.10809
882.927	5659.57902
883.108	4948.1024
883.289	5480.40201
883.469	5123.6154
883.65	5342.77604
883.831	5154.9398
884.011	5357.37758
884.192	5311.48315
884.373	5217.5729
884.553	5027.52134
884.734	5200.87279
884.914	5098.55211
885.095	5409.51656
885.275	5035.87929
885.456	5528.33852
885.636	5286.44505
885.817	5436.62303
885.997	5424.11285
886.178	5490.82405
886.358	5096.46335
886.538	5540.84164
886.719	5432.45307
886.899	5534.59018
887.08	5444.96269
887.26	5645.00136
887.44	5359.46342
887.621	5490.82405
887.801	5269.75111
887.981	5315.65584
888.161	5344.86204
888.342	5378.23493
888.522	5232.18427
888.702	5326.08715
888.882	5182.08338
889.062	5217.5729
889.242	5067.21831
889.423	5215.48547
889.603	5217.5729
889.783	5453.30196
889.963	5207.1355
890.143	5667.90859
890.323	5152.85167
890.503	5405.34598
890.683	5165.38011
890.863	5303.13749
891.043	5265.57739
891.223	5382.40612
891.403	5046.32621
891.583	5436.62303
891.763	4864.46767
891.943	5215.48547
892.122	5303.13749
892.302	5428.283
892.482	5336.51788
892.662	5207.1355
892.842	5154.9398
893.022	5282.2717
893.201	5261.40357
893.381	5449.13237
893.561	5111.08417
893.741	5432.45307
893.92	4914.65291
894.1	5453.30196
894.28	4870.74154
894.459	4943.92154
894.639	4889.56194
894.819	5023.34223
894.998	4766.15015
895.178	4969.00535
895.357	5006.62485
895.537	5148.67534
895.716	4772.42724
895.896	4923.01584
896.075	4835.18686
896.255	4989.90599
896.434	4638.47196
896.614	4966.91516
896.793	4847.73632
896.973	4824.72834
897.152	4665.68909
897.331	4996.17574
897.511	4969.00535
897.69	5058.86174
897.87	4644.75317
898.049	4724.2977
898.228	4584.02635
898.407	4621.72107
898.587	4512.80554
898.766	4694.9956
898.945	4431.07963
899.124	4671.96943
899.304	4269.62593
899.483	4694.9956
899.662	4202.49077
899.841	4431.07963
900.02	4420.59953
900.199	4370.28748
900.378	4290.60117
900.557	4265.43062
900.737	4160.52026
900.916	4290.60117
901.095	4122.7396
901.274	4240.25698
901.453	4093.34995
901.632	4198.2941
901.811	3822.35608
901.989	4322.06002
902.168	3935.83644
902.347	4336.73915
902.526	4139.53185
902.705	4116.44217
902.884	4152.12515
903.063	4093.34995
903.242	4108.04529
903.42	3988.35375
903.599	4019.85802
903.778	3921.12932
903.957	3830.76402
904.135	4028.25838
904.314	3597.32818
904.493	3834.96788
904.672	3597.32818
904.85	3778.20919
905.029	3689.88964
905.207	3845.47716
905.386	3561.55605
905.565	3635.19866
905.743	3551.03381
905.922	3595.22409
906.1	3338.38769
906.279	3519.46434
906.457	3298.36485
906.636	3500.52068
906.814	3365.76814
906.993	3329.96234
907.171	3264.65662
907.35	3420.52016
907.528	2923.12678
907.707	3169.82924
907.885	3001.16656
908.063	3159.2908
908.242	2923.12678
908.42	3091.83529
908.598	2889.3736
908.777	3074.96886
908.955	2830.29671
909.133	3081.29389
909.311	2906.25066
909.49	3214.08619
909.668	2811.30537
909.846	2916.79834
910.024	2830.29671
910.202	2851.39687
910.38	2809.19515
910.559	2897.81224
910.737	2830.29671
910.915	3066.53527
911.093	2853.50681
911.271	3055.99294
911.449	2849.28692
911.627	3144.53631
911.805	2731.10752
911.983	3013.81972
912.161	2899.92187
912.339	3281.51128
912.517	3041.23301
912.695	3230.94407
912.872	2849.28692
913.05	3083.4022
913.228	2809.19515
913.406	3104.48444
913.584	3108.7007
913.762	3129.78103
913.939	2832.40679
914.117	3022.25486
914.295	2788.09221
914.473	3169.82924
914.65	2990.62184
914.828	3152.96754
915.006	3032.79843
915.184	3020.1461
915.361	2847.17695
915.539	2975.8586
915.716	3085.51049
915.894	2990.62184
916.072	2948.43921
916.249	3150.85976
916.427	2874.60542
916.604	2994.83978
916.782	2842.95698
916.959	3222.51527
917.137	2737.43963
917.314	3125.56509
917.492	2804.97467
917.669	2906.25066
917.847	2762.76689
918.024	2855.61674
918.201	2568.5439
918.379	2826.07651
918.556	2716.33212
918.733	2830.29671
918.911	2441.82175
919.088	2933.67388
919.265	2517.85995
919.442	2815.52577
919.62	2619.221
919.797	2737.43963
919.974	2714.2213
920.151	2640.33439
920.328	2456.60808
920.506	2640.33439
920.683	2353.09293
920.86	2416.47254
921.037	2408.02246
921.214	2342.52877
921.391	2437.59699
921.568	2646.66816
921.745	2336.19016
921.922	2424.92245
922.099	2272.79927
922.276	2374.22049
922.453	2323.51267
922.63	2401.68479
922.807	2184.03821
922.984	2186.15174
923.161	2179.81111
923.338	2384.78389
923.514	2179.81111
923.691	2408.02246
923.868	2105.83168
924.045	2342.52877
924.222	2010.70176
924.399	2325.62561
924.575	2076.23725
924.752	2454.49578
924.929	2080.46512
925.105	2069.8954
925.282	1803.48668
925.459	2188.26527
925.635	1955.73161
925.812	2268.57291
925.989	2027.61478
926.165	2057.21151
926.342	1900.7574
926.518	2074.12331
926.695	1911.32966
926.871	2114.28695
927.048	1765.42162
927.224	1826.74798
927.401	1566.62045
927.577	1731.58495
927.754	1486.24916
927.93	1680.82833
928.107	1600.46045
928.283	1854.2379
928.459	1617.38028
928.636	1649.10458
928.812	1484.13411
928.988	1759.07731
929.165	1589.8855
929.341	1748.5034
929.517	1302.24128
929.693	1689.28789
929.87	1350.88633
930.046	1682.94322
930.222	1418.56752
930.398	1731.58495
930.574	1418.56752
930.751	1551.81533
930.927	1302.24128
931.103	1537.01014
931.279	1355.11638
931.455	1486.24916
931.631	1295.89635
931.807	1355.11638
931.983	1190.15079
932.159	1240.90777
932.335	1122.4781
932.511	1215.52905
932.687	1105.56061
932.863	1306.47125
933.039	1029.43596
933.215	1397.41706
933.391	1152.08439
933.566	1278.97661
933.742	1054.81006
933.918	1253.59729
934.094	1012.52036
934.27	1147.85487
934.445	927.94863
934.621	1059.03916
934.797	834.93362
934.973	1023.09256
935.148	892.00914
935.324	908.92156
935.5	784.20528
935.675	866.64148
935.851	693.33136
936.027	763.0701
936.202	691.21826
936.378	691.21826
936.553	545.44289
936.729	720.80281
936.904	450.40661
937.08	530.65755
937.255	427.18015
937.431	543.33065
937.606	355.40166
937.782	412.40067
937.957	321.63033
938.133	403.95561
938.308	361.73427
938.483	357.51251
938.659	327.96211
938.834	251.99156
939.009	289.97385
939.185	302.63595
939.36	321.63033
939.535	357.51251
939.71	275.20224
939.886	262.54158
940.061	205.57721
940.236	228.7832
940.411	190.81102
940.586	336.40473
940.761	262.54158
940.937	254.10153
941.112	233.00273
941.287	256.21151
941.462	197.13926
941.637	254.10153
941.812	226.67346
941.987	243.55189
942.162	171.82738
942.337	167.60902
942.512	146.51847
942.687	188.70164
942.862	203.46769
943.037	184.48295
943.212	186.59229
943.386	245.66178
943.561	161.28164
943.736	192.92041
943.911	152.84542
944.086	154.95444
944.26	176.04582
944.435	197.13926
944.61	135.97399
944.785	254.10153
944.959	180.26435
945.134	178.15507
945.309	195.02983
945.483	116.99528
945.658	68.5022
945.833	188.70164
946.007	186.59229
946.182	144.40954
946.357	197.13926
946.531	186.59229
946.706	138.08285
946.88	150.73642
947.055	180.26435
947.229	163.39074
947.404	125.43005
947.578	201.3582
947.752	178.15507
947.927	163.39074
948.101	112.77803
948.276	190.81102
948.45	180.26435
948.624	161.28164
948.799	150.73642
948.973	224.56375
949.147	138.08285
949.321	287.86356
949.496	218.23472
949.67	249.88161
949.844	197.13926
950.018	201.3582
950.193	226.67346
950.367	230.89295
950.541	203.46769
950.715	171.82738
950.889	186.59229
951.063	211.90588
951.237	169.71819
951.411	209.7963
951.585	251.99156
951.759	308.96725
951.933	161.28164
952.107	216.12509
952.281	161.28164
952.455	186.59229
952.629	192.92041
952.803	254.10153
952.977	176.04582
953.151	209.7963
953.325	201.3582
953.499	197.13926
953.672	180.26435
953.846	195.02983
954.02	169.71819
954.194	163.39074
954.368	251.99156
954.541	224.56375
954.715	125.43005
954.889	336.40473
955.062	178.15507
955.236	192.92041
955.41	169.71819
955.583	102.23527
955.757	180.26435
955.93	243.55189
956.104	49.5299
956.278	167.60902
956.451	195.02983
956.625	154.95444
956.798	237.22233
956.972	201.3582
957.145	180.26435
957.319	188.70164
957.492	138.08285
957.665	182.37364
957.839	247.77168
958.012	140.19172
958.185	125.43005
958.359	211.90588
958.532	116.99528
958.705	230.89295
958.879	34.77495
959.052	182.37364
959.225	108.56086
959.398	228.7832
959.572	146.51847
959.745	186.59229
959.918	176.04582
960.091	159.17255
960.264	220.34438
960.438	176.04582
960.611	154.95444
960.784	226.67346
960.957	163.39074
961.13	262.54158
961.303	218.23472
961.476	224.56375
961.649	114.88664
961.822	226.67346
961.995	178.15507
962.168	121.21262
962.341	171.82738
962.514	216.12509
962.686	133.86516
962.859	214.01547
963.032	159.17255
963.205	144.40954
963.378	79.04317
963.551	121.21262
963.723	173.93659
963.896	209.7963
964.069	199.24872
964.242	152.84542
964.414	100.12679
964.587	89.5847
964.76	159.17255
964.932	197.13926
965.105	150.73642
965.278	133.86516
965.45	133.86516
965.623	81.15143
965.795	159.17255
965.968	178.15507
966.14	121.21262
966.313	190.81102
966.485	100.12679
966.658	135.97399
966.83	176.04582
967.003	100.12679
967.175	150.73642
967.348	220.34438
967.52	201.3582
967.692	180.26435
967.865	125.43005
968.037	201.3582
968.209	125.43005
968.382	163.39074
968.554	218.23472
968.726	108.56086
968.898	104.34378
969.071	152.84542
969.243	108.56086
969.415	125.43005
969.587	169.71819
969.759	195.02983
969.932	91.69308
970.104	24.2364
970.276	110.66943
970.448	125.43005
970.62	102.23527
970.792	32.66719
970.964	83.25972
971.136	144.40954
971.308	104.34378
971.48	57.9618
971.652	108.56086
971.824	150.73642
971.996	100.12679
972.168	116.99528
972.339	100.12679
972.511	32.66719
972.683	104.34378
972.855	125.43005
973.027	125.43005
973.199	159.17255
973.37	64.28597
973.542	138.08285
973.714	138.08285
973.886	36.88273
974.057	125.43005
974.229	108.56086
974.401	142.30062
974.572	79.04317
974.744	15.80599
974.915	157.06349
975.087	57.9618
975.259	74.82672
975.43	176.04582
975.602	70.61035
975.773	150.73642
975.945	89.5847
976.116	133.86516
976.288	66.39408
976.459	104.34378
976.63	51.63784
976.802	3.16109
976.973	116.99528
977.145	95.90989
977.316	150.73642
977.487	41.09836
977.659	53.7458
977.83	68.5022
978.001	5.26851
978.172	49.5299
978.344	125.43005
978.515	114.88664
978.686	53.7458
978.857	138.08285
979.028	144.40954
979.2	150.73642
979.371	76.93493
979.542	51.63784
979.713	127.53879
979.884	93.80147
980.055	83.25972
980.226	68.5022
980.397	57.9618
980.568	102.23527
980.739	110.66943
980.91	142.30062
981.081	180.26435
981.252	108.56086
981.423	142.30062
981.594	121.21262
981.765	81.15143
981.936	98.01833
982.106	41.09836
982.277	74.82672
982.448	83.25972
982.619	51.63784
982.79	45.31408
982.96	66.39408
983.131	17.91356
983.302	57.9618
983.472	146.51847
983.643	74.82672
983.814	91.69308
983.984	91.69308
984.155	85.36802
984.326	51.63784
984.496	7.37596
984.667	20.02115
984.837	62.17789
985.008	41.09836
985.178	85.36802
985.349	62.17789
985.519	83.25972
985.69	81.15143
985.86	57.9618
986.031	45.31408
986.201	70.61035
986.371	74.82672
986.542	32.66719
986.712	112.77803
986.882	127.53879
987.053	100.12679
987.223	53.7458
987.393	9.48343
987.563	43.20621
987.734	119.10394
987.904	28.45175
988.074	114.88664
988.244	74.82672
988.414	93.80147
988.585	20.02115
988.755	28.45175
988.925	11.59093
989.095	47.42198
989.265	102.23527
989.435	83.25972
989.605	60.06984
989.775	133.86516
989.945	102.23527
990.115	95.90989
990.285	38.99053
990.455	74.82672
990.625	66.39408
990.795	108.56086
990.965	34.77495
991.134	17.91356
991.304	41.09836
991.474	20.02115
991.644	3.16109
991.814	34.77495
991.984	-17.91182
992.153	76.93493
992.323	53.7458
992.493	9.48343
992.662	24.2364
992.832	-20.01897
993.002	57.9618
993.171	66.39408
993.341	15.80599
993.511	41.09836
993.68	55.85379
993.85	1.05369
994.019	70.61035
994.189	41.09836
994.358	74.82672
994.528	20.02115
994.697	7.37596
994.867	-22.12611
995.036	45.31408
995.206	49.5299
995.375	57.9618
995.544	70.61035
995.714	15.80599
995.883	32.66719
996.052	1.05369
996.222	-26.3403
996.391	24.2364
996.56	108.56086
996.73	68.5022
996.899	-1.05368
997.068	66.39408
997.237	20.02115
997.406	3.16109
997.576	60.06984
997.745	-22.12611
997.914	-17.91182
998.083	83.25972
998.252	70.61035
998.421	53.7458
998.59	20.02115
998.759	-26.3403
998.928	24.2364
999.097	60.06984
999.266	83.25972
999.435	22.12877
999.604	38.99053
999.773	-5.26836
999.942	41.09836
1000.111	68.5022
1000.28	17.91356
1000.448	1.05369
1000.617	-32.6614
1000.786	13.69845
1000.955	15.80599
1001.124	32.66719
1001.292	43.20621
1001.461	87.47635
1001.63	20.02115
1001.798	15.80599
1001.967	-17.91182
1002.136	32.66719
1002.304	17.91356
1002.473	17.91356
1002.642	76.93493
1002.81	-51.62336
1002.979	116.99528
1003.147	57.9618
1003.316	38.99053
1003.484	-34.76838
1003.653	-22.12611
1003.821	20.02115
1003.99	7.37596
1004.158	-13.69743
1004.327	57.9618
1004.495	15.80599
1004.663	32.66719
1004.832	32.66719
1005	41.09836
1005.168	-60.05024
1005.337	15.80599
1005.505	7.37596
1005.673	51.63784
1005.842	36.88273
1006.01	28.45175
1006.178	20.02115
1006.346	-9.48295
1006.514	64.28597
1006.683	-26.3403
1006.851	-5.26836
1007.019	100.12679
1007.187	62.17789
1007.355	41.09836
1007.523	7.37596
1007.691	11.59093
1007.859	32.66719
1008.027	43.20621
1008.195	7.37596
1008.363	-9.48295
1008.531	-30.55439
1008.699	116.99528
1008.867	34.77495
1009.035	57.9618
1009.203	43.20621
1009.37	9.48343
1009.538	-5.26836
1009.706	26.34407
1009.874	85.36802
1010.042	95.90989
1010.209	-26.3403
1010.377	72.71852
1010.545	-13.69743
1010.713	-5.26836
1010.88	70.61035
1011.048	-3.16104
1011.216	24.2364
1011.383	57.9618
1011.551	53.7458
1011.718	43.20621
1011.886	-26.3403
1012.054	41.09836
1012.221	74.82672
1012.389	-22.12611
1012.556	3.16109
1012.724	93.80147
1012.891	-24.23321
1013.058	3.16109
1013.226	11.59093
1013.393	-32.6614
1013.561	-32.6614
1013.728	-32.6614
1013.895	-9.48295
1014.063	110.66943
1014.23	-9.48295
1014.397	51.63784
1014.565	-1.05368
1014.732	20.02115
1014.899	-5.26836
1015.066	1.05369
1015.233	60.06984
1015.401	51.63784
1015.568	28.45175
1015.735	11.59093
1015.902	17.91356
1016.069	45.31408
1016.236	49.5299
1016.403	-1.05368
1016.57	28.45175
1016.737	-24.23321
1016.904	38.99053
1017.071	-13.69743
1017.238	-34.76838
1017.405	1.05369
1017.572	72.71852
1017.739	-30.55439
1017.906	68.5022
1018.073	32.66719
1018.24	72.71852
1018.407	-15.80464
1018.573	26.34407
1018.74	-43.19607
1018.907	28.45175
1019.074	20.02115
1019.241	36.88273
1019.407	57.9618
1019.574	22.12877
1019.741	87.47635
1019.907	-5.26836
1020.074	45.31408
1020.241	-17.91182
1020.407	47.42198
1020.574	-1.05368
1020.74	15.80599
1020.907	68.5022
1021.073	76.93493
1021.24	-13.69743
1021.406	3.16109
1021.573	45.31408
1021.739	79.04317
1021.906	9.48343
1022.072	49.5299
1022.239	-7.37567
1022.405	-26.3403
1022.571	51.63784
1022.738	-28.44736
1022.904	-72.68981
1023.07	-13.69743
1023.237	36.88273
1023.403	57.9618
1023.569	24.2364
1023.735	24.2364
1023.902	24.2364
1024.068	20.02115
1024.234	22.12877
1024.4	3.16109
1024.566	28.45175
1024.732	-62.1569
1024.898	26.34407
1025.065	32.66719
1025.231	-34.76838
1025.397	57.9618
1025.563	-51.62336
1025.729	-5.26836
1025.895	-11.5902
1026.061	34.77495
1026.227	89.5847
1026.392	1.05369
1026.558	57.9618
1026.724	22.12877
1026.89	1.05369
1027.056	1.05369
1027.222	66.39408
1027.388	45.31408
1027.553	-1.05368
1027.719	24.2364
1027.885	45.31408
1028.051	34.77495
1028.216	11.59093
1028.382	49.5299
1028.548	15.80599
1028.713	-9.48295
1028.879	15.80599
1029.045	49.5299
1029.21	49.5299
1029.376	36.88273
1029.541	-5.26836
1029.707	55.85379
1029.873	-7.37567
1030.038	24.2364
1030.204	22.12877
1030.369	93.80147
1030.534	123.32132
1030.7	93.80147
1030.865	11.59093
1031.031	24.2364
1031.196	-30.55439
1031.361	51.63784
1031.527	20.02115
1031.692	15.80599
1031.857	43.20621
1032.023	87.47635
1032.188	74.82672
1032.353	72.71852
1032.518	36.88273
1032.684	127.53879
1032.849	-5.26836
1033.014	62.17789
1033.179	85.36802
1033.344	91.69308
1033.509	-13.69743
1033.674	-38.98228
1033.839	53.7458
1034.004	15.80599
1034.17	-9.48295
1034.335	1.05369
1034.5	1.05369
1034.664	43.20621
1034.829	3.16109
1034.994	66.39408
1035.159	-26.3403
1035.324	26.34407
1035.489	-9.48295
1035.654	-15.80464
1035.819	15.80599
1035.984	9.48343
1036.148	66.39408
1036.313	-34.76838
1036.478	-32.6614
1036.643	-30.55439
1036.807	36.88273
1036.972	85.36802
1037.137	66.39408
1037.301	9.48343
1037.466	-114.81498
1037.631	36.88273
1037.795	-7.37567
1037.96	125.43005
1038.124	-30.55439
1038.289	-13.69743
1038.454	7.37596
1038.618	102.23527
1038.783	-32.6614
1038.947	49.5299
1039.111	7.37596
1039.276	30.55946
1039.44	3.16109
1039.605	41.09836
1039.769	57.9618
1039.933	-34.76838
1040.098	34.77495
1040.262	91.69308
1040.426	57.9618
1040.591	34.77495
1040.755	24.2364
1040.919	38.99053
1041.083	7.37596
1041.248	68.5022
1041.412	11.59093
1041.576	-3.16104
1041.74	-1.05368
1041.904	51.63784
1042.068	-9.48295
1042.232	-13.69743
1042.397	-38.98228
1042.561	-26.3403
1042.725	66.39408
1042.889	-32.6614
1043.053	-7.37567
1043.217	11.59093
1043.381	62.17789
1043.544	49.5299
1043.708	9.48343
1043.872	7.37596
1044.036	28.45175
1044.2	-15.80464
1044.364	13.69845
1044.528	-13.69743
1044.691	-55.83685
1044.855	24.2364
1045.019	85.36802
1045.183	53.7458
1045.346	7.37596
1045.51	17.91356
1045.674	-7.37567
1045.837	95.90989
1046.001	-13.69743
1046.165	9.48343
1046.328	-26.3403
1046.492	70.61035
1046.655	-17.91182
1046.819	1.05369
1046.983	-51.62336
1047.146	32.66719
1047.31	20.02115
1047.473	-3.16104
1047.636	-47.40976
1047.8	-34.76838
1047.963	-38.98228
1048.127	70.61035
1048.29	15.80599
