Data from mixed_try1_USB4F045381__26__00091.txt Node

Date: Thu Apr 03 19:53:32 EDT 2025
User: mmckonesweet
Spectrometer: USB4F04538
Trigger mode: 4
Integration Time (sec): 2.700000E-3
Scans to average: 1
Electric dark correction enabled: true
Nonlinearity correction enabled: true
Boxcar width: 0
XAxis mode: Wavelengths
Number of Pixels in Spectrum: 3648
>>>>>Begin Spectral Data<<<<<
345.52	-3.86348
345.736	-3.86348
345.952	-3.86348
346.168	-20.72135
346.384	15.10348
346.6	72.0158
346.816	27.74919
347.032	-24.93558
347.248	12.99594
347.464	-43.89836
347.68	-12.29261
347.896	-71.28546
348.112	29.85689
348.328	0.35123
348.544	21.42623
348.76	-20.72135
348.975	8.78094
349.191	-33.36373
349.407	-69.17891
349.623	-35.47071
349.839	-31.25673
350.055	-54.43236
350.27	15.10348
350.486	-8.0781
350.702	-35.47071
350.918	-3.86348
351.133	59.36716
351.349	-10.18537
351.565	65.69137
351.781	-58.64579
351.996	99.42397
352.212	-18.61421
352.428	-35.47071
352.644	-54.43236
352.859	-50.21884
353.075	-46.00521
353.291	59.36716
353.506	-8.0781
353.722	57.25913
353.938	6.67348
354.153	2.45862
354.369	38.28793
354.584	-20.72135
354.8	-41.79148
355.016	8.78094
355.231	-24.93558
355.447	-20.72135
355.662	27.74919
355.878	59.36716
356.093	-98.66823
356.309	46.71934
356.524	-1.75614
356.74	-126.04658
356.955	-27.04265
357.171	17.21104
357.386	-3.86348
357.602	-8.0781
357.817	-33.36373
358.033	10.88843
358.248	-18.61421
358.464	-14.39983
358.679	-100.77442
358.895	-50.21884
359.11	-119.7289
359.325	53.04315
359.541	4.56604
359.756	12.99594
359.972	2.45862
360.187	25.64151
360.402	19.31862
360.618	-29.1497
360.833	-50.21884
361.048	-43.89836
361.264	42.50359
361.479	-31.25673
361.694	-27.04265
361.909	23.53386
362.125	-27.04265
362.34	-35.47071
362.555	21.42623
362.77	-29.1497
362.986	-50.21884
363.201	29.85689
363.416	-27.04265
363.631	-60.75247
363.847	-29.1497
364.062	31.96461
364.277	-39.68458
364.492	-3.86348
364.707	29.85689
364.922	-58.64579
365.138	4.56604
365.353	48.82725
365.568	40.39575
365.783	8.78094
365.998	42.50359
366.213	25.64151
366.428	-1.75614
366.643	-37.57766
366.858	-39.68458
367.073	-52.32561
367.288	-20.72135
367.503	-3.86348
367.718	-16.50703
367.933	29.85689
368.148	0.35123
368.363	34.07236
368.578	76.23219
368.793	-54.43236
369.008	4.56604
369.223	21.42623
369.438	-16.50703
369.653	8.78094
369.868	-1.75614
370.083	-1.75614
370.298	74.12398
370.513	6.67348
370.728	-12.29261
370.943	-8.0781
371.157	-24.93558
371.372	-14.39983
371.587	4.56604
371.802	17.21104
372.017	-3.86348
372.232	-33.36373
372.446	23.53386
372.661	38.28793
372.876	46.71934
373.091	-12.29261
373.306	-41.79148
373.52	4.56604
373.735	31.96461
373.95	17.21104
374.165	2.45862
374.379	42.50359
374.594	-27.04265
374.809	17.21104
375.023	-16.50703
375.238	46.71934
375.453	-27.04265
375.667	-77.60495
375.882	4.56604
376.097	21.42623
376.311	-12.29261
376.526	40.39575
376.741	-20.72135
376.955	36.18013
377.17	-67.07234
377.384	84.66525
377.599	-12.29261
377.813	-1.75614
378.028	4.56604
378.242	59.36716
378.457	69.90763
378.672	-8.0781
378.886	-46.00521
379.101	-8.0781
379.315	10.88843
379.53	-12.29261
379.744	-62.85911
379.958	31.96461
380.173	55.15113
380.387	-41.79148
380.602	-20.72135
380.816	-10.18537
381.031	-12.29261
381.245	-10.18537
381.459	-56.53909
381.674	-3.86348
381.888	-20.72135
382.103	-33.36373
382.317	31.96461
382.531	42.50359
382.746	-147.10378
382.96	-1.75614
383.174	-12.29261
383.388	-67.07234
383.603	55.15113
383.817	55.15113
384.031	-12.29261
384.246	10.88843
384.46	-37.57766
384.674	72.0158
384.888	6.67348
385.103	-20.72135
385.317	-3.86348
385.531	15.10348
385.745	12.99594
385.959	-16.50703
386.174	25.64151
386.388	0.35123
386.602	-83.9242
386.816	-88.13691
387.03	-20.72135
387.244	55.15113
387.458	-50.21884
387.672	34.07236
387.887	-24.93558
388.101	-37.57766
388.315	12.99594
388.529	-29.1497
388.743	-14.39983
388.957	25.64151
389.171	6.67348
389.385	-39.68458
389.599	4.56604
389.813	12.99594
390.027	6.67348
390.241	31.96461
390.455	-31.25673
390.669	15.10348
390.883	17.21104
391.097	46.71934
391.311	6.67348
391.525	-35.47071
391.738	12.99594
391.952	80.44868
392.166	-41.79148
392.38	-16.50703
392.594	-5.9708
392.808	42.50359
393.022	-37.57766
393.236	40.39575
393.449	44.61145
393.663	15.10348
393.877	-3.86348
394.091	-27.04265
394.305	-37.57766
394.518	50.93519
394.732	44.61145
394.946	23.53386
395.16	-79.71139
395.373	8.78094
395.587	-12.29261
395.801	38.28793
396.015	-29.1497
396.228	-88.13691
396.442	29.85689
396.656	19.31862
396.869	-27.04265
397.083	-43.89836
397.297	-16.50703
397.51	55.15113
397.724	21.42623
397.938	-10.18537
398.151	34.07236
398.365	-3.86348
398.578	-35.47071
398.792	8.78094
399.005	4.56604
399.219	-71.28546
399.433	6.67348
399.646	-12.29261
399.86	23.53386
400.073	-5.9708
400.287	-29.1497
400.5	72.0158
400.714	6.67348
400.927	-31.25673
401.141	21.42623
401.354	40.39575
401.567	0.35123
401.781	48.82725
401.994	-27.04265
402.208	12.99594
402.421	55.15113
402.635	10.88843
402.848	-33.36373
403.061	31.96461
403.275	69.90763
403.488	-35.47071
403.701	8.78094
403.915	12.99594
404.128	-46.00521
404.341	4.56604
404.555	59.36716
404.768	12.99594
404.981	15.10348
405.195	55.15113
405.408	-20.72135
405.621	-33.36373
405.834	4.56604
406.048	-12.29261
406.261	15.10348
406.474	-20.72135
406.687	-41.79148
406.9	31.96461
407.114	31.96461
407.327	40.39575
407.54	15.10348
407.753	-69.17891
407.966	-48.11204
408.179	-8.0781
408.392	-24.93558
408.605	-10.18537
408.819	27.74919
409.032	-27.04265
409.245	4.56604
409.458	8.78094
409.671	55.15113
409.884	29.85689
410.097	-20.72135
410.31	38.28793
410.523	6.67348
410.736	-20.72135
410.949	-10.18537
411.162	59.36716
411.375	63.58328
411.588	-37.57766
411.801	12.99594
412.014	46.71934
412.227	-24.93558
412.44	65.69137
412.653	-20.72135
412.865	-3.86348
413.078	4.56604
413.291	-58.64579
413.504	38.28793
413.717	-20.72135
413.93	25.64151
414.143	55.15113
414.356	-33.36373
414.568	12.99594
414.781	4.56604
414.994	23.53386
415.207	-62.85911
415.42	23.53386
415.632	23.53386
415.845	40.39575
416.058	-75.49848
416.271	46.71934
416.483	25.64151
416.696	12.99594
416.909	-79.71139
417.121	-10.18537
417.334	2.45862
417.547	55.15113
417.759	4.56604
417.972	17.21104
418.185	21.42623
418.397	-10.18537
418.61	53.04315
418.823	-8.0781
419.035	-24.93558
419.248	76.23219
419.46	10.88843
419.673	109.96657
419.885	34.07236
420.098	4.56604
420.311	38.28793
420.523	80.44868
420.736	31.96461
420.948	0.35123
421.161	-8.0781
421.373	-3.86348
421.586	31.96461
421.798	-39.68458
422.01	-10.18537
422.223	17.21104
422.435	-8.0781
422.648	-12.29261
422.86	8.78094
423.073	4.56604
423.285	-16.50703
423.497	48.82725
423.71	17.21104
423.922	-12.29261
424.134	23.53386
424.347	23.53386
424.559	122.61842
424.771	-16.50703
424.984	23.53386
425.196	-31.25673
425.408	0.35123
425.621	6.67348
425.833	12.99594
426.045	-3.86348
426.257	6.67348
426.47	55.15113
426.682	57.25913
426.894	-18.61421
427.106	8.78094
427.318	36.18013
427.531	12.99594
427.743	-64.96574
427.955	8.78094
428.167	-20.72135
428.379	-24.93558
428.591	48.82725
428.804	25.64151
429.016	12.99594
429.228	29.85689
429.44	8.78094
429.652	72.0158
429.864	29.85689
430.076	12.99594
430.288	-50.21884
430.5	42.50359
430.712	-12.29261
430.924	-52.32561
431.136	4.56604
431.348	10.88843
431.56	55.15113
431.772	55.15113
431.984	17.21104
432.196	4.56604
432.408	-1.75614
432.62	-33.36373
432.832	-60.75247
433.044	17.21104
433.256	-14.39983
433.468	48.82725
433.679	-52.32561
433.891	-3.86348
434.103	38.28793
434.315	-16.50703
434.527	63.58328
434.739	23.53386
434.95	-18.61421
435.162	50.93519
435.374	84.66525
435.586	-29.1497
435.798	-35.47071
436.009	65.69137
436.221	48.82725
436.433	6.67348
436.645	23.53386
436.856	69.90763
437.068	-3.86348
437.28	-60.75247
437.491	6.67348
437.703	-12.29261
437.915	21.42623
438.126	21.42623
438.338	-5.9708
438.55	4.56604
438.761	50.93519
438.973	19.31862
439.184	59.36716
439.396	72.0158
439.608	31.96461
439.819	-3.86348
440.031	65.69137
440.242	-16.50703
440.454	10.88843
440.665	15.10348
440.877	6.67348
441.088	29.85689
441.3	46.71934
441.511	46.71934
441.723	21.42623
441.934	6.67348
442.146	21.42623
442.357	-12.29261
442.569	38.28793
442.78	6.67348
442.991	29.85689
443.203	23.53386
443.414	34.07236
443.626	107.85801
443.837	-10.18537
444.048	114.18377
444.26	4.56604
444.471	-29.1497
444.682	38.28793
444.894	-3.86348
445.105	4.56604
445.316	-27.04265
445.528	-3.86348
445.739	19.31862
445.95	59.36716
446.161	36.18013
446.373	12.99594
446.584	21.42623
446.795	82.55695
447.006	27.74919
447.217	72.0158
447.429	31.96461
447.64	21.42623
447.851	4.56604
448.062	57.25913
448.273	34.07236
448.484	17.21104
448.695	36.18013
448.907	34.07236
449.118	-33.36373
449.329	15.10348
449.54	63.58328
449.751	48.82725
449.962	6.67348
450.173	31.96461
450.384	38.28793
450.595	63.58328
450.806	72.0158
451.017	21.42623
451.228	-37.57766
451.439	82.55695
451.65	72.0158
451.861	74.12398
452.072	65.69137
452.283	31.96461
452.494	29.85689
452.705	17.21104
452.915	21.42623
453.126	109.96657
453.337	-33.36373
453.548	107.85801
453.759	57.25913
453.97	6.67348
454.181	53.04315
454.391	-3.86348
454.602	29.85689
454.813	55.15113
455.024	-24.93558
455.235	4.56604
455.445	50.93519
455.656	57.25913
455.867	46.71934
456.078	80.44868
456.288	55.15113
456.499	48.82725
456.71	76.23219
456.921	-24.93558
457.131	21.42623
457.342	107.85801
457.553	-18.61421
457.763	2.45862
457.974	74.12398
458.184	69.90763
458.395	38.28793
458.606	34.07236
458.816	76.23219
459.027	84.66525
459.237	-8.0781
459.448	124.72714
459.659	15.10348
459.869	29.85689
460.08	0.35123
460.29	118.40105
460.501	46.71934
460.711	46.71934
460.922	80.44868
461.132	29.85689
461.343	40.39575
461.553	50.93519
461.764	38.28793
461.974	63.58328
462.184	67.79949
462.395	50.93519
462.605	74.12398
462.816	80.44868
463.026	135.27105
463.236	120.50972
463.447	46.71934
463.657	50.93519
463.867	-3.86348
464.078	99.42397
464.288	88.88192
464.498	114.18377
464.709	131.05342
464.919	67.79949
465.129	65.69137
465.339	99.42397
465.55	88.88192
465.76	160.57861
465.97	90.99028
466.18	38.28793
466.391	105.74946
466.601	72.0158
466.811	86.77357
467.021	93.09867
467.231	124.72714
467.441	84.66525
467.651	74.12398
467.862	181.67054
468.072	107.85801
468.282	126.83588
468.492	90.99028
468.702	133.16222
468.912	76.23219
469.122	99.42397
469.332	105.74946
469.542	177.45199
469.752	105.74946
469.962	185.88917
470.172	152.14241
470.382	116.2924
470.592	198.54556
470.802	173.23352
471.012	175.34274
471.222	206.98356
471.432	131.05342
471.642	173.23352
471.852	194.32669
472.062	133.16222
472.272	154.25143
472.482	179.56125
472.691	141.59765
472.901	192.21728
473.111	213.31227
473.321	287.16014
473.531	259.7282
473.741	141.59765
473.95	194.32669
474.16	183.77985
474.37	236.51906
474.58	257.61818
474.79	310.37423
474.999	249.1783
475.209	276.60902
475.419	274.49885
475.628	287.16014
475.838	329.36919
476.048	304.04289
476.258	253.3982
476.467	350.47639
476.677	291.38072
476.886	369.47435
477.096	510.94483
477.306	464.48416
477.515	434.92209
477.725	394.80709
477.935	443.36809
478.144	439.14506
478.354	418.03086
478.563	548.96331
478.773	451.81433
478.982	510.94483
479.192	413.80821
479.401	555.30016
479.611	580.64877
479.82	527.84137
480.03	538.40216
480.239	551.07558
480.449	565.86185
480.658	574.31144
480.868	629.23887
481.077	688.40079
481.287	656.70575
481.496	679.94853
481.705	713.75867
481.915	836.34282
482.124	713.75867
482.333	927.24391
482.543	859.59512
482.752	857.48123
482.961	800.40958
483.171	925.12976
483.38	791.95509
483.589	1011.81555
483.799	908.21687
484.008	1005.47231
484.217	967.41407
484.426	1060.44886
484.636	944.15735
484.845	1130.23204
485.054	1016.04441
485.263	1229.62829
485.472	1087.93856
485.682	1284.61651
485.891	1174.64211
486.1	1187.33102
486.309	1305.76625
486.518	1248.66247
486.727	1358.64142
486.936	1405.17222
487.146	1242.31771
487.355	1390.36692
487.564	1280.38658
487.773	1561.68542
487.982	1504.57956
488.191	1491.88929
488.4	1398.82708
488.609	1620.90523
488.818	1642.05478
489.027	1542.65022
489.236	1553.22534
489.445	1675.89356
489.654	1686.46804
489.863	1821.81381
490.072	1834.50163
490.281	1830.27237
490.49	1904.2815
490.698	1771.06097
490.907	1815.46984
491.116	2029.02418
491.325	1817.5845
491.534	2029.02418
491.743	2045.93672
491.952	2043.82268
492.16	1974.05546
492.369	2179.10659
492.578	1993.08359
492.787	2096.67165
492.996	1971.94119
493.204	2229.82958
493.413	2134.72004
493.622	2436.89286
493.831	2196.0148
494.039	2460.12855
494.248	2388.30496
494.457	2462.24082
494.665	2354.50146
494.874	2481.25076
495.083	2422.10583
495.291	2641.7419
495.5	2580.50995
495.709	2667.07622
495.917	2641.7419
496.126	2791.60947
496.335	2669.18733
496.543	2854.91343
496.752	2610.07149
496.96	2842.25364
497.169	2743.06808
497.377	2909.76659
497.586	2804.27126
497.794	2804.27126
498.003	2823.26301
498.211	2888.67037
498.42	2755.73173
498.628	2962.50075
498.837	2956.17314
499.045	3202.84702
499.254	3101.67357
499.462	3234.456
499.671	3219.7056
499.879	3274.48864
500.087	3367.17219
500.296	3400.86696
500.504	3251.31258
500.713	3478.76873
500.921	3236.56313
501.129	3312.40866
501.338	3261.84741
501.546	3430.34618
501.754	3308.1956
501.962	3445.08448
502.171	3560.85458
502.379	3632.39365
502.587	3394.54954
502.795	3706.01401
503.004	3388.23195
503.212	3720.73527
503.42	3520.86752
503.628	3857.38709
503.837	3558.75016
504.045	3729.14699
504.253	3657.63754
504.461	3813.24711
504.669	3605.04303
504.877	3970.8494
505.085	3731.24987
505.294	3928.83317
505.502	3832.16531
505.71	3993.95485
505.918	3714.42627
506.126	4017.05783
506.334	3933.03516
506.542	4023.35821
506.75	3817.4513
506.958	4069.55534
507.166	3966.64814
507.374	4111.54403
507.582	4056.95712
507.79	4283.60966
507.998	4252.14492
508.206	4191.29946
508.414	4042.25825
508.622	4220.67536
508.83	4185.00409
509.037	4507.9169
509.245	3989.75404
509.453	4486.96421
509.661	4291.99945
509.869	4411.51634
510.077	4344.4278
510.285	4545.62616
510.492	4480.67798
510.7	4652.42994
510.908	4484.86882
511.116	4667.08474
511.324	4547.72091
511.531	4635.68025
511.739	4579.13947
511.947	4767.54508
512.155	4757.08289
512.362	4715.22847
512.57	4530.9623
512.778	4679.64512
512.985	4583.32823
513.193	4752.89785
513.401	4807.29622
513.608	4788.46775
513.816	4727.78575
514.024	4953.67675
514.231	4922.31894
514.439	4882.59164
514.646	4667.08474
514.854	4989.20934
515.061	4811.48007
515.269	5104.12202
515.477	4953.67675
515.684	5129.18456
515.892	5133.36133
516.099	5062.34369
516.307	5056.07614
516.514	5179.29961
516.722	5179.29961
516.929	5191.82627
517.136	5070.7001
517.344	5412.99197
517.551	5083.23401
517.759	5533.89557
517.966	5266.96864
518.173	5542.23083
518.381	5565.15085
518.588	5471.36911
518.796	5325.39175
519.003	5529.72779
519.21	5465.11529
519.418	5521.39197
519.625	5387.96756
519.832	5565.15085
520.039	5540.14705
520.247	5740.08238
520.454	5563.06733
520.661	5792.11318
520.868	5575.5681
521.076	5783.78925
521.283	5796.27501
521.49	5646.38976
521.697	5891.97098
521.904	5995.93172
522.112	5790.03223
522.319	6081.13557
522.526	6027.10846
522.733	5939.80024
522.94	5862.85141
523.147	6062.43568
523.354	5706.77492
523.561	6058.27989
523.768	5975.14429
523.975	6232.74216
524.183	5856.61089
524.39	6220.28606
524.597	6054.124
524.804	6238.96989
525.011	6087.36845
525.218	5979.30196
525.425	6230.6662
525.632	6373.85238
525.838	6268.02985
526.045	6411.18701
526.252	6295.00999
526.459	6763.42159
526.666	6346.88378
526.873	6670.24788
527.08	6321.98619
527.287	6844.13467
527.494	6603.9627
527.701	6759.28152
527.907	6618.4646
528.114	6808.95631
528.321	6342.73441
528.528	6635.03682
528.735	6738.5798
528.941	6744.79056
529.148	6574.95552
529.355	6941.35832
529.562	6581.17172
529.768	6949.63036
529.975	6626.75089
530.182	6850.34193
530.388	6821.37295
530.595	7015.79372
530.802	7065.40112
531.008	7193.49401
531.215	6995.12015
531.422	7048.86676
531.628	7199.68989
531.835	7088.13354
532.042	7065.40112
532.248	7455.61291
532.455	7243.05543
532.661	7494.79733
532.868	7176.9707
533.074	7397.85321
533.281	7207.95074
533.487	7478.29958
533.694	7325.62959
533.9	7546.34392
534.107	7478.29958
534.313	7463.86291
534.52	7315.30974
534.726	7511.2937
534.933	7536.03567
535.139	7863.57811
535.345	7527.78869
535.552	7589.63269
535.758	7461.80044
535.965	7762.69408
536.171	7692.66339
536.377	7830.64188
536.584	7676.18204
536.79	7882.10241
536.996	7733.86086
537.203	7783.28672
537.409	7470.05018
537.615	7894.45101
537.821	7777.10915
538.028	8077.53532
538.234	7902.683
538.44	7867.69477
538.646	7873.86959
538.853	8120.71155
539.059	8079.59153
539.265	8266.62314
539.471	8260.45988
539.677	8244.02366
539.883	8108.37639
540.09	8137.15732
540.296	8361.10436
540.502	8459.64968
540.708	8178.26612
540.914	8338.51478
541.12	8244.02366
541.326	8346.72945
541.532	8322.08452
541.738	8344.67581
541.944	8291.27441
542.15	8588.9236
542.356	8595.07763
542.562	8615.58985
542.768	8418.59452
542.974	8736.5741
543.18	8654.55793
543.386	8771.42207
543.592	8601.23149
543.798	8568.40894
544.004	8724.27356
544.21	8763.22302
544.415	8771.42207
544.621	8916.90696
544.827	8769.37234
545.033	9264.89062
545.239	8886.17827
545.445	8949.67982
545.651	8974.25649
545.856	8996.78287
546.062	8998.83062
546.268	9082.77322
546.474	9027.49724
546.679	8902.5674
546.885	9021.35468
547.091	9158.50133
547.297	9082.77322
547.502	9238.29758
547.708	9268.98161
547.914	9338.51819
548.119	9244.43469
548.325	9350.78736
548.531	8880.03204
548.736	9401.90256
548.942	9105.28944
549.147	9113.47664
549.353	9334.42833
549.559	9213.74763
549.764	9401.90256
549.97	9583.79066
550.175	9553.14421
550.381	9538.84132
550.586	9465.27126
550.792	9804.342
550.997	9661.41254
551.203	9530.66789
551.408	9538.84132
551.614	9681.83563
551.819	9696.13087
552.025	9808.42461
552.23	9559.27379
552.435	9910.47043
552.641	9873.7382
552.846	9981.88064
553.052	9808.42461
553.257	10000.24039
553.462	10134.84333
553.668	10104.25715
553.873	9973.72037
554.078	10112.41377
554.283	9947.1979
554.489	10047.15449
554.694	10012.47958
554.899	10145.03802
555.105	9945.15761
555.31	10214.35277
555.515	10379.42176
555.72	10161.34881
555.925	10183.7747
556.131	10259.19505
556.336	10224.54478
556.541	10375.34703
556.746	10191.92915
556.951	10279.57573
557.156	10189.89056
557.361	10444.61025
557.567	10454.79475
557.772	10536.25924
557.977	10297.9172
558.182	10648.24001
558.387	10501.63932
558.592	10574.94776
558.797	10607.52408
559.002	10878.19452
559.207	10819.19404
559.412	10583.09214
559.617	10489.41965
559.822	10633.99
560.027	10695.05728
560.232	10546.44087
560.437	10670.63169
560.642	10851.74723
560.847	10656.38261
561.051	10886.33175
561.256	10947.35518
561.461	10794.77718
561.666	10719.48114
561.871	10992.09924
562.076	10859.88507
562.281	10963.62638
562.485	10397.75737
562.69	10898.53726
562.895	11014.46924
563.1	10800.88155
563.305	10811.05527
563.509	10959.55865
563.714	10654.34698
563.919	11059.20524
564.123	11142.56284
564.328	11292.96813
564.533	11081.57126
564.737	11049.03844
564.942	11207.60996
565.147	11225.90253
565.351	10947.35518
565.556	11097.83663
565.761	11040.90479
565.965	11217.77261
566.17	11280.77522
566.374	11276.71083
566.579	11195.41445
566.784	11209.64251
566.988	11331.57663
567.193	11514.41048
567.397	11221.83759
567.602	11542.84429
567.806	11211.67505
568.011	11579.39937
568.215	11475.81876
568.42	11353.92725
568.624	11548.93702
568.828	11518.47256
569.033	11528.62762
569.237	11918.41118
569.442	11522.53461
569.646	11506.28619
569.85	11388.46676
570.055	11764.16045
570.259	11762.13051
570.463	11404.71966
570.668	11711.3791
570.872	11477.84998
571.076	11583.46085
571.281	11835.20302
571.485	11912.32325
571.689	11843.32151
571.893	11776.33992
572.098	12084.7866
572.302	11745.89065
572.506	12080.72929
572.71	11577.36861
572.914	11800.69794
573.119	11869.70567
573.323	11902.17654
573.527	11983.34454
573.731	12269.36239
573.935	11875.79412
574.139	12194.32247
574.343	11778.36981
574.547	12161.86967
574.751	12210.54816
574.955	12184.18117
575.159	12040.1545
575.364	12275.44627
575.568	12064.49975
575.772	12303.83689
575.976	11973.19924
576.18	12184.18117
576.383	12391.02813
576.587	12358.58637
576.791	12117.24396
576.995	12313.97607
577.199	12295.72543
577.403	12526.85947
577.607	12662.66223
577.811	12514.69666
578.015	12242.99814
578.219	12624.1538
578.422	12336.28164
578.626	12847.0681
578.83	12691.03547
579.034	12571.45449
579.238	12488.34312
579.442	12778.17472
579.645	12770.06919
579.849	12711.30137
580.053	12674.82233
580.257	12520.7781
580.46	12573.48146
580.664	12897.72096
580.868	12561.31953
581.071	13019.27445
581.275	12828.83224
581.479	12926.08511
581.682	12812.62221
581.886	13045.60864
582.09	13019.27445
582.293	12988.88781
582.497	12891.64279
582.7	13144.86092
582.904	12766.01639
583.107	13035.48021
583.311	12857.19894
583.515	13195.49551
583.718	12642.3949
583.922	13169.16588
584.125	13075.99321
584.329	13157.01348
584.532	13154.98807
584.735	13483.04914
584.939	13238.02639
585.142	13365.60763
585.346	12851.12045
585.549	12962.55179
585.753	13213.72327
585.956	13365.60763
586.159	13509.37047
586.363	13404.0813
586.566	13393.95679
586.769	13462.80153
586.973	13440.52872
587.176	13440.52872
587.379	13501.27166
587.582	13497.22224
587.786	13756.35733
587.989	13748.26017
588.192	13549.86362
588.395	13511.39516
588.599	13653.11478
588.802	13837.32629
589.005	13667.28582
589.208	13736.11434
589.411	13827.20542
589.615	13732.06571
589.818	13744.21157
590.021	13972.93921
590.224	13887.92954
590.427	13885.90545
590.63	13806.96348
590.833	14132.82653
591.036	13887.92954
591.239	14088.3024
591.442	13968.89123
591.645	14242.10871
591.848	14213.77686
592.051	14298.77132
592.254	14155.0882
592.457	14229.96654
592.66	14280.55849
592.863	14205.68197
593.066	14098.42161
593.269	14553.73721
593.472	14197.58705
593.675	14559.80755
593.878	14138.89792
594.081	14482.91567
594.284	14454.58659
594.486	14802.6137
594.689	14149.01686
594.892	14284.6058
595.095	14321.03124
595.298	14608.36994
595.5	14531.47918
595.703	14743.93675
595.906	14268.41653
596.109	14266.39286
596.311	14367.57404
596.514	14501.12707
596.717	14671.09542
596.92	15059.57263
597.122	14768.21694
597.325	14713.58634
597.528	14747.98346
597.73	14968.52497
597.933	14719.65643
598.136	14974.59483
598.338	14434.35136
598.541	14899.73292
598.743	15049.45625
598.946	14972.57154
599.148	14794.52037
599.351	14808.68369
599.554	14911.87273
599.756	14978.64141
599.959	14982.68798
600.161	14956.38523
600.363	14808.68369
600.566	15106.10792
600.768	15180.96894
600.971	15235.59728
601.173	14921.98923
601.376	15144.55007
601.578	14847.12685
601.78	15350.92416
601.983	15354.97073
602.185	15241.66709
602.388	15021.13035
602.59	15306.41193
602.792	15187.03876
602.995	15233.574
603.197	15203.22492
603.399	15071.71228
603.601	15079.80537
603.804	14948.29207
604.006	15073.73555
604.208	15227.50418
604.41	15213.34128
604.613	15284.15587
604.815	15265.94638
605.017	15452.08897
605.219	15383.29678
605.421	15148.59662
605.623	15180.96894
605.826	15620.02565
606.028	15292.24898
606.23	15567.41847
606.432	15607.88548
606.634	15818.3196
606.836	15223.45764
607.038	15599.79206
607.24	15354.97073
607.442	15587.65194
607.644	15530.99841
607.846	15609.90884
608.048	15437.92583
608.25	15433.87922
608.452	15755.59293
608.654	15686.79708
608.856	15490.53192
609.058	15636.21258
609.26	15587.65194
609.462	15796.06163
609.664	15745.47583
609.866	15338.78444
610.067	15524.92842
610.269	15654.42293
610.471	15450.06567
610.673	15622.04901
610.875	15581.58189
611.077	15609.90884
611.278	15565.39513
611.48	15931.63508
611.682	15721.19487
611.884	15933.65861
612.085	15939.72919
612.287	15761.66321
612.489	15862.83594
612.69	15919.49395
612.892	15953.89394
613.094	16233.15652
613.295	15783.92098
613.497	16111.73438
613.699	15717.14805
613.9	16042.93105
614.102	15652.39956
614.304	16113.75803
614.505	15785.94442
614.707	15832.48383
614.908	15692.86726
615.11	15966.03521
615.311	15702.98424
615.513	15891.16482
615.714	15779.8741
615.916	15933.65861
616.117	15996.38859
616.319	16178.51582
616.52	16016.62435
616.722	15763.68664
616.923	15939.72919
617.124	16020.67151
617.326	15990.31789
617.527	16012.57718
617.729	15868.9064
617.93	16140.06568
618.131	16160.30252
618.333	16014.60076
618.534	16152.20777
618.735	16283.7509
618.937	15870.92988
619.138	15907.35287
619.339	15828.4369
619.54	16079.35612
619.742	16067.21438
619.943	16131.97099
620.144	15589.67529
620.345	15968.05876
620.546	15939.72919
620.748	16360.65653
620.949	16172.4447
621.15	15959.96457
621.351	16012.57718
621.552	16208.87161
621.753	16014.60076
621.954	16384.94309
622.155	16133.99466
622.356	16208.87161
622.558	16301.96515
622.759	16567.10154
622.96	16038.88385
623.161	16471.97226
623.362	15966.03521
623.563	16235.18028
623.764	16289.8223
623.965	16374.82366
624.166	16421.37345
624.366	16267.56058
624.567	16204.82415
624.768	16204.82415
624.969	16121.85267
625.17	16354.58494
625.371	16281.7271
625.572	16484.11616
625.773	16480.06819
625.973	16484.11616
626.174	16178.51582
626.375	16291.8461
626.576	16664.25982
626.777	16824.17785
626.977	16184.58695
627.178	16480.06819
627.379	16200.7767
627.58	16129.94732
627.78	16340.41794
627.981	16510.42821
628.182	16686.526
628.382	16399.11038
628.583	16330.29872
628.784	16326.25105
628.984	16310.06042
629.185	16579.24604
629.386	16411.25384
629.586	16826.20222
629.787	16403.15819
629.987	16607.58353
630.188	16352.56107
630.388	16170.421
630.589	16522.57235
630.79	16639.96976
630.99	16686.526
631.191	17012.45578
631.391	16990.18517
631.591	16848.47053
631.792	16613.6559
631.992	16601.51117
632.193	16785.71517
632.393	16824.17785
632.594	16536.74062
632.794	16629.849
632.994	16619.7283
633.195	16692.59864
633.395	16577.22195
633.595	16662.23564
633.796	16899.08144
633.996	16886.93467
634.196	16552.93305
634.397	16998.28354
634.597	16840.37293
634.797	17259.4797
634.997	16850.49493
635.198	17200.75706
635.398	16641.99392
635.598	16706.76822
635.798	16852.51934
635.998	16897.05697
636.199	16866.69027
636.399	16783.69085
636.599	16990.18517
636.799	16945.6449
636.999	16658.18728
637.199	16832.27537
637.399	17014.4804
637.599	17020.55427
637.799	16621.75243
637.999	16880.86133
638.199	16913.25278
638.399	17014.4804
638.599	17050.92398
638.799	17285.80444
638.999	17105.59103
639.199	17156.21047
639.399	17028.6528
639.599	17091.41789
639.799	16759.39912
639.999	17239.23023
640.199	16852.51934
640.399	17235.18038
640.599	16306.01278
640.799	17269.60454
640.998	17368.83195
641.198	17087.36845
641.398	17036.75137
641.598	16994.23435
641.798	17174.43391
641.997	17229.10561
642.197	17342.50561
642.397	17123.81382
642.597	17164.30975
642.796	17146.08644
642.996	17380.98275
643.196	17601.74177
643.395	17619.97127
643.595	17626.04783
643.795	17123.81382
643.994	17482.24369
644.194	17385.03304
644.394	17753.66249
644.593	17188.60785
644.793	17751.63676
644.992	17344.53069
645.192	17668.58459
645.392	17336.43037
645.591	17589.58891
645.791	17391.10849
645.99	16978.0377
646.19	17324.27998
646.389	17435.66269
646.589	17648.32881
646.788	17563.25812
646.987	17233.15545
647.187	17666.559
647.386	17709.09714
647.586	17792.15207
647.785	17743.53386
647.984	17538.95325
648.184	17804.30692
648.383	17830.64287
648.582	17459.96562
648.782	17696.94324
648.981	17447.8141
649.18	17585.53798
649.38	17561.23269
649.579	17571.35984
649.778	17626.04783
649.977	17773.92001
650.177	17676.68699
650.376	17563.25812
650.575	17690.86633
650.774	17769.86848
650.973	17504.52215
651.173	17490.34491
651.372	17490.34491
651.571	17490.34491
651.77	17765.81696
651.969	17589.58891
652.168	17547.05482
652.367	18296.68529
652.566	17859.00531
652.765	17982.59245
652.964	17715.17414
653.163	17856.9794
653.362	17775.94578
653.561	18071.74543
653.76	17832.66874
653.959	17796.20367
654.158	17814.43607
654.357	17763.79121
654.556	17873.18678
654.755	17684.78945
654.954	17814.43607
655.153	17385.03304
655.352	17804.30692
655.551	18164.95827
655.749	18029.19428
655.948	17887.36842
656.147	17942.07064
656.346	18177.11704
656.545	17808.35857
656.743	17587.56344
656.942	17711.12281
657.141	18195.35543
657.34	18290.60524
657.538	17725.30254
657.737	17972.46186
657.936	18452.75159
658.135	17735.43102
658.333	17917.75822
658.532	17938.01853
658.731	18089.98212
658.929	18000.82772
659.128	18027.16807
659.326	17739.48243
659.525	18391.94388
659.724	18175.09057
659.922	17966.38355
660.121	17948.14882
660.319	17895.47229
660.518	17755.68823
660.716	17875.21272
660.915	18205.488
661.113	18239.93943
661.312	17903.57622
661.51	18270.33864
661.709	18126.45638
661.907	18053.50903
662.105	17711.12281
662.304	18377.7559
662.502	18316.95238
662.701	18621.00427
662.899	18310.87222
663.097	18533.8339
663.296	18221.70031
663.494	18436.53587
663.692	18008.93238
663.891	18432.48197
664.089	17976.51408
664.287	18181.16999
664.485	18122.40363
664.684	18554.10544
664.882	18357.48769
665.08	18134.56193
665.278	17938.01853
665.476	17646.30325
665.675	17731.37962
665.873	18152.79964
666.071	18087.95581
666.269	18027.16807
666.467	18197.38194
666.665	18243.99261
666.863	18035.27292
667.061	18108.2191
667.259	18116.32452
667.457	18618.97697
667.655	18327.08607
667.853	18529.77964
668.051	18312.89894
668.249	18031.22049
668.447	18254.12562
668.645	18017.0371
668.843	18144.69395
669.041	18325.05932
669.239	17834.6946
669.437	18223.72686
669.635	18430.45503
669.833	18333.16632
670.031	17790.12627
670.229	18318.97911
670.426	18280.47189
670.624	17972.46186
670.822	17749.61103
671.02	18181.16999
671.218	18008.93238
671.415	18150.77321
671.613	18063.64032
671.811	17966.38355
672.009	18241.96602
672.206	18229.80655
672.404	18361.5413
672.602	18094.03476
672.799	17984.61857
672.997	18256.15224
673.195	17895.47229
673.392	18679.79765
673.59	18148.74679
673.788	18006.90621
673.985	18229.80655
674.183	18318.97911
674.38	17885.34246
674.578	18102.14008
674.775	17834.6946
674.973	17820.51359
675.17	18057.56154
675.368	17530.85173
675.565	17846.84989
675.763	18325.05932
675.96	18033.2467
676.158	18239.93943
676.355	17553.13103
676.553	18321.00585
676.75	18006.90621
676.947	18468.96757
677.145	17700.99453
677.342	18063.64032
677.539	17810.3844
677.737	18221.70031
677.934	17921.81026
678.131	18191.30243
678.329	18130.50915
678.526	18331.13957
678.723	18290.60524
678.92	18531.80677
679.118	17820.51359
679.315	18286.55189
679.512	18197.38194
679.709	18436.53587
679.906	17577.43617
680.104	17990.69698
680.301	17887.36842
680.498	17848.87579
680.695	17670.61019
680.892	17798.22948
681.089	17765.81696
681.286	17747.58531
681.483	17739.48243
681.68	17881.29055
681.877	17642.25214
682.075	18087.95581
682.272	17634.14996
682.469	17966.38355
682.665	17745.55958
682.862	17802.28111
683.059	17767.84272
683.256	17820.51359
683.453	17437.68792
683.65	17573.38528
683.847	17753.66249
684.044	17447.8141
684.241	17496.42085
684.438	17806.33275
684.635	17340.48053
684.831	17747.58531
685.028	17804.30692
685.225	17632.12443
685.422	17391.10849
685.619	17713.14847
685.815	17510.59816
686.012	17672.63579
686.209	17378.95761
686.405	17589.58891
686.602	17293.90447
686.799	17395.15881
686.996	17334.4053
687.192	17231.13053
687.389	16895.03251
687.586	17229.10561
687.782	17289.85445
687.979	17528.82636
688.175	17474.14253
688.372	17522.75027
688.568	17413.38541
688.765	17366.80683
688.962	17401.23432
689.158	17569.3344
689.355	17140.01206
689.551	16872.76357
689.748	16801.90987
689.944	17198.73218
690.14	17024.60353
690.337	17265.5546
690.533	17358.70637
690.73	17227.0807
690.926	17117.73953
691.123	16998.28354
691.319	17223.03087
691.515	17338.45545
691.712	17022.5789
691.908	17216.95616
692.104	17261.50466
692.301	17589.58891
692.497	17251.37988
692.693	17380.98275
692.889	17468.06669
693.086	17399.20915
693.282	17117.73953
693.478	17419.46099
693.674	17204.80682
693.87	17245.30504
694.067	17393.13365
694.263	16901.10591
694.459	16953.74304
694.655	17212.90637
694.851	17279.72946
695.047	17075.2202
695.243	16773.56925
695.439	16836.32414
695.635	16775.59356
695.831	16787.7395
696.027	16801.90987
696.224	16969.93943
696.42	16633.8973
696.615	16563.05339
696.811	16348.51336
697.007	17306.05459
697.203	16810.00728
697.399	17010.43117
697.595	16761.42341
697.791	16982.08684
697.987	16973.98856
698.183	17397.18398
698.379	16880.86133
698.575	17200.75706
698.77	17024.60353
698.966	16581.27013
699.162	16783.69085
699.358	17275.67948
699.554	16658.18728
699.749	16901.10591
699.945	17030.67744
700.141	17069.14611
700.337	16759.39912
700.532	16890.98359
700.728	16526.62042
700.924	16973.98856
701.119	17158.23529
701.315	16807.98293
701.511	16431.49311
701.706	16708.79246
701.902	16427.44524
702.097	16771.54494
702.293	16984.11142
702.489	16698.67131
702.684	16635.92145
702.88	16544.83681
703.075	16658.18728
703.271	16453.75654
703.466	16702.71976
703.662	16419.34953
703.857	16482.09217
704.053	16992.20976
704.248	17020.55427
704.443	17069.14611
704.639	16840.37293
704.834	17115.71477
705.03	16941.59585
705.225	16613.6559
705.42	16737.132
705.616	16637.94561
705.811	16192.68181
706.006	16745.2291
706.202	16690.57443
706.397	16913.25278
706.592	16822.15347
706.787	17002.33274
706.983	16625.80071
707.178	17095.46735
707.373	16870.73913
707.568	16609.60765
707.763	16858.59258
707.959	16921.35075
708.154	16803.93422
708.349	16595.43884
708.544	16880.86133
708.739	16538.76466
708.934	16214.94282
709.129	16648.06641
709.324	16326.25105
709.519	16810.00728
709.714	16662.23564
709.909	16745.2291
710.104	15998.41216
710.299	16320.17955
710.494	16520.54832
710.689	16435.54099
710.884	16397.08647
711.079	16840.37293
711.274	16388.99088
711.469	16759.39912
711.664	16439.58888
711.859	16409.22993
712.054	16271.60815
712.249	16550.90899
712.443	15984.2472
712.638	16087.45065
712.833	15937.70566
713.028	16449.70863
713.223	16140.06568
713.417	16451.73258
713.612	16146.13672
713.807	16488.16415
714.002	16457.80447
714.196	16552.93305
714.391	15933.65861
714.586	16042.93105
714.78	15901.28234
714.975	16160.30252
715.17	16105.66343
715.364	16172.4447
715.559	16174.46841
715.754	16123.87633
715.948	16071.26162
716.143	16004.48287
716.337	15840.5777
716.532	16429.46918
716.726	16168.3973
716.921	16391.01477
717.115	15840.5777
717.31	15828.4369
717.504	16245.29907
717.699	16000.43573
717.893	15901.28234
718.088	16083.40338
718.282	16297.91752
718.476	15998.41216
718.671	16081.37975
718.865	15917.47043
719.059	15881.04734
719.254	15648.35281
719.448	15431.85592
719.642	15860.81246
719.837	15433.87922
720.031	15646.32943
720.225	15375.20362
720.419	15868.9064
720.614	15796.06163
720.808	16051.02547
721.002	15707.03104
721.196	16038.88385
721.39	15640.25932
721.585	15858.78898
721.779	15919.49395
721.973	15792.01474
722.167	15630.14247
722.361	15727.26509
722.555	15630.14247
722.749	15294.27226
722.943	15470.29877
723.137	15591.69864
723.331	15421.73941
723.525	15796.06163
723.719	15399.48313
723.913	15577.5352
724.107	14986.73455
724.301	15332.71459
724.495	15498.6252
724.689	15577.5352
724.883	15267.96966
725.077	15342.83101
725.271	15391.38996
725.465	15091.94501
725.659	15348.90087
725.853	15415.66951
726.046	15176.9224
726.24	14921.98923
726.434	14956.38523
726.628	15670.60998
726.822	15484.46197
727.015	15771.78036
727.209	15522.90509
727.403	15626.09574
727.596	15399.48313
727.79	15462.20552
727.984	15395.43654
728.177	15456.13559
728.371	15514.81178
728.565	15719.17146
728.758	15502.67184
728.952	15474.34539
729.146	15361.04059
729.339	15634.18921
729.533	15480.41534
729.726	15626.09574
729.92	16008.53002
730.113	15571.46516
730.307	15373.18033
730.5	15253.80674
730.694	15387.34337
730.887	15075.75883
731.081	15207.27147
731.274	15251.78346
731.468	15403.52973
731.661	15439.94914
731.854	15541.11507
732.048	15897.23533
732.241	15278.08604
732.435	15314.50505
732.628	15142.5268
732.821	15397.45984
733.014	15213.34128
733.208	15221.43437
733.401	15229.52746
733.594	15108.13119
733.788	15201.20165
733.981	15506.71849
734.174	15253.80674
734.367	15450.06567
734.56	15344.8543
734.754	15609.90884
734.947	15223.45764
735.14	15259.87656
735.333	15443.99575
735.526	15286.17915
735.719	15235.59728
735.912	14853.1968
736.105	14885.56979
736.298	15098.01483
736.491	14667.04864
736.684	15081.82865
736.877	14954.36194
737.07	14986.73455
737.263	15170.85259
737.456	15290.2257
737.649	15189.06203
737.842	15369.13375
738.035	14964.47839
738.228	15100.0381
738.421	15209.29474
738.614	15290.2257
738.807	14849.15017
739	15193.10857
739.192	14871.40662
739.385	15170.85259
739.578	14978.64141
739.771	15148.59662
739.964	14913.89603
740.156	15031.24675
740.349	14857.24343
740.542	15423.76271
740.735	14687.28248
740.927	15019.10707
741.12	14936.1523
741.313	14843.08021
741.505	14859.26675
741.698	14667.04864
741.891	14756.07686
742.083	14932.10571
742.276	15037.31658
742.468	15089.92174
742.661	14889.6164
742.854	14733.81997
743.046	14800.59037
743.239	14735.84332
743.431	14970.54826
743.624	14816.77701
743.816	14741.91339
744.009	14930.08242
744.201	14919.96593
744.393	14575.99509
744.586	14946.26877
744.778	14697.39937
744.971	14841.05689
745.163	14930.08242
745.355	14472.79817
745.548	14345.31455
745.74	14395.90402
745.932	14592.18255
746.125	14543.61994
746.317	14632.65089
746.509	14484.93916
746.702	14843.08021
746.894	14689.30586
747.086	14422.21016
747.278	14523.38531
747.471	14663.00186
747.663	14509.221
747.855	14671.09542
748.047	14468.75116
748.239	14788.45036
748.431	14782.38034
748.623	14608.36994
748.815	14557.78411
749.008	15104.08465
749.2	14897.70962
749.392	14622.53385
749.584	14264.36919
749.776	14527.43225
749.968	14458.63362
750.16	14612.41678
750.352	14531.47918
750.544	14395.90402
750.736	14573.97165
750.928	14578.01853
751.12	14351.38534
751.311	14553.73721
751.503	14458.63362
751.695	14408.04535
751.887	14355.43253
752.079	14248.17978
752.271	14217.82429
752.463	14339.24375
752.654	14189.4921
752.846	14229.96654
753.038	14140.92171
753.23	14057.94441
753.421	13748.26017
753.613	14017.46628
753.805	14288.6531
753.997	14116.63606
754.188	14112.58842
754.38	13776.60002
754.572	14029.60982
754.763	14221.87171
754.955	14155.0882
755.146	14367.57404
755.338	13983.0591
755.53	13938.53109
755.721	14221.87171
755.913	14084.25469
756.104	13912.2185
756.296	13877.80903
756.487	13922.33878
756.679	13788.74548
756.87	13711.82234
757.062	14039.72937
757.253	13960.79525
757.445	13952.69923
757.636	14098.42161
757.827	14379.7155
758.019	13995.20289
758.21	13904.12222
758.401	13946.62719
758.593	13752.30876
758.784	13590.35534
758.975	13466.85108
759.167	13495.19752
759.358	13752.30876
759.549	13339.2827
759.74	13345.35775
759.932	13412.18083
760.123	13233.97591
760.314	13353.45775
760.505	13248.1525
760.696	13343.33273
760.888	13515.44453
761.079	13416.23058
761.27	13408.13107
761.461	13205.62209
761.652	13549.86362
761.843	13418.25544
762.034	13402.0564
762.225	13171.19126
762.416	13408.13107
762.607	12966.60354
762.798	13159.03889
762.989	13448.62798
763.18	13545.81437
763.371	13335.23265
763.562	13169.16588
763.753	13217.77383
763.944	13408.13107
764.135	13148.91179
764.326	13454.70238
764.517	13365.60763
764.708	13236.00116
764.899	13197.52084
765.089	13122.58079
765.28	13266.37923
765.471	13017.24871
765.662	13116.50429
765.853	12832.88469
766.043	12707.24824
766.234	12946.34458
766.425	12658.60881
766.615	12999.01681
766.806	12920.00716
766.997	13029.40309
767.187	13007.11993
767.378	13098.27454
767.569	12534.96789
767.759	12869.35577
767.95	12662.66223
768.141	12802.49076
768.331	12601.85844
768.522	12563.34653
768.712	12646.44842
768.903	13175.24202
769.093	12664.68892
769.284	12620.10015
769.474	12561.31953
769.665	12545.10326
769.855	12597.80466
770.046	12591.72395
770.236	12601.85844
770.426	12711.30137
770.617	12599.83156
770.807	12757.91072
770.998	12644.42166
771.188	12828.83224
771.378	12316.00388
771.569	12281.53009
771.759	12441.71492
771.949	12311.94825
772.139	12634.28781
772.33	11926.5283
772.52	12161.86967
772.71	12115.21543
772.9	12056.38479
773.09	12127.38649
773.281	12054.35603
773.471	11961.02463
773.661	12135.50038
773.851	12133.47192
774.041	11989.43162
774.231	12202.43537
774.421	11906.23525
774.611	11798.66815
774.802	11885.94137
774.992	11940.73296
775.182	11447.38054
775.372	11792.57874
775.562	11451.44326
775.752	11770.25023
775.942	11532.68957
776.131	11924.49903
776.321	11376.27667
776.511	11780.39968
776.701	11672.80435
776.891	11739.80056
777.081	11735.74046
777.271	11859.55808
777.461	11680.92562
777.651	11656.56138
777.84	11867.67617
778.03	11672.80435
778.22	11593.61441
778.41	11532.68957
778.599	11234.03229
778.789	11867.67617
778.979	11583.46085
779.169	11343.76803
779.358	11447.38054
779.548	11674.83468
779.738	11524.56562
779.927	11676.865
780.117	11626.10427
780.307	11778.36981
780.496	11461.59988
780.686	11603.76774
780.875	11301.09654
781.065	11315.32086
781.254	11016.50281
781.444	11274.67862
781.633	11110.0352
781.823	11552.99878
782.012	11325.48079
782.202	11585.49158
782.391	11447.38054
782.581	11347.83175
782.77	11242.16189
782.96	11425.0349
783.149	11268.58194
783.338	11380.34008
783.528	11195.41445
783.717	11071.40505
783.906	11000.23394
784.096	11022.60346
784.285	10898.53726
784.474	11081.57126
784.663	10994.13293
784.853	10705.2341
785.042	10725.58683
785.231	10766.2887
785.42	10865.98832
785.61	10902.60567
785.799	10658.41823
785.988	10996.16661
786.177	10770.35862
786.366	10558.65841
786.555	10727.62204
786.744	10636.02575
786.933	10684.88016
787.122	11008.36847
787.312	10688.95105
787.501	10652.31134
787.69	10246.96599
787.879	10863.95391
788.068	10564.76701
788.257	10782.56811
788.445	10528.1137
788.634	10503.67589
788.823	10314.21981
789.012	10627.88266
789.201	10554.58595
789.39	10536.25924
789.579	10438.4994
789.768	10603.45221
789.957	10308.10643
790.145	10633.99
790.334	10505.71244
790.523	10399.7946
790.712	10265.3094
790.9	10273.46167
791.089	10071.62841
791.278	10145.03802
791.467	10322.3708
791.655	10491.4563
791.844	10338.67213
792.033	10102.21796
792.221	10075.7072
792.41	10157.2712
792.599	10067.54957
792.787	10004.32018
792.976	10063.47066
793.164	9920.67298
793.353	9904.34872
793.541	10094.06106
793.73	9890.06422
793.918	9828.83675
794.107	9804.342
794.295	10177.65871
794.484	10255.11875
794.672	10228.62148
794.861	10053.27316
795.049	10006.36005
795.238	9998.20047
795.426	10045.1149
795.614	9992.08064
795.803	9981.88064
795.991	9624.64709
796.179	9602.17683
796.368	9655.28532
796.556	9587.87659
796.744	9794.13522
796.932	9998.20047
797.121	9661.41254
797.309	9861.49306
797.497	9604.21966
797.685	9681.83563
797.874	9718.5933
798.062	9665.49728
798.25	9540.88464
798.438	9512.27674
798.626	9532.71127
798.814	9651.20042
799.002	9483.66572
799.19	9589.91952
799.378	9571.53251
799.566	9632.81763
799.755	9469.35903
799.943	9665.49728
800.131	9816.58964
800.318	9657.32774
800.506	9410.08004
800.694	9516.36378
800.882	9260.79957
801.07	9506.14607
801.258	9305.79749
801.446	9698.17298
801.634	9279.20878
801.822	9514.32027
802.01	9138.03659
802.197	9547.0145
802.385	9295.57139
802.573	9301.7071
802.761	9207.60976
802.949	9536.79799
803.136	9174.8719
803.324	9399.85815
803.512	9542.92794
803.699	9448.91954
803.887	9473.44674
804.075	9640.98791
804.262	9430.52261
804.45	9569.48943
804.638	9154.40852
804.825	9465.27126
805.013	9297.61665
805.201	9491.84062
805.388	9156.45494
805.576	9475.49057
805.763	9385.54681
805.951	9459.13949
806.138	9252.61726
806.326	9669.58196
806.513	9207.60976
806.701	9571.53251
806.888	9277.16338
807.075	9510.2332
807.263	9287.39022
807.45	9534.75464
807.638	9416.21298
807.825	9448.91954
808.012	9440.74329
808.2	9450.96356
808.387	9702.25717
808.574	9367.14534
808.761	9739.01208
808.949	9890.06422
809.136	9694.08874
809.323	9779.8451
809.51	9706.34129
809.698	9943.11731
809.885	9581.74767
810.072	9508.18965
810.259	9585.83363
810.446	9824.75444
810.633	9514.32027
810.82	9861.49306
811.008	9820.67207
811.195	9716.55134
811.382	9491.84062
811.569	9469.35903
811.756	9191.24137
811.943	9557.23061
812.13	9497.97162
812.317	9832.91899
812.504	9685.92006
812.691	9826.7956
812.878	9336.47327
813.064	9581.74767
813.251	9244.43469
813.438	9589.91952
813.625	9023.40222
813.812	9643.03045
813.999	9581.74767
814.186	9802.30068
814.372	9301.7071
814.559	9745.13742
814.746	9473.44674
814.933	9379.41313
815.12	9348.74254
815.306	9416.21298
815.493	9254.66286
815.68	9463.22735
815.866	9219.88534
816.053	9397.81372
816.24	9203.51777
816.426	9178.96437
816.613	9203.51777
816.799	9459.13949
816.986	9555.18742
817.173	9489.79692
817.359	9285.34489
817.546	9420.30153
817.732	9432.56678
817.919	9479.57818
818.105	9129.85022
818.292	9123.71026
818.478	9086.86724
818.665	9264.89062
818.851	9420.30153
819.037	9252.61726
819.224	9148.26918
819.41	9295.57139
819.597	9072.53788
819.783	9309.88781
819.969	9076.63207
820.156	9453.00757
820.342	9469.35903
820.528	9387.59134
820.714	8892.32433
820.901	9285.34489
821.087	9342.60798
821.273	9479.57818
821.459	9477.53438
821.646	9528.62449
821.832	9105.28944
822.018	9379.41313
822.204	8900.51882
822.39	9064.3493
822.576	9189.19525
822.762	9189.19525
822.948	9011.11673
823.134	9068.44363
823.32	8855.44555
823.507	9097.10197
823.693	9109.38308
823.879	8804.21534
824.065	8834.95482
824.25	8851.34754
824.436	8699.67048
824.622	8943.53525
824.808	8941.48703
824.994	9050.01861
825.18	8705.8215
825.366	8861.59241
825.552	8746.82405
825.738	8937.39053
825.923	8523.27006
826.109	8966.06455
826.295	8711.97235
826.481	8857.49452
826.667	8877.98327
826.852	8925.1006
827.038	8900.51882
827.224	8683.26695
827.409	8449.38661
827.595	8605.33398
827.781	8523.27006
827.966	8566.35737
828.152	8426.80617
828.338	8670.96353
828.523	8309.761
828.709	8738.62413
828.894	8461.70223
829.08	8640.20205
829.266	8338.51478
829.451	8648.40552
829.637	8227.58618
829.822	8498.64498
830.008	8229.64093
830.193	8586.87222
830.378	8207.03754
830.564	8812.41294
830.749	8457.5971
830.935	8761.17322
831.12	8276.89485
831.305	8502.74935
831.491	8377.53167
831.676	8531.47781
831.861	8223.47661
832.047	8437.07029
832.232	8005.55514
832.417	8336.46107
832.602	8098.09654
832.788	8305.65301
832.973	8303.59898
833.158	8163.87895
833.343	8079.59153
833.528	8081.64772
833.714	8028.18016
833.899	8147.43526
834.084	8207.03754
834.269	8178.26612
834.454	7877.98604
834.639	8227.58618
834.824	7845.05214
835.009	8153.60179
835.194	7929.43469
835.379	8217.31211
835.564	7937.66528
835.749	8079.59153
835.934	7875.92783
836.119	7855.34455
836.304	7727.68177
836.489	7871.81134
836.674	7777.10915
836.859	7820.34822
837.044	7768.87209
837.228	8046.68971
837.413	7659.69934
837.598	8030.23685
837.783	7735.92051
837.968	8063.14127
838.152	7857.40297
838.337	8091.92838
838.522	7801.81832
838.707	8089.87229
838.891	7575.20415
839.076	7610.24308
839.261	7698.84355
839.445	7894.45101
839.63	7847.11066
839.815	7867.69477
839.999	7655.57845
840.184	7880.04424
840.368	7684.42289
840.553	7875.92783
840.737	7717.38288
840.922	7744.15891
841.106	7536.03567
841.291	7709.14339
841.475	7503.04569
841.66	7496.85945
841.844	7443.23727
842.029	7304.98935
842.213	7282.28254
842.397	7569.02017
842.582	7253.37913
842.766	7420.54655
842.951	6935.15405
843.135	7280.21816
843.319	7032.33095
843.504	7119.12792
843.688	7193.49401
843.872	7300.86103
844.056	7234.79608
844.241	7197.62462
844.425	6968.24114
844.609	7282.28254
844.793	6970.30889
844.977	7028.19678
845.161	7040.59903
845.346	6976.51201
845.53	6808.95631
845.714	7001.32245
845.898	6848.27287
846.082	7183.16711
846.266	6839.99638
846.45	7181.10166
846.634	6891.71846
846.818	7032.33095
847.002	6804.81724
847.186	6951.69832
847.37	6531.43624
847.554	6695.09874
847.738	6833.78877
847.922	6722.01678
848.106	6489.97981
848.29	6742.72033
848.473	6651.60756
848.657	6848.27287
848.841	6537.6539
849.025	6597.74726
849.209	6404.9651
849.392	6402.89108
849.576	6336.51019
849.76	6552.16098
849.944	6311.61119
850.127	6398.74297
850.311	6336.51019
850.495	6572.8834
850.678	6402.89108
850.862	6672.31891
851.046	6531.43624
851.229	6560.45022
851.413	6568.7391
851.596	6655.75001
851.78	6707.52293
851.964	6695.09874
852.147	6564.59471
852.331	6730.29847
852.514	6338.58495
852.698	6378.00104
852.881	6164.22317
853.065	6097.7561
853.248	6014.6384
853.431	6427.77776
853.615	5906.52903
853.798	6164.22317
853.982	5815.00206
854.165	6182.9127
854.348	5937.72097
854.532	6288.78416
854.715	5956.43358
854.898	6311.61119
855.081	6162.14644
855.265	6380.07534
855.448	5812.92137
855.631	6041.65578
855.814	5817.08273
855.997	5954.3545
856.181	5721.34768
856.364	5998.01034
856.547	5798.35589
856.73	6041.65578
856.913	5954.3545
857.096	6079.0579
857.279	6029.18672
857.462	6041.65578
857.645	6066.59138
857.828	5779.62714
858.011	5879.49173
858.194	5839.9685
858.377	5619.31411
858.56	5923.16539
858.743	5715.10235
858.926	5927.32425
859.109	5581.81816
859.292	5733.83769
859.475	5567.23434
859.658	5858.69109
859.841	5375.45409
860.023	5333.73641
860.206	5177.21175
860.389	5339.99466
860.572	5041.45105
860.755	5317.04672
860.937	5221.0519
861.12	5406.73619
861.303	5365.02555
861.486	5367.1113
861.668	5371.28274
861.851	5321.21928
862.034	5246.09879
862.216	5538.06324
862.399	5187.65081
862.581	5371.28274
862.764	4978.75927
862.947	5496.38223
863.129	5254.44701
863.312	5131.27296
863.494	5145.89107
863.677	5406.73619
863.859	5283.66283
864.042	5473.45366
864.224	5031.00386
864.406	5097.85586
864.589	4911.86519
864.771	5375.45409
864.954	4945.31517
865.136	5189.73856
865.318	4765.45268
865.501	4995.47911
865.683	4903.50177
865.865	5241.92454
866.048	4882.59164
866.23	5028.91436
866.412	4934.86268
866.594	5001.74867
866.777	4738.24952
866.959	5196.00164
867.141	4867.95318
867.323	5045.62976
867.505	4748.71273
867.687	5102.03332
867.869	4727.78575
868.052	4947.4056
868.234	4769.63745
868.416	4771.72979
868.598	4702.67039
868.78	4911.86519
868.962	4685.92501
869.144	4878.40933
869.326	4861.67921
869.508	4757.08289
869.69	4610.55302
869.872	4947.4056
870.054	4754.99038
870.236	4857.49645
870.417	4564.4781
870.599	4754.99038
870.781	4516.29735
870.963	4807.29622
871.145	4593.79975
871.327	4648.24265
871.508	4627.30486
871.69	4729.87855
871.872	4491.15492
872.054	4920.22823
872.235	4635.68025
872.417	4725.69292
872.599	4602.17657
872.78	4882.59164
872.962	4671.27162
873.144	5010.10776
873.325	4612.64708
873.507	4736.15681
873.689	4560.28893
873.87	4916.04676
874.052	4507.9169
874.233	4577.04505
874.415	4493.25025
874.596	4591.70549
874.778	4298.29156
874.959	4512.10717
875.141	4296.19421
875.322	4780.09896
875.503	4535.15208
875.685	4556.09968
875.866	4445.05223
876.048	4782.19119
876.229	4222.77348
876.41	4342.33092
876.592	4386.36075
876.773	4407.32396
876.954	4361.20202
877.136	4658.7107
877.317	4315.06958
877.498	4486.96421
877.679	4287.8046
877.86	4329.74922
878.042	4166.11682
878.223	4505.82173
878.404	4501.63132
878.585	4501.63132
878.766	4474.39154
878.947	4771.72979
879.128	4562.38352
879.309	4765.45268
879.49	4734.06408
879.672	4744.52751
879.853	4417.80474
880.034	4591.70549
880.215	4507.9169
880.396	4558.19432
880.576	4384.2643
880.757	4744.52751
880.938	4413.6125
881.119	4602.17657
881.3	4526.77242
881.481	4614.74112
881.662	4463.91371
881.843	4554.00502
882.023	4510.01204
882.204	4581.23386
882.385	4482.77341
882.566	4438.76468
882.747	4451.33959
882.927	4497.44083
883.108	4493.25025
883.289	4568.66717
883.469	4233.26376
883.65	4438.76468
883.831	4539.34178
884.011	4652.42994
884.192	4505.82173
884.373	4568.66717
884.553	4296.19421
884.734	4610.55302
884.914	4451.33959
885.095	4633.58643
885.275	4489.05958
885.456	4512.10717
885.636	4486.96421
885.817	4880.5005
885.997	4656.61714
886.178	4941.13424
886.358	4436.66879
886.538	4719.41432
886.719	4539.34178
886.899	4817.75568
887.08	4604.27071
887.26	4704.76346
887.44	4463.91371
887.621	4893.04699
887.801	4428.28499
887.981	4558.19432
888.161	4518.39241
888.342	4551.91034
888.522	4476.48704
888.702	4673.36503
888.882	4505.82173
889.062	4759.17537
889.242	4568.66717
889.423	4794.74411
889.603	4493.25025
889.783	4694.29788
889.963	4403.13149
890.143	4731.97132
890.323	4176.60996
890.503	4639.8678
890.683	4445.05223
890.863	4413.6125
891.043	4505.82173
891.223	4510.01204
891.403	4501.63132
891.583	4696.39104
891.763	4535.15208
891.943	4807.29622
892.122	4380.07136
892.302	4656.61714
892.482	4455.53105
892.662	4549.81563
892.842	4510.01204
893.022	4752.89785
893.201	4170.31414
893.381	4405.22773
893.561	4275.21954
893.741	4623.11704
893.92	4233.26376
894.1	4463.91371
894.28	4205.98793
894.459	4235.36175
894.639	4159.82068
894.819	4327.65219
894.998	4327.65219
895.178	4266.82906
895.357	4128.33717
895.537	4474.39154
895.716	4185.00409
895.896	4367.49199
896.075	3945.64063
896.255	4136.73323
896.434	4096.84894
896.614	4432.47693
896.793	3848.98015
896.973	4224.87158
897.152	3897.3157
897.331	3882.606
897.511	3832.16531
897.69	4006.55678
897.87	3964.54748
898.049	3876.30154
898.228	3846.87836
898.407	3920.42896
898.587	3676.56867
898.766	3939.33799
898.945	3834.26724
899.124	3888.91028
899.304	3701.80776
899.483	3853.18366
899.662	3552.43681
899.841	3678.67203
900.02	3445.08448
900.199	3703.91089
900.378	3316.62165
900.557	3472.45328
900.737	3470.3481
900.916	3672.36188
901.095	3325.04743
901.274	3663.94809
901.453	3472.45328
901.632	3470.3481
901.811	3247.09854
901.989	3577.68924
902.168	3402.97274
902.347	3619.77068
902.526	3249.20557
902.705	3440.87363
902.884	3308.1956
903.063	3602.939
903.242	3394.54954
903.42	3577.68924
903.599	3048.9645
903.778	3287.12926
903.957	3232.34885
904.135	3185.98738
904.314	3063.72402
904.493	3190.20239
904.672	3105.88987
904.85	3051.07305
905.029	2854.91343
905.207	2954.06391
905.386	2876.01195
905.565	3143.8337
905.743	2835.92356
905.922	3110.1061
906.1	2789.49912
906.279	3017.33439
906.457	2595.29102
906.636	2899.21866
906.814	2711.40685
906.993	2768.39491
907.171	2464.35308
907.35	2641.7419
907.528	2413.65586
907.707	2572.06336
907.885	2409.43082
908.063	2582.62157
908.242	2481.25076
908.42	2637.51934
908.598	2346.05019
908.777	2441.11763
908.955	2308.01749
909.133	2548.83427
909.311	2242.50955
909.49	2462.24082
909.668	2179.10659
909.846	2462.24082
910.024	2210.80904
910.202	2458.01627
910.38	2238.28293
910.559	2333.37297
910.737	2424.21829
910.915	2424.21829
911.093	2339.71162
911.271	2466.46533
911.449	2413.65586
911.627	2664.96509
911.805	2094.55778
911.983	2565.7283
912.161	2274.20805
912.339	2629.07407
912.517	2329.14716
912.695	2483.36292
912.872	2493.92356
913.05	2574.17503
913.228	2356.61426
913.406	2601.62558
913.584	2455.90398
913.762	2660.74281
913.939	2329.14716
914.117	2563.61659
914.295	2164.31147
914.473	2419.99335
914.65	2455.90398
914.828	2582.62157
915.006	2274.20805
915.184	2373.51625
915.361	2221.3761
915.539	2388.30496
915.716	2151.62962
915.894	2318.58244
916.072	2130.49256
916.249	2327.03423
916.427	2231.94293
916.604	2432.66805
916.782	2295.33923
916.959	2517.15596
917.137	2219.2627
917.314	2422.10583
917.492	2048.05076
917.669	2242.50955
917.847	2147.40227
918.024	2341.82449
918.201	2071.30471
918.379	2284.77376
918.556	2219.2627
918.733	2305.90447
918.911	2009.99704
919.088	2295.33923
919.265	2024.79597
919.442	2100.89937
919.62	1942.34081
919.797	2193.90131
919.974	1713.96133
920.151	2107.2409
920.328	1819.69916
920.506	1967.71264
920.683	1946.56951
920.86	1961.36976
921.037	1908.5104
921.214	1950.79818
921.391	1821.81381
921.568	2020.56774
921.745	1857.76219
921.922	1950.79818
922.099	1864.10588
922.276	1851.41846
922.453	1821.81381
922.63	2035.36643
922.807	1618.79026
922.984	1618.79026
923.161	1494.00433
923.338	1965.59835
923.514	1686.46804
923.691	1754.14283
923.868	1703.38705
924.045	1754.14283
924.222	1652.62947
924.399	1785.86413
924.575	1574.37549
924.752	1804.89647
924.929	1720.30586
925.105	1671.66375
925.282	1534.1901
925.459	1815.46984
925.635	1578.6055
925.812	1627.25012
925.989	1392.48196
926.165	1654.7444
926.342	1508.80965
926.518	1546.88027
926.695	1483.42909
926.871	1563.80043
927.048	1462.27858
927.224	1589.1805
927.401	1252.89232
927.577	1652.62947
927.754	1282.50154
927.93	1591.29549
928.107	1280.38658
928.283	1339.60625
928.459	1335.37622
928.636	1309.99623
928.812	1229.62829
928.988	1381.90676
929.165	1191.56068
929.341	1132.34677
929.517	1100.6264
929.693	1172.5273
929.87	1009.70113
930.046	1085.82394
930.222	948.38578
930.398	1178.87173
930.574	849.02576
930.751	1197.90521
930.927	988.55727
931.103	1204.24977
931.279	935.70057
931.455	1096.3971
931.631	956.84273
931.807	918.78737
931.983	944.15735
932.159	975.87127
932.335	775.04658
932.511	946.27156
932.687	942.04314
932.863	1018.15885
933.039	903.98872
933.215	935.70057
933.391	863.82293
933.566	878.6205
933.742	800.40958
933.918	830.00146
934.094	707.41905
934.27	760.25215
934.445	705.30587
934.621	777.16011
934.797	667.27047
934.973	574.31144
935.148	544.73881
935.324	544.73881
935.5	578.53632
935.675	532.06565
935.851	394.80709
936.027	521.50506
936.202	418.03086
936.378	472.93102
936.553	485.60176
936.729	399.02945
936.904	377.91833
937.08	335.70117
937.255	350.47639
937.431	310.37423
937.606	259.7282
937.782	346.25481
937.957	293.49103
938.133	323.03738
938.308	240.73873
938.483	194.32669
938.659	200.65503
938.834	280.82941
939.009	236.51906
939.185	244.95848
939.36	242.84859
939.535	240.73873
939.71	253.3982
939.886	282.93964
940.061	147.92445
940.236	204.87403
940.411	183.77985
940.586	177.45199
940.761	192.21728
940.937	158.46953
941.112	192.21728
941.287	181.67054
941.462	147.92445
941.637	131.05342
941.812	128.94464
941.987	124.72714
942.162	88.88192
942.337	122.61842
942.512	122.61842
942.687	65.69137
942.862	105.74946
943.037	156.36047
943.212	150.03342
943.386	124.72714
943.561	63.58328
943.736	95.20708
943.911	42.50359
944.086	93.09867
944.26	128.94464
944.435	97.31551
944.61	164.79683
944.785	55.15113
944.959	147.92445
945.134	124.72714
945.309	139.48876
945.483	135.27105
945.658	135.27105
945.833	80.44868
946.007	93.09867
946.182	139.48876
946.357	133.16222
946.531	158.46953
946.706	72.0158
946.88	97.31551
947.055	107.85801
947.229	97.31551
947.404	107.85801
947.578	82.55695
947.752	76.23219
947.927	103.64094
948.101	97.31551
948.276	97.31551
948.45	141.59765
948.624	141.59765
948.799	181.67054
948.973	72.0158
949.147	181.67054
949.321	101.53244
949.496	55.15113
949.67	88.88192
949.844	135.27105
950.018	133.16222
950.193	135.27105
950.367	84.66525
950.541	175.34274
950.715	101.53244
950.889	93.09867
951.063	131.05342
951.237	12.99594
951.411	147.92445
951.585	135.27105
951.759	139.48876
951.933	107.85801
952.107	80.44868
952.281	55.15113
952.455	143.70656
952.629	156.36047
952.803	114.18377
952.977	21.42623
953.151	139.48876
953.325	122.61842
953.499	109.96657
953.672	59.36716
953.846	131.05342
954.02	105.74946
954.194	48.82725
954.368	116.2924
954.541	175.34274
954.715	160.57861
954.889	154.25143
955.062	147.92445
955.236	166.90597
955.41	124.72714
955.583	179.56125
955.757	158.46953
955.93	122.61842
956.104	217.53151
956.278	177.45199
956.451	158.46953
956.625	67.79949
956.798	185.88917
956.972	114.18377
957.145	105.74946
957.319	185.88917
957.492	166.90597
957.665	135.27105
957.839	50.93519
958.012	46.71934
958.185	141.59765
958.359	135.27105
958.532	72.0158
958.705	206.98356
958.879	25.64151
959.052	118.40105
959.225	99.42397
959.398	122.61842
959.572	126.83588
959.745	169.01513
959.918	181.67054
960.091	147.92445
960.264	141.59765
960.438	114.18377
960.611	131.05342
960.784	31.96461
960.957	72.0158
961.13	150.03342
961.303	80.44868
961.476	160.57861
961.649	84.66525
961.822	194.32669
961.995	103.64094
962.168	177.45199
962.341	38.28793
962.514	57.25913
962.686	166.90597
962.859	114.18377
963.032	135.27105
963.205	59.36716
963.378	90.99028
963.551	190.10789
963.723	80.44868
963.896	97.31551
964.069	131.05342
964.242	122.61842
964.414	55.15113
964.587	74.12398
964.76	101.53244
964.932	126.83588
965.105	61.47521
965.278	40.39575
965.45	63.58328
965.623	76.23219
965.795	164.79683
965.968	169.01513
966.14	25.64151
966.313	124.72714
966.485	131.05342
966.658	65.69137
966.83	126.83588
967.003	183.77985
967.175	131.05342
967.348	80.44868
967.52	78.34042
967.692	126.83588
967.865	97.31551
968.037	181.67054
968.209	124.72714
968.382	29.85689
968.554	116.2924
968.726	118.40105
968.898	124.72714
969.071	74.12398
969.243	-24.93558
969.415	105.74946
969.587	78.34042
969.759	59.36716
969.932	80.44868
970.104	63.58328
970.276	80.44868
970.448	105.74946
970.62	50.93519
970.792	93.09867
970.964	72.0158
971.136	116.2924
971.308	74.12398
971.48	122.61842
971.652	80.44868
971.824	74.12398
971.996	61.47521
972.168	50.93519
972.339	31.96461
972.511	116.2924
972.683	78.34042
972.855	29.85689
973.027	164.79683
973.199	44.61145
973.37	31.96461
973.542	84.66525
973.714	131.05342
973.886	67.79949
974.057	67.79949
974.229	109.96657
974.401	128.94464
974.572	55.15113
974.744	61.47521
974.915	21.42623
975.087	0.35123
975.259	72.0158
975.43	74.12398
975.602	90.99028
975.773	27.74919
975.945	46.71934
976.116	158.46953
976.288	-24.93558
976.459	40.39575
976.63	63.58328
976.802	72.0158
976.973	44.61145
977.145	97.31551
977.316	90.99028
977.487	-20.72135
977.659	65.69137
977.83	2.45862
978.001	86.77357
978.172	80.44868
978.344	25.64151
978.515	80.44868
978.686	90.99028
978.857	72.0158
979.028	59.36716
979.2	114.18377
979.371	-14.39983
979.542	19.31862
979.713	-22.82848
979.884	23.53386
980.055	23.53386
980.226	6.67348
980.397	38.28793
980.568	-10.18537
980.739	80.44868
980.91	-35.47071
981.081	114.18377
981.252	38.28793
981.423	46.71934
981.594	93.09867
981.765	101.53244
981.936	15.10348
982.106	-10.18537
982.277	59.36716
982.448	38.28793
982.619	17.21104
982.79	48.82725
982.96	88.88192
983.131	105.74946
983.302	25.64151
983.472	-12.29261
983.643	59.36716
983.814	31.96461
983.984	48.82725
984.155	38.28793
984.326	31.96461
984.496	67.79949
984.667	6.67348
984.837	29.85689
985.008	84.66525
985.178	-29.1497
985.349	21.42623
985.519	34.07236
985.69	50.93519
985.86	-1.75614
986.031	50.93519
986.201	67.79949
986.371	48.82725
986.542	65.69137
986.712	21.42623
986.882	46.71934
987.053	46.71934
987.223	8.78094
987.393	114.18377
987.563	105.74946
987.734	23.53386
987.904	63.58328
988.074	25.64151
988.244	23.53386
988.414	-16.50703
988.585	80.44868
988.755	46.71934
988.925	-24.93558
989.095	46.71934
989.265	29.85689
989.435	46.71934
989.605	80.44868
989.775	78.34042
989.945	21.42623
990.115	101.53244
990.285	63.58328
990.455	29.85689
990.625	53.04315
990.795	44.61145
990.965	-20.72135
991.134	29.85689
991.304	4.56604
991.474	-33.36373
991.644	17.21104
991.814	38.28793
991.984	105.74946
992.153	21.42623
992.323	63.58328
992.493	40.39575
992.662	55.15113
992.832	17.21104
993.002	-67.07234
993.171	-1.75614
993.341	4.56604
993.511	34.07236
993.68	-12.29261
993.85	74.12398
994.019	61.47521
994.189	145.81549
994.358	-16.50703
994.528	29.85689
994.697	-27.04265
994.867	19.31862
995.036	-20.72135
995.206	61.47521
995.375	-58.64579
995.544	-8.0781
995.714	19.31862
995.883	-8.0781
996.052	38.28793
996.222	-18.61421
996.391	-92.34952
996.56	65.69137
996.73	-18.61421
996.899	31.96461
997.068	82.55695
997.237	-3.86348
997.406	19.31862
997.576	15.10348
997.745	29.85689
997.914	-3.86348
998.083	38.28793
998.252	57.25913
998.421	48.82725
998.59	-29.1497
998.759	12.99594
998.928	57.25913
999.097	-20.72135
999.266	38.28793
999.435	126.83588
999.604	21.42623
999.773	-5.9708
999.942	46.71934
1000.111	4.56604
1000.28	0.35123
1000.448	40.39575
1000.617	8.78094
1000.786	40.39575
1000.955	48.82725
1001.124	-27.04265
1001.292	25.64151
1001.461	50.93519
1001.63	-46.00521
1001.798	93.09867
1001.967	114.18377
1002.136	-83.9242
1002.304	-62.85911
1002.473	40.39575
1002.642	10.88843
1002.81	50.93519
1002.979	-16.50703
1003.147	12.99594
1003.316	15.10348
1003.484	40.39575
1003.653	-8.0781
1003.821	8.78094
1003.99	6.67348
1004.158	-29.1497
1004.327	-43.89836
1004.495	90.99028
1004.663	29.85689
1004.832	4.56604
1005	15.10348
1005.168	0.35123
1005.337	55.15113
1005.505	0.35123
1005.673	48.82725
1005.842	8.78094
1006.01	-12.29261
1006.178	27.74919
1006.346	-20.72135
1006.514	-24.93558
1006.683	6.67348
1006.851	-3.86348
1007.019	-48.11204
1007.187	34.07236
1007.355	-5.9708
1007.523	42.50359
1007.691	4.56604
1007.859	-20.72135
1008.027	42.50359
1008.195	57.25913
1008.363	19.31862
1008.531	59.36716
1008.699	57.25913
1008.867	90.99028
1009.035	4.56604
1009.203	-10.18537
1009.37	-5.9708
1009.538	17.21104
1009.706	15.10348
1009.874	67.79949
1010.042	-3.86348
1010.209	8.78094
1010.377	12.99594
1010.545	-20.72135
1010.713	38.28793
1010.88	105.74946
1011.048	-3.86348
1011.216	42.50359
1011.383	15.10348
1011.551	53.04315
1011.718	-20.72135
1011.886	-3.86348
1012.054	122.61842
1012.221	55.15113
1012.389	67.79949
1012.556	-12.29261
1012.724	-29.1497
1012.891	-10.18537
1013.058	0.35123
1013.226	29.85689
1013.393	-12.29261
1013.561	-27.04265
1013.728	-37.57766
1013.895	-41.79148
1014.063	-10.18537
1014.23	-33.36373
1014.397	116.2924
1014.565	21.42623
1014.732	-54.43236
1014.899	46.71934
1015.066	17.21104
1015.233	21.42623
1015.401	72.0158
1015.568	23.53386
1015.735	-33.36373
1015.902	29.85689
1016.069	21.42623
1016.236	31.96461
1016.403	-3.86348
1016.57	-10.18537
1016.737	80.44868
1016.904	40.39575
1017.071	55.15113
1017.238	-46.00521
1017.405	21.42623
1017.572	6.67348
1017.739	-12.29261
1017.906	-5.9708
1018.073	55.15113
1018.24	4.56604
1018.407	50.93519
1018.573	-1.75614
1018.74	-1.75614
1018.907	-16.50703
1019.074	-20.72135
1019.241	-33.36373
1019.407	29.85689
1019.574	21.42623
1019.741	6.67348
1019.907	-3.86348
1020.074	17.21104
1020.241	-12.29261
1020.407	-27.04265
1020.574	25.64151
1020.74	-12.29261
1020.907	36.18013
1021.073	50.93519
1021.24	-10.18537
1021.406	-27.04265
1021.573	-12.29261
1021.739	0.35123
1021.906	44.61145
1022.072	12.99594
1022.239	-3.86348
1022.405	-27.04265
1022.571	17.21104
1022.738	-20.72135
1022.904	46.71934
1023.07	15.10348
1023.237	-3.86348
1023.403	-37.57766
1023.569	-43.89836
1023.735	-12.29261
1023.902	-12.29261
1024.068	-12.29261
1024.234	-20.72135
1024.4	46.71934
1024.566	59.36716
1024.732	34.07236
1024.898	55.15113
1025.065	-18.61421
1025.231	-20.72135
1025.397	46.71934
1025.563	-100.77442
1025.729	12.99594
1025.895	-77.60495
1026.061	46.71934
1026.227	12.99594
1026.392	29.85689
1026.558	-18.61421
1026.724	88.88192
1026.89	23.53386
1027.056	72.0158
1027.222	57.25913
1027.388	50.93519
1027.553	25.64151
1027.719	25.64151
1027.885	23.53386
1028.051	12.99594
1028.216	17.21104
1028.382	-46.00521
1028.548	8.78094
1028.713	-24.93558
1028.879	10.88843
1029.045	-12.29261
1029.21	55.15113
1029.376	42.50359
1029.541	-29.1497
1029.707	29.85689
1029.873	-5.9708
1030.038	21.42623
1030.204	-41.79148
1030.369	15.10348
1030.534	-71.28546
1030.7	-24.93558
1030.865	0.35123
1031.031	-37.57766
1031.196	29.85689
1031.361	-5.9708
1031.527	17.21104
1031.692	-12.29261
1031.857	-29.1497
1032.023	61.47521
1032.188	29.85689
1032.353	15.10348
1032.518	25.64151
1032.684	-27.04265
1032.849	2.45862
1033.014	-8.0781
1033.179	67.79949
1033.344	50.93519
1033.509	19.31862
1033.674	-12.29261
1033.839	12.99594
1034.004	-50.21884
1034.17	-29.1497
1034.335	-60.75247
1034.5	67.79949
1034.664	74.12398
1034.829	36.18013
1034.994	12.99594
1035.159	44.61145
1035.324	-35.47071
1035.489	-3.86348
1035.654	-3.86348
1035.819	-71.28546
1035.984	-1.75614
1036.148	-54.43236
1036.313	-5.9708
1036.478	4.56604
1036.643	31.96461
1036.807	29.85689
1036.972	10.88843
1037.137	19.31862
1037.301	-83.9242
1037.466	-46.00521
1037.631	65.69137
1037.795	-24.93558
1037.96	29.85689
1038.124	-3.86348
1038.289	12.99594
1038.454	-12.29261
1038.618	6.67348
1038.783	-10.18537
1038.947	25.64151
1039.111	-27.04265
1039.276	21.42623
1039.44	-83.9242
1039.605	50.93519
1039.769	72.0158
1039.933	-50.21884
1040.098	-18.61421
1040.262	82.55695
1040.426	8.78094
1040.591	-50.21884
1040.755	-5.9708
1040.919	42.50359
1041.083	29.85689
1041.248	-20.72135
1041.412	17.21104
1041.576	27.74919
1041.74	-43.89836
1041.904	-8.0781
1042.068	29.85689
1042.232	21.42623
1042.397	10.88843
1042.561	-3.86348
1042.725	-16.50703
1042.889	-10.18537
1043.053	12.99594
1043.217	-3.86348
1043.381	34.07236
1043.544	-3.86348
1043.708	19.31862
1043.872	80.44868
1044.036	-3.86348
1044.2	46.71934
1044.364	21.42623
1044.528	-46.00521
1044.691	10.88843
1044.855	-27.04265
1045.019	-22.82848
1045.183	6.67348
1045.346	50.93519
1045.51	-35.47071
1045.674	4.56604
1045.837	8.78094
1046.001	50.93519
1046.165	8.78094
1046.328	-1.75614
1046.492	-31.25673
1046.655	12.99594
1046.819	-12.29261
1046.983	-111.30495
1047.146	12.99594
1047.31	67.79949
1047.473	6.67348
1047.636	4.56604
1047.8	40.39575
1047.963	21.42623
1048.127	0.35123
1048.29	-8.0781
