Data from mixed_try1_USB4F045381__18__00083.txt Node

Date: Thu Apr 03 19:52:58 EDT 2025
User: mmckonesweet
Spectrometer: USB4F04538
Trigger mode: 4
Integration Time (sec): 2.700000E-3
Scans to average: 1
Electric dark correction enabled: true
Nonlinearity correction enabled: true
Boxcar width: 0
XAxis mode: Wavelengths
Number of Pixels in Spectrum: 3648
>>>>>Begin Spectral Data<<<<<
345.52	-42.49378
345.736	-42.49378
345.952	-42.49378
346.168	-12.99502
346.384	-6.67324
346.6	18.61609
346.816	-25.63794
347.032	-38.27997
347.248	27.04663
347.464	-19.31659
347.68	-53.02787
347.896	12.29343
348.112	27.04663
348.328	-8.78052
348.544	-2.45859
348.76	41.80097
348.975	20.72369
349.191	-17.20943
349.407	43.90883
349.623	-59.34802
349.839	-25.63794
350.055	-34.06606
350.27	-48.81431
350.486	-8.78052
350.702	-50.9211
350.918	-8.78052
351.133	62.88058
351.349	27.04663
351.565	-8.78052
351.781	-67.77453
351.996	-27.74501
352.212	-21.42373
352.428	-23.53085
352.644	-8.78052
352.859	67.09678
353.075	-84.62633
353.291	-21.42373
353.506	-12.99502
353.722	-36.17303
353.938	33.36978
354.153	8.07845
354.369	-57.24133
354.584	79.74592
354.8	-15.10224
355.016	10.18593
355.231	-23.53085
355.447	-59.34802
355.662	-65.66794
355.878	5.97099
356.093	24.93896
356.309	-2.45859
356.524	29.15432
356.74	46.01671
356.955	-8.78052
357.171	10.18593
357.386	50.23254
357.602	-8.78052
357.817	18.61609
358.033	-50.9211
358.248	-21.42373
358.464	67.09678
358.679	-25.63794
358.895	-63.56133
359.11	-4.56592
359.325	-50.9211
359.541	12.29343
359.756	-67.77453
359.972	-48.81431
360.187	12.29343
360.402	8.07845
360.618	-31.95906
360.833	-8.78052
361.048	8.07845
361.264	-34.06606
361.479	-53.02787
361.694	12.29343
361.909	-17.20943
362.125	43.90883
362.34	16.50851
362.555	-74.09415
362.77	-12.99502
362.986	-8.78052
363.201	-109.90091
363.416	-38.27997
363.631	24.93896
363.847	-17.20943
364.062	-48.81431
364.277	16.50851
364.492	3.86356
364.707	18.61609
364.922	-90.94533
365.138	-25.63794
365.353	-42.49378
365.568	1.75615
365.783	5.97099
365.998	-53.02787
366.213	16.50851
366.428	3.86356
366.643	102.93811
366.858	-2.45859
367.073	10.18593
367.288	-23.53085
367.503	-55.13461
367.718	-25.63794
367.933	8.07845
368.148	-61.45468
368.363	-40.38689
368.578	-38.27997
368.793	-8.78052
369.008	67.09678
369.223	12.29343
369.438	-38.27997
369.653	56.55646
369.868	-95.15786
370.083	-25.63794
370.298	-23.53085
370.513	-21.42373
370.728	-38.27997
370.943	35.47754
371.157	-34.06606
371.372	-48.81431
371.587	-25.63794
371.802	96.6127
372.017	-29.85205
372.232	-4.56592
372.446	69.20492
372.661	-46.70749
372.876	-42.49378
373.091	33.36978
373.306	-31.95906
373.52	-29.85205
373.735	-6.67324
373.95	14.40096
374.165	-12.99502
374.379	-6.67324
374.594	8.07845
374.809	-23.53085
375.023	-59.34802
375.238	-50.9211
375.453	-8.78052
375.667	-25.63794
375.882	-44.60065
376.097	29.15432
376.311	56.55646
376.526	-12.99502
376.741	3.86356
376.955	73.42125
377.17	-50.9211
377.384	75.52945
377.599	24.93896
377.813	-34.06606
378.028	-25.63794
378.242	-8.78052
378.457	-38.27997
378.672	-29.85205
378.886	58.66448
379.101	-4.56592
379.315	-23.53085
379.53	1.75615
379.744	-12.99502
379.958	-25.63794
380.173	-6.67324
380.387	12.29343
380.602	-80.41353
380.816	-8.78052
381.031	8.07845
381.245	41.80097
381.459	-27.74501
381.674	-21.42373
381.888	-34.06606
382.103	75.52945
382.317	52.34049
382.531	8.07845
382.746	8.07845
382.96	8.07845
383.174	-4.56592
383.388	8.07845
383.603	-27.74501
383.817	35.47754
384.031	-80.41353
384.246	43.90883
384.46	12.29343
384.674	8.07845
384.888	8.07845
385.103	-57.24133
385.317	-63.56133
385.531	-0.35123
385.745	71.31307
385.959	-6.67324
386.174	-0.35123
386.388	-17.20943
386.602	-0.35123
386.816	-31.95906
387.03	-65.66794
387.244	-25.63794
387.458	35.47754
387.672	-42.49378
387.887	20.72369
388.101	-10.88778
388.315	14.40096
388.529	-8.78052
388.743	33.36978
388.957	-2.45859
389.171	-23.53085
389.385	22.83131
389.599	-2.45859
389.813	-34.06606
390.027	-25.63794
390.241	8.07845
390.455	3.86356
390.669	16.50851
390.883	-50.9211
391.097	-63.56133
391.311	-42.49378
391.525	-4.56592
391.738	-36.17303
391.952	12.29343
392.166	-67.77453
392.38	-4.56592
392.594	14.40096
392.808	14.40096
393.022	-59.34802
393.236	14.40096
393.449	-15.10224
393.663	10.18593
393.877	-74.09415
394.091	50.23254
394.305	-8.78052
394.518	3.86356
394.732	-0.35123
394.946	60.77252
395.16	-25.63794
395.373	8.07845
395.587	-67.77453
395.801	54.44846
396.015	-23.53085
396.228	18.61609
396.442	-0.35123
396.656	60.77252
396.869	52.34049
397.083	-8.78052
397.297	-27.74501
397.51	27.04663
397.724	43.90883
397.938	-19.31659
398.151	24.93896
398.365	79.74592
398.578	-34.06606
398.792	-38.27997
399.005	-31.95906
399.219	-17.20943
399.433	-65.66794
399.646	-80.41353
399.86	-40.38689
400.073	-21.42373
400.287	-48.81431
400.5	-50.9211
400.714	-17.20943
400.927	-4.56592
401.141	-34.06606
401.354	-12.99502
401.567	50.23254
401.781	92.39587
401.994	8.07845
402.208	35.47754
402.421	27.04663
402.635	-21.42373
402.848	37.58533
403.061	29.15432
403.275	8.07845
403.488	-55.13461
403.701	33.36978
403.915	-6.67324
404.128	-12.99502
404.341	-31.95906
404.555	-38.27997
404.768	8.07845
404.981	-21.42373
405.195	41.80097
405.408	75.52945
405.621	-59.34802
405.834	35.47754
406.048	24.93896
406.261	-50.9211
406.474	-27.74501
406.687	-12.99502
406.9	-46.70749
407.114	22.83131
407.327	18.61609
407.54	-67.77453
407.753	37.58533
407.966	3.86356
408.179	-84.62633
408.392	-4.56592
408.605	-23.53085
408.819	1.75615
409.032	18.61609
409.245	-42.49378
409.458	46.01671
409.671	12.29343
409.884	12.29343
410.097	-46.70749
410.31	-17.20943
410.523	8.07845
410.736	-59.34802
410.949	-59.34802
411.162	-15.10224
411.375	35.47754
411.588	29.15432
411.801	48.12461
412.014	-2.45859
412.227	-59.34802
412.44	12.29343
412.653	-31.95906
412.865	-4.56592
413.078	3.86356
413.291	-21.42373
413.504	-8.78052
413.717	-15.10224
413.93	12.29343
414.143	-4.56592
414.356	-8.78052
414.568	-4.56592
414.781	50.23254
414.994	-31.95906
415.207	-42.49378
415.42	50.23254
415.632	-34.06606
415.845	50.23254
416.058	-17.20943
416.271	20.72369
416.483	-15.10224
416.696	50.23254
416.909	-29.85205
417.121	24.93896
417.334	8.07845
417.547	60.77252
417.759	27.04663
417.972	20.72369
418.185	3.86356
418.397	16.50851
418.61	24.93896
418.823	-19.31659
419.035	-17.20943
419.248	39.69314
419.46	16.50851
419.673	-74.09415
419.885	-17.20943
420.098	-76.20064
420.311	-2.45859
420.523	43.90883
420.736	-76.20064
420.948	20.72369
421.161	33.36978
421.373	22.83131
421.586	-0.35123
421.798	-8.78052
422.01	-4.56592
422.223	-0.35123
422.435	-55.13461
422.648	18.61609
422.86	-2.45859
423.073	16.50851
423.285	8.07845
423.497	-50.9211
423.71	-25.63794
423.922	-40.38689
424.134	-19.31659
424.347	16.50851
424.559	-23.53085
424.771	24.93896
424.984	-31.95906
425.196	24.93896
425.408	-50.9211
425.621	1.75615
425.833	-8.78052
426.045	41.80097
426.257	27.04663
426.47	-4.56592
426.682	37.58533
426.894	3.86356
427.106	-59.34802
427.318	33.36978
427.531	60.77252
427.743	-23.53085
427.955	50.23254
428.167	71.31307
428.379	8.07845
428.591	-6.67324
428.804	24.93896
429.016	67.09678
429.228	8.07845
429.44	69.20492
429.652	10.18593
429.864	35.47754
430.076	35.47754
430.288	67.09678
430.5	-34.06606
430.712	24.93896
430.924	-29.85205
431.136	8.07845
431.348	-25.63794
431.56	-74.09415
431.772	41.80097
431.984	33.36978
432.196	8.07845
432.408	-29.85205
432.62	8.07845
432.832	33.36978
433.044	-57.24133
433.256	-17.20943
433.468	-0.35123
433.679	69.20492
433.891	8.07845
434.103	10.18593
434.315	10.18593
434.527	-69.8811
434.739	-0.35123
434.95	-21.42373
435.162	-19.31659
435.374	-0.35123
435.586	1.75615
435.798	33.36978
436.009	-6.67324
436.221	16.50851
436.433	-6.67324
436.645	27.04663
436.856	-25.63794
437.068	-17.20943
437.28	-59.34802
437.491	58.66448
437.703	39.69314
437.915	-4.56592
438.126	-38.27997
438.338	16.50851
438.55	-38.27997
438.761	31.26204
438.973	67.09678
439.184	3.86356
439.396	-15.10224
439.608	18.61609
439.819	-12.99502
440.031	60.77252
440.242	-25.63794
440.454	75.52945
440.665	-4.56592
440.877	12.29343
441.088	-42.49378
441.3	-25.63794
441.511	-25.63794
441.723	46.01671
441.934	69.20492
442.146	43.90883
442.357	33.36978
442.569	33.36978
442.78	18.61609
442.991	18.61609
443.203	16.50851
443.414	-12.99502
443.626	-59.34802
443.837	16.50851
444.048	-19.31659
444.26	33.36978
444.471	-48.81431
444.682	-10.88778
444.894	-50.9211
445.105	12.29343
445.316	-25.63794
445.528	37.58533
445.739	-42.49378
445.95	-8.78052
446.161	-25.63794
446.373	18.61609
446.584	46.01671
446.795	54.44846
447.006	1.75615
447.217	35.47754
447.429	-2.45859
447.64	48.12461
447.851	24.93896
448.062	-8.78052
448.273	5.97099
448.484	24.93896
448.695	-0.35123
448.907	33.36978
449.118	-31.95906
449.329	-17.20943
449.54	-15.10224
449.751	20.72369
449.962	43.90883
450.173	-29.85205
450.384	1.75615
450.595	-23.53085
450.806	-8.78052
451.017	37.58533
451.228	16.50851
451.439	-34.06606
451.65	14.40096
451.861	24.93896
452.072	3.86356
452.283	-50.9211
452.494	-4.56592
452.705	48.12461
452.915	1.75615
453.126	27.04663
453.337	-25.63794
453.548	1.75615
453.759	24.93896
453.97	52.34049
454.181	-15.10224
454.391	-71.98763
454.602	-12.99502
454.813	43.90883
455.024	8.07845
455.235	29.15432
455.445	-42.49378
455.656	48.12461
455.867	107.15516
456.078	1.75615
456.288	75.52945
456.499	10.18593
456.71	16.50851
456.921	12.29343
457.131	67.09678
457.342	16.50851
457.553	20.72369
457.763	107.15516
457.974	39.69314
458.184	-21.42373
458.395	8.07845
458.606	27.04663
458.816	35.47754
459.027	50.23254
459.237	58.66448
459.448	75.52945
459.659	-0.35123
459.869	43.90883
460.08	77.63768
460.29	-15.10224
460.501	-6.67324
460.711	60.77252
460.922	3.86356
461.132	20.72369
461.343	24.93896
461.553	-8.78052
461.764	24.93896
461.974	60.77252
462.184	8.07845
462.395	1.75615
462.605	33.36978
462.816	18.61609
463.026	67.09678
463.236	-46.70749
463.447	12.29343
463.657	54.44846
463.867	-53.02787
464.078	24.93896
464.288	-31.95906
464.498	71.31307
464.709	-2.45859
464.919	52.34049
465.129	-15.10224
465.339	1.75615
465.55	12.29343
465.76	111.37229
465.97	-10.88778
466.18	96.6127
466.391	8.07845
466.601	27.04663
466.811	41.80097
467.021	75.52945
467.231	-15.10224
467.441	67.09678
467.651	-0.35123
467.862	16.50851
468.072	-40.38689
468.282	-6.67324
468.492	-0.35123
468.702	8.07845
468.912	24.93896
469.122	81.85419
469.332	92.39587
469.542	60.77252
469.752	134.5681
469.962	37.58533
470.172	-8.78052
470.382	60.77252
470.592	73.42125
470.802	29.15432
471.012	41.80097
471.222	88.17913
471.432	67.09678
471.642	81.85419
471.852	58.66448
472.062	58.66448
472.272	88.17913
472.482	64.98867
472.691	124.02423
472.901	41.80097
473.111	31.26204
473.321	81.85419
473.531	168.31207
473.741	81.85419
473.95	69.20492
474.16	109.26371
474.37	62.88058
474.58	109.26371
474.79	126.13296
474.999	52.34049
475.209	33.36978
475.419	151.43941
475.628	71.31307
475.838	50.23254
476.048	140.89469
476.258	102.93811
476.467	83.96248
476.677	170.42125
476.886	140.89469
477.096	111.37229
477.306	130.35049
477.515	121.91552
477.725	176.7489
477.935	86.0708
478.144	174.63967
478.354	124.02423
478.563	168.31207
478.773	159.87558
478.982	216.8283
479.192	166.20292
479.401	155.65745
479.611	218.93794
479.82	187.2954
480.03	176.7489
480.239	195.73297
480.449	117.69816
480.658	305.44984
480.868	176.7489
481.077	252.69488
481.287	231.59621
481.496	159.87558
481.705	299.11864
481.915	237.92561
482.124	126.13296
482.333	299.11864
482.543	313.8917
482.752	235.81579
482.961	332.88694
483.171	301.22902
483.38	248.47499
483.589	294.89792
483.799	305.44984
484.008	324.44443
484.217	275.90563
484.426	364.54882
484.636	339.219
484.845	474.33885
485.054	396.21454
485.263	379.32569
485.472	372.99264
485.682	434.21827
485.891	385.65888
486.1	413.10444
486.309	406.7706
486.518	463.78027
486.727	413.10444
486.936	522.91312
487.146	527.13733
487.355	474.33885
487.564	565.15772
487.773	632.76015
487.982	567.2701
488.191	658.11436
488.4	489.12151
488.609	605.29508
488.818	539.8103
489.027	541.92251
489.236	615.85832
489.445	683.47028
489.654	605.29508
489.863	806.04598
490.072	670.79211
490.281	757.43422
490.49	609.52034
490.698	793.36416
490.907	598.95729
491.116	713.05426
491.325	670.79211
491.534	814.50072
491.743	759.54766
491.952	822.95561
492.16	863.11829
492.369	928.65334
492.578	818.72815
492.787	905.3981
492.996	977.28082
493.204	970.93789
493.413	877.91585
493.622	1150.67455
493.831	903.28403
494.039	1049.1713
494.248	928.65334
494.457	992.08121
494.665	1063.97313
494.874	1072.43144
495.083	989.96684
495.291	1034.36975
495.5	1089.34831
495.709	1247.95749
495.917	1154.90408
496.126	1228.92332
496.335	1099.92152
496.543	1220.46377
496.752	1207.77453
496.96	1186.62608
497.169	1277.56664
497.377	1419.27253
497.586	1402.35216
497.794	1353.70636
498.003	1279.6816
498.211	1417.15749
498.42	1345.24629
498.628	1503.87455
498.837	1343.13127
499.045	1520.79488
499.254	1472.14882
499.462	1537.71515
499.671	1379.08671
499.879	1654.03943
500.087	1489.06922
500.296	1531.37006
500.504	1512.33472
500.713	1632.89
500.921	1520.79488
501.129	1476.37892
501.338	1434.07789
501.546	1785.15922
501.754	1495.41436
501.962	1804.19157
502.171	1668.84387
502.379	1850.7136
502.587	1742.86394
502.795	1842.25521
503.004	1618.08527
503.212	1935.29293
503.42	1768.24129
503.628	1835.91138
503.837	1825.33822
504.045	1897.23328
504.253	1909.92003
504.461	1981.80772
504.669	1818.99427
504.877	2098.0809
505.085	1945.86473
505.294	2197.4238
505.502	1960.665
505.71	2112.87775
505.918	1793.61808
506.126	2250.25826
506.334	2030.43357
506.542	2290.40871
506.75	2112.87775
506.958	2353.7972
507.166	2108.65012
507.374	2419.28919
507.582	2138.24291
507.79	2328.44285
507.998	2112.87775
508.206	2307.31315
508.414	2273.50366
508.622	2385.48811
508.83	2224.8984
509.037	2362.24833
509.245	2155.15239
509.453	2480.54671
509.661	2326.32992
509.869	2634.70427
510.077	2360.13556
510.285	2609.36767
510.492	2463.649
510.7	2710.70323
510.908	2537.57117
511.116	2493.21952
511.324	2453.08757
511.531	2674.81689
511.739	2598.81023
511.947	2704.37062
512.155	2653.70555
512.362	2615.70199
512.57	2698.03789
512.778	2736.03251
512.985	2712.81408
513.193	2776.13328
513.401	2824.66976
513.608	2831.00007
513.816	2600.92174
514.024	2949.1423
514.231	2714.92491
514.439	2782.46453
514.646	2797.23699
514.854	2957.57929
515.061	2835.22021
515.269	3010.30501
515.477	2944.92372
515.684	3041.93588
515.892	2938.59574
516.099	3006.0873
516.307	2921.72047
516.514	3126.26775
516.722	3117.8357
516.929	3242.18207
517.136	2906.95385
517.344	3318.02597
517.551	3035.60999
517.759	3448.59347
517.966	3189.49989
518.173	3379.10627
518.381	3277.99998
518.588	3391.74174
518.796	3216.89591
519.003	3379.10627
519.21	3263.25202
519.418	3391.74174
519.625	3328.55809
519.832	3362.25799
520.039	3328.55809
520.247	3534.89882
520.454	3330.66447
520.661	3616.96548
520.868	3454.90953
521.076	3827.26075
521.283	3585.40473
521.49	3566.46627
521.697	3671.66074
521.904	3707.41607
522.112	3509.64189
522.319	3694.79718
522.526	3728.44603
522.733	3848.27956
522.94	3640.10735
523.147	3892.41258
523.354	3787.31958
523.561	3905.02039
523.768	3646.41837
523.975	3862.99154
524.183	3776.80756
524.39	4031.05843
524.597	4010.05719
524.804	3993.25472
525.011	3934.4358
525.218	3947.0412
525.425	4068.85546
525.632	3984.853
525.838	4001.65612
526.045	4020.55807
526.252	4234.66242
526.459	4352.11616
526.666	4339.53506
526.873	4396.14385
527.08	4259.83674
527.287	4331.14723
527.494	4016.35778
527.701	4398.24017
527.907	4339.53506
528.114	4517.69406
528.321	4230.4664
528.528	4324.85613
528.735	4190.59999
528.941	4226.2703
529.148	4295.49509
529.355	4523.97912
529.562	4236.7604
529.768	4565.87446
529.975	4387.75836
530.182	4706.15883
530.388	4421.29822
530.595	4526.0741
530.802	4523.97912
531.008	4584.72447
531.215	4689.41375
531.422	4877.71228
531.628	4469.50196
531.835	4823.33383
532.042	4622.41906
532.248	4890.25895
532.455	4697.78647
532.661	5024.03875
532.868	4697.78647
533.074	4881.89459
533.281	4750.10778
533.487	5224.53084
533.694	5019.85956
533.9	5186.95489
534.107	4739.64465
534.313	5149.3714
534.52	4902.80481
534.726	5092.98204
534.933	4984.33271
535.139	5082.53771
535.345	5124.31155
535.552	5180.6915
535.758	5401.87043
535.965	5303.83298
536.171	5155.63584
536.377	5510.27695
536.584	5191.13037
536.79	5499.85601
536.996	5266.27301
537.203	5370.58751
537.409	5218.2687
537.615	5431.06306
537.821	5180.6915
538.028	5618.61981
538.234	5445.65764
538.44	5449.82731
538.646	5234.96726
538.853	5560.28926
539.059	5241.22883
539.265	5778.93344
539.471	5560.28926
539.677	5712.32658
539.883	5631.1168
540.09	5724.81721
540.296	5626.95123
540.502	5924.55169
540.708	5703.99903
540.914	5857.99769
541.12	5866.31826
541.326	5893.35751
541.532	5741.47006
541.738	5949.50321
541.944	5830.95323
542.15	5974.45133
542.356	5945.34486
542.562	6124.06886
542.768	5907.91545
542.974	6173.91428
543.18	6013.94559
543.386	6153.147
543.592	6053.43135
543.798	6229.97421
544.004	6082.52068
544.21	6429.16026
544.415	6171.83765
544.621	6462.33704
544.827	6173.91428
545.033	6290.1677
545.239	6281.86632
545.445	6425.01274
545.651	6271.48907
545.856	6485.14262
546.062	6514.16385
546.268	6491.36184
546.474	6227.89822
546.679	6458.19026
546.885	6383.53245
547.091	6410.4957
547.297	6286.01705
547.502	6539.03558
547.708	6516.23662
547.914	6594.98477
548.119	6449.89644
548.325	6576.33691
548.531	6483.0695
548.736	6961.34847
548.942	6681.98342
549.147	6615.70242
549.353	6669.55753
549.559	6762.73158
549.764	6514.16385
549.97	6806.19694
550.175	6820.68316
550.381	7079.17867
550.586	6657.13081
550.792	6919.9872
550.997	6886.89166
551.203	7054.37837
551.408	6886.89166
551.614	7188.67486
551.819	7013.03737
552.025	7039.91004
552.23	6857.92831
552.435	7091.5776
552.641	7277.46561
552.846	7333.19713
553.052	7248.56147
553.257	7413.67006
553.462	7345.57974
553.668	7318.74975
553.873	7448.73765
554.078	7298.10878
554.283	7260.94949
554.489	7591.00678
554.694	7357.96157
554.899	7562.14885
555.105	7337.32475
555.31	7430.17324
555.515	7337.32475
555.72	7549.77988
555.925	7362.08867
556.131	7794.95496
556.336	7675.49529
556.541	7516.79218
556.746	7407.48101
556.951	7522.97779
557.156	7465.23788
557.361	7613.67794
557.567	7729.05492
557.772	7846.42449
557.977	7683.73616
558.182	7807.30883
558.387	7656.95209
558.592	7716.69627
558.797	7829.95565
559.002	7908.17081
559.207	7943.15215
559.412	7846.42449
559.617	7650.77064
559.822	7844.36596
560.027	7737.2936
560.232	8027.49459
560.437	7930.80647
560.642	8000.75557
560.847	7924.63336
561.051	8107.69108
561.256	7832.01433
561.461	8080.96233
561.666	7749.65099
561.871	8298.80617
562.076	7984.29909
562.281	8216.62715
562.485	8027.49459
562.69	8198.13252
562.895	7832.01433
563.1	8183.74669
563.305	8083.01851
563.509	8288.53552
563.714	8083.01851
563.919	8446.64971
564.123	8298.80617
564.328	8405.59212
564.533	8228.95602
564.737	8378.90055
564.942	8313.18427
565.147	8495.90869
565.351	8255.66612
565.556	8456.9129
565.761	8307.02235
565.965	8444.59701
566.17	7918.46006
566.374	8444.59701
566.579	8354.25928
566.784	8778.93761
566.988	8532.84573
567.193	8604.65023
567.397	8604.65023
567.602	8541.05313
567.806	8307.02235
568.011	8680.53291
568.215	8682.58344
568.42	8893.69009
568.624	8686.68445
568.828	8783.03689
569.033	8461.01805
569.237	8908.03019
569.442	8926.46618
569.646	8584.13701
569.85	8815.82851
570.055	9022.71971
570.259	8717.43963
570.463	8817.87784
570.668	8920.32101
570.872	8940.80428
571.076	8860.90944
571.281	9123.02803
571.485	9065.71408
571.689	9018.6246
571.893	8965.38187
572.098	9157.8192
572.302	8682.58344
572.506	9309.20609
572.71	9215.11158
572.914	9260.11772
573.119	9014.52943
573.323	9127.12137
573.527	9069.80839
573.731	9444.15009
573.935	9258.07216
574.139	9202.83576
574.343	9020.67217
574.547	9523.85651
574.751	9307.16093
574.955	9487.07196
575.159	9411.44293
575.364	9495.24675
575.568	9184.42089
575.772	9288.75377
575.976	9409.39859
576.18	9278.52699
576.383	9272.39071
576.587	9378.73161
576.791	9313.29635
576.995	9532.03015
577.199	9026.81474
577.403	9695.45016
577.607	9454.37023
577.811	9623.9662
578.015	9750.58205
578.219	9903.66852
578.422	9664.8165
578.626	9864.89454
578.83	9738.33148
579.034	10040.35581
579.238	9650.5196
579.442	9960.79947
579.645	9705.66061
579.849	9889.38399
580.053	9691.36587
580.257	10199.40388
580.46	9893.46536
580.664	10119.89048
580.868	10072.98802
581.071	10056.67237
581.275	9868.97627
581.479	10115.8123
581.682	9975.08043
581.886	10162.708
582.09	9958.75928
582.293	10087.26347
582.497	9889.38399
582.7	10170.86303
582.904	10154.55276
583.107	10126.00764
583.311	9993.44062
583.515	10205.51942
583.718	9946.51781
583.922	10119.89048
584.125	10181.0565
584.329	10166.78554
584.532	10201.44241
584.735	10358.36844
584.939	10150.47505
585.142	10380.77999
585.346	10205.51942
585.549	10262.59192
585.753	10368.55571
585.956	10619.06076
586.159	10423.56126
586.363	10582.41345
586.566	10297.23791
586.769	10500.96046
586.973	10460.22636
587.176	10525.39848
587.379	10637.38291
587.582	10511.14319
587.786	10810.37703
587.989	11046.32724
588.192	10682.16621
588.395	10651.63279
588.599	10710.66161
588.802	11025.99266
589.005	10749.33017
589.208	11091.05947
589.411	11042.26041
589.615	10855.13802
589.818	10960.91456
590.021	11133.75354
590.224	10785.95956
590.427	11202.86731
590.63	11070.72729
590.833	11072.76056
591.036	10633.31141
591.239	11208.965
591.442	10960.91456
591.645	10938.54132
591.848	11141.8852
592.051	11219.12761
592.254	11152.04955
592.457	11192.70428
592.66	10979.21893
592.863	11139.8523
593.066	11371.53599
593.269	11391.85283
593.472	10944.64325
593.675	11708.67221
593.878	11286.19434
594.081	11416.23175
594.284	11223.19258
594.486	11410.13715
594.689	11688.36999
594.892	11176.44289
595.095	11505.60916
595.298	11355.2818
595.5	11302.45126
595.703	11521.85761
595.906	11141.8852
596.109	11448.73478
596.311	11404.04247
596.514	11773.6334
596.717	11836.55611
596.92	11757.39394
597.122	11720.85312
597.325	11529.9816
597.528	11424.35774
597.73	11927.88114
597.933	11621.36631
598.136	11718.82299
598.338	11578.72245
598.541	11933.96889
598.743	11659.94538
598.946	11806.11067
599.148	11818.28907
599.351	11635.58003
599.554	11704.61184
599.756	11960.34825
599.959	11755.36397
600.161	11869.02917
600.363	12053.67978
600.566	12138.88113
600.768	11899.47071
600.971	12015.13183
601.173	12065.85223
601.376	12591.04831
601.578	12222.04107
601.78	12106.42506
601.983	11976.58103
602.185	12059.76604
602.388	12252.46237
602.59	12155.10844
602.792	12230.15358
602.995	12213.92845
603.197	12114.53926
603.399	12266.65842
603.601	12264.63043
603.804	12382.24199
604.006	12293.02158
604.208	12220.01293
604.41	12151.05165
604.613	12260.57444
604.815	12284.90997
605.017	12615.37087
605.219	12589.02139
605.421	12272.74233
605.623	12368.04873
605.826	12487.66737
606.028	12232.18168
606.23	12343.71664
606.432	12428.87466
606.634	12840.31413
606.836	12335.60572
607.038	12526.18377
607.24	12627.53182
607.442	12755.20882
607.644	12465.36734
607.846	12826.13059
608.048	12593.07522
608.25	12820.05185
608.452	12398.46245
608.654	12734.94418
608.856	12469.42195
609.058	12990.23835
609.26	12615.37087
609.462	12651.85306
609.664	12540.37344
609.866	12511.99379
610.067	12467.39465
610.269	12809.9205
610.471	12534.29219
610.673	12716.70551
610.875	12635.639
611.077	12534.29219
611.278	12694.41316
611.48	12813.97306
611.682	12499.8307
611.884	12899.07166
612.085	12724.81164
612.287	12734.94418
612.489	12666.04005
612.69	12919.33183
612.892	12860.57586
613.094	12775.47288
613.295	12716.70551
613.497	12840.31413
613.699	12633.61221
613.9	13038.85636
614.102	12761.2881
614.304	13046.95909
614.505	12822.0781
614.707	13265.70418
614.908	12805.86793
615.11	12933.51364
615.311	12712.65241
615.513	12698.46637
615.714	12846.3927
615.916	12657.93324
616.117	12597.12903
616.319	12708.59928
616.52	12957.82472
616.722	13103.67599
616.923	13038.85636
617.124	12834.2355
617.326	12763.31451
617.527	12803.84163
617.729	12714.67896
617.93	12935.5396
618.131	13221.14929
618.333	13182.66835
618.534	13213.04817
618.735	13164.43997
618.937	13362.90767
619.138	12998.34155
619.339	13028.72785
619.54	13300.13152
619.742	12890.96744
619.943	12963.90238
620.144	12949.72111
620.345	13387.20706
620.546	13028.72785
620.748	13441.8786
620.949	13067.21556
621.15	13510.72026
621.351	13352.78275
621.552	13395.30673
621.753	13190.76974
621.954	13298.10641
622.155	13322.40738
622.356	13682.8063
622.558	13360.88269
622.759	13431.75445
622.96	13211.02288
623.161	13389.23198
623.362	13265.70418
623.563	13676.73309
623.764	13419.60535
623.965	13654.46441
624.166	13287.98083
624.366	13259.62863
624.567	13342.65773
624.768	13326.45748
624.969	13067.21556
625.17	13690.90387
625.371	13273.80484
625.572	13079.36921
625.773	13172.54152
625.973	13543.11486
626.174	13277.85514
626.375	13476.29998
626.576	13403.40633
626.777	13518.819
626.977	13211.02288
627.178	13532.99165
627.379	13468.20093
627.58	13648.39106
627.78	13749.6097
627.981	13796.16766
628.182	13640.29322
628.382	13419.60535
628.583	13650.41552
628.784	13873.0861
628.984	13328.48253
629.185	13773.90101
629.386	13433.77929
629.586	13701.02575
629.787	13723.29362
629.987	13897.37529
630.188	13563.36102
630.388	13650.41552
630.589	13662.56216
630.79	13688.87948
630.99	13332.53261
631.191	13771.87675
631.391	13719.24494
631.591	13808.31295
631.792	13366.95761
631.992	13654.46441
632.193	13737.46388
632.393	13950.00055
632.594	13429.72961
632.794	13850.82066
632.994	13686.85509
633.195	13666.61101
633.395	13992.50428
633.595	13794.14343
633.796	13978.33649
633.996	13879.15844
634.196	13802.24032
634.397	13919.64004
634.597	13674.70868
634.797	13958.09658
634.997	13583.60682
635.198	14020.83949
635.398	13622.07288
635.598	14231.31567
635.798	14205.0074
635.998	13790.09497
636.199	13879.15844
636.399	13994.52824
636.599	13828.55488
636.799	13958.09658
636.999	13539.06559
637.199	13731.39093
637.399	13947.97653
637.599	13735.43957
637.799	13557.28721
637.999	14247.50521
638.199	13947.97653
638.399	14227.26827
638.599	13990.48032
638.799	14346.66362
638.999	14259.64729
639.199	14459.98263
639.399	13992.50428
639.599	14111.91381
639.799	13567.4102
639.999	14093.69932
640.199	13958.09658
640.399	14245.48153
640.599	13537.04095
640.799	14423.55918
640.998	14188.81752
641.198	14166.55623
641.398	14148.34227
641.598	14488.31165
641.798	14277.86029
641.997	14344.64002
642.197	13907.49567
642.397	14304.16768
642.597	14217.14972
642.796	14338.56921
642.996	14207.03112
643.196	14433.67685
643.395	14366.89952
643.595	14449.86505
643.795	14140.24711
643.994	14346.66362
644.194	14573.29717
644.394	14765.51915
644.593	14490.33514
644.793	14619.83596
644.992	14273.81297
645.192	14615.78914
645.392	14587.46122
645.591	14698.74828
645.791	14787.77591
645.99	14698.74828
646.19	14211.07857
646.389	14895.01188
646.589	14346.66362
646.788	14287.97855
646.987	14494.38212
647.187	14818.1259
647.386	14464.02965
647.586	14725.05207
647.785	14577.34405
647.984	14662.3274
648.184	14613.76572
648.383	14937.50117
648.582	14909.175
648.782	14692.67816
648.981	14496.40561
649.18	14508.5465
649.38	14739.21559
649.579	14919.2915
649.778	14822.17255
649.977	14996.17654
650.177	14793.84592
650.376	14911.1983
650.575	14387.13525
650.774	14512.59346
650.973	14763.4958
651.173	14828.24252
651.372	14680.53788
651.571	15028.54904
651.77	14830.26585
651.969	14850.49905
652.168	14793.84592
652.367	14700.77166
652.566	14761.47246
652.765	15111.50331
652.964	15289.55128
653.163	15342.15658
653.362	15042.71199
653.561	14949.64093
653.76	14866.68556
653.959	15291.57455
654.158	15277.41161
654.357	14921.3148
654.556	15018.43265
654.755	14901.08179
654.954	14925.36139
655.153	15139.82911
655.352	15267.29524
655.551	15382.62235
655.749	15196.48069
655.948	15271.34179
656.147	15423.08828
656.346	15228.85303
656.545	15151.96873
656.743	15445.34462
656.942	15139.82911
657.141	15188.3876
657.34	15208.62031
657.538	15451.41454
657.737	15056.87493
657.936	15408.92519
658.135	14814.07924
658.333	15081.15422
658.532	14939.52446
658.731	14992.12998
658.929	15156.01527
659.128	15190.41087
659.326	15143.87565
659.525	15449.39123
659.724	15048.78182
659.922	15410.94848
660.121	15095.31714
660.319	15245.03922
660.518	15046.75855
660.716	15431.18149
660.915	15267.29524
661.113	15657.79523
661.312	15350.24973
661.51	15591.02419
661.709	15435.22809
661.907	15591.02419
662.105	15224.80649
662.304	15688.14601
662.502	15178.27125
662.701	15653.74848
662.899	15166.13163
663.097	15368.45932
663.296	15338.11002
663.494	15574.8374
663.692	15360.36616
663.891	15530.32397
664.089	15350.24973
664.287	15469.62433
664.485	15491.8808
664.684	15730.63744
664.882	15400.832
665.08	15580.90744
665.278	15633.51475
665.476	15580.90744
665.675	15499.97408
665.873	15305.73751
666.071	15508.06737
666.269	15690.1694
666.467	15192.43415
666.665	15463.55439
666.863	15218.73667
667.061	15394.76211
667.259	14882.87204
667.457	15327.9936
667.655	15202.5505
667.853	15461.53108
668.051	15186.36433
668.249	15576.86075
668.447	15536.39396
668.645	15289.55128
668.843	14860.61562
669.041	15601.14096
669.239	14967.85054
669.437	15153.992
669.635	15429.15818
669.833	15457.48446
670.031	15036.64216
670.229	15275.38834
670.426	15461.53108
670.624	15524.25398
670.822	15469.62433
671.02	15479.7409
671.218	15289.55128
671.415	15526.27731
671.613	15631.49138
671.811	15473.67096
672.009	15283.48144
672.206	15629.46802
672.404	15378.57577
672.602	15589.00084
672.799	15234.92285
672.997	15631.49138
673.195	15639.58486
673.392	15307.76079
673.59	15368.45932
673.788	15131.73603
673.985	15285.50472
674.183	15489.85748
674.38	15441.29801
674.578	15497.95076
674.775	15273.36506
674.973	15317.87719
675.17	15354.2963
675.368	15508.06737
675.565	15449.39123
675.763	15427.13488
675.96	15259.20214
676.158	15358.34287
676.355	15095.31714
676.553	15578.8841
676.75	15111.50331
676.947	15872.27888
677.145	15516.16067
677.342	15406.90189
677.539	15263.24868
677.737	15190.41087
677.934	14967.85054
678.131	15143.87565
678.329	15200.52723
678.526	15378.57577
678.723	15425.11158
678.92	15771.10588
679.118	15487.83416
679.315	15657.79523
679.512	15356.31959
679.709	15586.97749
679.906	15020.45593
680.104	15374.52919
680.301	15236.94612
680.498	15362.38945
680.695	14973.9204
680.892	15243.01594
681.089	15097.34041
681.286	15400.832
681.483	15022.47921
681.68	15410.94848
681.877	15421.06498
682.075	15390.71552
682.272	15028.54904
682.469	15362.38945
682.665	15245.03922
682.862	15313.83063
683.059	15168.1549
683.256	15194.45742
683.453	15016.40936
683.65	15121.61967
683.847	15253.13231
684.044	15605.18767
684.241	15309.78407
684.438	15238.9694
684.635	15016.40936
684.831	15459.50777
685.028	15299.66767
685.225	15083.1775
685.422	15030.57232
685.619	15040.68871
685.815	14826.2192
686.012	15093.29386
686.209	15158.03855
686.405	15230.87631
686.602	14986.06012
686.799	15259.20214
686.996	15313.83063
687.192	15085.20077
687.389	14888.94196
687.586	14909.175
687.782	15172.20144
687.979	15382.62235
688.175	14882.87204
688.372	15052.82837
688.568	15380.59906
688.765	15214.69013
688.962	15071.03785
689.158	15198.50396
689.355	15160.06182
689.551	14905.1284
689.748	14747.309
689.944	14836.33581
690.14	14712.91188
690.337	14822.17255
690.533	15297.64439
690.73	14931.43128
690.926	14949.64093
691.123	14642.09344
691.319	14975.94369
691.515	15435.22809
691.712	14888.94196
691.908	15113.52658
692.104	15172.20144
692.301	14828.24252
692.497	14660.30401
692.693	14868.70887
692.889	14777.65921
693.086	14870.73219
693.282	15149.94546
693.478	15075.0844
693.674	14925.36139
693.87	14714.93525
694.067	14882.87204
694.263	14805.98592
694.459	15058.8982
694.655	15089.24732
694.851	14793.84592
695.047	14878.82543
695.243	15091.27059
695.439	14947.61763
695.635	14971.89712
695.831	14731.12215
696.027	14676.49111
696.224	14577.34405
696.42	14619.83596
696.615	14943.57105
696.811	14476.17067
697.007	14725.05207
697.203	14271.78931
697.399	14613.76572
697.595	14684.58464
697.791	14743.2623
697.987	14658.28062
698.183	14850.49905
698.379	14767.5425
698.575	14945.59434
698.77	14890.96527
698.966	14870.73219
699.162	14765.51915
699.358	14868.70887
699.554	14627.92961
699.749	14994.15326
699.945	14544.96891
700.141	14476.17067
700.337	14708.86514
700.532	14739.21559
700.728	14346.66362
700.924	14652.21043
701.119	14229.29197
701.315	14298.09677
701.511	14180.72254
701.706	14670.42096
701.902	14322.38032
702.097	14565.20341
702.293	14538.89854
702.489	14575.32061
702.684	14429.62979
702.88	14449.86505
703.075	14666.37418
703.271	14462.00614
703.466	14765.51915
703.662	14603.64863
703.857	14658.28062
704.053	14451.88857
704.248	14389.15882
704.443	14613.76572
704.639	14714.93525
704.834	14712.91188
705.03	14362.85235
705.225	14636.02323
705.42	14522.71082
705.616	14799.91592
705.811	14508.5465
706.006	14710.88851
706.202	14514.61693
706.397	14553.06273
706.592	14741.23894
706.787	14828.24252
706.983	14557.10962
707.178	14528.78123
707.373	14281.9076
707.568	14451.88857
707.763	14184.77003
707.959	14508.5465
708.154	14243.45784
708.349	14188.81752
708.544	14510.56998
708.739	14447.84153
708.934	14488.31165
709.129	14277.86029
709.324	14397.25306
709.519	14389.15882
709.714	14267.74198
709.909	14164.53247
710.104	14101.79467
710.299	14039.05473
710.494	14290.0022
710.689	14516.64041
710.884	14660.30401
711.079	14407.37083
711.274	14259.64729
711.469	14739.21559
711.664	14425.58272
711.859	14425.58272
712.054	14237.38676
712.249	14348.68722
712.443	14391.18238
712.638	14680.53788
712.833	14346.66362
713.028	14506.52303
713.223	14168.58
713.417	14368.9231
713.612	14213.10229
713.807	14257.62362
714.002	14213.10229
714.196	14360.82876
714.391	14379.04098
714.586	14348.68722
714.78	13937.85642
714.975	14490.33514
715.17	14113.93763
715.364	14043.10254
715.559	14387.13525
715.754	14004.648
715.948	14207.03112
716.143	14253.57626
716.337	14002.62405
716.532	14366.89952
716.726	14071.43691
716.921	14271.78931
717.115	14310.23858
717.31	14298.09677
717.504	14237.38676
717.699	14217.14972
717.893	14111.91381
718.088	14182.74629
718.282	14292.02584
718.476	14322.38032
718.671	13945.95251
718.865	14225.24456
719.059	13941.90447
719.254	13717.2206
719.448	13703.05012
719.642	13945.95251
719.837	13624.09738
720.031	14018.81556
720.225	13767.82822
720.419	14150.36605
720.614	13788.07074
720.808	13990.48032
721.002	13611.95036
721.196	13551.21337
721.39	13763.77968
721.585	13943.92849
721.779	13747.58541
721.973	13707.09885
722.167	13223.17456
722.361	13411.50587
722.555	13561.33642
722.749	13545.13949
722.943	13476.29998
723.137	13763.77968
723.331	13654.46441
723.525	13838.67573
723.719	13593.72959
723.913	13899.39937
724.107	13405.43122
724.301	13901.42345
724.495	13607.90132
724.689	13792.1192
724.883	13358.85771
725.077	13739.48819
725.271	13591.70504
725.465	13334.55764
725.659	13233.30083
725.853	13680.7819
726.046	13723.29362
726.24	13615.99938
726.434	13377.08238
726.628	13569.43479
726.822	13449.97785
727.015	13555.2626
727.209	13379.10733
727.403	13626.12187
727.596	13502.62147
727.79	13856.89309
727.984	13611.95036
728.177	13994.52824
728.371	14000.6001
728.565	13919.64004
728.758	13443.90342
728.952	13721.26928
729.146	13591.70504
729.339	13905.4716
729.533	13818.43395
729.726	13871.06198
729.92	13476.29998
730.113	13549.18875
730.307	13478.32473
730.5	13419.60535
730.694	13204.94699
730.887	13427.70477
731.081	13537.04095
731.274	13694.95263
731.468	13488.44844
731.661	13421.63021
731.854	13332.53261
732.048	13526.91768
732.241	13073.29241
732.435	13535.0163
732.628	13403.40633
732.821	13447.95304
733.014	13508.69557
733.208	13300.13152
733.401	13249.50264
733.594	13464.15138
733.788	13478.32473
733.981	13484.39896
734.174	14020.83949
734.367	13609.92584
734.56	13537.04095
734.754	13539.06559
734.947	13443.90342
735.14	13587.65594
735.333	13561.33642
735.526	13421.63021
735.719	12892.9935
735.912	13105.70152
736.105	13342.65773
736.298	13227.22508
736.491	12779.52563
736.684	13095.5738
736.877	13190.76974
737.07	13308.23189
737.263	13184.6937
737.456	13081.3948
737.649	12957.82472
737.842	13091.52268
738.035	13152.28751
738.228	13105.70152
738.421	13338.60769
738.614	13257.60344
738.807	13164.43997
739	13308.23189
739.192	13437.82895
739.385	13545.13949
739.578	13275.82999
739.771	13581.58225
739.964	13510.72026
740.156	13379.10733
740.349	13127.98208
740.542	13148.23665
740.735	12976.05755
740.927	13164.43997
741.12	13103.67599
741.313	12680.22675
741.505	12961.8765
741.698	12992.26416
741.891	12965.92825
742.083	13170.51614
742.276	13113.80361
742.468	12864.62814
742.661	12986.18672
742.854	12755.20882
743.046	12716.70551
743.239	13002.39312
743.431	13087.47154
743.624	13200.89637
743.816	13261.65382
744.009	13225.19982
744.201	13105.70152
744.393	12815.99933
744.586	12777.49926
744.778	13083.42039
744.971	12917.30584
745.163	13160.38917
745.355	12965.92825
745.548	12856.52356
745.74	12880.83705
745.932	13055.06174
746.125	12895.01956
746.317	12994.28996
746.509	13083.42039
746.702	13188.7444
746.894	13192.79507
747.086	12931.48769
747.278	12990.23835
747.471	12730.89118
747.663	12514.02095
747.855	12726.83816
748.047	12994.28996
748.239	13071.26679
748.431	12998.34155
748.623	12994.28996
748.815	12919.33183
749.008	13294.05619
749.2	13269.75452
749.392	13198.87105
749.584	12951.74702
749.776	13391.2569
749.968	12838.28792
750.16	13099.62491
750.352	12805.86793
750.544	12980.10923
750.736	12866.65427
750.928	13277.85514
751.12	12844.36652
751.311	12550.50872
751.503	12546.45463
751.695	12503.88508
751.887	12501.85789
752.079	12672.1201
752.271	12489.69461
752.463	12783.57835
752.654	12704.54613
752.846	12629.55862
753.038	12550.50872
753.23	12558.61684
753.421	12641.71932
753.613	12463.34002
753.805	12586.99446
753.997	12576.85974
754.188	12497.80349
754.38	12781.55199
754.572	12743.0501
754.763	12686.30668
754.955	12380.2144
755.146	12536.31928
755.338	12325.46692
755.53	12621.45137
755.721	12700.49296
755.913	12566.72486
756.104	12351.82744
756.296	12175.3919
756.487	12171.33527
756.679	12645.77283
756.87	12197.70286
757.062	12534.29219
757.253	12424.81979
757.445	12345.74435
757.636	12609.29031
757.827	12813.97306
758.019	12560.64386
758.21	12390.35228
758.401	12576.85974
758.593	12416.70996
758.784	12295.04947
758.975	12086.13903
759.167	12069.90965
759.358	12173.36359
759.549	11929.9104
759.74	12122.65333
759.932	11856.85202
760.123	11834.52648
760.314	11968.46471
760.505	11994.84229
760.696	11915.70544
760.888	12100.33933
761.079	11905.5588
761.27	11954.26083
761.461	11607.15214
761.652	11964.4065
761.843	11749.274
762.034	11986.72626
762.225	11984.69723
762.416	12090.19629
762.607	11615.27458
762.798	11958.31912
762.989	11558.41442
763.18	11814.22964
763.371	11846.70417
763.562	11655.88458
763.753	11761.45386
763.944	11982.66819
764.135	12090.19629
764.326	12049.62223
764.517	11996.87128
764.708	12142.938
764.899	11538.10545
765.089	11552.32182
765.28	11670.09723
765.471	11724.91335
765.662	11720.85312
765.853	11629.48849
766.043	11383.72621
766.234	11402.01089
766.425	11353.24998
766.615	11446.70342
766.806	11330.89932
766.997	11442.64065
767.187	11241.48443
767.378	11694.46075
767.569	11359.3454
767.759	11566.53774
767.95	11607.15214
768.141	11471.07918
768.331	11111.39057
768.522	11625.42742
768.712	11501.54695
768.903	11402.01089
769.093	11156.11521
769.284	11176.44289
769.474	10973.11758
769.665	11271.969
769.855	11172.37744
770.046	11239.45204
770.236	10948.71114
770.426	11091.05947
770.617	11294.32288
770.807	11198.80213
770.998	11296.35499
771.188	11263.84
771.378	11101.22516
771.569	10936.50732
771.759	11070.72729
771.949	10757.47037
772.139	11271.969
772.33	10851.06907
772.52	10889.72221
772.71	10924.30309
772.9	10857.17248
773.09	10905.99598
773.281	10903.9618
773.471	10946.6772
773.661	10895.82496
773.851	10635.34717
774.041	10614.98904
774.231	10924.30309
774.421	10657.73969
774.611	10741.18978
774.802	10612.95316
774.992	10938.54132
775.182	10515.2162
775.372	10635.34717
775.562	10598.70164
775.752	10439.85737
775.942	10360.40592
776.131	10256.47752
776.321	10209.59638
776.511	10541.68948
776.701	10319.65383
776.891	10519.28915
777.081	10431.70942
777.271	10741.18978
777.461	10439.85737
777.651	10519.28915
777.84	10276.85839
778.03	10407.26431
778.22	10378.74264
778.41	10572.23293
778.599	10227.94204
778.789	10384.85464
778.979	10633.31141
779.169	10393.0038
779.358	10270.74427
779.548	10384.85464
779.738	10315.57833
779.927	10146.39729
780.117	10062.79084
780.307	10183.09515
780.496	10089.30276
780.686	10378.74264
780.875	10007.71996
781.065	10048.5142
781.254	10193.28821
781.444	10403.18994
781.633	9893.46536
781.823	10450.04203
782.012	10176.97915
782.202	10068.90919
782.391	10032.19719
782.581	9926.11419
782.77	9864.89454
782.96	9901.62792
783.149	9666.85885
783.338	9656.64694
783.528	9619.88083
783.717	9962.83965
783.906	9858.77185
784.096	9922.03329
784.285	9626.00886
784.474	9838.3619
784.663	9507.50846
784.853	9713.8287
785.042	9758.7488
785.231	9856.73092
785.42	9873.05793
785.61	9607.62434
785.799	9507.50846
785.988	9926.11419
786.177	9605.58154
786.366	9636.22194
786.555	9517.72611
786.744	9260.11772
786.933	9366.46378
787.122	9448.23819
787.312	9309.20609
787.501	9380.77619
787.69	9168.05096
787.879	9395.08779
788.068	9323.52173
788.257	9241.7071
788.445	8785.0865
788.634	9482.98447
788.823	9157.8192
789.012	9666.85885
789.201	9468.67774
789.39	9178.2823
789.579	9419.62011
789.768	9525.89994
789.957	9249.88977
790.145	9536.11687
790.334	9599.45303
790.523	9305.11576
790.712	9456.41421
790.9	9341.92635
791.089	9272.39071
791.278	9329.65675
791.467	9217.15749
791.655	9245.79847
791.844	9227.38679
792.033	9047.28886
792.221	9110.74761
792.41	9225.34096
792.599	8776.88794
792.787	9270.34526
792.976	9010.43419
793.164	9368.50846
793.353	8801.48275
793.541	9123.02803
793.73	8854.76255
793.918	9217.15749
794.107	8729.74055
794.295	8948.9971
794.484	9014.52943
794.672	9000.19577
794.861	8834.27176
795.049	9047.28886
795.238	8832.22259
795.426	9067.76124
795.614	8944.90072
795.803	8860.90944
795.991	8715.38942
796.179	8998.14804
796.368	8694.88624
796.556	8793.28477
796.744	8600.54774
796.932	9043.19418
797.121	8522.58606
797.309	8690.78538
797.497	8770.73883
797.685	8881.39788
797.874	8619.00837
798.062	8580.03414
798.25	8510.27383
798.438	8580.03414
798.626	8612.855
798.814	8787.13609
799.002	8518.48206
799.19	8526.68999
799.378	8378.90055
799.566	8539.00131
799.755	8481.54263
799.943	8440.49156
800.131	8243.33879
800.318	8426.12188
800.506	8471.28058
800.694	8461.01805
800.882	8497.96091
801.07	8547.20848
801.258	8524.63803
801.446	8614.90614
801.634	8321.3999
801.822	8524.63803
802.01	8278.26437
802.197	8805.58163
802.385	8584.13701
802.573	8395.32652
802.761	8395.32652
802.949	8655.9251
803.136	8471.28058
803.324	8553.36366
803.512	8660.02659
803.699	8633.3656
803.887	8848.6155
804.075	8998.14804
804.262	8463.07059
804.45	8592.34253
804.638	8487.69963
804.825	8592.34253
805.013	8405.59212
805.201	8514.37798
805.388	8500.01311
805.576	8448.70239
805.763	8360.41986
805.951	8610.80383
806.138	8346.0449
806.326	8405.59212
806.513	8282.37289
806.701	8323.45375
806.888	8280.31864
807.075	8621.05946
807.263	8177.58104
807.45	8604.65023
807.638	8257.7206
807.825	8805.58163
808.012	8307.02235
808.2	8639.51841
808.387	8657.97586
808.574	8479.49025
808.761	8485.64731
808.949	8567.72509
809.136	8504.11746
809.323	8520.53407
809.51	8571.82818
809.698	8780.98726
809.885	8633.3656
810.072	8780.98726
810.259	8329.61521
810.446	8637.46749
810.633	8428.17474
810.82	8643.6202
811.008	8534.89761
811.195	8645.67106
811.382	8405.59212
811.569	8717.43963
811.756	8549.26023
811.943	8858.86049
812.13	8797.3838
812.317	8592.34253
812.504	8343.99126
812.691	8729.74055
812.878	8586.18842
813.064	8819.92714
813.251	8653.87433
813.438	8553.36366
813.625	8395.32652
813.812	8389.16693
813.999	8329.61521
814.186	8780.98726
814.372	8374.79387
814.559	8592.34253
814.746	8206.35255
814.933	8596.44517
815.12	8512.32592
815.306	8502.06529
815.493	8485.64731
815.68	8602.599
815.866	8649.77273
816.053	8639.51841
816.24	8625.16158
816.426	8709.23866
816.613	8467.17562
816.799	8403.53904
816.986	8616.95727
817.173	8789.18567
817.359	8419.96315
817.546	8577.98268
817.732	8424.06899
817.919	8575.9312
818.105	8284.42712
818.292	8411.75125
818.478	8267.99273
818.665	8413.80425
818.851	8333.72275
819.037	8465.12312
819.224	7877.29997
819.41	8612.855
819.597	8424.06899
819.783	8502.06529
819.969	8469.22811
820.156	8731.79064
820.342	8411.75125
820.528	8590.29118
820.714	8189.91216
820.901	8612.855
821.087	8335.77649
821.273	8662.07731
821.459	8475.38545
821.646	8676.4318
821.832	8452.80768
822.018	8744.09078
822.204	8502.06529
822.39	8479.49025
822.576	8475.38545
822.762	8343.99126
822.948	8243.33879
823.134	8403.53904
823.32	8169.35989
823.507	8231.01076
823.693	8165.24919
823.879	8313.18427
824.065	8043.94766
824.25	8076.84991
824.436	7947.26721
824.622	8148.80562
824.808	7992.52749
824.994	8134.41644
825.18	8046.0042
825.366	8078.90613
825.552	7605.43418
825.738	8148.80562
825.923	7945.20969
826.109	8107.69108
826.295	8041.89109
826.481	8165.24919
826.667	8002.81254
826.852	7881.41635
827.038	7871.12525
827.224	8025.43786
827.409	7871.12525
827.595	7877.29997
827.781	7654.89163
827.966	7766.12633
828.152	7430.17324
828.338	7720.8159
828.523	7580.70086
828.709	7735.23396
828.894	7593.0679
829.08	7531.22498
829.266	7525.03962
829.451	7827.89696
829.637	7547.71831
829.822	7417.79599
830.008	7481.73672
830.193	7578.63961
830.378	7318.74975
830.564	7823.7795
830.749	7584.82329
830.935	7813.48549
831.12	7442.54971
831.305	7646.64957
831.491	7423.98471
831.676	7599.25114
831.861	7366.21568
832.047	7423.98471
832.232	7225.84805
832.417	7601.31218
832.602	7423.98471
832.788	7638.40717
832.973	7450.80025
833.158	7673.43502
833.343	7384.78616
833.528	7539.47181
833.714	7522.97779
833.899	7440.48702
834.084	7211.39266
834.269	7407.48101
834.454	7170.08557
834.639	7324.94162
834.824	7093.64402
835.009	7196.93619
835.194	7242.36717
835.379	7533.28672
835.564	7360.02513
835.749	7698.15687
835.934	7357.96157
836.119	7333.19713
836.304	7244.43196
836.489	7572.45574
836.674	7170.08557
836.859	7456.98794
837.044	7331.13328
837.228	7393.03914
837.413	7186.60947
837.598	7196.93619
837.783	6969.61964
837.968	7252.6909
838.152	6857.92831
838.337	7168.01998
838.522	6893.09752
838.707	7077.1121
838.891	7070.91226
839.076	6988.22846
839.261	6853.79032
839.445	6760.66155
839.63	6563.90397
839.815	7029.57485
839.999	6986.1609
840.184	6969.61964
840.368	6779.291
840.553	7062.64549
840.737	6688.19606
840.922	6812.40546
841.106	6555.61487
841.291	6729.60835
841.475	6559.75947
841.66	6820.68316
841.844	6404.27376
842.029	6679.91249
842.213	6456.11684
842.397	6768.94153
842.582	6395.97752
842.766	6557.68718
842.951	6215.44179
843.135	6497.58085
843.319	6286.01705
843.504	6505.87254
843.688	6659.20199
843.872	6729.60835
844.056	6507.9454
844.241	6634.34634
844.425	6673.69958
844.609	6623.98884
844.793	6594.98477
844.977	6497.58085
845.161	6136.53148
845.346	6371.08655
845.53	6236.20203
845.714	6630.20341
845.898	6414.64354
846.082	6605.34389
846.266	6456.11684
846.45	6472.70356
846.634	6342.04284
846.818	6398.05161
847.002	6342.04284
847.186	6632.27488
847.37	6476.85001
847.554	6771.01147
847.738	6539.03558
847.922	6773.08139
848.106	6379.38391
848.29	6547.32541
848.473	6252.80854
848.657	6248.65705
848.841	6022.25909
849.025	5997.31747
849.209	5986.92412
849.392	6225.82221
849.576	5980.68784
849.76	5907.91545
849.944	6092.9086
850.127	6016.024
850.311	5874.63846
850.495	6032.65043
850.678	5791.41954
850.862	6140.6855
851.046	5822.63106
851.229	5716.49022
851.413	5866.31826
851.596	6007.71022
851.78	5799.74313
851.964	5961.9777
852.147	5687.34278
852.331	5882.95827
852.514	5766.4465
852.698	6148.99326
852.881	5741.47006
853.065	5718.572
853.248	5516.52923
853.431	5595.70644
853.615	5353.90113
853.798	5774.77122
853.982	5389.3579
854.165	5601.95582
854.348	5512.36107
854.532	5895.43729
854.715	5343.47138
854.898	5658.19072
855.081	5282.96727
855.265	5460.25107
855.448	5414.38212
855.631	5699.83511
855.814	5499.85601
855.997	5724.81721
856.181	5460.25107
856.364	5595.70644
856.547	5493.60316
856.73	5589.45684
856.913	5328.86874
857.096	5487.3501
857.279	5358.07286
857.462	5426.89296
857.645	5166.07611
857.828	5560.28926
858.011	5368.50179
858.194	5428.97802
858.377	5310.09223
858.56	5385.18686
858.743	5124.31155
858.926	5266.27301
859.109	5124.31155
859.292	5163.9881
859.475	5065.82557
859.658	5174.4279
859.841	4837.9757
860.023	5007.32143
860.206	4835.88407
860.389	4909.07742
860.572	4831.70075
860.755	4973.88237
860.937	4691.50696
861.12	4902.80481
861.303	4565.87446
861.486	4817.0584
861.668	4685.22725
861.851	4588.91311
862.034	4580.53573
862.216	4835.88407
862.399	4547.02266
862.581	4921.62204
862.764	4450.64101
862.947	4831.70075
863.129	4622.41906
863.312	4605.6668
863.494	4737.55195
863.677	4748.0152
863.859	4645.45107
864.042	4936.25638
864.224	4484.17035
864.406	4653.82568
864.589	4398.24017
864.771	4729.18095
864.954	4473.69304
865.136	4660.1064
865.318	4370.98634
865.501	4578.44133
865.683	4364.69647
865.865	4584.72447
866.048	4219.97598
866.23	4574.25247
866.412	4308.07891
866.594	4421.29822
866.777	4272.42275
866.959	4259.83674
867.141	4224.17222
867.323	4173.81184
867.505	3959.64586
867.687	4314.37053
867.869	4117.14189
868.052	4588.91311
868.234	3970.14919
868.416	4316.46769
868.598	4404.52899
868.78	4387.75836
868.962	4236.7604
869.144	4519.7891
869.326	4125.5384
869.508	4345.8257
869.69	4312.27334
869.872	4433.87423
870.054	4047.85794
870.236	4253.54345
870.417	4238.85836
870.599	4278.71546
870.781	4318.56483
870.963	4433.87423
871.145	4274.52034
871.327	4301.7871
871.508	4077.25389
871.69	4257.739
871.872	4142.33042
872.054	4205.28851
872.235	4010.05719
872.417	3984.853
872.599	3936.53675
872.78	4123.43931
872.962	4052.05761
873.144	4068.85546
873.325	4049.95778
873.507	4228.36836
873.689	4018.45793
873.87	4341.63196
874.052	4222.07411
874.233	4136.03357
874.415	4014.2576
874.596	4169.61459
874.778	3816.7506
874.959	4045.75807
875.141	3900.81786
875.322	4182.20608
875.503	3921.82968
875.685	4305.98166
875.866	4140.23149
876.048	3919.72859
876.229	3738.96028
876.41	3753.67942
876.592	3768.3976
876.773	4175.91043
876.954	3701.10671
877.136	3766.29506
877.317	3682.17759
877.498	3921.82968
877.679	3656.93636
877.86	4173.81184
878.042	3686.3842
878.223	4068.85546
878.404	3844.07595
878.585	3902.91914
878.766	3806.23997
878.947	4175.91043
879.128	3852.48308
879.309	3892.41258
879.49	3703.20985
879.672	4102.44719
879.853	3659.0399
880.034	3858.78822
880.215	3770.50012
880.396	4070.9551
880.576	3707.41607
880.757	3968.04857
880.938	3749.47404
881.119	4169.61459
881.3	3650.62562
881.481	4190.59999
881.662	3841.97412
881.843	4232.56442
882.023	3940.73859
882.204	4087.75146
882.385	3976.45094
882.566	4089.85091
882.747	3972.2498
882.927	4182.20608
883.108	3825.15876
883.289	4121.34019
883.469	3888.20981
883.65	4144.42933
883.831	3968.04857
884.011	4494.64712
884.192	4125.5384
884.373	4253.54345
884.553	3926.0318
884.734	4261.93446
884.914	4028.9584
885.095	4299.68978
885.275	4043.65818
885.456	4335.34118
885.636	4289.20289
885.817	4108.74504
885.997	4043.65818
886.178	4287.10545
886.358	4054.15741
886.538	4282.9105
886.719	4112.94351
886.899	4219.97598
887.08	4144.42933
887.26	4209.48503
887.44	3997.45546
887.621	4278.71546
887.801	4081.45298
887.981	4297.59245
888.161	4194.79681
888.342	4115.04271
888.522	4173.81184
888.702	4207.38678
888.882	4131.83557
889.062	4257.739
889.242	4152.82475
889.423	4152.82475
889.603	4052.05761
889.783	4295.49509
889.963	4077.25389
890.143	4440.16193
890.323	4005.8567
890.503	4337.43813
890.683	4010.05719
890.863	4312.27334
891.043	3949.14203
891.223	4253.54345
891.403	3837.7704
891.583	4024.75827
891.763	3654.8328
891.943	3980.65201
892.122	3884.00696
892.302	4171.71323
892.482	3923.93075
892.662	3965.94792
892.842	3793.62655
893.022	3970.14919
893.201	3886.1084
893.381	4094.04975
893.561	3877.70255
893.741	4026.85834
893.92	3930.23384
894.1	3993.25472
894.28	3757.88471
894.459	3881.90551
894.639	3547.5263
894.819	3816.7506
894.998	3623.27713
895.178	3951.24283
895.357	3703.20985
895.537	3900.81786
895.716	3791.52425
895.896	4094.04975
896.075	3686.3842
896.255	3686.3842
896.434	3513.85156
896.614	3991.15432
896.793	3494.90746
896.973	3515.95637
897.152	3473.85673
897.331	3858.78822
897.511	3705.31297
897.69	3957.54514
897.87	3501.22232
898.049	3669.55732
898.228	3421.22203
898.407	3598.02954
898.587	3379.10627
898.766	3614.86157
898.945	3551.73531
899.124	3541.21264
899.304	3459.12015
899.483	3364.36409
899.662	3309.59996
899.841	3429.64434
900.02	3025.06651
900.199	3286.42702
900.378	3126.26775
900.557	3277.99998
900.737	3117.8357
900.916	3244.28914
901.095	3063.02121
901.274	3204.25194
901.453	2959.6885
901.632	3096.75447
901.811	2978.67071
901.989	3151.56236
902.168	2875.30869
902.347	3096.75447
902.526	2957.57929
902.705	2976.56163
902.884	2947.03302
903.063	2963.90687
903.242	2839.44029
903.42	3025.06651
903.599	2936.48638
903.778	2814.11897
903.957	2676.92796
904.135	3031.39264
904.314	2594.58717
904.493	2814.11897
904.672	2592.47562
904.85	2757.13878
905.029	2596.69871
905.207	2746.58581
905.386	2666.37251
905.565	2858.42995
905.743	2442.52587
905.922	2670.59473
906.1	2368.58657
906.279	2569.24779
906.457	2341.1202
906.636	2588.25249
906.814	2239.69181
906.993	2446.75059
907.171	2174.17493
907.35	2377.03742
907.528	2334.78157
907.707	2163.60693
907.885	2100.19475
908.063	2254.48478
908.242	2057.91618
908.42	2246.03171
908.598	1954.32206
908.777	2193.1968
908.955	2134.01546
909.133	2360.13556
909.311	1943.75038
909.49	2121.33293
909.668	2036.77582
909.846	2186.85625
910.024	1971.23644
910.202	2123.4467
910.38	1939.52167
910.559	2104.42245
910.737	1897.23328
910.915	2100.19475
911.093	2028.31948
911.271	2256.59802
911.449	1977.57923
911.627	2138.24291
911.805	1983.92196
911.983	2159.37968
912.161	1933.17855
912.339	2290.40871
912.517	2193.1968
912.695	2258.71126
912.872	2106.53629
913.05	2262.93771
913.228	2129.78798
913.406	2142.47033
913.584	2009.29232
913.762	2235.46516
913.939	2121.33293
914.117	2197.4238
914.295	1996.60726
914.473	2256.59802
914.65	1986.03619
914.828	2239.69181
915.006	2108.65012
915.184	2057.91618
915.361	1852.82818
915.539	2129.78798
915.716	2079.05583
915.894	2155.15239
916.072	2030.43357
916.249	2112.87775
916.427	1893.00432
916.604	2131.90172
916.782	1865.51558
916.959	2051.57414
917.137	1998.72145
917.314	2150.92507
917.492	1882.43183
917.669	2089.62539
917.847	1804.19157
918.024	2032.54766
918.201	1823.22358
918.379	2024.09127
918.556	1878.2028
918.733	2074.82796
918.911	1804.19157
919.088	1827.45286
919.265	1641.3498
919.442	1967.00788
919.62	1622.3152
919.797	2093.85316
919.974	1943.75038
920.151	1893.00432
920.328	1920.49217
920.506	1734.40471
920.683	1664.61404
920.86	1734.40471
921.037	1573.67049
921.214	1662.49913
921.391	1603.28043
921.568	1723.83059
921.745	1512.33472
921.922	1808.42094
922.099	1531.37006
922.276	1689.99285
922.453	1529.25502
922.63	1573.67049
922.807	1613.85532
922.984	1632.89
923.161	1639.23485
923.338	1689.99285
923.514	1554.63536
923.691	1673.07369
923.868	1556.75038
924.045	1605.39541
924.222	1461.57356
924.399	1444.65315
924.575	1309.29123
924.752	1588.4755
924.929	1317.7512
925.105	1497.52941
925.282	1305.06126
925.459	1391.77694
925.635	1338.90124
925.812	1385.43182
925.989	1317.7512
926.165	1444.65315
926.342	1334.67122
926.518	1379.08671
926.695	1326.2112
926.871	1389.6619
927.048	1180.28161
927.224	1182.39643
927.401	966.70931
927.577	1112.60953
927.754	854.66273
927.93	1102.03617
928.107	1173.93717
928.283	1226.80843
928.459	979.39514
928.636	1023.79738
928.812	996.30995
928.988	1112.60953
929.165	1061.85857
929.341	1207.77453
929.517	1042.82774
929.693	1146.44503
929.87	915.96855
930.046	992.08121
930.222	911.74035
930.398	998.42433
930.574	844.09347
930.751	1021.68293
930.927	937.11002
931.103	1015.3396
931.279	818.72815
931.455	1004.76751
931.631	787.02337
931.807	989.96684
931.983	780.68268
932.159	880.02982
932.335	827.18311
932.511	880.02982
932.687	685.58335
932.863	812.38703
933.039	683.47028
933.215	814.50072
933.391	751.09394
933.566	772.22855
933.742	624.30913
933.918	713.05426
934.094	558.82068
934.27	736.30033
934.445	565.15772
934.621	675.01812
934.797	590.50708
934.973	590.50708
935.148	514.46487
935.324	535.58592
935.5	480.67419
935.675	556.70836
935.851	457.4453
936.027	480.67419
936.202	415.21575
936.378	448.99889
936.553	324.44443
936.729	286.45672
936.904	301.22902
937.08	316.00221
937.255	271.68532
937.431	423.66115
937.606	275.90563
937.782	345.55122
937.957	381.43673
938.133	271.68532
938.308	172.53045
938.483	197.84241
938.659	252.69488
938.834	231.59621
939.009	176.7489
939.185	183.07674
939.36	210.49949
939.535	105.04662
939.71	132.45929
939.886	168.31207
940.061	189.40476
940.236	216.8283
940.411	138.7858
940.586	134.5681
940.761	109.26371
940.937	143.00359
941.112	176.7489
941.287	117.69816
941.462	172.53045
941.637	119.80683
941.812	92.39587
941.987	94.50427
942.162	153.54842
942.337	136.67694
942.512	94.50427
942.687	117.69816
942.862	43.90883
943.037	145.11251
943.212	136.67694
943.386	117.69816
943.561	115.58952
943.736	8.07845
943.911	172.53045
944.086	83.96248
944.26	81.85419
944.435	52.34049
944.61	126.13296
944.785	119.80683
944.959	109.26371
945.134	134.5681
945.309	153.54842
945.483	126.13296
945.658	132.45929
945.833	37.58533
946.007	102.93811
946.182	134.5681
946.357	92.39587
946.531	109.26371
946.706	126.13296
946.88	46.01671
947.055	105.04662
947.229	-6.67324
947.404	88.17913
947.578	126.13296
947.752	183.07674
947.927	187.2954
948.101	92.39587
948.276	107.15516
948.45	58.66448
948.624	157.7665
948.799	81.85419
948.973	109.26371
949.147	79.74592
949.321	92.39587
949.496	126.13296
949.67	94.50427
949.844	92.39587
950.018	193.62355
950.193	111.37229
950.367	109.26371
950.541	88.17913
950.715	102.93811
950.889	60.77252
951.063	75.52945
951.237	24.93896
951.411	79.74592
951.585	79.74592
951.759	88.17913
951.933	134.5681
952.107	124.02423
952.281	77.63768
952.455	67.09678
952.629	81.85419
952.803	191.51415
952.977	58.66448
953.151	126.13296
953.325	126.13296
953.499	83.96248
953.672	195.73297
953.846	67.09678
954.02	48.12461
954.194	111.37229
954.368	69.20492
954.541	86.0708
954.715	-25.63794
954.889	170.42125
955.062	151.43941
955.236	67.09678
955.41	86.0708
955.583	143.00359
955.757	92.39587
955.93	157.7665
956.104	126.13296
956.278	62.88058
956.451	83.96248
956.625	92.39587
956.798	164.09378
956.972	86.0708
957.145	147.22146
957.319	73.42125
957.492	145.11251
957.665	132.45929
957.839	128.24171
958.012	96.6127
958.185	75.52945
958.359	77.63768
958.532	229.48645
958.705	75.52945
958.879	157.7665
959.052	168.31207
959.225	107.15516
959.398	100.82962
959.572	83.96248
959.745	86.0708
959.918	119.80683
960.091	83.96248
960.264	128.24171
960.438	71.31307
960.611	102.93811
960.784	117.69816
960.957	62.88058
961.13	128.24171
961.303	88.17913
961.476	105.04662
961.649	117.69816
961.822	52.34049
961.995	98.72115
962.168	126.13296
962.341	52.34049
962.514	159.87558
962.686	176.7489
962.859	105.04662
963.032	67.09678
963.205	71.31307
963.378	96.6127
963.551	102.93811
963.723	96.6127
963.896	29.15432
964.069	24.93896
964.242	41.80097
964.414	117.69816
964.587	107.15516
964.76	43.90883
964.932	41.80097
965.105	27.04663
965.278	33.36978
965.45	94.50427
965.623	153.54842
965.795	43.90883
965.968	29.15432
966.14	121.91552
966.313	130.35049
966.485	132.45929
966.658	153.54842
966.83	105.04662
967.003	109.26371
967.175	71.31307
967.348	113.4809
967.52	138.7858
967.692	64.98867
967.865	73.42125
968.037	62.88058
968.209	83.96248
968.382	166.20292
968.554	88.17913
968.726	121.91552
968.898	176.7489
969.071	58.66448
969.243	16.50851
969.415	20.72369
969.587	37.58533
969.759	90.28749
969.932	54.44846
970.104	147.22146
970.276	33.36978
970.448	73.42125
970.62	35.47754
970.792	94.50427
970.964	60.77252
971.136	24.93896
971.308	98.72115
971.48	33.36978
971.652	77.63768
971.824	54.44846
971.996	62.88058
972.168	88.17913
972.339	12.29343
972.511	41.80097
972.683	94.50427
972.855	52.34049
973.027	117.69816
973.199	75.52945
973.37	117.69816
973.542	151.43941
973.714	-17.20943
973.886	75.52945
974.057	79.74592
974.229	31.26204
974.401	-34.06606
974.572	62.88058
974.744	60.77252
974.915	119.80683
975.087	-23.53085
975.259	62.88058
975.43	35.47754
975.602	60.77252
975.773	50.23254
975.945	27.04663
976.116	111.37229
976.288	77.63768
976.459	71.31307
976.63	86.0708
976.802	69.20492
976.973	5.97099
977.145	77.63768
977.316	64.98867
977.487	79.74592
977.659	-8.78052
977.83	119.80683
978.001	22.83131
978.172	58.66448
978.344	52.34049
978.515	41.80097
978.686	29.15432
978.857	62.88058
979.028	88.17913
979.2	33.36978
979.371	64.98867
979.542	83.96248
979.713	62.88058
979.884	-0.35123
980.055	16.50851
980.226	69.20492
980.397	50.23254
980.568	86.0708
980.739	60.77252
980.91	94.50427
981.081	83.96248
981.252	48.12461
981.423	88.17913
981.594	117.69816
981.765	27.04663
981.936	60.77252
982.106	-15.10224
982.277	83.96248
982.448	1.75615
982.619	50.23254
982.79	75.52945
982.96	20.72369
983.131	18.61609
983.302	-0.35123
983.472	-17.20943
983.643	35.47754
983.814	5.97099
983.984	56.55646
984.155	117.69816
984.326	48.12461
984.496	96.6127
984.667	69.20492
984.837	24.93896
985.008	-0.35123
985.178	16.50851
985.349	50.23254
985.519	46.01671
985.69	-15.10224
985.86	48.12461
986.031	83.96248
986.201	58.66448
986.371	50.23254
986.542	5.97099
986.712	126.13296
986.882	16.50851
987.053	58.66448
987.223	-12.99502
987.393	58.66448
987.563	79.74592
987.734	92.39587
987.904	52.34049
988.074	16.50851
988.244	24.93896
988.414	-17.20943
988.585	43.90883
988.755	31.26204
988.925	-69.8811
989.095	-74.09415
989.265	8.07845
989.435	115.58952
989.605	-0.35123
989.775	50.23254
989.945	60.77252
990.115	-8.78052
990.285	27.04663
990.455	-50.9211
990.625	18.61609
990.795	-8.78052
990.965	18.61609
991.134	-29.85205
991.304	48.12461
991.474	-19.31659
991.644	75.52945
991.814	20.72369
991.984	14.40096
992.153	-31.95906
992.323	12.29343
992.493	35.47754
992.662	-8.78052
992.832	8.07845
993.002	35.47754
993.171	-12.99502
993.341	29.15432
993.511	8.07845
993.68	60.77252
993.85	43.90883
994.019	41.80097
994.189	-0.35123
994.358	41.80097
994.528	48.12461
994.697	50.23254
994.867	-12.99502
995.036	35.47754
995.206	33.36978
995.375	29.15432
995.544	27.04663
995.714	-34.06606
995.883	29.15432
996.052	86.0708
996.222	-31.95906
996.391	24.93896
996.56	-0.35123
996.73	33.36978
996.899	50.23254
997.068	-23.53085
997.237	43.90883
997.406	-19.31659
997.576	20.72369
997.745	-34.06606
997.914	83.96248
998.083	29.15432
998.252	90.28749
998.421	-29.85205
998.59	102.93811
998.759	33.36978
998.928	111.37229
999.097	14.40096
999.266	18.61609
999.435	1.75615
999.604	37.58533
999.773	-38.27997
999.942	12.29343
1000.111	1.75615
1000.28	-17.20943
1000.448	29.15432
1000.617	8.07845
1000.786	-8.78052
1000.955	-6.67324
1001.124	10.18593
1001.292	-0.35123
1001.461	20.72369
1001.63	5.97099
1001.798	75.52945
1001.967	86.0708
1002.136	-25.63794
1002.304	-2.45859
1002.473	41.80097
1002.642	27.04663
1002.81	8.07845
1002.979	29.15432
1003.147	-10.88778
1003.316	35.47754
1003.484	-19.31659
1003.653	-8.78052
1003.821	-50.9211
1003.99	31.26204
1004.158	31.26204
1004.327	-34.06606
1004.495	18.61609
1004.663	58.66448
1004.832	100.82962
1005	-25.63794
1005.168	43.90883
1005.337	-10.88778
1005.505	-0.35123
1005.673	-0.35123
1005.842	52.34049
1006.01	8.07845
1006.178	-99.37029
1006.346	10.18593
1006.514	37.58533
1006.683	5.97099
1006.851	41.80097
1007.019	-0.35123
1007.187	-0.35123
1007.355	46.01671
1007.523	3.86356
1007.691	60.77252
1007.859	-17.20943
1008.027	1.75615
1008.195	-27.74501
1008.363	24.93896
1008.531	58.66448
1008.699	73.42125
1008.867	1.75615
1009.035	94.50427
1009.203	8.07845
1009.37	-2.45859
1009.538	-6.67324
1009.706	-0.35123
1009.874	-8.78052
1010.042	88.17913
1010.209	-48.81431
1010.377	27.04663
1010.545	-31.95906
1010.713	18.61609
1010.88	-63.56133
1011.048	31.26204
1011.216	24.93896
1011.383	1.75615
1011.551	50.23254
1011.718	37.58533
1011.886	-12.99502
1012.054	-0.35123
1012.221	-80.41353
1012.389	58.66448
1012.556	-15.10224
1012.724	-6.67324
1012.891	73.42125
1013.058	-12.99502
1013.226	-10.88778
1013.393	-2.45859
1013.561	-42.49378
1013.728	-59.34802
1013.895	-8.78052
1014.063	8.07845
1014.23	35.47754
1014.397	3.86356
1014.565	-4.56592
1014.732	37.58533
1014.899	-38.27997
1015.066	-40.38689
1015.233	-38.27997
1015.401	31.26204
1015.568	12.29343
1015.735	-44.60065
1015.902	18.61609
1016.069	-17.20943
1016.236	31.26204
1016.403	52.34049
1016.57	-31.95906
1016.737	-40.38689
1016.904	-38.27997
1017.071	-50.9211
1017.238	8.07845
1017.405	-42.49378
1017.572	16.50851
1017.739	54.44846
1017.906	29.15432
1018.073	8.07845
1018.24	3.86356
1018.407	52.34049
1018.573	12.29343
1018.74	18.61609
1018.907	-34.06606
1019.074	73.42125
1019.241	-63.56133
1019.407	12.29343
1019.574	5.97099
1019.741	67.09678
1019.907	-38.27997
1020.074	-42.49378
1020.241	-29.85205
1020.407	-17.20943
1020.574	-36.17303
1020.74	67.09678
1020.907	-21.42373
1021.073	1.75615
1021.24	52.34049
1021.406	-48.81431
1021.573	62.88058
1021.739	94.50427
1021.906	83.96248
1022.072	16.50851
1022.239	52.34049
1022.405	35.47754
1022.571	18.61609
1022.738	-21.42373
1022.904	41.80097
1023.07	12.29343
1023.237	-31.95906
1023.403	-34.06606
1023.569	3.86356
1023.735	58.66448
1023.902	-12.99502
1024.068	-8.78052
1024.234	-2.45859
1024.4	18.61609
1024.566	-2.45859
1024.732	18.61609
1024.898	43.90883
1025.065	-19.31659
1025.231	-12.99502
1025.397	-25.63794
1025.563	-29.85205
1025.729	-8.78052
1025.895	-0.35123
1026.061	-10.88778
1026.227	-34.06606
1026.392	-23.53085
1026.558	33.36978
1026.724	-8.78052
1026.89	58.66448
1027.056	35.47754
1027.222	-0.35123
1027.388	8.07845
1027.553	14.40096
1027.719	1.75615
1027.885	8.07845
1028.051	-21.42373
1028.216	75.52945
1028.382	-71.98763
1028.548	46.01671
1028.713	-8.78052
1028.879	-46.70749
1029.045	50.23254
1029.21	-50.9211
1029.376	43.90883
1029.541	16.50851
1029.707	41.80097
1029.873	58.66448
1030.038	-17.20943
1030.204	-4.56592
1030.369	8.07845
1030.534	-23.53085
1030.7	-17.20943
1030.865	10.18593
1031.031	20.72369
1031.196	-67.77453
1031.361	56.55646
1031.527	-15.10224
1031.692	20.72369
1031.857	56.55646
1032.023	24.93896
1032.188	27.04663
1032.353	-46.70749
1032.518	-0.35123
1032.684	-4.56592
1032.849	96.6127
1033.014	16.50851
1033.179	60.77252
1033.344	-57.24133
1033.509	-27.74501
1033.674	-76.20064
1033.839	-15.10224
1034.004	52.34049
1034.17	5.97099
1034.335	-25.63794
1034.5	-50.9211
1034.664	-8.78052
1034.829	-15.10224
1034.994	-23.53085
1035.159	79.74592
1035.324	48.12461
1035.489	-59.34802
1035.654	-17.20943
1035.819	77.63768
1035.984	-17.20943
1036.148	33.36978
1036.313	33.36978
1036.478	8.07845
1036.643	24.93896
1036.807	-97.26409
1036.972	16.50851
1037.137	-50.9211
1037.301	33.36978
1037.466	37.58533
1037.631	14.40096
1037.795	16.50851
1037.96	50.23254
1038.124	48.12461
1038.289	-8.78052
1038.454	10.18593
1038.618	-17.20943
1038.783	5.97099
1038.947	-36.17303
1039.111	-65.66794
1039.276	33.36978
1039.44	5.97099
1039.605	-21.42373
1039.769	8.07845
1039.933	-12.99502
1040.098	-50.9211
1040.262	-29.85205
1040.426	-8.78052
1040.591	-44.60065
1040.755	-40.38689
1040.919	-34.06606
1041.083	22.83131
1041.248	-27.74501
1041.412	-0.35123
1041.576	-71.98763
1041.74	-55.13461
1041.904	1.75615
1042.068	3.86356
1042.232	3.86356
1042.397	-25.63794
1042.561	79.74592
1042.725	50.23254
1042.889	-34.06606
1043.053	52.34049
1043.217	-25.63794
1043.381	-29.85205
1043.544	5.97099
1043.708	18.61609
1043.872	16.50851
1044.036	46.01671
1044.2	-8.78052
1044.364	8.07845
1044.528	-0.35123
1044.691	-21.42373
1044.855	-90.94533
1045.019	-25.63794
1045.183	-23.53085
1045.346	27.04663
1045.51	-25.63794
1045.674	-15.10224
1045.837	50.23254
1046.001	16.50851
1046.165	-4.56592
1046.328	-0.35123
1046.492	33.36978
1046.655	-46.70749
1046.819	33.36978
1046.983	-6.67324
1047.146	1.75615
1047.31	46.01671
1047.473	-40.38689
1047.636	-25.63794
1047.8	12.29343
1047.963	37.58533
1048.127	39.69314
1048.29	-34.06606
