Data from mixed_try1_USB4F045381__10__00075.txt Node

Date: Thu Apr 03 19:51:51 EDT 2025
User: mmckonesweet
Spectrometer: USB4F04538
Trigger mode: 4
Integration Time (sec): 2.700000E-3
Scans to average: 1
Electric dark correction enabled: true
Nonlinearity correction enabled: true
Boxcar width: 0
XAxis mode: Wavelengths
Number of Pixels in Spectrum: 3648
>>>>>Begin Spectral Data<<<<<
345.52	30.91075
345.736	30.91075
345.952	30.91075
346.168	-25.98912
346.384	5.61975
346.6	-63.91243
346.816	26.69535
347.032	18.26482
347.248	18.26482
347.464	22.48004
347.68	-51.27223
347.896	47.77329
348.112	18.26482
348.328	-11.23899
348.544	-30.20322
348.76	22.48004
348.975	-17.56062
349.191	-11.23899
349.407	-19.66778
349.623	5.61975
349.839	-44.95179
350.055	3.51233
350.27	-21.77492
350.486	49.88122
350.702	-19.66778
350.918	-40.73804
351.133	-36.52418
351.349	30.91075
351.565	-59.69913
351.781	16.15725
351.996	1.40492
352.212	-28.09618
352.428	35.12624
352.644	1.40492
352.859	-76.55171
353.075	56.20513
353.291	-23.88203
353.506	56.20513
353.722	11.94218
353.938	56.20513
354.153	-28.09618
354.369	14.04971
354.584	30.91075
354.8	33.01848
355.016	-11.23899
355.231	-19.66778
355.447	33.01848
355.662	-51.27223
355.878	43.55752
356.093	-17.56062
356.309	-51.27223
356.524	1.40492
356.74	-4.91714
356.955	66.74543
357.171	-40.73804
357.386	-9.13173
357.602	-51.27223
357.817	-42.84492
358.033	-19.66778
358.248	5.61975
358.464	-57.59244
358.679	-44.95179
358.895	7.72721
359.11	-15.45344
359.325	22.48004
359.541	33.01848
359.756	30.91075
359.972	98.36974
360.187	75.17808
360.402	22.48004
360.618	-2.80981
360.833	39.34183
361.048	49.88122
361.264	-11.23899
361.479	-9.13173
361.694	7.72721
361.909	-40.73804
362.125	9.83468
362.34	45.6654
362.555	41.44967
362.77	-2.80981
362.986	9.83468
363.201	1.40492
363.416	49.88122
363.631	41.44967
363.847	-19.66778
364.062	9.83468
364.277	-11.23899
364.492	-9.13173
364.707	-61.80579
364.922	-63.91243
365.138	-53.37899
365.353	41.44967
365.568	73.06989
365.783	-53.37899
365.998	22.48004
366.213	43.55752
366.428	64.63732
366.643	9.83468
366.858	-15.45344
367.073	-11.23899
367.288	-34.41722
367.503	-2.80981
367.718	-87.08375
367.933	39.34183
368.148	1.40492
368.363	-44.95179
368.578	-28.09618
368.793	45.6654
369.008	-57.59244
369.223	30.91075
369.438	-28.09618
369.653	-34.41722
369.868	47.77329
370.083	22.48004
370.298	11.94218
370.513	-36.52418
370.728	-2.80981
370.943	37.23403
371.157	-25.98912
371.372	16.15725
371.587	-91.29638
371.802	-2.80981
372.017	-4.91714
372.232	22.48004
372.446	83.6111
372.661	-9.13173
372.876	-32.31023
373.091	51.98916
373.306	28.80304
373.52	-36.52418
373.735	30.91075
373.95	9.83468
374.165	-30.20322
374.379	16.15725
374.594	66.74543
374.809	64.63732
375.023	14.04971
375.238	9.83468
375.453	-19.66778
375.667	30.91075
375.882	56.20513
376.097	39.34183
376.311	-17.56062
376.526	-36.52418
376.741	-19.66778
376.955	-32.31023
377.17	-19.66778
377.384	-7.02445
377.599	-25.98912
377.813	-11.23899
378.028	-32.31023
378.242	11.94218
378.457	81.50281
378.672	81.50281
378.886	-21.77492
379.101	-19.66778
379.315	-51.27223
379.53	-53.37899
379.744	-51.27223
379.958	-25.98912
380.173	30.91075
380.387	43.55752
380.602	-13.34623
380.816	-78.65817
381.031	-25.98912
381.245	7.72721
381.459	-36.52418
381.674	-9.13173
381.888	49.88122
382.103	28.80304
382.317	-23.88203
382.531	-7.02445
382.746	5.61975
382.96	24.58768
383.174	9.83468
383.388	5.61975
383.603	-34.41722
383.817	33.01848
384.031	-15.45344
384.246	5.61975
384.46	35.12624
384.674	7.72721
384.888	35.12624
385.103	-53.37899
385.317	-2.80981
385.531	16.15725
385.745	58.31314
385.959	-32.31023
386.174	-40.73804
386.388	-17.56062
386.602	11.94218
386.816	14.04971
387.03	-23.88203
387.244	16.15725
387.458	56.20513
387.672	83.6111
387.887	16.15725
388.101	9.83468
388.315	54.09713
388.529	-44.95179
388.743	5.61975
388.957	-101.8275
389.171	56.20513
389.385	30.91075
389.599	-42.84492
389.813	16.15725
390.027	47.77329
390.241	30.91075
390.455	47.77329
390.669	-44.95179
390.883	-2.80981
391.097	51.98916
391.311	54.09713
391.525	-0.70246
391.738	30.91075
391.952	41.44967
392.166	-28.09618
392.38	-2.80981
392.594	37.23403
392.808	-13.34623
393.022	-0.70246
393.236	35.12624
393.449	-13.34623
393.663	-32.31023
393.877	64.63732
394.091	39.34183
394.305	7.72721
394.518	18.26482
394.732	28.80304
394.946	-25.98912
395.16	-7.02445
395.373	-11.23899
395.587	22.48004
395.801	73.06989
396.015	-13.34623
396.228	-23.88203
396.442	14.04971
396.656	43.55752
396.869	-17.56062
397.083	51.98916
397.297	-36.52418
397.51	30.91075
397.724	60.42118
397.938	41.44967
398.151	-11.23899
398.365	125.7815
398.578	37.23403
398.792	5.61975
399.005	-17.56062
399.219	-2.80981
399.433	47.77329
399.646	18.26482
399.86	51.98916
400.073	73.06989
400.287	-42.84492
400.5	-57.59244
400.714	-2.80981
400.927	30.91075
401.141	-25.98912
401.354	-0.70246
401.567	-28.09618
401.781	-59.69913
401.994	56.20513
402.208	-44.95179
402.421	3.51233
402.635	-21.77492
402.848	68.85356
403.061	49.88122
403.275	-7.02445
403.488	-7.02445
403.701	-23.88203
403.915	62.52924
404.128	-28.09618
404.341	1.40492
404.555	-15.45344
404.768	-0.70246
404.981	14.04971
405.195	-53.37899
405.408	26.69535
405.621	33.01848
405.834	-28.09618
406.048	30.91075
406.261	-44.95179
406.474	1.40492
406.687	22.48004
406.9	24.58768
407.114	5.61975
407.327	70.96171
407.54	-95.5089
407.753	-53.37899
407.966	-17.56062
408.179	81.50281
408.392	49.88122
408.605	9.83468
408.819	-76.55171
409.032	16.15725
409.245	-30.20322
409.458	-23.88203
409.671	-19.66778
409.884	-34.41722
410.097	22.48004
410.31	5.61975
410.523	-66.01904
410.736	-19.66778
410.949	-49.16544
411.162	11.94218
411.375	41.44967
411.588	39.34183
411.801	43.55752
412.014	47.77329
412.227	-13.34623
412.44	56.20513
412.653	-17.56062
412.865	-9.13173
413.078	18.26482
413.291	20.37242
413.504	-47.05863
413.717	62.52924
413.93	-9.13173
414.143	16.15725
414.356	-36.52418
414.568	-44.95179
414.781	24.58768
414.994	-53.37899
415.207	85.71941
415.42	-2.80981
415.632	43.55752
415.845	24.58768
416.058	37.23403
416.271	75.17808
416.483	43.55752
416.696	7.72721
416.909	-7.02445
417.121	-40.73804
417.334	-23.88203
417.547	-0.70246
417.759	-34.41722
417.972	35.12624
418.185	-53.37899
418.397	-87.08375
418.61	-49.16544
418.823	-19.66778
419.035	5.61975
419.248	22.48004
419.46	-7.02445
419.673	-11.23899
419.885	11.94218
420.098	37.23403
420.311	39.34183
420.523	-28.09618
420.736	98.36974
420.948	22.48004
421.161	22.48004
421.373	43.55752
421.586	5.61975
421.798	39.34183
422.01	47.77329
422.223	-40.73804
422.435	-9.13173
422.648	-28.09618
422.86	5.61975
423.073	49.88122
423.285	-4.91714
423.497	-36.52418
423.71	5.61975
423.922	-36.52418
424.134	-25.98912
424.347	18.26482
424.559	-0.70246
424.771	30.91075
424.984	11.94218
425.196	-17.56062
425.408	47.77329
425.621	-19.66778
425.833	77.2863
426.045	-7.02445
426.257	26.69535
426.47	33.01848
426.682	5.61975
426.894	-68.12563
427.106	-2.80981
427.318	56.20513
427.531	-61.80579
427.743	-4.91714
427.955	-32.31023
428.167	-19.66778
428.379	-61.80579
428.591	9.83468
428.804	-28.09618
429.016	30.91075
429.228	22.48004
429.44	51.98916
429.652	30.91075
429.864	14.04971
430.076	-2.80981
430.288	7.72721
430.5	22.48004
430.712	18.26482
430.924	11.94218
431.136	49.88122
431.348	43.55752
431.56	-15.45344
431.772	16.15725
431.984	-17.56062
432.196	43.55752
432.408	49.88122
432.62	47.77329
432.832	-129.20533
433.044	58.31314
433.256	-19.66778
433.468	-44.95179
433.679	-19.66778
433.891	-4.91714
434.103	-11.23899
434.315	14.04971
434.527	-28.09618
434.739	-40.73804
434.95	9.83468
435.162	16.15725
435.374	-28.09618
435.586	-11.23899
435.798	26.69535
436.009	-44.95179
436.221	1.40492
436.433	-47.05863
436.645	14.04971
436.856	-44.95179
437.068	-11.23899
437.28	68.85356
437.491	22.48004
437.703	-9.13173
437.915	-0.70246
438.126	-32.31023
438.338	56.20513
438.55	39.34183
438.761	58.31314
438.973	35.12624
439.184	64.63732
439.396	-2.80981
439.608	-2.80981
439.819	-87.08375
440.031	14.04971
440.242	-11.23899
440.454	-25.98912
440.665	24.58768
440.877	26.69535
441.088	-17.56062
441.3	-0.70246
441.511	-70.23219
441.723	49.88122
441.934	100.4782
442.146	-47.05863
442.357	14.04971
442.569	-7.02445
442.78	26.69535
442.991	7.72721
443.203	-30.20322
443.414	39.34183
443.626	-21.77492
443.837	64.63732
444.048	30.91075
444.26	41.44967
444.471	-19.66778
444.682	24.58768
444.894	14.04971
445.105	16.15725
445.316	-0.70246
445.528	47.77329
445.739	-28.09618
445.95	-11.23899
446.161	-87.08375
446.373	1.40492
446.584	18.26482
446.795	-17.56062
447.006	-9.13173
447.217	-87.08375
447.429	18.26482
447.64	39.34183
447.851	14.04971
448.062	-25.98912
448.273	58.31314
448.484	11.94218
448.695	-7.02445
448.907	9.83468
449.118	22.48004
449.329	56.20513
449.54	-19.66778
449.751	-49.16544
449.962	68.85356
450.173	22.48004
450.384	33.01848
450.595	24.58768
450.806	26.69535
451.017	58.31314
451.228	14.04971
451.439	22.48004
451.65	-17.56062
451.861	18.26482
452.072	5.61975
452.283	-53.37899
452.494	7.72721
452.705	26.69535
452.915	3.51233
453.126	39.34183
453.337	-55.48573
453.548	-78.65817
453.759	-36.52418
453.97	64.63732
454.181	-19.66778
454.391	-2.80981
454.602	-36.52418
454.813	35.12624
455.024	-32.31023
455.235	39.34183
455.445	7.72721
455.656	66.74543
455.867	5.61975
456.078	56.20513
456.288	14.04971
456.499	-11.23899
456.71	26.69535
456.921	81.50281
457.131	18.26482
457.342	-9.13173
457.553	3.51233
457.763	22.48004
457.974	1.40492
458.184	9.83468
458.395	-70.23219
458.606	68.85356
458.816	58.31314
459.027	54.09713
459.237	33.01848
459.448	-44.95179
459.659	-30.20322
459.869	-2.80981
460.08	47.77329
460.29	24.58768
460.501	30.91075
460.711	56.20513
460.922	18.26482
461.132	7.72721
461.343	125.7815
461.553	30.91075
461.764	-30.20322
461.974	-44.95179
462.184	87.82774
462.395	75.17808
462.605	-11.23899
462.816	-17.56062
463.026	7.72721
463.236	22.48004
463.447	43.55752
463.657	-59.69913
463.867	30.91075
464.078	18.26482
464.288	39.34183
464.498	-15.45344
464.709	26.69535
464.919	-9.13173
465.129	35.12624
465.339	-9.13173
465.55	26.69535
465.76	-7.02445
465.97	94.15287
466.18	43.55752
466.391	26.69535
466.601	-15.45344
466.811	14.04971
467.021	-23.88203
467.231	-9.13173
467.441	43.55752
467.651	5.61975
467.862	47.77329
468.072	16.15725
468.282	-13.34623
468.492	-36.52418
468.702	-9.13173
468.912	3.51233
469.122	56.20513
469.332	24.58768
469.542	-2.80981
469.752	-11.23899
469.962	-9.13173
470.172	-4.91714
470.382	-11.23899
470.592	-34.41722
470.802	16.15725
471.012	-15.45344
471.222	-17.56062
471.432	89.9361
471.642	51.98916
471.852	49.88122
472.062	-4.91714
472.272	24.58768
472.482	-19.66778
472.691	-15.45344
472.901	16.15725
473.111	-34.41722
473.321	24.58768
473.531	22.48004
473.741	56.20513
473.95	20.37242
474.16	62.52924
474.37	-4.91714
474.58	22.48004
474.79	22.48004
474.999	-30.20322
475.209	1.40492
475.419	-19.66778
475.628	14.04971
475.838	41.44967
476.048	51.98916
476.258	9.83468
476.467	24.58768
476.677	16.15725
476.886	30.91075
477.096	-32.31023
477.306	-7.02445
477.515	66.74543
477.725	1.40492
477.935	35.12624
478.144	-49.16544
478.354	47.77329
478.563	73.06989
478.773	18.26482
478.982	9.83468
479.192	30.91075
479.401	-7.02445
479.611	47.77329
479.82	60.42118
480.03	26.69535
480.239	49.88122
480.449	60.42118
480.658	83.6111
480.868	-25.98912
481.077	-0.70246
481.287	14.04971
481.496	-40.73804
481.705	94.15287
481.915	-2.80981
482.124	-32.31023
482.333	41.44967
482.543	64.63732
482.752	30.91075
482.961	16.15725
483.171	-40.73804
483.38	7.72721
483.589	56.20513
483.799	89.9361
484.008	-68.12563
484.217	-15.45344
484.426	92.04447
484.636	28.80304
484.845	39.34183
485.054	-2.80981
485.263	43.55752
485.472	-0.70246
485.682	30.91075
485.891	41.44967
486.1	-2.80981
486.309	35.12624
486.518	64.63732
486.727	70.96171
486.936	39.34183
487.146	20.37242
487.355	7.72721
487.564	14.04971
487.773	-11.23899
487.982	58.31314
488.191	56.20513
488.4	30.91075
488.609	18.26482
488.818	41.44967
489.027	83.6111
489.236	64.63732
489.445	81.50281
489.654	56.20513
489.863	66.74543
490.072	77.2863
490.281	92.04447
490.49	60.42118
490.698	-66.01904
490.907	56.20513
491.116	26.69535
491.325	-40.73804
491.534	77.2863
491.743	22.48004
491.952	49.88122
492.16	96.26129
492.369	54.09713
492.578	117.34672
492.787	117.34672
492.996	64.63732
493.204	73.06989
493.413	64.63732
493.622	60.42118
493.831	56.20513
494.039	5.61975
494.248	33.01848
494.457	33.01848
494.665	66.74543
494.874	26.69535
495.083	39.34183
495.291	60.42118
495.5	77.2863
495.709	39.34183
495.917	33.01848
496.126	56.20513
496.335	111.02086
496.543	83.6111
496.752	92.04447
496.96	30.91075
497.169	14.04971
497.377	47.77329
497.586	64.63732
497.794	35.12624
498.003	75.17808
498.211	22.48004
498.42	49.88122
498.628	39.34183
498.837	26.69535
499.045	49.88122
499.254	106.80373
499.462	58.31314
499.671	75.17808
499.879	45.6654
500.087	39.34183
500.296	89.9361
500.504	77.2863
500.713	14.04971
500.921	98.36974
501.129	83.6111
501.338	47.77329
501.546	16.15725
501.754	117.34672
501.962	77.2863
502.171	115.23808
502.379	157.41499
502.587	70.96171
502.795	68.85356
503.004	5.61975
503.212	161.63315
503.42	47.77329
503.628	43.55752
503.837	56.20513
504.045	87.82774
504.253	89.9361
504.461	102.58669
504.669	108.91229
504.877	157.41499
505.085	115.23808
505.294	123.67278
505.502	89.9361
505.71	66.74543
505.918	56.20513
506.126	140.5432
506.334	165.85139
506.542	163.74226
506.75	155.30595
506.958	68.85356
507.166	98.36974
507.374	41.44967
507.582	134.21663
507.79	98.36974
507.998	47.77329
508.206	96.26129
508.414	113.12946
508.622	117.34672
508.83	106.80373
509.037	119.45538
509.245	41.44967
509.453	56.20513
509.661	123.67278
509.869	60.42118
510.077	174.28813
510.285	153.19692
510.492	92.04447
510.7	106.80373
510.908	134.21663
511.116	142.6521
511.324	125.7815
511.531	165.85139
511.739	123.67278
511.947	115.23808
512.155	108.91229
512.362	81.50281
512.57	85.71941
512.778	100.4782
512.985	167.96055
513.193	79.39455
513.401	189.0532
513.608	119.45538
513.816	144.76102
514.024	167.96055
514.231	75.17808
514.439	197.49084
514.646	148.97893
514.854	94.15287
515.061	108.91229
515.269	250.23327
515.477	191.16258
515.684	218.58633
515.892	56.20513
516.099	191.16258
516.307	176.39736
516.514	148.97893
516.722	98.36974
516.929	170.06972
517.136	106.80373
517.344	121.56407
517.551	73.06989
517.759	98.36974
517.966	199.6003
518.173	203.81928
518.381	243.90353
518.588	142.6521
518.796	182.72519
519.003	174.28813
519.21	155.30595
519.418	174.28813
519.625	233.35436
519.832	214.36707
520.039	153.19692
520.247	123.67278
520.454	148.97893
520.661	201.70978
520.868	157.41499
521.076	216.47669
521.283	153.19692
521.49	227.02509
521.697	224.91537
521.904	269.22351
522.112	216.47669
522.319	216.47669
522.526	262.89326
522.733	250.23327
522.94	233.35436
523.147	170.06972
523.354	250.23327
523.561	292.43587
523.768	208.03833
523.975	201.70978
524.183	212.25747
524.39	195.3814
524.597	288.21528
524.804	237.57397
525.011	235.46415
525.218	199.6003
525.425	216.47669
525.632	186.94385
525.838	195.3814
526.045	203.81928
526.252	201.70978
526.459	218.58633
526.666	210.14789
526.873	208.03833
527.08	241.79366
527.287	313.53995
527.494	269.22351
527.701	328.31388
527.907	235.46415
528.114	319.87153
528.321	334.64583
528.528	277.66411
528.735	222.80567
528.941	311.42946
529.148	290.32557
529.355	224.91537
529.562	233.35436
529.768	292.43587
529.975	286.10501
530.182	296.65654
530.388	305.0981
530.595	338.86722
530.802	309.31899
531.008	372.64081
531.215	336.75651
531.422	402.19626
531.628	296.65654
531.835	330.42451
532.042	309.31899
532.248	340.97794
532.455	210.14789
532.661	463.42832
532.868	271.33363
533.074	368.41887
533.281	343.08867
533.487	406.41873
533.694	385.30703
533.9	444.42385
534.107	419.08653
534.313	397.97385
534.52	404.30748
534.726	414.86386
534.933	469.76342
535.139	492.99327
535.345	429.64347
535.552	410.64126
535.758	402.19626
535.965	391.64037
536.171	317.76099
536.377	421.19789
536.584	397.97385
536.79	465.54001
536.996	440.20081
537.203	448.64696
537.409	501.44093
537.615	391.64037
537.821	452.87013
538.028	423.30926
538.234	469.76342
538.44	495.10517
538.646	490.88139
538.853	552.13172
539.059	545.79493
539.265	535.23389
539.471	537.34607
539.677	471.87515
539.883	444.42385
540.09	537.34607
540.296	507.77683
540.502	552.13172
540.708	545.79493
540.914	590.155
541.12	516.2249
541.326	571.14282
541.532	507.77683
541.738	596.49263
541.944	528.89743
542.15	630.29525
542.356	628.18249
542.562	712.70206
542.768	623.95701
542.974	581.70501
543.18	554.24401
543.386	693.68355
543.592	647.19775
543.798	676.77897
544.004	556.35631
544.21	719.04176
544.415	617.61889
544.621	752.85512
544.827	670.43995
545.033	765.53582
545.239	742.28816
545.445	700.02295
545.651	697.90981
545.856	793.01189
546.062	509.88883
546.268	818.37586
546.474	661.98807
546.679	664.10102
546.885	750.74171
547.091	788.78469
547.297	634.5208
547.502	833.17213
547.708	691.57044
547.914	689.45734
548.119	740.1748
548.325	793.01189
548.531	725.38156
548.736	833.17213
548.942	740.1748
549.147	757.08198
549.353	809.92106
549.559	816.26215
549.764	854.31041
549.97	917.73031
550.175	740.1748
550.381	886.01945
550.586	719.04176
550.792	966.35693
550.997	843.74116
551.203	892.36148
551.408	752.85512
551.614	1010.75834
551.819	892.36148
552.025	945.21445
552.23	890.24746
552.435	896.58954
552.641	955.7856
552.846	1010.75834
553.052	900.81763
553.257	995.95755
553.462	850.08269
553.668	1067.84985
553.873	1105.91306
554.078	1105.91306
554.283	900.81763
554.489	1137.63359
554.694	1004.41511
554.899	1105.91306
555.105	864.87988
555.31	981.15708
555.515	900.81763
555.72	1059.39158
555.925	1027.6739
556.131	1019.21607
556.336	1074.1936
556.541	1201.07748
556.746	1044.58984
556.951	1182.04396
557.156	1127.05997
557.361	1275.09919
557.567	1108.02773
557.772	1370.27407
557.977	1008.64392
558.182	1298.36382
558.387	1272.98424
558.592	1186.2736
558.797	1086.88125
559.002	1412.57488
559.207	1143.97782
559.412	1268.75434
559.617	1188.38843
559.822	1408.34479
560.027	1192.6181
560.232	1289.90392
560.437	1182.04396
560.642	1268.75434
560.847	1260.29458
561.051	1270.86929
561.256	1065.73527
561.461	1355.46888
561.666	1256.06471
561.871	1401.99965
562.076	1268.75434
562.281	1473.91137
562.485	1289.90392
562.69	1397.76956
562.895	1124.94526
563.1	1418.92003
563.305	1359.69893
563.509	1429.49528
563.714	1359.69893
563.919	1503.52204
564.123	1296.24884
564.328	1412.57488
564.533	1404.1147
564.737	1469.68126
564.942	1459.106
565.147	1602.92793
565.351	1382.96428
565.556	1408.34479
565.761	1442.18558
565.965	1645.22719
566.17	1463.33611
566.374	1611.38785
566.579	1480.25652
566.784	1700.21475
566.988	1579.663
567.193	1602.92793
567.397	1547.93778
567.602	1547.93778
567.806	1450.64579
568.011	1681.18081
568.215	1619.84774
568.42	1693.87013
568.624	1535.24762
568.828	1740.39667
569.033	1611.38785
569.237	1803.83912
569.442	1594.46798
569.646	1681.18081
569.85	1664.26156
570.055	1772.11834
570.259	1712.90391
570.463	1706.55934
570.668	1632.53751
570.872	1945.51234
571.076	1562.74293
571.281	1960.31261
571.485	1772.11834
571.689	1898.99534
571.893	1755.20022
572.098	1814.41251
572.302	1666.37647
572.506	1909.56762
572.71	1715.01876
572.914	2008.93996
573.119	1784.80677
573.323	1926.48299
573.527	1784.80677
573.731	1941.28363
573.935	1928.59738
574.139	2021.6248
574.343	1858.81948
574.547	1882.07942
574.751	1977.22685
574.955	1926.48299
575.159	1848.24658
575.364	2148.45911
575.568	1824.98578
575.772	2000.48327
575.976	1924.36859
576.18	2114.63926
576.383	1918.02535
576.587	2095.61472
576.791	1856.70491
576.995	2059.67784
577.199	1941.28363
577.403	2197.07155
577.607	2110.41163
577.811	2186.504
578.015	1945.51234
578.219	2148.45911
578.422	1983.56959
578.626	2042.76566
578.83	1848.24658
579.034	2194.95805
579.238	2057.56384
579.442	2258.35906
579.645	2140.00434
579.849	2370.34718
580.053	2232.99961
580.257	2404.14945
580.46	2101.9563
580.664	2374.57261
580.868	2224.54617
581.071	2275.26463
581.275	2203.41197
581.479	2410.48708
581.682	2285.83032
581.886	2281.60407
582.09	2239.33959
582.293	2414.71212
582.497	2298.50883
582.7	2537.21919
582.904	2427.38697
583.107	2524.5478
583.311	2211.86576
583.515	2406.26201
583.718	2383.02334
583.922	2516.09997
584.125	2205.52543
584.329	2368.23445
584.532	2385.136
584.735	2556.2255
584.939	2592.12369
585.142	2562.56073
585.346	2408.37455
585.549	2680.79821
585.753	2349.21943
585.956	2674.46505
586.159	2594.23524
586.363	2647.02003
586.566	2450.6232
586.769	2636.46369
586.973	2532.99544
587.176	2625.90704
587.379	2651.24248
587.582	2752.56586
587.786	2499.20377
587.989	2786.33357
588.192	2511.87599
588.395	2767.33966
588.599	2625.90704
588.802	2769.45015
589.005	2706.12969
589.208	2881.28635
589.411	2786.33357
589.615	2853.85847
589.818	2712.46227
590.021	2737.79141
590.224	2619.5729
590.427	2870.73745
590.63	2763.11864
590.833	3022.60632
591.036	2925.5878
591.239	2870.73745
591.442	2668.13177
591.645	2885.50581
591.848	2746.23404
592.051	2965.66451
592.254	2995.19127
592.457	3005.73582
592.66	2896.05421
592.863	3031.0412
593.066	2896.05421
593.269	2923.47836
593.472	2950.90003
593.675	3193.3636
593.878	2866.51779
594.081	3233.40242
594.284	2763.11864
594.486	3180.71852
594.689	3058.45285
594.892	3176.50337
595.095	3005.73582
595.298	3168.07286
595.5	3134.34823
595.703	3224.9737
595.906	2993.08231
596.109	3197.57849
596.311	3083.75358
596.514	3328.20703
596.717	3083.75358
596.92	3309.24887
597.122	2938.24418
597.325	3243.93796
597.528	3262.90087
597.73	3538.75729
597.933	3136.45614
598.136	3585.05404
598.338	3353.4824
598.541	3433.50446
598.743	3422.9767
598.946	3317.67489
599.148	3237.61669
599.351	3441.92635
599.554	3187.04114
599.756	3465.08506
599.959	3254.47307
600.161	3526.12935
600.363	3404.02562
600.566	3578.74137
600.768	3568.21989
600.971	3620.82262
601.173	3679.7237
601.376	3755.43163
601.578	3460.87455
601.78	3574.53284
601.983	3357.69472
602.185	3702.85933
602.388	3408.23709
602.59	3749.12359
602.792	3458.76926
602.995	3637.65302
603.197	3441.92635
603.399	3885.75816
603.601	3578.74137
603.804	3625.03033
604.006	3574.53284
604.208	3496.6616
604.41	3704.96245
604.613	3749.12359
604.815	3555.59351
605.017	3810.09392
605.219	3534.54805
605.421	3847.92926
605.623	3664.99983
605.826	3852.13279
606.028	3648.1714
606.23	3704.96245
606.432	3698.65302
606.634	3805.8896
606.836	3471.40069
607.038	3831.11435
607.24	3683.93035
607.442	3774.35469
607.644	3641.86043
607.846	3992.90466
608.048	3839.52196
608.25	3986.60338
608.452	3715.47778
608.654	3902.56893
608.856	3824.80843
609.058	3814.29817
609.26	3782.76443
609.462	4112.59364
609.664	3940.38844
609.866	3934.08564
610.067	4001.30607
610.269	4087.40155
610.471	3896.26504
610.673	3898.36635
610.875	3820.60438
611.077	4024.40826
611.278	3971.8997
611.48	4020.20804
611.682	3822.70641
611.884	4099.99797
612.085	3900.46765
612.287	3982.40243
612.489	3631.34176
612.69	4045.40809
612.892	3894.1637
613.094	4102.0973
613.295	3864.7429
613.497	4024.40826
613.699	3931.98467
613.9	4104.19661
614.102	4093.69985
614.304	4240.60664
614.505	3810.09392
614.707	4213.33178
614.908	3950.8927
615.11	4047.50796
615.311	4183.95484
615.513	4018.10791
615.714	4083.20258
615.916	4286.75587
616.117	3978.2014
616.319	4158.77131
616.52	4066.40586
616.722	4146.17841
616.923	4060.10674
617.124	4272.07315
617.326	3913.075
617.527	4435.62083
617.729	4177.65924
617.93	4248.99818
618.131	4020.20804
618.333	4326.60367
618.534	4221.72442
618.735	4420.94887
618.937	4259.48712
619.138	4169.26482
619.339	4053.80744
619.54	4393.69812
619.742	4066.40586
619.943	4269.97553
620.144	4003.40637
620.345	4228.01869
620.546	4246.90032
620.748	4527.8199
620.949	4278.36587
621.15	4582.28105
621.351	4330.79773
621.552	4234.31276
621.753	4047.50796
621.954	4324.50661
622.155	4160.87005
622.356	4418.85279
622.558	4255.29161
622.759	4337.08864
622.96	4093.69985
623.161	4408.37206
623.362	4263.68255
623.563	4431.42895
623.764	4464.96152
623.965	4720.46077
624.166	4490.10725
624.366	4536.19952
624.567	4202.84049
624.768	4464.96152
624.969	4238.5087
625.17	4532.00975
625.371	4314.021
625.572	4536.19952
625.773	4402.08336
625.973	4728.83215
626.174	4506.86931
626.375	4804.15827
626.576	4733.0177
626.777	4783.2373
626.977	4370.63691
627.178	4661.85101
627.379	4402.08336
627.58	4552.95768
627.78	4519.43993
627.981	4808.34219
628.182	4552.95768
628.382	4693.25129
628.583	4513.15472
628.784	4802.06628
628.984	4425.14097
629.185	4672.31833
629.386	4395.79446
629.586	4779.05283
629.787	4523.62996
629.987	4854.35932
630.188	4663.94452
630.388	4709.99604
630.589	4609.50598
630.79	4820.89341
630.99	4622.07007
631.191	4820.89341
631.391	4747.66643
631.591	4862.72489
631.792	4825.07697
631.992	5004.88337
632.193	4714.182
632.393	4787.42167
632.594	4686.97164
632.794	5109.34366
632.994	4653.47675
633.195	4822.9852
633.395	4774.86827
633.595	5065.47739
633.796	4640.91468
633.996	5023.69049
634.196	4636.72714
634.397	5019.51129
634.597	4848.08491
634.797	5149.02337
634.997	4619.97611
635.198	4919.18287
635.398	4942.17948
635.598	5080.10061
635.798	5004.88337
635.998	4965.17331
636.199	5034.13808
636.399	5159.46401
636.599	4887.81939
636.799	4988.16436
636.999	4848.08491
637.199	4858.54215
637.399	4900.3654
637.599	4948.45081
637.799	4908.72895
637.999	5105.16636
638.199	4965.17331
638.399	5073.83365
638.599	4845.99339
638.799	5192.87013
638.999	4854.35932
639.199	5288.87945
639.399	4975.62414
639.599	5217.9208
639.799	4770.68362
639.999	5288.87945
640.199	5165.72811
640.399	5151.11154
640.599	4992.34425
640.799	5259.66446
640.998	5159.46401
641.198	5194.95781
641.398	5021.6009
641.598	5130.22876
641.798	5245.05524
641.997	5190.78242
642.197	4990.25432
642.397	5119.7865
642.597	5153.19969
642.796	5217.9208
642.996	5107.25502
643.196	5432.80057
643.395	5249.22942
643.595	5495.34009
643.795	5407.77883
643.994	5397.35211
644.194	5253.4035
644.394	5372.32559
644.593	5186.60693
644.793	5305.57168
644.992	5117.69798
645.192	5389.01031
645.392	5328.52104
645.591	5464.07297
645.791	5347.29569
645.99	5441.14039
646.19	5297.22575
646.389	5522.43397
646.589	5332.69335
646.788	5370.23989
646.987	5357.72522
647.187	5391.0958
647.386	5614.10679
647.586	5651.59616
647.785	5526.6019
647.984	5599.52553
648.184	5374.41126
648.383	5714.06144
648.582	5420.29012
648.782	5443.22529
648.981	5368.15417
649.18	5676.58482
649.38	5609.94084
649.579	5580.7765
649.778	5480.74943
649.977	5822.28429
650.177	5303.48523
650.376	5739.04161
650.575	5363.98266
650.774	5664.09091
650.973	5472.41139
651.173	5668.25564
651.372	5639.10055
651.571	5809.8003
651.77	5649.51362
651.969	5813.96172
652.168	5672.42028
652.367	5893.01088
652.566	5455.73418
652.765	5720.3068
652.964	5641.18321
653.163	5764.01838
653.362	5888.85125
653.561	5826.44543
653.76	5582.85982
653.959	5703.65204
654.158	5501.59287
654.357	5751.53042
654.556	5514.09781
654.755	5780.66767
654.954	5543.27271
655.153	5905.48921
655.352	5845.16941
655.551	5944.99832
655.749	5924.20511
655.948	5880.5317
656.147	5780.66767
656.346	5924.20511
656.545	5736.96006
656.743	5930.44333
656.942	5813.96172
657.141	6034.38226
657.34	5701.57009
657.538	5947.07752
657.737	6055.16298
657.936	6026.06932
658.135	5747.36758
658.333	5930.44333
658.532	5797.31545
658.731	5888.85125
658.929	5630.76968
659.128	5947.07752
659.326	5776.50549
659.525	5965.78918
659.724	5822.28429
659.922	6009.44229
660.121	5855.57079
660.319	6129.9541
660.518	5849.33003
660.716	5926.28454
660.915	5822.28429
661.113	6132.03119
661.312	5805.63878
661.51	5932.52268
661.709	6071.78587
661.907	5996.97103
662.105	6051.00703
662.304	6333.398
662.502	6113.33648
662.701	6229.62821
662.899	5905.48921
663.097	6208.86723
663.296	6063.47461
663.494	6119.56826
663.692	6013.59919
663.891	6213.01961
664.089	5876.37178
664.287	6117.49103
664.485	6071.78587
664.684	6590.49564
664.882	6073.86362
665.08	6240.00782
665.278	6173.56818
665.476	6316.79876
665.675	5834.76744
665.873	6223.40016
666.071	5942.91911
666.269	6144.49327
666.467	6017.75599
666.665	6132.03119
666.863	5905.48921
667.061	6051.00703
667.259	5974.10486
667.457	6269.06762
667.655	6034.38226
667.853	6190.18034
668.051	5874.29179
668.249	6061.39674
668.447	6142.41632
668.645	6302.2732
668.843	6190.18034
669.041	6308.49858
669.239	5999.04963
669.437	6132.03119
669.635	6092.56235
669.833	6173.56818
670.031	5865.97158
670.229	6121.64548
670.426	6117.49103
670.624	6055.16298
670.822	5876.37178
671.02	6410.15004
671.218	6233.78013
671.415	6254.5383
671.613	6096.71736
671.811	6154.87769
672.009	6156.95451
672.206	6264.9165
672.404	6167.33823
672.602	6188.1039
672.799	6142.41632
672.997	6312.64872
673.195	6200.56218
673.392	6325.09857
673.59	6181.87444
673.788	6304.34835
673.985	5880.5317
674.183	6362.44307
674.38	6374.88955
674.578	6242.08368
674.775	6113.33648
674.973	6254.5383
675.17	6221.3241
675.368	6277.36958
675.565	6210.94343
675.763	6482.72398
675.96	6140.33934
676.158	6277.36958
676.355	6269.06762
676.553	6486.8702
676.75	6412.22398
676.947	6300.19803
677.145	6023.99102
677.342	6459.9181
677.539	6107.10449
677.737	6279.44501
677.934	6109.18184
678.131	6445.4038
678.329	6262.84091
678.526	6331.32318
678.723	6325.09857
678.92	6627.78665
679.118	6327.17346
679.315	6464.06483
679.512	6173.56818
679.709	6364.51754
679.906	6188.1039
680.104	6424.66711
680.301	6237.93195
680.498	6323.02365
680.695	6096.71736
680.892	6362.44307
681.089	6115.41377
681.286	6565.63081
681.483	6167.33823
681.68	6491.01633
681.877	6173.56818
682.075	6662.99908
682.272	6215.09577
682.469	6156.95451
682.665	6167.33823
682.862	6702.34629
683.059	6196.40951
683.256	6430.88836
683.453	6017.75599
683.65	6080.09674
683.847	5876.37178
684.044	6146.5702
684.241	6173.56818
684.438	6609.14208
684.635	6094.63987
684.831	6621.572
685.028	6046.85098
685.225	6453.69782
685.422	5974.10486
685.619	6287.7465
685.815	6161.10807
686.012	6323.02365
686.209	6217.1719
686.405	6513.81839
686.602	6121.64548
686.799	6372.8152
686.996	6345.84645
687.192	6349.99574
687.389	6196.40951
687.586	6196.40951
687.782	5963.7102
687.979	6403.92809
688.175	5992.81376
688.372	6084.25204
688.568	6046.85098
688.765	6345.84645
688.962	5907.56885
689.158	6312.64872
689.355	6208.86723
689.551	6412.22398
689.748	6090.48481
689.944	6323.02365
690.14	6229.62821
690.337	6464.06483
690.533	6011.52075
690.73	6248.31109
690.926	6156.95451
691.123	6223.40016
691.319	6231.70418
691.515	6293.97237
691.712	6048.92902
691.908	6210.94343
692.104	6109.18184
692.301	6225.4762
692.497	6051.00703
692.693	6208.86723
692.889	6337.54758
693.086	6339.62233
693.282	5992.81376
693.478	6327.17346
693.674	5951.23583
693.87	6159.0313
694.067	6092.56235
694.263	6420.51949
694.459	6221.3241
694.655	6343.77176
694.851	6036.46044
695.047	6007.36381
695.243	6057.24093
695.439	6115.41377
695.635	6084.25204
695.831	6248.31109
696.027	5963.7102
696.224	6032.30406
696.42	6183.95095
696.615	6096.71736
696.811	5990.73509
697.007	6304.34835
697.203	6013.59919
697.399	6208.86723
697.595	6040.61673
697.791	6269.06762
697.987	6219.24801
698.183	6507.59993
698.379	6217.1719
698.575	6296.04761
698.77	6082.1744
698.966	6225.4762
699.162	6019.83436
699.358	6408.07608
699.554	6165.26153
699.749	6354.14494
699.945	6115.41377
700.141	6240.00782
700.337	6279.44501
700.532	6385.26098
700.728	6254.5383
700.924	6420.51949
701.119	5990.73509
701.315	6323.02365
701.511	5990.73509
701.706	5974.10486
701.902	5791.07271
702.097	6098.79484
702.293	6046.85098
702.489	6418.44565
702.684	6432.96206
702.88	6385.26098
703.075	6138.26234
703.271	6175.64478
703.466	6092.56235
703.662	6221.3241
703.857	6059.31885
704.053	6345.84645
704.248	6032.30406
704.443	6323.02365
704.639	6188.1039
704.834	6179.79791
705.03	6281.52042
705.225	6256.61398
705.42	5876.37178
705.616	6080.09674
705.811	5957.47312
706.006	6107.10449
706.202	6194.33315
706.397	6115.41377
706.592	6217.1719
706.787	6287.7465
706.983	6190.18034
707.178	6356.21951
707.373	6196.40951
707.568	6098.79484
707.763	6082.1744
707.959	6150.724
708.154	6063.47461
708.349	6368.66642
708.544	5957.47312
708.739	6293.97237
708.934	5732.79689
709.129	6144.49327
709.324	5963.7102
709.519	6169.4149
709.714	5938.76061
709.909	6414.29789
710.104	5926.28454
710.299	5938.76061
710.494	5972.02597
710.689	6256.61398
710.884	5905.48921
711.079	6007.36381
711.274	5745.28612
711.469	6231.70418
711.664	5899.25015
711.859	6105.02711
712.054	5980.34137
712.249	6217.1719
712.443	5930.44333
712.638	5897.17042
712.833	5932.52268
713.028	6159.0313
713.223	5926.28454
713.417	6119.56826
713.612	6121.64548
713.807	6320.94871
714.002	6028.14759
714.196	6179.79791
714.391	6067.63029
714.586	6142.41632
714.78	6011.52075
714.975	6279.44501
715.17	6055.16298
715.364	6258.68965
715.559	6073.86362
715.754	6188.1039
715.948	6030.22584
716.143	6196.40951
716.337	5799.39632
716.532	6250.38685
716.726	6127.87698
716.921	6227.55222
717.115	5924.20511
717.31	6150.724
717.504	6144.49327
717.699	6237.93195
717.893	6073.86362
718.088	6138.26234
718.282	5739.04161
718.476	5957.47312
718.671	5809.8003
718.865	6040.61673
719.059	5674.50256
719.254	6005.2853
719.448	5930.44333
719.642	6111.25917
719.837	5807.71955
720.031	5907.56885
720.225	5734.87849
720.419	5974.10486
720.614	5678.66706
720.808	6098.79484
721.002	5739.04161
721.196	5822.28429
721.39	5907.56885
721.585	6073.86362
721.779	5824.36487
721.973	6316.79876
722.167	5909.64847
722.361	6055.16298
722.555	5838.9283
722.749	6094.63987
722.943	5630.76968
723.137	6032.30406
723.331	5764.01838
723.525	5880.5317
723.719	5911.72806
723.913	6113.33648
724.107	5782.74873
724.301	5851.41031
724.495	5618.27266
724.689	5934.60201
724.883	5784.82976
725.077	6132.03119
725.271	5863.89147
725.465	5982.42016
725.659	5818.12305
725.853	5913.80763
726.046	5805.63878
726.24	5680.74927
726.434	5724.47026
726.628	5863.89147
726.822	5761.93711
727.015	5940.83987
727.209	5749.44901
727.403	5907.56885
727.596	5697.40611
727.79	5880.5317
727.984	5984.49893
728.177	6071.78587
728.371	5774.42436
728.565	6017.75599
728.758	5824.36487
728.952	5830.60648
729.146	5778.58659
729.339	6134.10826
729.533	5984.49893
729.726	5913.80763
729.92	5832.68697
730.113	6136.18531
730.307	5832.68697
730.5	6192.25675
730.694	5905.48921
730.887	6063.47461
731.081	5980.34137
731.274	6071.78587
731.468	5811.88102
731.661	5822.28429
731.854	5709.89775
732.048	5884.69152
732.241	5855.57079
732.435	5759.85582
732.628	5780.66767
732.821	5882.61162
733.014	5996.97103
733.208	6030.22584
733.401	6028.14759
733.594	5996.97103
733.788	5986.57767
733.981	5938.76061
734.174	6053.08502
734.367	5774.42436
734.56	5651.59616
734.754	5984.49893
734.947	5942.91911
735.14	5884.69152
735.333	5836.84788
735.526	5697.40611
735.719	5768.18085
735.912	5820.20368
736.105	5905.48921
736.298	5855.57079
736.491	5980.34137
736.684	5774.42436
736.877	5697.40611
737.07	5928.36395
737.263	5572.44298
737.456	6038.5386
737.649	6013.59919
737.842	5972.02597
738.035	5834.76744
738.228	5791.07271
738.421	5830.60648
738.614	5994.89241
738.807	5872.21177
739	6063.47461
739.192	5799.39632
739.385	5990.73509
739.578	5699.48811
739.771	5901.32986
739.964	5784.82976
740.156	5982.42016
740.349	5666.17329
740.542	6038.5386
740.735	5768.18085
740.927	5976.18372
741.12	5697.40611
741.313	5832.68697
741.505	5940.83987
741.698	5666.17329
741.891	5924.20511
742.083	5863.89147
742.276	5965.78918
742.468	6007.36381
742.661	5876.37178
742.854	5863.89147
743.046	5664.09091
743.239	5899.25015
743.431	5801.47716
743.624	5632.85243
743.816	5503.67709
744.009	5776.50549
744.201	5832.68697
744.393	5724.47026
744.586	5901.32986
744.778	5741.12314
744.971	5572.44298
745.163	5699.48811
745.355	5532.85363
745.548	5570.35955
745.74	5568.27608
745.932	5784.82976
746.125	5770.26204
746.317	5732.79689
746.509	5822.28429
746.702	5936.68132
746.894	5701.57009
747.086	5549.52387
747.278	5616.18974
747.471	5714.06144
747.663	5697.40611
747.855	5801.47716
748.047	5699.48811
748.239	5849.33003
748.431	5745.28612
748.623	5826.44543
748.815	5589.10964
749.008	5801.47716
749.2	5761.93711
749.392	5605.77479
749.584	5647.43105
749.776	5705.73397
749.968	5749.44901
750.16	5972.02597
750.352	5643.26585
750.544	5551.60754
750.736	5689.07788
750.928	5701.57009
751.12	5641.18321
751.311	5832.68697
751.503	5572.44298
751.695	5820.20368
751.887	5430.71555
752.079	5793.15365
752.271	5547.44017
752.463	5516.18189
752.654	5647.43105
752.846	5878.45175
753.038	5505.76128
753.23	5637.01787
753.421	5572.44298
753.613	5641.18321
753.805	5680.74927
753.997	5824.36487
754.188	5457.81891
754.38	5774.42436
754.572	5507.84545
754.763	5482.83388
754.955	5534.93749
755.146	5386.92481
755.338	5391.0958
755.53	5468.24223
755.721	5451.56464
755.913	5684.91362
756.104	5562.02556
756.296	5743.20464
756.487	5487.00271
756.679	5543.27271
756.87	5276.3593
757.062	5464.07297
757.253	5436.97053
757.445	5543.27271
757.636	5593.27607
757.827	5639.10055
758.019	5405.69354
758.21	5526.6019
758.401	5484.9183
758.593	5409.86411
758.784	5105.16636
758.975	5176.16781
759.167	5409.86411
759.358	5455.73418
759.549	5643.26585
759.74	5247.14234
759.932	5226.27028
760.123	5416.11979
760.314	5265.9252
760.505	5272.18573
760.696	5280.53278
760.888	5355.63936
761.079	5330.60721
761.27	5268.01207
761.461	5326.43485
761.652	5263.83831
761.843	5038.31696
762.034	5230.44488
762.225	5021.6009
762.416	5180.34353
762.607	5155.28782
762.798	5338.95163
762.989	5274.27253
763.18	5424.46036
763.371	5232.53214
763.562	5318.08987
763.753	5065.47739
763.944	5359.81106
764.135	5036.22753
764.326	5280.53278
764.517	5238.7938
764.708	5236.7066
764.899	5098.90024
765.089	5090.54508
765.28	4986.07438
765.471	5180.34353
765.662	4946.36039
765.853	5080.10061
766.043	5096.81148
766.234	5078.01165
766.425	5013.24232
766.615	5109.34366
766.806	4868.99882
766.997	5136.49384
767.187	5094.7227
767.378	5040.40636
767.569	4908.72895
767.759	5034.13808
767.95	5186.60693
768.141	4795.79015
768.331	5084.27847
768.522	4979.8043
768.712	5044.58509
768.903	4810.43412
769.093	4772.77596
769.284	4983.98438
769.474	4904.54722
769.665	4937.99849
769.855	4889.91045
770.046	4965.17331
770.236	4776.96056
770.426	4883.6372
770.617	4921.27359
770.807	5115.60943
770.998	4963.08308
771.188	5128.14036
771.378	4954.72192
771.569	5146.93517
771.759	5013.24232
771.949	4722.55365
772.139	4552.95768
772.33	4695.34446
772.52	4670.22491
772.71	4789.51383
772.9	4544.57878
773.09	4716.27494
773.281	4712.08903
773.471	4709.99604
773.661	4789.51383
773.851	4797.88222
774.041	4626.25791
774.231	4952.63157
774.421	4605.31778
774.611	4722.55365
774.802	4515.24981
774.992	4661.85101
775.182	4391.60175
775.372	4519.43993
775.562	4578.09226
775.752	4498.48846
775.942	4427.23699
776.131	4603.22364
776.321	4339.18557
776.511	4519.43993
776.701	4640.91468
776.891	4751.85158
777.081	4488.0119
777.271	4588.56406
777.461	4536.19952
777.651	4674.41173
777.84	4511.05961
778.03	4389.50537
778.22	4360.15367
778.41	4693.25129
778.599	4555.05235
778.789	4469.1527
778.979	4529.91484
779.169	4502.67893
779.358	4427.23699
779.548	4787.42167
779.738	4328.70071
779.927	4429.33298
780.117	4483.82112
780.307	4435.62083
780.496	4288.85332
780.686	4427.23699
780.875	4309.8266
781.065	4471.24825
781.254	4376.92659
781.444	4420.94887
781.633	4177.65924
781.823	4672.31833
782.012	4469.1527
782.202	4431.42895
782.391	4286.75587
782.581	4404.17961
782.77	4301.43755
782.96	4460.77026
783.149	4169.26482
783.338	4355.96022
783.528	4194.44708
783.717	4393.69812
783.906	4402.08336
784.096	4186.05333
784.285	4104.19661
784.474	4198.64383
784.663	4060.10674
784.853	4093.69985
785.042	4152.47495
785.231	4251.09601
785.42	3898.36635
785.61	4137.78272
785.799	3982.40243
785.988	4326.60367
786.177	3904.67018
786.366	4202.84049
786.555	4213.33178
786.744	4058.007
786.933	4001.30607
787.122	4129.38669
787.312	3982.40243
787.501	4267.87789
787.69	4141.9806
787.879	4213.33178
788.068	4083.20258
788.257	4074.80438
788.445	3791.17386
788.634	4026.50833
788.823	3763.84207
789.012	4032.80844
789.201	3774.35469
789.39	3797.48072
789.579	3763.84207
789.768	4133.58475
789.957	3957.19501
790.145	3892.06235
790.334	3948.79189
790.523	3860.53961
790.712	3866.84452
790.9	3704.96245
791.089	3799.58297
791.278	4009.70715
791.467	3721.78675
791.655	3877.3523
791.844	3812.19605
792.033	3816.40026
792.221	3730.19843
792.41	3841.62382
792.599	3673.41359
792.787	3784.86682
792.976	3824.80843
793.164	3713.37475
793.353	3839.52196
793.541	4009.70715
793.73	3557.69795
793.918	3730.19843
794.107	3532.4434
794.295	3715.47778
794.484	3673.41359
794.672	3820.60438
794.861	3561.90678
795.049	3725.99263
795.238	3654.4822
795.426	4016.00775
795.614	3772.25221
795.803	3692.34342
795.991	3671.31017
796.179	3789.07153
796.368	3639.75673
796.556	3738.60981
796.744	3597.67886
796.932	3873.14924
797.121	3345.05756
797.309	3728.09554
797.497	3664.99983
797.685	3528.23405
797.874	3505.08133
798.062	3652.37862
798.25	3422.9767
798.438	3730.19843
798.626	3545.07101
798.814	3763.84207
799.002	3856.33624
799.19	3782.76443
799.378	3555.59351
799.566	3696.54984
799.755	3589.26238
799.943	3528.23405
800.131	3469.2955
800.318	3410.34281
800.506	3475.61103
800.694	3420.8711
800.882	3549.28006
801.07	3717.58079
801.258	3734.40416
801.446	3822.70641
801.634	3513.50076
801.822	3542.96645
802.01	3431.39895
802.197	3599.78293
802.385	3454.55864
802.573	3631.34176
802.761	3454.55864
802.949	3742.81538
803.136	3574.53284
803.324	3606.09503
803.512	3509.29108
803.699	3515.60557
803.887	3420.8711
804.075	3534.54805
804.262	3477.71617
804.45	3858.43793
804.638	3536.65268
804.825	3553.48904
805.013	3494.55663
805.201	3782.76443
805.388	3332.41977
805.576	3612.40697
805.763	3441.92635
805.951	3637.65302
806.138	3612.40697
806.326	3709.16864
806.513	3519.81514
806.701	3654.4822
806.888	3252.36609
807.075	3688.13693
807.263	3275.54204
807.45	3494.55663
807.638	3429.29341
807.825	3719.68378
808.012	3378.75527
808.2	3378.75527
808.387	3420.8711
808.574	3574.53284
808.761	3444.03178
808.949	3612.40697
809.136	3637.65302
809.323	3740.71261
809.51	3524.02463
809.698	3677.62035
809.885	3294.50267
810.072	3683.93035
810.259	3599.78293
810.446	3728.09554
810.633	3742.81538
810.82	3866.84452
811.008	3538.75729
811.195	3664.99983
811.382	3462.97981
811.569	3738.60981
811.756	3469.2955
811.943	3742.81538
812.13	3477.71617
812.317	3673.41359
812.504	3540.86188
812.691	3864.7429
812.878	3553.48904
813.064	3942.48933
813.251	3711.27171
813.438	3854.23452
813.625	3570.32423
813.812	3656.58577
813.999	3395.60245
814.186	3625.03033
814.372	3728.09554
814.559	3757.53427
814.746	3639.75673
814.933	3538.75729
815.12	3378.75527
815.306	3542.96645
815.493	3288.18261
815.68	3730.19843
815.866	3572.42854
816.053	3580.84561
816.24	3406.13136
816.426	3595.57477
816.613	3486.13654
816.799	3553.48904
816.986	3364.01307
817.173	3622.92649
817.359	3456.66396
817.546	3361.90697
817.732	3349.27002
817.919	3547.17554
818.105	3366.11915
818.292	3271.32839
818.478	3475.61103
818.665	3498.76656
818.851	3418.76548
819.037	3690.24018
819.224	3591.36653
819.41	3532.4434
819.597	3418.76548
819.783	3675.51698
819.969	3418.76548
820.156	3553.48904
820.342	3479.82129
820.528	3561.90678
820.714	3509.29108
820.901	3599.78293
821.087	3479.82129
821.273	3646.06776
821.459	3557.69795
821.646	3761.73949
821.832	3814.29817
822.018	3627.13416
822.204	3496.6616
822.39	3517.71036
822.576	3376.6493
822.762	3566.11554
822.948	3309.24887
823.134	3566.11554
823.32	3300.82257
823.507	3471.40069
823.693	3342.9513
823.879	3448.24258
824.065	3267.11466
824.25	3336.63243
824.436	3347.16379
824.622	3300.82257
824.808	3081.64528
824.994	3385.0731
825.18	3165.96519
825.366	3536.65268
825.552	3342.9513
825.738	3469.2955
825.923	3239.72379
826.109	3524.02463
826.295	3254.47307
826.481	3532.4434
826.667	3313.46191
826.852	3368.22522
827.038	3237.61669
827.224	3618.71874
827.409	3340.84503
827.595	3439.82091
827.781	3144.88762
827.966	3595.57477
828.152	3140.67191
828.338	3376.6493
828.523	3085.86188
828.709	3385.0731
828.894	2984.64633
829.08	3102.72765
829.266	3031.0412
829.451	3265.00777
829.637	3047.91022
829.822	3022.60632
830.008	2896.05421
830.193	2946.68147
830.378	2839.08862
830.564	3311.3554
830.749	2971.99192
830.935	3218.65197
831.12	2925.5878
831.305	3326.10064
831.491	3001.51805
831.676	3199.68592
831.861	2984.64633
832.047	3418.76548
832.232	3016.27999
832.417	3224.9737
832.602	3033.14988
832.788	3311.3554
832.973	3098.5113
833.158	3195.47105
833.343	3058.45285
833.528	3123.80843
833.714	3031.0412
833.899	3182.82608
834.084	2948.79076
834.269	3149.10326
834.454	3024.71506
834.639	3262.90087
834.824	3018.38878
835.009	3092.18666
835.194	2959.33696
835.379	3235.50956
835.564	3109.05205
835.749	3174.39576
835.934	3024.71506
836.119	3056.34436
836.304	2767.33966
836.489	2860.18819
836.674	2847.52862
836.859	2828.5383
837.044	2727.23783
837.228	2862.29807
837.413	2682.90924
837.598	3016.27999
837.783	2855.96839
837.968	2988.86435
838.152	2587.90056
838.337	3024.71506
838.522	2786.33357
838.707	2984.64633
838.891	2621.6843
839.076	2796.88527
839.261	2874.95705
839.445	2879.1766
839.63	2611.12721
839.815	3012.06237
839.999	2691.35322
840.184	2879.1766
840.368	2845.41864
840.553	3001.51805
840.737	2803.21613
840.922	2889.72522
841.106	2410.48708
841.291	2773.67109
841.475	2609.01576
841.66	2763.11864
841.844	2478.0825
842.029	2625.90704
842.213	2651.24248
842.397	2615.35008
842.582	2446.39853
842.766	2628.0184
842.951	2304.84796
843.135	2693.46418
843.319	2397.81173
843.504	2511.87599
843.688	2361.8962
843.872	2547.77837
844.056	2547.77837
844.241	2817.98764
844.425	2397.81173
844.609	2414.71212
844.793	2520.32391
844.977	2636.46369
845.161	2351.33225
845.346	2456.96013
845.53	2482.30685
845.714	2583.67737
845.898	2173.82267
846.082	2566.78415
846.266	2273.15147
846.45	2532.99544
846.634	2484.419
846.818	2433.72425
847.002	2116.75305
847.186	2480.19468
847.37	2298.50883
847.554	2587.90056
847.738	2266.81192
847.922	2452.73552
848.106	2406.26201
848.29	2389.36128
848.473	2287.94343
848.657	2370.34718
848.841	2222.43279
849.025	2353.44506
849.209	2283.7172
849.392	2499.20377
849.576	2372.4599
849.76	2296.39577
849.944	2239.33959
850.127	2315.41298
850.311	2243.5662
850.495	2440.06144
850.678	2131.54943
850.862	2334.42942
851.046	2197.07155
851.229	2311.187
851.413	2182.27692
851.596	2342.88092
851.78	2140.00434
851.964	2245.67949
852.147	1964.54121
852.331	2241.4529
852.514	2030.08122
852.698	2309.074
852.881	1945.51234
853.065	2205.52543
853.248	1956.08399
853.431	2199.18503
853.615	1835.55894
853.798	2190.73104
853.982	1869.39225
854.165	2021.6248
854.348	1915.91093
854.532	2030.08122
854.715	1898.99534
854.898	1930.71177
855.081	1882.07942
855.265	2142.11804
855.448	1913.7965
855.631	2076.58957
855.814	2004.71163
855.997	2025.85303
856.181	1833.44432
856.364	2051.2218
856.547	1901.10981
856.73	2068.13377
856.913	1896.88087
857.096	2027.96713
857.279	1810.18317
857.462	1865.16316
857.645	1793.26563
857.828	1928.59738
858.011	1683.29571
858.194	1943.39799
858.377	1715.01876
858.56	1915.91093
858.743	1691.75525
858.926	1786.92149
859.109	1712.90391
859.292	1873.62133
859.475	1780.57731
859.658	1797.49504
859.841	1586.008
860.023	1797.49504
860.206	1664.26156
860.389	1814.41251
860.572	1566.97295
860.755	1956.08399
860.937	1655.80187
861.12	1695.98501
861.303	1723.47812
861.486	1615.6178
861.668	1577.548
861.851	1509.86717
862.034	1492.94681
862.216	1738.28187
862.399	1511.98221
862.581	1759.42978
862.764	1539.47768
862.947	1670.6063
863.129	1611.38785
863.312	1685.4106
863.494	1687.52549
863.677	1850.36117
863.859	1596.58297
864.042	1755.20022
864.224	1558.51289
864.406	1715.01876
864.589	1355.46888
864.771	1607.1579
864.954	1416.80498
865.136	1592.35299
865.318	1463.33611
865.501	1560.62791
865.683	1509.86717
865.865	1619.84774
866.048	1393.53948
866.23	1554.28285
866.412	1653.68694
866.594	1666.37647
866.777	1361.81396
866.959	1509.86717
867.141	1327.9737
867.323	1492.94681
867.505	1391.42444
867.687	1522.55741
867.869	1357.58391
868.052	1469.68126
868.234	1359.69893
868.416	1349.12382
868.598	1294.13387
868.78	1395.65452
868.962	1478.14147
869.144	1467.56621
869.326	1465.45116
869.508	1550.05281
869.69	1315.28371
869.872	1566.97295
870.054	1296.24884
870.236	1537.36265
870.417	1357.58391
870.599	1433.72538
870.781	1412.57488
870.963	1412.57488
871.145	1239.14535
871.327	1385.07932
871.508	1264.52445
871.69	1311.05372
871.872	1245.49009
872.054	1495.06186
872.235	1308.93873
872.417	1308.93873
872.599	1076.30819
872.78	1340.66375
872.962	1298.36382
873.144	1357.58391
873.325	1198.96263
873.507	1437.95548
873.689	1226.45595
873.87	1467.56621
874.052	1289.90392
874.233	1414.68993
874.415	1165.12552
874.596	1374.50414
874.778	1179.92914
874.959	1137.63359
875.141	1213.76666
875.322	1298.36382
875.503	1148.20733
875.685	1334.31872
875.866	1192.6181
876.048	1272.98424
876.229	1124.94526
876.41	1342.77877
876.592	1230.68574
876.773	1418.92003
876.954	1188.38843
877.136	1450.64579
877.317	1207.42206
877.498	1344.89378
877.679	1179.92914
877.86	1256.06471
878.042	1127.05997
878.223	1336.43373
878.404	1349.12382
878.585	1190.50327
878.766	1122.83055
878.947	1275.09919
879.128	1215.88153
879.309	1372.38911
879.49	1308.93873
879.672	1327.9737
879.853	1205.3072
880.034	1304.70876
880.215	1325.8587
880.396	1264.52445
880.576	1063.6207
880.757	1370.27407
880.938	1308.93873
881.119	1410.45983
881.3	1247.60501
881.481	1480.25652
881.662	1374.50414
881.843	1501.40699
882.023	1332.20371
882.204	1552.16783
882.385	1442.18558
882.566	1393.53948
882.747	1325.8587
882.927	1393.53948
883.108	1336.43373
883.289	1342.77877
883.469	1173.58471
883.65	1190.50327
883.831	1213.76666
884.011	1385.07932
884.192	1315.28371
884.373	1433.72538
884.553	1300.4788
884.734	1435.84043
884.914	1357.58391
885.095	1509.86717
885.275	1228.57084
885.456	1382.96428
885.636	1179.92914
885.817	1444.30064
885.997	1258.17964
886.178	1423.15012
886.358	1148.20733
886.538	1349.12382
886.719	1196.84779
886.899	1433.72538
887.08	1399.88461
887.26	1361.81396
887.44	1245.49009
887.621	1401.99965
887.801	1156.66639
887.981	1492.94681
888.161	1446.41569
888.342	1501.40699
888.522	1484.48662
888.702	1539.47768
888.882	1366.04401
889.062	1357.58391
889.242	1272.98424
889.423	1501.40699
889.603	1317.3987
889.783	1340.66375
889.963	1192.6181
890.143	1505.63708
890.323	1179.92914
890.503	1374.50414
890.683	1234.91554
890.863	1342.77877
891.043	1226.45595
891.223	1368.15904
891.403	1336.43373
891.583	1482.37157
891.763	1148.20733
891.943	1353.35386
892.122	1133.40413
892.302	1256.06471
892.482	1124.94526
892.662	1330.0887
892.842	1146.09257
893.022	1215.88153
893.201	1230.68574
893.381	1355.46888
893.561	1188.38843
893.741	1382.96428
893.92	1228.57084
894.1	1228.57084
894.28	1205.3072
894.459	1256.06471
894.639	1203.19234
894.819	1264.52445
894.998	1215.88153
895.178	1431.61033
895.357	1300.4788
895.537	1289.90392
895.716	1205.3072
895.896	1268.75434
896.075	1154.55162
896.255	1163.01073
896.434	998.07193
896.614	1116.48645
896.793	1036.13182
896.973	1207.42206
897.152	1002.30071
897.331	1173.58471
897.511	981.15708
897.69	1173.58471
897.87	1103.79839
898.049	1080.5374
898.228	1036.13182
898.407	1213.76666
898.587	1027.6739
898.766	1131.2894
898.945	943.10024
899.124	1027.6739
899.304	860.65207
899.483	1205.3072
899.662	1002.30071
899.841	1053.04795
900.02	1031.90285
900.199	1165.12552
900.378	799.35276
900.557	1108.02773
900.737	799.35276
900.916	1137.63359
901.095	911.388
901.274	915.6162
901.453	1019.21607
901.632	938.87185
901.811	866.9938
901.989	917.73031
902.168	858.53818
902.347	837.39972
902.526	778.21687
902.705	833.17213
902.884	735.9481
903.063	1029.78837
903.242	900.81763
903.42	938.87185
903.599	862.76597
903.778	970.58551
903.957	765.53582
904.135	831.05835
904.314	719.04176
904.493	725.38156
904.672	735.9481
904.85	769.7628
905.029	723.26828
905.207	769.7628
905.386	664.10102
905.565	773.98982
905.743	723.26828
905.922	710.58885
906.1	623.95701
906.279	786.67111
906.457	638.7464
906.636	687.34425
906.814	592.26753
906.993	659.87514
907.171	598.60519
907.35	653.53639
907.528	463.42832
907.707	623.95701
907.885	609.16823
908.063	545.79493
908.242	533.12172
908.42	573.25523
908.598	478.21043
908.777	558.46863
908.955	478.21043
909.133	647.19775
909.311	471.87515
909.49	505.66485
909.668	499.329
909.846	562.6933
910.024	469.76342
910.202	545.79493
910.38	471.87515
910.559	518.33696
910.737	488.76953
910.915	471.87515
911.093	522.5611
911.271	552.13172
911.449	484.54585
911.627	512.00084
911.805	480.32222
911.983	621.84429
912.161	486.65768
912.339	488.76953
912.517	630.29525
912.695	630.29525
912.872	543.68269
913.05	691.57044
913.228	461.31665
913.406	503.55289
913.584	537.34607
913.762	566.91803
913.939	581.70501
914.117	524.6732
914.295	486.65768
914.473	469.76342
914.65	522.5611
914.828	623.95701
915.006	573.25523
915.184	471.87515
915.361	482.43403
915.539	588.04248
915.716	562.6933
915.894	609.16823
916.072	478.21043
916.249	623.95701
916.427	505.66485
916.604	623.95701
916.782	547.90718
916.959	649.31062
917.137	585.92998
917.314	604.94298
917.492	505.66485
917.669	588.04248
917.847	492.99327
918.024	421.19789
918.201	505.66485
918.379	526.78531
918.556	501.44093
918.733	524.6732
918.911	416.97519
919.088	484.54585
919.265	410.64126
919.442	520.44902
919.62	397.97385
919.797	459.205
919.974	412.75256
920.151	537.34607
920.328	408.52999
920.506	421.19789
920.683	370.52983
920.86	444.42385
921.037	326.20327
921.214	427.53205
921.391	330.42451
921.568	528.89743
921.745	395.86267
921.922	482.43403
922.099	435.97783
922.276	364.197
922.453	370.52983
922.63	469.76342
922.807	364.197
922.984	471.87515
923.161	317.76099
923.338	423.30926
923.514	332.53516
923.691	410.64126
923.868	351.5318
924.045	393.75151
924.222	368.41887
924.399	410.64126
924.575	319.87153
924.752	419.08653
924.929	283.99475
925.105	385.30703
925.282	267.11341
925.459	387.41813
925.635	372.64081
925.812	343.08867
925.989	275.55393
926.165	321.98209
926.342	345.19943
926.518	330.42451
926.695	294.5462
926.871	319.87153
927.048	265.00332
927.224	311.42946
927.401	296.65654
927.577	311.42946
927.754	227.02509
927.93	275.55393
928.107	233.35436
928.283	208.03833
928.459	271.33363
928.636	305.0981
928.812	237.57397
928.988	248.12334
929.165	191.16258
929.341	273.44377
929.517	165.85139
929.693	258.67319
929.87	260.78321
930.046	248.12334
930.222	191.16258
930.398	273.44377
930.574	140.5432
930.751	201.70978
930.927	243.90353
931.103	210.14789
931.279	241.79366
931.455	288.21528
931.631	233.35436
931.807	258.67319
931.983	191.16258
932.159	136.32547
932.335	229.13482
932.511	167.96055
932.687	115.23808
932.863	250.23327
933.039	117.34672
933.215	239.6838
933.391	165.85139
933.566	286.10501
933.742	64.63732
933.918	159.52406
934.094	182.72519
934.27	153.19692
934.445	153.19692
934.621	148.97893
934.797	148.97893
934.973	220.69599
935.148	142.6521
935.324	134.21663
935.5	151.08791
935.675	121.56407
935.851	167.96055
936.027	127.89025
936.202	79.39455
936.378	134.21663
936.553	20.37242
936.729	98.36974
936.904	30.91075
937.08	111.02086
937.255	-0.70246
937.431	81.50281
937.606	73.06989
937.782	115.23808
937.957	117.34672
938.133	100.4782
938.308	68.85356
938.483	94.15287
938.659	96.26129
938.834	115.23808
939.009	60.42118
939.185	35.12624
939.36	-2.80981
939.535	106.80373
939.71	125.7815
939.886	106.80373
940.061	77.2863
940.236	167.96055
940.411	125.7815
940.586	41.44967
940.761	62.52924
940.937	98.36974
941.112	102.58669
941.287	-19.66778
941.462	125.7815
941.637	35.12624
941.812	33.01848
941.987	56.20513
942.162	51.98916
942.337	26.69535
942.512	16.15725
942.687	83.6111
942.862	56.20513
943.037	81.50281
943.212	70.96171
943.386	33.01848
943.561	60.42118
943.736	24.58768
943.911	75.17808
944.086	18.26482
944.26	64.63732
944.435	26.69535
944.61	26.69535
944.785	56.20513
944.959	41.44967
945.134	66.74543
945.309	68.85356
945.483	18.26482
945.658	64.63732
945.833	43.55752
946.007	81.50281
946.182	47.77329
946.357	92.04447
946.531	-19.66778
946.706	-4.91714
946.88	22.48004
947.055	-40.73804
947.229	77.2863
947.404	26.69535
947.578	39.34183
947.752	58.31314
947.927	47.77329
948.101	-0.70246
948.276	51.98916
948.45	30.91075
948.624	5.61975
948.799	14.04971
948.973	43.55752
949.147	5.61975
949.321	11.94218
949.496	-11.23899
949.67	85.71941
949.844	39.34183
950.018	64.63732
950.193	39.34183
950.367	60.42118
950.541	24.58768
950.715	121.56407
950.889	56.20513
951.063	35.12624
951.237	68.85356
951.411	64.63732
951.585	39.34183
951.759	62.52924
951.933	30.91075
952.107	85.71941
952.281	45.6654
952.455	33.01848
952.629	81.50281
952.803	-28.09618
952.977	9.83468
953.151	77.2863
953.325	-28.09618
953.499	14.04971
953.672	64.63732
953.846	54.09713
954.02	51.98916
954.194	26.69535
954.368	45.6654
954.541	16.15725
954.715	43.55752
954.889	-0.70246
955.062	81.50281
955.236	39.34183
955.41	64.63732
955.583	9.83468
955.757	68.85356
955.93	49.88122
956.104	39.34183
956.278	56.20513
956.451	16.15725
956.625	16.15725
956.798	26.69535
956.972	39.34183
957.145	125.7815
957.319	47.77329
957.492	87.82774
957.665	49.88122
957.839	43.55752
958.012	14.04971
958.185	98.36974
958.359	18.26482
958.532	37.23403
958.705	56.20513
958.879	20.37242
959.052	20.37242
959.225	58.31314
959.398	159.52406
959.572	54.09713
959.745	-17.56062
959.918	89.9361
960.091	-38.63112
960.264	22.48004
960.438	47.77329
960.611	14.04971
960.784	49.88122
960.957	64.63732
961.13	9.83468
961.303	-19.66778
961.476	30.91075
961.649	51.98916
961.822	22.48004
961.995	54.09713
962.168	26.69535
962.341	-9.13173
962.514	-17.56062
962.686	28.80304
962.859	22.48004
963.032	-21.77492
963.205	81.50281
963.378	47.77329
963.551	43.55752
963.723	119.45538
963.896	5.61975
964.069	77.2863
964.242	100.4782
964.414	-2.80981
964.587	-0.70246
964.76	26.69535
964.932	60.42118
965.105	89.9361
965.278	56.20513
965.45	37.23403
965.623	81.50281
965.795	49.88122
965.968	14.04971
966.14	39.34183
966.313	5.61975
966.485	37.23403
966.658	16.15725
966.83	56.20513
967.003	58.31314
967.175	47.77329
967.348	26.69535
967.52	24.58768
967.692	24.58768
967.865	47.77329
968.037	14.04971
968.209	51.98916
968.382	-11.23899
968.554	73.06989
968.726	-11.23899
968.898	-19.66778
969.071	64.63732
969.243	94.15287
969.415	47.77329
969.587	43.55752
969.759	77.2863
969.932	24.58768
970.104	-30.20322
970.276	39.34183
970.448	22.48004
970.62	66.74543
970.792	11.94218
970.964	89.9361
971.136	30.91075
971.308	-28.09618
971.48	70.96171
971.652	18.26482
971.824	-0.70246
971.996	22.48004
972.168	14.04971
972.339	20.37242
972.511	98.36974
972.683	49.88122
972.855	-0.70246
973.027	-13.34623
973.199	-0.70246
973.37	-11.23899
973.542	-28.09618
973.714	68.85356
973.886	5.61975
974.057	100.4782
974.229	-11.23899
974.401	60.42118
974.572	70.96171
974.744	43.55752
974.915	51.98916
975.087	35.12624
975.259	7.72721
975.43	81.50281
975.602	-7.02445
975.773	81.50281
975.945	115.23808
976.116	-2.80981
976.288	16.15725
976.459	28.80304
976.63	56.20513
976.802	51.98916
976.973	7.72721
977.145	26.69535
977.316	77.2863
977.487	18.26482
977.659	35.12624
977.83	60.42118
978.001	9.83468
978.172	41.44967
978.344	9.83468
978.515	115.23808
978.686	39.34183
978.857	92.04447
979.028	-11.23899
979.2	5.61975
979.371	111.02086
979.542	58.31314
979.713	39.34183
979.884	66.74543
980.055	22.48004
980.226	33.01848
980.397	5.61975
980.568	9.83468
980.739	49.88122
980.91	39.34183
981.081	-9.13173
981.252	83.6111
981.423	51.98916
981.594	18.26482
981.765	9.83468
981.936	43.55752
982.106	43.55752
982.277	18.26482
982.448	49.88122
982.619	3.51233
982.79	16.15725
982.96	39.34183
983.131	70.96171
983.302	22.48004
983.472	123.67278
983.643	60.42118
983.814	68.85356
983.984	58.31314
984.155	-44.95179
984.326	-25.98912
984.496	35.12624
984.667	26.69535
984.837	-0.70246
985.008	-28.09618
985.178	47.77329
985.349	30.91075
985.519	-7.02445
985.69	-11.23899
985.86	39.34183
986.031	-51.27223
986.201	81.50281
986.371	39.34183
986.542	51.98916
986.712	49.88122
986.882	41.44967
987.053	49.88122
987.223	16.15725
987.393	87.82774
987.563	9.83468
987.734	87.82774
987.904	73.06989
988.074	-2.80981
988.244	7.72721
988.414	39.34183
988.585	37.23403
988.755	11.94218
988.925	54.09713
989.095	47.77329
989.265	58.31314
989.435	81.50281
989.605	18.26482
989.775	89.9361
989.945	39.34183
990.115	47.77329
990.285	-2.80981
990.455	56.20513
990.625	1.40492
990.795	-0.70246
990.965	33.01848
991.134	43.55752
991.304	56.20513
991.474	-11.23899
991.644	58.31314
991.814	89.9361
991.984	94.15287
992.153	33.01848
992.323	14.04971
992.493	-2.80981
992.662	47.77329
992.832	47.77329
993.002	-15.45344
993.171	22.48004
993.341	-23.88203
993.511	66.74543
993.68	66.74543
993.85	16.15725
994.019	-2.80981
994.189	26.69535
994.358	39.34183
994.528	-2.80981
994.697	-9.13173
994.867	33.01848
995.036	30.91075
995.206	41.44967
995.375	-0.70246
995.544	22.48004
995.714	45.6654
995.883	22.48004
996.052	-25.98912
996.222	83.6111
996.391	16.15725
996.56	108.91229
996.73	-19.66778
996.899	64.63732
997.068	60.42118
997.237	-13.34623
997.406	22.48004
997.576	22.48004
997.745	9.83468
997.914	89.9361
998.083	66.74543
998.252	9.83468
998.421	-34.41722
998.59	14.04971
998.759	5.61975
998.928	30.91075
999.097	-66.01904
999.266	-28.09618
999.435	11.94218
999.604	37.23403
999.773	30.91075
999.942	24.58768
1000.111	37.23403
1000.28	41.44967
1000.448	3.51233
1000.617	33.01848
1000.786	22.48004
1000.955	26.69535
1001.124	7.72721
1001.292	24.58768
1001.461	-25.98912
1001.63	-21.77492
1001.798	-4.91714
1001.967	58.31314
1002.136	-30.20322
1002.304	7.72721
1002.473	49.88122
1002.642	73.06989
1002.81	9.83468
1002.979	-32.31023
1003.147	-15.45344
1003.316	58.31314
1003.484	30.91075
1003.653	18.26482
1003.821	26.69535
1003.99	70.96171
1004.158	7.72721
1004.327	18.26482
1004.495	7.72721
1004.663	16.15725
1004.832	-13.34623
1005	-4.91714
1005.168	16.15725
1005.337	73.06989
1005.505	-17.56062
1005.673	49.88122
1005.842	-19.66778
1006.01	-17.56062
1006.178	66.74543
1006.346	73.06989
1006.514	45.6654
1006.683	14.04971
1006.851	41.44967
1007.019	-19.66778
1007.187	-9.13173
1007.355	-2.80981
1007.523	-87.08375
1007.691	9.83468
1007.859	-28.09618
1008.027	22.48004
1008.195	20.37242
1008.363	37.23403
1008.531	5.61975
1008.699	30.91075
1008.867	30.91075
1009.035	-15.45344
1009.203	-17.56062
1009.37	14.04971
1009.538	5.61975
1009.706	39.34183
1009.874	-78.65817
1010.042	49.88122
1010.209	30.91075
1010.377	18.26482
1010.545	5.61975
1010.713	56.20513
1010.88	54.09713
1011.048	54.09713
1011.216	-0.70246
1011.383	9.83468
1011.551	5.61975
1011.718	-44.95179
1011.886	68.85356
1012.054	51.98916
1012.221	18.26482
1012.389	37.23403
1012.556	5.61975
1012.724	56.20513
1012.891	14.04971
1013.058	-2.80981
1013.226	-0.70246
1013.393	24.58768
1013.561	-19.66778
1013.728	-19.66778
1013.895	43.55752
1014.063	20.37242
1014.23	39.34183
1014.397	24.58768
1014.565	-49.16544
1014.732	14.04971
1014.899	-9.13173
1015.066	16.15725
1015.233	-0.70246
1015.401	3.51233
1015.568	-9.13173
1015.735	-36.52418
1015.902	26.69535
1016.069	18.26482
1016.236	-32.31023
1016.403	-9.13173
1016.57	47.77329
1016.737	-11.23899
1016.904	24.58768
1017.071	-28.09618
1017.238	5.61975
1017.405	35.12624
1017.572	39.34183
1017.739	41.44967
1017.906	16.15725
1018.073	39.34183
1018.24	14.04971
1018.407	5.61975
1018.573	24.58768
1018.74	56.20513
1018.907	-13.34623
1019.074	1.40492
1019.241	-17.56062
1019.407	98.36974
1019.574	60.42118
1019.741	64.63732
1019.907	20.37242
1020.074	-70.23219
1020.241	-17.56062
1020.407	73.06989
1020.574	-2.80981
1020.74	16.15725
1020.907	-23.88203
1021.073	-25.98912
1021.24	-0.70246
1021.406	-2.80981
1021.573	-15.45344
1021.739	16.15725
1021.906	1.40492
1022.072	-49.16544
1022.239	-0.70246
1022.405	30.91075
1022.571	30.91075
1022.738	7.72721
1022.904	26.69535
1023.07	-84.97739
1023.237	5.61975
1023.403	49.88122
1023.569	-11.23899
1023.735	-21.77492
1023.902	1.40492
1024.068	45.6654
1024.234	-53.37899
1024.4	-2.80981
1024.566	-70.23219
1024.732	73.06989
1024.898	-2.80981
1025.065	33.01848
1025.231	-23.88203
1025.397	7.72721
1025.563	33.01848
1025.729	22.48004
1025.895	35.12624
1026.061	-2.80981
1026.227	100.4782
1026.392	5.61975
1026.558	-0.70246
1026.724	47.77329
1026.89	75.17808
1027.056	5.61975
1027.222	-51.27223
1027.388	49.88122
1027.553	-21.77492
1027.719	-47.05863
1027.885	7.72721
1028.051	9.83468
1028.216	-36.52418
1028.382	81.50281
1028.548	-28.09618
1028.713	7.72721
1028.879	5.61975
1029.045	7.72721
1029.21	51.98916
1029.376	-7.02445
1029.541	47.77329
1029.707	9.83468
1029.873	60.42118
1030.038	37.23403
1030.204	41.44967
1030.369	-32.31023
1030.534	14.04971
1030.7	-11.23899
1030.865	1.40492
1031.031	22.48004
1031.196	24.58768
1031.361	-51.27223
1031.527	60.42118
1031.692	30.91075
1031.857	5.61975
1032.023	39.34183
1032.188	-19.66778
1032.353	-91.29638
1032.518	16.15725
1032.684	-44.95179
1032.849	24.58768
1033.014	26.69535
1033.179	-49.16544
1033.344	-70.23219
1033.509	5.61975
1033.674	-7.02445
1033.839	14.04971
1034.004	35.12624
1034.17	56.20513
1034.335	-19.66778
1034.5	24.58768
1034.664	26.69535
1034.829	-15.45344
1034.994	-13.34623
1035.159	30.91075
1035.324	39.34183
1035.489	60.42118
1035.654	41.44967
1035.819	7.72721
1035.984	30.91075
1036.148	16.15725
1036.313	-2.80981
1036.478	41.44967
1036.643	64.63732
1036.807	30.91075
1036.972	-38.63112
1037.137	16.15725
1037.301	-32.31023
1037.466	64.63732
1037.631	79.39455
1037.795	1.40492
1037.96	43.55752
1038.124	-28.09618
1038.289	-7.02445
1038.454	43.55752
1038.618	28.80304
1038.783	-2.80981
1038.947	14.04971
1039.111	22.48004
1039.276	35.12624
1039.44	43.55752
1039.605	28.80304
1039.769	28.80304
1039.933	39.34183
1040.098	-0.70246
1040.262	-4.91714
1040.426	5.61975
1040.591	9.83468
1040.755	108.91229
1040.919	-19.66778
1041.083	45.6654
1041.248	39.34183
1041.412	-21.77492
1041.576	33.01848
1041.74	-0.70246
1041.904	39.34183
1042.068	39.34183
1042.232	-17.56062
1042.397	9.83468
1042.561	22.48004
1042.725	-91.29638
1042.889	22.48004
1043.053	-11.23899
1043.217	-0.70246
1043.381	24.58768
1043.544	-2.80981
1043.708	9.83468
1043.872	24.58768
1044.036	3.51233
1044.2	-28.09618
1044.364	22.48004
1044.528	51.98916
1044.691	-40.73804
1044.855	47.77329
1045.019	-11.23899
1045.183	64.63732
1045.346	-44.95179
1045.51	-59.69913
1045.674	35.12624
1045.837	-44.95179
1046.001	81.50281
1046.165	-59.69913
1046.328	41.44967
1046.492	14.04971
1046.655	-0.70246
1046.819	58.31314
1046.983	-19.66778
1047.146	30.91075
1047.31	41.44967
1047.473	-15.45344
1047.636	11.94218
1047.8	47.77329
1047.963	16.15725
1048.127	37.23403
1048.29	14.04971
